#X		#Y		#Wave		#Intensity
20405.585372	-1209.487667	1999.980469	-76.975189
20405.585372	-1209.487667	1999.016602	-133.895020
20405.585372	-1209.487667	1998.052734	-43.884518
20405.585372	-1209.487667	1997.087891	-21.017452
20405.585372	-1209.487667	1996.123047	-80.121483
20405.585372	-1209.487667	1995.158203	83.552887
20405.585372	-1209.487667	1994.193359	-40.324081
20405.585372	-1209.487667	1993.228516	41.197021
20405.585372	-1209.487667	1992.262695	95.282036
20405.585372	-1209.487667	1991.297852	-100.839264
20405.585372	-1209.487667	1990.332031	12.316653
20405.585372	-1209.487667	1989.366211	51.037830
20405.585372	-1209.487667	1988.399414	-1.942665
20405.585372	-1209.487667	1987.433594	-40.213573
20405.585372	-1209.487667	1986.466797	49.990105
20405.585372	-1209.487667	1985.500977	142.492096
20405.585372	-1209.487667	1984.534180	-34.635807
20405.585372	-1209.487667	1983.567383	0.740392
20405.585372	-1209.487667	1982.599609	-127.120407
20405.585372	-1209.487667	1981.632813	-47.509090
20405.585372	-1209.487667	1980.665039	-44.618988
20405.585372	-1209.487667	1979.697266	69.303108
20405.585372	-1209.487667	1978.729492	-58.924988
20405.585372	-1209.487667	1977.761719	-36.601799
20405.585372	-1209.487667	1976.792969	-88.436493
20405.585372	-1209.487667	1975.825195	138.539520
20405.585372	-1209.487667	1974.856445	135.858551
20405.585372	-1209.487667	1973.887695	2.335387
20405.585372	-1209.487667	1972.918945	-10.355356
20405.585372	-1209.487667	1971.949219	-5.855404
20405.585372	-1209.487667	1970.980469	218.018082
20405.585372	-1209.487667	1970.010742	39.895725
20405.585372	-1209.487667	1969.041016	51.561985
20405.585372	-1209.487667	1968.071289	95.194923
20405.585372	-1209.487667	1967.101563	84.543808
20405.585372	-1209.487667	1966.130859	78.763824
20405.585372	-1209.487667	1965.161133	90.170898
20405.585372	-1209.487667	1964.190430	37.493961
20405.585372	-1209.487667	1963.219727	107.890388
20405.585372	-1209.487667	1962.249023	-131.952499
20405.585372	-1209.487667	1961.277344	68.798538
20405.585372	-1209.487667	1960.306641	-75.068802
20405.585372	-1209.487667	1959.334961	-73.766907
20405.585372	-1209.487667	1958.363281	-89.722527
20405.585372	-1209.487667	1957.391602	95.957314
20405.585372	-1209.487667	1956.419922	45.481926
20405.585372	-1209.487667	1955.447266	36.788368
20405.585372	-1209.487667	1954.474609	104.265160
20405.585372	-1209.487667	1953.501953	53.729794
20405.585372	-1209.487667	1952.529297	-60.694637
20405.585372	-1209.487667	1951.556641	141.799454
20405.585372	-1209.487667	1950.583984	83.847717
20405.585372	-1209.487667	1949.610352	-91.975662
20405.585372	-1209.487667	1948.636719	122.629700
20405.585372	-1209.487667	1947.663086	-6.528872
20405.585372	-1209.487667	1946.689453	50.873463
20405.585372	-1209.487667	1945.715820	113.148781
20405.585372	-1209.487667	1944.741211	-1.254106
20405.585372	-1209.487667	1943.767578	-73.925728
20405.585372	-1209.487667	1942.792969	-46.026726
20405.585372	-1209.487667	1941.818359	-89.255074
20405.585372	-1209.487667	1940.842773	-120.215950
20405.585372	-1209.487667	1939.868164	209.143509
20405.585372	-1209.487667	1938.892578	116.862579
20405.585372	-1209.487667	1937.916992	44.215744
20405.585372	-1209.487667	1936.941406	45.084885
20405.585372	-1209.487667	1935.965820	-108.351295
20405.585372	-1209.487667	1934.990234	41.923737
20405.585372	-1209.487667	1934.013672	-165.318604
20405.585372	-1209.487667	1933.037109	-127.690826
20405.585372	-1209.487667	1932.060547	-75.389412
20405.585372	-1209.487667	1931.083984	96.798279
20405.585372	-1209.487667	1930.107422	36.503769
20405.585372	-1209.487667	1929.129883	27.603716
20405.585372	-1209.487667	1928.153320	109.200180
20405.585372	-1209.487667	1927.175781	-7.287262
20405.585372	-1209.487667	1926.198242	-21.046625
20405.585372	-1209.487667	1925.219727	60.531010
20405.585372	-1209.487667	1924.242188	-60.750362
20405.585372	-1209.487667	1923.263672	-13.388265
20405.585372	-1209.487667	1922.285156	-168.796494
20405.585372	-1209.487667	1921.306641	-38.373199
20405.585372	-1209.487667	1920.328125	-64.278275
20405.585372	-1209.487667	1919.349609	51.444561
20405.585372	-1209.487667	1918.370117	113.429405
20405.585372	-1209.487667	1917.391602	-7.648055
20405.585372	-1209.487667	1916.412109	-45.705410
20405.585372	-1209.487667	1915.431641	16.289679
20405.585372	-1209.487667	1914.452148	9.969764
20405.585372	-1209.487667	1913.472656	-23.164989
20405.585372	-1209.487667	1912.492188	-27.017729
20405.585372	-1209.487667	1911.511719	44.715042
20405.585372	-1209.487667	1910.531250	9.181681
20405.585372	-1209.487667	1909.550781	10.225837
20405.585372	-1209.487667	1908.569336	-176.335022
20405.585372	-1209.487667	1907.588867	143.885223
20405.585372	-1209.487667	1906.607422	-69.405144
20405.585372	-1209.487667	1905.625977	-153.544464
20405.585372	-1209.487667	1904.644531	-72.083755
20405.585372	-1209.487667	1903.662109	23.959396
20405.585372	-1209.487667	1902.680664	93.201378
20405.585372	-1209.487667	1901.698242	157.558411
20405.585372	-1209.487667	1900.715820	27.267216
20405.585372	-1209.487667	1899.733398	-8.103246
20405.585372	-1209.487667	1898.750000	-84.799149
20405.585372	-1209.487667	1897.767578	18.472467
20405.585372	-1209.487667	1896.784180	-2.274557
20405.585372	-1209.487667	1895.800781	52.340874
20405.585372	-1209.487667	1894.817383	-21.859436
20405.585372	-1209.487667	1893.833984	-49.863274
20405.585372	-1209.487667	1892.850586	-133.725830
20405.585372	-1209.487667	1891.866211	-57.253918
20405.585372	-1209.487667	1890.881836	174.606277
20405.585372	-1209.487667	1889.897461	-103.475876
20405.585372	-1209.487667	1888.913086	-128.998978
20405.585372	-1209.487667	1887.927734	-8.893950
20405.585372	-1209.487667	1886.943359	-102.368103
20405.585372	-1209.487667	1885.958008	-42.964355
20405.585372	-1209.487667	1884.972656	30.968681
20405.585372	-1209.487667	1883.987305	-239.501266
20405.585372	-1209.487667	1883.001953	-44.327980
20405.585372	-1209.487667	1882.015625	-224.990311
20405.585372	-1209.487667	1881.029297	76.747070
20405.585372	-1209.487667	1880.042969	138.455750
20405.585372	-1209.487667	1879.056641	66.877197
20405.585372	-1209.487667	1878.070313	-147.605484
20405.585372	-1209.487667	1877.083984	136.915192
20405.585372	-1209.487667	1876.096680	7.240561
20405.585372	-1209.487667	1875.109375	-32.815002
20405.585372	-1209.487667	1874.122070	-261.672150
20405.585372	-1209.487667	1873.134766	-163.731049
20405.585372	-1209.487667	1872.146484	-106.971687
20405.585372	-1209.487667	1871.159180	-195.401215
20405.585372	-1209.487667	1870.170898	-136.261093
20405.585372	-1209.487667	1869.182617	121.147835
20405.585372	-1209.487667	1868.194336	250.298416
20405.585372	-1209.487667	1867.205078	149.729126
20405.585372	-1209.487667	1866.216797	-16.076841
20405.585372	-1209.487667	1865.227539	18.735546
20405.585372	-1209.487667	1864.238281	126.001244
20405.585372	-1209.487667	1863.249023	-27.678989
20405.585372	-1209.487667	1862.259766	79.519241
20405.585372	-1209.487667	1861.269531	85.238770
20405.585372	-1209.487667	1860.279297	156.122223
20405.585372	-1209.487667	1859.290039	67.646271
20405.585372	-1209.487667	1858.298828	-18.405567
20405.585372	-1209.487667	1857.308594	173.038010
20405.585372	-1209.487667	1856.318359	142.439133
20405.585372	-1209.487667	1855.327148	-119.724533
20405.585372	-1209.487667	1854.335938	158.372345
20405.585372	-1209.487667	1853.344727	93.963348
20405.585372	-1209.487667	1852.353516	70.532997
20405.585372	-1209.487667	1851.362305	-34.863842
20405.585372	-1209.487667	1850.370117	103.135117
20405.585372	-1209.487667	1849.377930	72.403206
20405.585372	-1209.487667	1848.385742	24.790199
20405.585372	-1209.487667	1847.393555	-22.836540
20405.585372	-1209.487667	1846.401367	11.393276
20405.585372	-1209.487667	1845.408203	132.247070
20405.585372	-1209.487667	1844.415039	72.494820
20405.585372	-1209.487667	1843.421875	27.169909
20405.585372	-1209.487667	1842.428711	-25.391548
20405.585372	-1209.487667	1841.435547	59.154392
20405.585372	-1209.487667	1840.441406	78.690231
20405.585372	-1209.487667	1839.448242	28.443699
20405.585372	-1209.487667	1838.454102	-62.695419
20405.585372	-1209.487667	1837.459961	281.257965
20405.585372	-1209.487667	1836.464844	-40.700516
20405.585372	-1209.487667	1835.470703	-45.389679
20405.585372	-1209.487667	1834.475586	120.458885
20405.585372	-1209.487667	1833.480469	101.245476
20405.585372	-1209.487667	1832.485352	120.421478
20405.585372	-1209.487667	1831.490234	50.704914
20405.585372	-1209.487667	1830.495117	50.589199
20405.585372	-1209.487667	1829.499023	-136.790619
20405.585372	-1209.487667	1828.502930	141.412277
20405.585372	-1209.487667	1827.506836	102.750893
20405.585372	-1209.487667	1826.510742	143.220612
20405.585372	-1209.487667	1825.513672	104.476845
20405.585372	-1209.487667	1824.517578	223.966415
20405.585372	-1209.487667	1823.520508	77.235184
20405.585372	-1209.487667	1822.523438	4.817766
20405.585372	-1209.487667	1821.526367	-48.449577
20405.585372	-1209.487667	1820.529297	-8.298948
20405.585372	-1209.487667	1819.531250	0.637705
20405.585372	-1209.487667	1818.533203	-21.619408
20405.585372	-1209.487667	1817.535156	135.687866
20405.585372	-1209.487667	1816.537109	29.502279
20405.585372	-1209.487667	1815.539063	64.542931
20405.585372	-1209.487667	1814.540039	-79.997139
20405.585372	-1209.487667	1813.541992	24.334980
20405.585372	-1209.487667	1812.542969	-29.339716
20405.585372	-1209.487667	1811.543945	3.063867
20405.585372	-1209.487667	1810.543945	18.653614
20405.585372	-1209.487667	1809.544922	132.219833
20405.585372	-1209.487667	1808.544922	92.674126
20405.585372	-1209.487667	1807.544922	-37.748741
20405.585372	-1209.487667	1806.544922	-27.181116
20405.585372	-1209.487667	1805.544922	-62.078598
20405.585372	-1209.487667	1804.544922	-151.969025
20405.585372	-1209.487667	1803.543945	-127.242905
20405.585372	-1209.487667	1802.542969	-214.826263
20405.585372	-1209.487667	1801.541992	46.146660
20405.585372	-1209.487667	1800.541016	-86.919342
20405.585372	-1209.487667	1799.539063	-48.160065
20405.585372	-1209.487667	1798.538086	11.997441
20405.585372	-1209.487667	1797.536133	-59.153580
20405.585372	-1209.487667	1796.534180	-27.774076
20405.585372	-1209.487667	1795.532227	129.925583
20405.585372	-1209.487667	1794.529297	-3.403552
20405.585372	-1209.487667	1793.527344	135.026016
20405.585372	-1209.487667	1792.524414	51.666153
20405.585372	-1209.487667	1791.521484	-134.202332
20405.585372	-1209.487667	1790.518555	-177.111023
20405.585372	-1209.487667	1789.514648	156.305695
20405.585372	-1209.487667	1788.511719	46.531353
20405.585372	-1209.487667	1787.507813	-179.954483
20405.585372	-1209.487667	1786.503906	-89.777809
20405.585372	-1209.487667	1785.500000	-52.072723
20405.585372	-1209.487667	1784.496094	109.303093
20405.585372	-1209.487667	1783.491211	213.435638
20405.585372	-1209.487667	1782.486328	231.814423
20405.585372	-1209.487667	1781.481445	-13.905498
20405.585372	-1209.487667	1780.476563	44.794201
20405.585372	-1209.487667	1779.471680	-53.526154
20405.585372	-1209.487667	1778.465820	-40.156815
20405.585372	-1209.487667	1777.460938	63.455708
20405.585372	-1209.487667	1776.455078	88.534760
20405.585372	-1209.487667	1775.449219	111.155403
20405.585372	-1209.487667	1774.442383	-11.208217
20405.585372	-1209.487667	1773.436523	-26.722702
20405.585372	-1209.487667	1772.429688	-18.563643
20405.585372	-1209.487667	1771.422852	-19.977932
20405.585372	-1209.487667	1770.416016	59.236473
20405.585372	-1209.487667	1769.409180	88.511124
20405.585372	-1209.487667	1768.402344	165.155518
20405.585372	-1209.487667	1767.394531	42.422703
20405.585372	-1209.487667	1766.386719	92.803513
20405.585372	-1209.487667	1765.378906	26.894577
20405.585372	-1209.487667	1764.371094	5.982978
20405.585372	-1209.487667	1763.362305	-10.258531
20405.585372	-1209.487667	1762.354492	39.796116
20405.585372	-1209.487667	1761.345703	-76.116005
20405.585372	-1209.487667	1760.336914	37.742516
20405.585372	-1209.487667	1759.328125	-75.905640
20405.585372	-1209.487667	1758.318359	-123.280579
20405.585372	-1209.487667	1757.308594	49.485229
20405.585372	-1209.487667	1756.299805	-33.548977
20405.585372	-1209.487667	1755.290039	58.513264
20405.585372	-1209.487667	1754.279297	79.468712
20405.585372	-1209.487667	1753.269531	19.905743
20405.585372	-1209.487667	1752.258789	47.808327
20405.585372	-1209.487667	1751.249023	68.535645
20405.585372	-1209.487667	1750.238281	127.008926
20405.585372	-1209.487667	1749.226563	104.998611
20405.585372	-1209.487667	1748.215820	78.201256
20405.585372	-1209.487667	1747.204102	8.796494
20405.585372	-1209.487667	1746.193359	161.450882
20405.585372	-1209.487667	1745.181641	278.532288
20405.585372	-1209.487667	1744.168945	74.274132
20405.585372	-1209.487667	1743.157227	47.134411
20405.585372	-1209.487667	1742.144531	69.505051
20405.585372	-1209.487667	1741.132813	101.242798
20405.585372	-1209.487667	1740.120117	14.884815
20405.585372	-1209.487667	1739.106445	39.383324
20405.585372	-1209.487667	1738.093750	134.581848
20405.585372	-1209.487667	1737.080078	-46.306072
20405.585372	-1209.487667	1736.067383	32.220615
20405.585372	-1209.487667	1735.053711	70.555878
20405.585372	-1209.487667	1734.040039	54.584724
20405.585372	-1209.487667	1733.025391	-3.882146
20405.585372	-1209.487667	1732.011719	43.650040
20405.585372	-1209.487667	1730.997070	-10.223073
20405.585372	-1209.487667	1729.982422	-28.811491
20405.585372	-1209.487667	1728.967773	-75.724213
20405.585372	-1209.487667	1727.952148	-12.025796
20405.585372	-1209.487667	1726.937500	30.397390
20405.585372	-1209.487667	1725.921875	-23.776594
20405.585372	-1209.487667	1724.906250	136.154343
20405.585372	-1209.487667	1723.890625	-47.563274
20405.585372	-1209.487667	1722.875000	43.954781
20405.585372	-1209.487667	1721.858398	83.620193
20405.585372	-1209.487667	1720.841797	90.280861
20405.585372	-1209.487667	1719.825195	-58.297134
20405.585372	-1209.487667	1718.808594	7.021463
20405.585372	-1209.487667	1717.791992	-82.862473
20405.585372	-1209.487667	1716.774414	-52.948635
20405.585372	-1209.487667	1715.756836	-18.412220
20405.585372	-1209.487667	1714.739258	9.000218
20405.585372	-1209.487667	1713.721680	-153.880707
20405.585372	-1209.487667	1712.704102	98.820518
20405.585372	-1209.487667	1711.685547	22.707504
20405.585372	-1209.487667	1710.667969	26.368605
20405.585372	-1209.487667	1709.649414	-7.587252
20405.585372	-1209.487667	1708.630859	-20.476397
20405.585372	-1209.487667	1707.611328	20.521366
20405.585372	-1209.487667	1706.592773	-151.964096
20405.585372	-1209.487667	1705.573242	-43.079159
20405.585372	-1209.487667	1704.553711	-72.609612
20405.585372	-1209.487667	1703.534180	-233.444489
20405.585372	-1209.487667	1702.513672	-68.547989
20405.585372	-1209.487667	1701.494141	-161.490860
20405.585372	-1209.487667	1700.473633	-36.609402
20405.585372	-1209.487667	1699.453125	8.538438
20405.585372	-1209.487667	1698.432617	-302.314270
20405.585372	-1209.487667	1697.412109	-168.278183
20405.585372	-1209.487667	1696.390625	99.063103
20405.585372	-1209.487667	1695.369141	-17.556152
20405.585372	-1209.487667	1694.347656	-155.242676
20405.585372	-1209.487667	1693.326172	-133.850281
20405.585372	-1209.487667	1692.304688	-79.772797
20405.585372	-1209.487667	1691.282227	-25.777584
20405.585372	-1209.487667	1690.260742	-46.659847
20405.585372	-1209.487667	1689.238281	-65.255852
20405.585372	-1209.487667	1688.214844	-186.736877
20405.585372	-1209.487667	1687.192383	37.618767
20405.585372	-1209.487667	1686.168945	-107.292999
20405.585372	-1209.487667	1685.146484	100.516289
20405.585372	-1209.487667	1684.123047	-156.541000
20405.585372	-1209.487667	1683.099609	177.180176
20405.585372	-1209.487667	1682.075195	-23.866207
20405.585372	-1209.487667	1681.051758	-42.818279
20405.585372	-1209.487667	1680.027344	75.862015
20405.585372	-1209.487667	1679.002930	185.121643
20405.585372	-1209.487667	1677.978516	89.025856
20405.585372	-1209.487667	1676.953125	-60.723454
20405.585372	-1209.487667	1675.928711	-9.916392
20405.585372	-1209.487667	1674.903320	64.135170
20405.585372	-1209.487667	1673.877930	177.742661
20405.585372	-1209.487667	1672.852539	48.909836
20405.585372	-1209.487667	1671.826172	292.868713
20405.585372	-1209.487667	1670.800781	152.342270
20405.585372	-1209.487667	1669.774414	212.121811
20405.585372	-1209.487667	1668.748047	120.484802
20405.585372	-1209.487667	1667.721680	231.397903
20405.585372	-1209.487667	1666.694336	302.654541
20405.585372	-1209.487667	1665.667969	371.534637
20405.585372	-1209.487667	1664.640625	219.301895
20405.585372	-1209.487667	1663.613281	488.164612
20405.585372	-1209.487667	1662.585938	373.121674
20405.585372	-1209.487667	1661.557617	330.173492
20405.585372	-1209.487667	1660.530273	319.773010
20405.585372	-1209.487667	1659.501953	304.690674
20405.585372	-1209.487667	1658.473633	528.970764
20405.585372	-1209.487667	1657.444336	460.347961
20405.585372	-1209.487667	1656.416016	496.281342
20405.585372	-1209.487667	1655.386719	492.679779
20405.585372	-1209.487667	1654.358398	672.529785
20405.585372	-1209.487667	1653.328125	759.393738
20405.585372	-1209.487667	1652.298828	741.749146
20405.585372	-1209.487667	1651.269531	751.943909
20405.585372	-1209.487667	1650.239258	922.219360
20405.585372	-1209.487667	1649.208984	1108.650391
20405.585372	-1209.487667	1648.178711	914.576721
20405.585372	-1209.487667	1647.148438	1038.286377
20405.585372	-1209.487667	1646.117188	1229.163452
20405.585372	-1209.487667	1645.086914	1178.864380
20405.585372	-1209.487667	1644.055664	1501.727539
20405.585372	-1209.487667	1643.024414	1534.782104
20405.585372	-1209.487667	1641.992188	1514.512329
20405.585372	-1209.487667	1640.960938	1413.173706
20405.585372	-1209.487667	1639.928711	1436.919067
20405.585372	-1209.487667	1638.896484	1453.698120
20405.585372	-1209.487667	1637.864258	1502.873169
20405.585372	-1209.487667	1636.832031	1521.931519
20405.585372	-1209.487667	1635.798828	1485.425049
20405.585372	-1209.487667	1634.766602	1610.900146
20405.585372	-1209.487667	1633.733398	1389.313232
20405.585372	-1209.487667	1632.699219	1489.287354
20405.585372	-1209.487667	1631.666016	1813.534912
20405.585372	-1209.487667	1630.632813	1404.759033
20405.585372	-1209.487667	1629.598633	1379.843018
20405.585372	-1209.487667	1628.564453	1470.490356
20405.585372	-1209.487667	1627.530273	1318.488403
20405.585372	-1209.487667	1626.495117	1342.108521
20405.585372	-1209.487667	1625.460938	1497.388550
20405.585372	-1209.487667	1624.425781	1421.671631
20405.585372	-1209.487667	1623.390625	1417.563721
20405.585372	-1209.487667	1622.355469	1478.096313
20405.585372	-1209.487667	1621.319336	1815.553589
20405.585372	-1209.487667	1620.284180	1767.548218
20405.585372	-1209.487667	1619.248047	1768.005737
20405.585372	-1209.487667	1618.211914	1969.145386
20405.585372	-1209.487667	1617.174805	2073.349121
20405.585372	-1209.487667	1616.138672	1974.632202
20405.585372	-1209.487667	1615.101563	2267.846680
20405.585372	-1209.487667	1614.065430	2192.202393
20405.585372	-1209.487667	1613.027344	2280.189209
20405.585372	-1209.487667	1611.990234	2250.667969
20405.585372	-1209.487667	1610.953125	2248.815674
20405.585372	-1209.487667	1609.915039	2385.149414
20405.585372	-1209.487667	1608.876953	2090.870850
20405.585372	-1209.487667	1607.838867	2119.019043
20405.585372	-1209.487667	1606.800781	2227.733398
20405.585372	-1209.487667	1605.761719	2163.824951
20405.585372	-1209.487667	1604.723633	2265.626709
20405.585372	-1209.487667	1603.684570	2227.081787
20405.585372	-1209.487667	1602.644531	1914.881958
20405.585372	-1209.487667	1601.605469	2281.162354
20405.585372	-1209.487667	1600.566406	1895.565308
20405.585372	-1209.487667	1599.526367	2179.001221
20405.585372	-1209.487667	1598.486328	1938.393555
20405.585372	-1209.487667	1597.446289	2083.906982
20405.585372	-1209.487667	1596.405273	1905.481934
20405.585372	-1209.487667	1595.365234	1936.166260
20405.585372	-1209.487667	1594.324219	1771.675415
20405.585372	-1209.487667	1593.283203	1944.765381
20405.585372	-1209.487667	1592.242188	2115.523926
20405.585372	-1209.487667	1591.200195	1831.844482
20405.585372	-1209.487667	1590.159180	1924.612671
20405.585372	-1209.487667	1589.117188	1739.792358
20405.585372	-1209.487667	1588.075195	1777.556030
20405.585372	-1209.487667	1587.032227	1925.402100
20405.585372	-1209.487667	1585.990234	1768.310303
20405.585372	-1209.487667	1584.947266	1661.738037
20405.585372	-1209.487667	1583.904297	1674.417358
20405.585372	-1209.487667	1582.861328	1799.407715
20405.585372	-1209.487667	1581.818359	1569.302734
20405.585372	-1209.487667	1580.775391	1682.893311
20405.585372	-1209.487667	1579.731445	1521.674683
20405.585372	-1209.487667	1578.687500	1655.911987
20405.585372	-1209.487667	1577.643555	1471.957642
20405.585372	-1209.487667	1576.598633	1720.663696
20405.585372	-1209.487667	1575.554688	1655.843994
20405.585372	-1209.487667	1574.509766	1835.876831
20405.585372	-1209.487667	1573.464844	1887.796387
20405.585372	-1209.487667	1572.419922	1942.031250
20405.585372	-1209.487667	1571.374023	2062.588867
20405.585372	-1209.487667	1570.329102	1565.951660
20405.585372	-1209.487667	1569.283203	1652.353760
20405.585372	-1209.487667	1568.237305	1795.899414
20405.585372	-1209.487667	1567.191406	1619.595337
20405.585372	-1209.487667	1566.144531	1447.973633
20405.585372	-1209.487667	1565.098633	1429.488892
20405.585372	-1209.487667	1564.051758	1278.628418
20405.585372	-1209.487667	1563.004883	1563.899902
20405.585372	-1209.487667	1561.957031	1600.328491
20405.585372	-1209.487667	1560.910156	1360.695801
20405.585372	-1209.487667	1559.862305	1502.212036
20405.585372	-1209.487667	1558.814453	1379.131592
20405.585372	-1209.487667	1557.766602	1397.553833
20405.585372	-1209.487667	1556.718750	1365.866089
20405.585372	-1209.487667	1555.669922	1243.055054
20405.585372	-1209.487667	1554.621094	1526.056396
20405.585372	-1209.487667	1553.573242	1341.866211
20405.585372	-1209.487667	1552.523438	1121.341797
20405.585372	-1209.487667	1551.474609	1285.936768
20405.585372	-1209.487667	1550.424805	1017.810669
20405.585372	-1209.487667	1549.375000	1057.248413
20405.585372	-1209.487667	1548.325195	1126.329834
20405.585372	-1209.487667	1547.275391	1115.787842
20405.585372	-1209.487667	1546.225586	1228.201172
20405.585372	-1209.487667	1545.174805	1336.078735
20405.585372	-1209.487667	1544.124023	1102.770508
20405.585372	-1209.487667	1543.073242	1163.006592
20405.585372	-1209.487667	1542.022461	1221.015015
20405.585372	-1209.487667	1540.970703	1331.350830
20405.585372	-1209.487667	1539.919922	1196.241821
20405.585372	-1209.487667	1538.868164	1411.216309
20405.585372	-1209.487667	1537.815430	1503.479248
20405.585372	-1209.487667	1536.763672	1461.760010
20405.585372	-1209.487667	1535.710938	1576.834229
20405.585372	-1209.487667	1534.659180	1637.445801
20405.585372	-1209.487667	1533.606445	1534.641235
20405.585372	-1209.487667	1532.552734	1509.119385
20405.585372	-1209.487667	1531.500000	1404.262451
20405.585372	-1209.487667	1530.446289	1426.574219
20405.585372	-1209.487667	1529.393555	1532.895508
20405.585372	-1209.487667	1528.338867	1326.250366
20405.585372	-1209.487667	1527.285156	1355.599243
20405.585372	-1209.487667	1526.231445	1190.041382
20405.585372	-1209.487667	1525.176758	1249.022461
20405.585372	-1209.487667	1524.122070	1181.150757
20405.585372	-1209.487667	1523.067383	1172.295776
20405.585372	-1209.487667	1522.012695	898.480652
20405.585372	-1209.487667	1520.957031	842.276978
20405.585372	-1209.487667	1519.901367	645.783020
20405.585372	-1209.487667	1518.845703	671.318542
20405.585372	-1209.487667	1517.790039	552.059753
20405.585372	-1209.487667	1516.734375	595.874268
20405.585372	-1209.487667	1515.677734	707.629089
20405.585372	-1209.487667	1514.621094	663.330200
20405.585372	-1209.487667	1513.564453	843.047363
20405.585372	-1209.487667	1512.507813	778.557312
20405.585372	-1209.487667	1511.450195	684.781067
20405.585372	-1209.487667	1510.393555	638.600403
20405.585372	-1209.487667	1509.335938	759.757507
20405.585372	-1209.487667	1508.278320	781.533264
20405.585372	-1209.487667	1507.219727	825.972961
20405.585372	-1209.487667	1506.162109	759.815063
20405.585372	-1209.487667	1505.103516	817.965576
20405.585372	-1209.487667	1504.044922	605.253662
20405.585372	-1209.487667	1502.986328	665.845764
20405.585372	-1209.487667	1501.926758	629.453674
20405.585372	-1209.487667	1500.868164	726.295288
20405.585372	-1209.487667	1499.808594	593.079224
20405.585372	-1209.487667	1498.749023	284.077576
20405.585372	-1209.487667	1497.688477	394.722229
20405.585372	-1209.487667	1496.628906	279.958008
20405.585372	-1209.487667	1495.568359	190.121002
20405.585372	-1209.487667	1494.507813	393.391235
20405.585372	-1209.487667	1493.447266	191.088287
20405.585372	-1209.487667	1492.386719	234.512161
20405.585372	-1209.487667	1491.325195	214.940857
20405.585372	-1209.487667	1490.263672	215.737595
20405.585372	-1209.487667	1489.202148	126.567612
20405.585372	-1209.487667	1488.140625	120.812935
20405.585372	-1209.487667	1487.079102	144.411255
20405.585372	-1209.487667	1486.016602	-32.170586
20405.585372	-1209.487667	1484.954102	-8.367680
20405.585372	-1209.487667	1483.891602	-146.424011
20405.585372	-1209.487667	1482.829102	1.264066
20405.585372	-1209.487667	1481.765625	101.770203
20405.585372	-1209.487667	1480.702148	137.146194
20405.585372	-1209.487667	1479.638672	49.008381
20405.585372	-1209.487667	1478.575195	8.187926
20405.585372	-1209.487667	1477.511719	333.597046
20405.585372	-1209.487667	1476.447266	106.591988
20405.585372	-1209.487667	1475.382813	32.359837
20405.585372	-1209.487667	1474.318359	72.807884
20405.585372	-1209.487667	1473.253906	25.786791
20405.585372	-1209.487667	1472.189453	-50.268814
20405.585372	-1209.487667	1471.124023	107.009460
20405.585372	-1209.487667	1470.058594	-123.474045
20405.585372	-1209.487667	1468.993164	-125.217331
20405.585372	-1209.487667	1467.927734	-10.368816
20405.585372	-1209.487667	1466.861328	-54.416229
20405.585372	-1209.487667	1465.794922	40.595165
20405.585372	-1209.487667	1464.728516	-32.424469
20405.585372	-1209.487667	1463.662109	-91.640182
20405.585372	-1209.487667	1462.594727	-61.301102
20405.585372	-1209.487667	1461.528320	-115.924553
20405.585372	-1209.487667	1460.460938	-11.829025
20405.585372	-1209.487667	1459.393555	74.121284
20405.585372	-1209.487667	1458.326172	-73.677200
20405.585372	-1209.487667	1457.257813	88.815872
20405.585372	-1209.487667	1456.189453	8.139324
20405.585372	-1209.487667	1455.121094	138.782333
20405.585372	-1209.487667	1454.052734	38.428413
20405.585372	-1209.487667	1452.984375	344.046234
20405.585372	-1209.487667	1451.915039	254.327896
20405.585372	-1209.487667	1450.845703	-88.694115
20405.585372	-1209.487667	1449.776367	405.655884
20405.585372	-1209.487667	1448.707031	307.596466
20405.585372	-1209.487667	1447.636719	546.406067
20405.585372	-1209.487667	1446.567383	462.285400
20405.585372	-1209.487667	1445.497070	128.725052
20405.585372	-1209.487667	1444.425781	498.389191
20405.585372	-1209.487667	1443.355469	466.184998
20405.585372	-1209.487667	1442.285156	585.815857
20405.585372	-1209.487667	1441.213867	355.456085
20405.585372	-1209.487667	1440.142578	538.230957
20405.585372	-1209.487667	1439.070313	708.098267
20405.585372	-1209.487667	1437.999023	760.169250
20405.585372	-1209.487667	1436.926758	355.481842
20405.585372	-1209.487667	1435.854492	493.365936
20405.585372	-1209.487667	1434.782227	517.703186
20405.585372	-1209.487667	1433.709961	460.513763
20405.585372	-1209.487667	1432.636719	305.507935
20405.585372	-1209.487667	1431.563477	112.646111
20405.585372	-1209.487667	1430.490234	-34.181362
20405.585372	-1209.487667	1429.416992	232.931519
20405.585372	-1209.487667	1428.343750	25.348730
20405.585372	-1209.487667	1427.269531	206.642181
20405.585372	-1209.487667	1426.195313	-25.382496
20405.585372	-1209.487667	1425.121094	-70.227516
20405.585372	-1209.487667	1424.046875	-54.474251
20405.585372	-1209.487667	1422.971680	-115.848343
20405.585372	-1209.487667	1421.896484	29.465254
20405.585372	-1209.487667	1420.821289	117.950600
20405.585372	-1209.487667	1419.746094	-69.959030
20405.585372	-1209.487667	1418.669922	-27.030985
20405.585372	-1209.487667	1417.594727	-11.605519
20405.585372	-1209.487667	1416.518555	83.436401
20405.585372	-1209.487667	1415.442383	218.111435
20405.585372	-1209.487667	1414.365234	88.780479
20405.585372	-1209.487667	1413.289063	218.019577
20405.585372	-1209.487667	1412.211914	242.446426
20405.585372	-1209.487667	1411.134766	522.535339
20405.585372	-1209.487667	1410.057617	376.374847
20405.585372	-1209.487667	1408.979492	394.800781
20405.585372	-1209.487667	1407.902344	606.769165
20405.585372	-1209.487667	1406.824219	632.527466
20405.585372	-1209.487667	1405.746094	696.452820
20405.585372	-1209.487667	1404.666992	617.701782
20405.585372	-1209.487667	1403.588867	603.418091
20405.585372	-1209.487667	1402.509766	598.799133
20405.585372	-1209.487667	1401.430664	675.196228
20405.585372	-1209.487667	1400.351563	791.256470
20405.585372	-1209.487667	1399.271484	796.265625
20405.585372	-1209.487667	1398.192383	1055.229980
20405.585372	-1209.487667	1397.112305	1272.632690
20405.585372	-1209.487667	1396.031250	1179.834717
20405.585372	-1209.487667	1394.951172	1500.180054
20405.585372	-1209.487667	1393.871094	1556.433960
20405.585372	-1209.487667	1392.790039	1678.655884
20405.585372	-1209.487667	1391.708984	2128.208496
20405.585372	-1209.487667	1390.626953	2237.148438
20405.585372	-1209.487667	1389.545898	2600.841309
20405.585372	-1209.487667	1388.463867	2676.738037
20405.585372	-1209.487667	1387.381836	2879.467285
20405.585372	-1209.487667	1386.299805	2938.229004
20405.585372	-1209.487667	1385.217773	2854.028076
20405.585372	-1209.487667	1384.134766	2700.640869
20405.585372	-1209.487667	1383.051758	2815.796387
20405.585372	-1209.487667	1381.968750	2460.993896
20405.585372	-1209.487667	1380.885742	2065.412354
20405.585372	-1209.487667	1379.802734	1973.806519
20405.585372	-1209.487667	1378.718750	1617.216187
20405.585372	-1209.487667	1377.634766	1373.854248
20405.585372	-1209.487667	1376.550781	1619.557983
20405.585372	-1209.487667	1375.465820	1548.145142
20405.585372	-1209.487667	1374.381836	1430.588257
20405.585372	-1209.487667	1373.296875	1586.681152
20405.585372	-1209.487667	1372.211914	2001.656128
20405.585372	-1209.487667	1371.126953	2307.251709
20405.585372	-1209.487667	1370.041016	2578.552246
20405.585372	-1209.487667	1368.955078	3063.838623
20405.585372	-1209.487667	1367.869141	3643.077148
20405.585372	-1209.487667	1366.783203	3808.211426
20405.585372	-1209.487667	1365.697266	3838.146973
20405.585372	-1209.487667	1364.610352	3776.761475
20405.585372	-1209.487667	1363.523438	3577.728027
20405.585372	-1209.487667	1362.436523	2911.350830
20405.585372	-1209.487667	1361.349609	2649.199463
20405.585372	-1209.487667	1360.261719	2482.645752
20405.585372	-1209.487667	1359.174805	2035.760498
20405.585372	-1209.487667	1358.086914	1812.142700
20405.585372	-1209.487667	1356.998047	1492.676880
20405.585372	-1209.487667	1355.910156	1314.525879
20405.585372	-1209.487667	1354.821289	1147.771729
20405.585372	-1209.487667	1353.732422	1029.150269
20405.585372	-1209.487667	1352.643555	917.257568
20405.585372	-1209.487667	1351.554688	860.786316
20405.585372	-1209.487667	1350.464844	784.100159
20405.585372	-1209.487667	1349.375000	551.954407
20405.585372	-1209.487667	1348.285156	596.531982
20405.585372	-1209.487667	1347.195313	719.360413
20405.585372	-1209.487667	1346.105469	644.938232
20405.585372	-1209.487667	1345.014648	532.252319
20405.585372	-1209.487667	1343.923828	596.537109
20405.585372	-1209.487667	1342.833008	268.939423
20405.585372	-1209.487667	1341.741211	355.923920
20405.585372	-1209.487667	1340.650391	583.775085
20405.585372	-1209.487667	1339.558594	437.490356
20405.585372	-1209.487667	1338.466797	386.075378
20405.585372	-1209.487667	1337.374023	387.715759
20405.585372	-1209.487667	1336.282227	141.742371
20405.585372	-1209.487667	1335.189453	576.284973
20405.585372	-1209.487667	1334.096680	418.260040
20405.585372	-1209.487667	1333.003906	282.957977
20405.585372	-1209.487667	1331.910156	514.565491
20405.585372	-1209.487667	1330.817383	735.753906
20405.585372	-1209.487667	1329.723633	750.871155
20405.585372	-1209.487667	1328.629883	932.100037
20405.585372	-1209.487667	1327.535156	1144.366943
20405.585372	-1209.487667	1326.441406	1273.471436
20405.585372	-1209.487667	1325.346680	1407.611694
20405.585372	-1209.487667	1324.251953	1411.310059
20405.585372	-1209.487667	1323.156250	1597.077026
20405.585372	-1209.487667	1322.061523	1578.973633
20405.585372	-1209.487667	1320.965820	1850.642578
20405.585372	-1209.487667	1319.870117	2147.993896
20405.585372	-1209.487667	1318.774414	2034.181030
20405.585372	-1209.487667	1317.678711	2058.448730
20405.585372	-1209.487667	1316.582031	2077.826660
20405.585372	-1209.487667	1315.485352	2127.178223
20405.585372	-1209.487667	1314.388672	2002.005493
20405.585372	-1209.487667	1313.291016	2341.417969
20405.585372	-1209.487667	1312.194336	2085.035400
20405.585372	-1209.487667	1311.096680	2082.500000
20405.585372	-1209.487667	1309.999023	1891.163330
20405.585372	-1209.487667	1308.901367	1973.563477
20405.585372	-1209.487667	1307.802734	1749.664307
20405.585372	-1209.487667	1306.705078	1835.255737
20405.585372	-1209.487667	1305.606445	1691.452759
20405.585372	-1209.487667	1304.506836	1506.159180
20405.585372	-1209.487667	1303.408203	1500.200562
20405.585372	-1209.487667	1302.308594	1497.201050
20405.585372	-1209.487667	1301.208984	1245.953857
20405.585372	-1209.487667	1300.109375	1175.556152
20405.585372	-1209.487667	1299.009766	1148.011963
20405.585372	-1209.487667	1297.909180	1114.928955
20405.585372	-1209.487667	1296.808594	1008.984192
20405.585372	-1209.487667	1295.708008	1260.318604
20405.585372	-1209.487667	1294.607422	1210.904053
20405.585372	-1209.487667	1293.506836	1202.207764
20405.585372	-1209.487667	1292.405273	1020.714294
20405.585372	-1209.487667	1291.303711	1053.905396
20405.585372	-1209.487667	1290.202148	1179.882813
20405.585372	-1209.487667	1289.099609	1289.312134
20405.585372	-1209.487667	1287.998047	1447.584717
20405.585372	-1209.487667	1286.895508	1308.248291
20405.585372	-1209.487667	1285.792969	1643.879883
20405.585372	-1209.487667	1284.689453	1872.767334
20405.585372	-1209.487667	1283.586914	2126.367188
20405.585372	-1209.487667	1282.483398	2365.875732
20405.585372	-1209.487667	1281.379883	2221.754883
20405.585372	-1209.487667	1280.276367	2461.673828
20405.585372	-1209.487667	1279.171875	2324.418213
20405.585372	-1209.487667	1278.067383	2122.669922
20405.585372	-1209.487667	1276.962891	1771.554199
20405.585372	-1209.487667	1275.858398	1248.945923
20405.585372	-1209.487667	1274.753906	1048.594849
20405.585372	-1209.487667	1273.648438	762.825623
20405.585372	-1209.487667	1272.542969	550.296448
20405.585372	-1209.487667	1271.437500	480.034943
20405.585372	-1209.487667	1270.331055	345.946167
20405.585372	-1209.487667	1269.225586	345.124146
20405.585372	-1209.487667	1268.119141	194.699081
20405.585372	-1209.487667	1267.012695	112.976448
20405.585372	-1209.487667	1265.906250	5.559078
20405.585372	-1209.487667	1264.798828	123.255424
20405.585372	-1209.487667	1263.691406	135.846497
20405.585372	-1209.487667	1262.583984	90.277939
20405.585372	-1209.487667	1261.476563	47.796131
20405.585372	-1209.487667	1260.368164	43.846279
20405.585372	-1209.487667	1259.260742	65.323097
20405.585372	-1209.487667	1258.152344	68.457504
20405.585372	-1209.487667	1257.043945	86.087151
20405.585372	-1209.487667	1255.934570	116.606483
20405.585372	-1209.487667	1254.825195	96.912727
20405.585372	-1209.487667	1253.716797	75.991943
20405.585372	-1209.487667	1252.606445	-40.104000
20405.585372	-1209.487667	1251.497070	126.493622
20405.585372	-1209.487667	1250.387695	177.661697
20405.585372	-1209.487667	1249.277344	289.959717
20405.585372	-1209.487667	1248.166992	137.388443
20405.585372	-1209.487667	1247.055664	254.622604
20405.585372	-1209.487667	1245.945313	104.657509
20405.585372	-1209.487667	1244.833984	19.664557
20405.585372	-1209.487667	1243.722656	46.152332
20405.585372	-1209.487667	1242.611328	-46.322170
20405.585372	-1209.487667	1241.499023	-116.173080
20405.585372	-1209.487667	1240.387695	-78.005623
20405.585372	-1209.487667	1239.275391	-105.983383
20405.585372	-1209.487667	1238.162109	-107.777878
20405.585372	-1209.487667	1237.049805	-195.473770
20405.585372	-1209.487667	1235.936523	-65.417305
20405.585372	-1209.487667	1234.823242	-140.271698
20405.585372	-1209.487667	1233.709961	-195.643021
20405.585372	-1209.487667	1232.596680	-134.412689
20405.585372	-1209.487667	1231.482422	-72.233185
20405.585372	-1209.487667	1230.369141	-147.408752
20405.585372	-1209.487667	1229.253906	-132.406372
20405.585372	-1209.487667	1228.139648	-110.614685
20405.585372	-1209.487667	1227.025391	-213.863892
20405.585372	-1209.487667	1225.910156	-31.413898
20405.585372	-1209.487667	1224.794922	-221.339920
20405.585372	-1209.487667	1223.679688	-74.699135
20405.585372	-1209.487667	1222.563477	-137.411652
20405.585372	-1209.487667	1221.447266	-204.681534
20405.585372	-1209.487667	1220.331055	-176.452682
20405.585372	-1209.487667	1219.214844	-21.046913
20405.585372	-1209.487667	1218.098633	101.928802
20405.585372	-1209.487667	1216.981445	73.343369
20405.585372	-1209.487667	1215.864258	139.106110
20405.585372	-1209.487667	1214.747070	238.442078
20405.585372	-1209.487667	1213.629883	280.075378
20405.585372	-1209.487667	1212.511719	241.667862
20405.585372	-1209.487667	1211.393555	177.171875
20405.585372	-1209.487667	1210.275391	288.690430
20405.585372	-1209.487667	1209.157227	139.123459
20405.585372	-1209.487667	1208.038086	256.245972
20405.585372	-1209.487667	1206.918945	207.095413
20405.585372	-1209.487667	1205.799805	191.570724
20405.585372	-1209.487667	1204.680664	49.234898
20405.585372	-1209.487667	1203.560547	99.470352
20405.585372	-1209.487667	1202.441406	106.914169
20405.585372	-1209.487667	1201.321289	115.954681
20405.585372	-1209.487667	1200.200195	-65.297310
20405.585372	-1209.487667	1199.080078	17.954609
20405.585372	-1209.487667	1197.958984	-182.202133
20405.585372	-1209.487667	1196.837891	-163.201569
20405.585372	-1209.487667	1195.716797	-130.548035
20405.585372	-1209.487667	1194.594727	-47.691284
20405.585372	-1209.487667	1193.473633	-44.431335
20405.585372	-1209.487667	1192.351563	-47.858704
20405.585372	-1209.487667	1191.229492	-226.042038
20405.585372	-1209.487667	1190.106445	-170.100128
20405.585372	-1209.487667	1188.984375	30.534422
20405.585372	-1209.487667	1187.861328	-49.648029
20405.585372	-1209.487667	1186.738281	-241.811707
20405.585372	-1209.487667	1185.614258	-88.599907
20405.585372	-1209.487667	1184.491211	-151.107101
20405.585372	-1209.487667	1183.367188	-164.823593
20405.585372	-1209.487667	1182.243164	-85.168365
20405.585372	-1209.487667	1181.119141	3.457826
20405.585372	-1209.487667	1179.994141	-12.220259
20405.585372	-1209.487667	1178.869141	-18.254307
20405.585372	-1209.487667	1177.744141	-151.156387
20405.585372	-1209.487667	1176.619141	-127.373108
20405.585372	-1209.487667	1175.493164	-18.572397
20405.585372	-1209.487667	1174.368164	35.895988
20405.585372	-1209.487667	1173.242188	-109.324951
20405.585372	-1209.487667	1172.115234	-119.215118
20405.585372	-1209.487667	1170.989258	-18.047888
20405.585372	-1209.487667	1169.862305	-74.558372
20405.585372	-1209.487667	1168.735352	39.786049
20405.585372	-1209.487667	1167.608398	5.335667
20405.585372	-1209.487667	1166.481445	14.613637
20405.585372	-1209.487667	1165.353516	45.815090
20405.585372	-1209.487667	1164.225586	214.213028
20405.585372	-1209.487667	1163.097656	152.778854
20405.585372	-1209.487667	1161.968750	173.992783
20405.585372	-1209.487667	1160.840820	141.098663
20405.585372	-1209.487667	1159.711914	275.658722
20405.585372	-1209.487667	1158.583008	82.136551
20405.585372	-1209.487667	1157.453125	17.493713
20405.585372	-1209.487667	1156.324219	30.906967
20405.585372	-1209.487667	1155.194336	90.375778
20405.585372	-1209.487667	1154.064453	-8.893891
20405.585372	-1209.487667	1152.933594	20.594543
20405.585372	-1209.487667	1151.803711	59.396076
20405.585372	-1209.487667	1150.672852	78.497215
20405.585372	-1209.487667	1149.541992	154.443939
20405.585372	-1209.487667	1148.411133	146.268280
20405.585372	-1209.487667	1147.279297	-20.446407
20405.585372	-1209.487667	1146.147461	83.954361
20405.585372	-1209.487667	1145.015625	27.046577
20405.585372	-1209.487667	1143.883789	7.629888
20405.585372	-1209.487667	1142.750977	-8.445890
20405.585372	-1209.487667	1141.619141	-173.797913
20405.585372	-1209.487667	1140.486328	99.404449
20405.585372	-1209.487667	1139.352539	-73.114433
20405.585372	-1209.487667	1138.219727	-40.206841
20405.585372	-1209.487667	1137.085938	-134.542343
20405.585372	-1209.487667	1135.952148	-9.648670
20405.585372	-1209.487667	1134.818359	53.930103
20405.585372	-1209.487667	1133.683594	152.353119
20405.585372	-1209.487667	1132.549805	200.539993
20405.585372	-1209.487667	1131.415039	145.671402
20405.585372	-1209.487667	1130.279297	244.272507
20405.585372	-1209.487667	1129.144531	144.534668
20405.585372	-1209.487667	1128.008789	352.263367
20405.585372	-1209.487667	1126.873047	183.096191
20405.585372	-1209.487667	1125.737305	200.635666
20405.585372	-1209.487667	1124.601563	341.998871
20405.585372	-1209.487667	1123.464844	312.363190
20405.585372	-1209.487667	1122.328125	217.878220
20405.585372	-1209.487667	1121.191406	385.915924
20405.585372	-1209.487667	1120.054688	387.217499
20405.585372	-1209.487667	1118.916992	187.862503
20405.585372	-1209.487667	1117.779297	204.457748
20405.585372	-1209.487667	1116.641602	206.012909
20405.585372	-1209.487667	1115.503906	93.483078
20405.585372	-1209.487667	1114.365234	85.257286
20405.585372	-1209.487667	1113.226563	80.195381
20405.585372	-1209.487667	1112.087891	132.492661
20405.585372	-1209.487667	1110.949219	17.788782
20405.585372	-1209.487667	1109.809570	102.988274
20405.585372	-1209.487667	1108.669922	-2.030278
20405.585372	-1209.487667	1107.530273	128.503647
20405.585372	-1209.487667	1106.390625	165.196487
20405.585372	-1209.487667	1105.250000	95.256378
20405.585372	-1209.487667	1104.109375	-94.482841
20405.585372	-1209.487667	1102.968750	152.232758
20405.585372	-1209.487667	1101.828125	219.908081
20405.585372	-1209.487667	1100.686523	97.657379
20405.585372	-1209.487667	1099.544922	199.151566
20405.585372	-1209.487667	1098.403320	90.044998
20405.585372	-1209.487667	1097.261719	50.639477
20405.585372	-1209.487667	1096.120117	34.613770
20405.585372	-1209.487667	1094.977539	156.410080
20405.585372	-1209.487667	1093.834961	90.802078
20405.585372	-1209.487667	1092.691406	65.185013
20405.585372	-1209.487667	1091.548828	159.163101
20405.585372	-1209.487667	1090.405273	68.427147
20405.585372	-1209.487667	1089.261719	196.391617
20405.585372	-1209.487667	1088.118164	273.123962
20405.585372	-1209.487667	1086.973633	166.394318
20405.585372	-1209.487667	1085.829102	198.389709
20405.585372	-1209.487667	1084.684570	-21.016693
20405.585372	-1209.487667	1083.540039	59.237709
20405.585372	-1209.487667	1082.395508	89.683311
20405.585372	-1209.487667	1081.250000	136.628113
20405.585372	-1209.487667	1080.104492	26.137325
20405.585372	-1209.487667	1078.958984	-43.398304
20405.585372	-1209.487667	1077.812500	-55.429653
20405.585372	-1209.487667	1076.666016	-122.800575
20405.585372	-1209.487667	1075.519531	141.324036
20405.585372	-1209.487667	1074.373047	-23.442394
20405.585372	-1209.487667	1073.226563	61.359261
20405.585372	-1209.487667	1072.079102	64.854126
20405.585372	-1209.487667	1070.931641	185.011063
20405.585372	-1209.487667	1069.784180	214.777496
20405.585372	-1209.487667	1068.635742	106.084122
20405.585372	-1209.487667	1067.487305	134.761246
20405.585372	-1209.487667	1066.338867	238.995560
20405.585372	-1209.487667	1065.190430	370.753052
20405.585372	-1209.487667	1064.041992	436.518311
20405.585372	-1209.487667	1062.892578	274.250122
20405.585372	-1209.487667	1061.743164	222.211670
20405.585372	-1209.487667	1060.593750	176.628708
20405.585372	-1209.487667	1059.443359	198.566452
20405.585372	-1209.487667	1058.292969	151.733429
20405.585372	-1209.487667	1057.142578	112.363258
20405.585372	-1209.487667	1055.992188	-4.308512
20405.585372	-1209.487667	1054.841797	120.937073
20405.585372	-1209.487667	1053.690430	81.631866
20405.585372	-1209.487667	1052.539063	236.035370
20405.585372	-1209.487667	1051.387695	125.764046
20405.585372	-1209.487667	1050.235352	-8.208982
20405.585372	-1209.487667	1049.083984	1.005577
20405.585372	-1209.487667	1047.931641	46.851833
20405.585372	-1209.487667	1046.778320	-16.160324
20405.585372	-1209.487667	1045.625977	143.775589
20405.585372	-1209.487667	1044.472656	193.492157
20405.585372	-1209.487667	1043.319336	92.743347
20405.585372	-1209.487667	1042.166016	5.510839
20405.585372	-1209.487667	1041.012695	3.818316
20405.585372	-1209.487667	1039.858398	-196.959000
20405.585372	-1209.487667	1038.704102	36.540432
20405.585372	-1209.487667	1037.549805	34.391064
20405.585372	-1209.487667	1036.394531	26.674093
20405.585372	-1209.487667	1035.239258	54.507011
20405.585372	-1209.487667	1034.083984	44.986755
20405.585372	-1209.487667	1032.928711	-31.255562
20405.585372	-1209.487667	1031.773438	91.078171
20405.585372	-1209.487667	1030.617188	55.691086
20405.585372	-1209.487667	1029.460938	162.288712
20405.585372	-1209.487667	1028.304688	149.541260
20405.585372	-1209.487667	1027.147461	137.888062
20405.585372	-1209.487667	1025.991211	211.963898
20405.585372	-1209.487667	1024.833984	413.437195
20405.585372	-1209.487667	1023.675781	211.659760
20405.585372	-1209.487667	1022.518555	100.903191
20405.585372	-1209.487667	1021.360352	295.704926
20405.585372	-1209.487667	1020.202148	109.719055
20405.585372	-1209.487667	1019.043945	200.168472
20405.585372	-1209.487667	1017.884766	40.327305
20405.585372	-1209.487667	1016.726563	-54.695618
20405.585372	-1209.487667	1015.567383	66.976738
20405.585372	-1209.487667	1014.407227	-47.427898
20405.585372	-1209.487667	1013.248047	-69.421600
20405.585372	-1209.487667	1012.087891	-242.035721
20405.585372	-1209.487667	1010.927734	-148.694595
20405.585372	-1209.487667	1009.767578	-154.670898
20405.585372	-1209.487667	1008.606445	-82.775169
20405.585372	-1209.487667	1007.446289	-183.454788
20405.585372	-1209.487667	1006.285156	-7.867826
20405.585372	-1209.487667	1005.123047	-124.040428
20405.585372	-1209.487667	1003.961914	-144.469604
20405.585372	-1209.487667	1002.799805	100.867096
20405.585372	-1209.487667	1001.637695	-16.516962
20405.585372	-1209.487667	1000.475586	-172.610260
20405.585372	-1209.487667	999.312500	-127.749420
20405.585372	-1209.487667	998.149414	-31.143173
20405.585372	-1209.487667	996.986328	-50.491909
20405.585372	-1209.487667	995.823242	-69.379318
20405.585372	-1209.487667	994.659180	-35.051804
20405.585372	-1209.487667	993.496094	-117.686600
20405.585372	-1209.487667	992.332031	-193.559052
20405.585372	-1209.487667	991.166992	-134.221664
20405.585372	-1209.487667	990.002930	-52.351059
20405.585372	-1209.487667	988.837891	-129.481995
20405.585372	-1209.487667	987.672852	-87.666718
20405.585372	-1209.487667	986.506836	-138.006287
20405.585372	-1209.487667	985.341797	-183.569244
20405.585372	-1209.487667	984.175781	-37.175659
20405.585372	-1209.487667	983.009766	-142.899689
20405.585372	-1209.487667	981.843750	-99.207352
20405.585372	-1209.487667	980.676758	-195.332611
20405.585372	-1209.487667	979.509766	-183.194778
20405.585372	-1209.487667	978.342773	-147.928818
20405.585372	-1209.487667	977.175781	-129.265884
20405.585372	-1209.487667	976.007813	43.678631
20405.585372	-1209.487667	974.839844	86.876602
20405.585372	-1209.487667	973.671875	147.824417
20405.585372	-1209.487667	972.503906	120.843643
20405.585372	-1209.487667	971.334961	-13.467813
20405.585372	-1209.487667	970.166016	111.124695
20405.585372	-1209.487667	968.997070	75.701042
20405.585372	-1209.487667	967.828125	219.882111
20405.585372	-1209.487667	966.658203	245.036713
20405.585372	-1209.487667	965.488281	122.167641
20405.585372	-1209.487667	964.318359	293.960724
20405.585372	-1209.487667	963.148438	131.362518
20405.585372	-1209.487667	961.977539	119.302307
20405.585372	-1209.487667	960.806641	225.387436
20405.585372	-1209.487667	959.635742	157.584991
20405.585372	-1209.487667	958.463867	123.862267
20405.585372	-1209.487667	957.292969	16.887451
20405.585372	-1209.487667	956.121094	71.382019
20405.585372	-1209.487667	954.948242	85.045891
20405.585372	-1209.487667	953.776367	376.802216
20405.585372	-1209.487667	952.603516	174.470978
20405.585372	-1209.487667	951.430664	114.669922
20405.585372	-1209.487667	950.257813	32.465191
20405.585372	-1209.487667	949.084961	129.541122
20405.585372	-1209.487667	947.911133	74.985985
20405.585372	-1209.487667	946.737305	-27.955521
20405.585372	-1209.487667	945.563477	-196.167908
20405.585372	-1209.487667	944.388672	117.147964
20405.585372	-1209.487667	943.213867	13.685577
20405.585372	-1209.487667	942.039063	-1.463525
20405.585372	-1209.487667	940.864258	22.408890
20405.585372	-1209.487667	939.688477	34.979359
20405.585372	-1209.487667	938.513672	28.666466
20405.585372	-1209.487667	937.337891	177.655563
20405.585372	-1209.487667	936.161133	120.502480
20405.585372	-1209.487667	934.985352	276.245026
20405.585372	-1209.487667	933.808594	184.509369
20405.585372	-1209.487667	932.631836	231.515457
20405.585372	-1209.487667	931.454102	241.402100
20405.585372	-1209.487667	930.277344	251.301437
20405.585372	-1209.487667	929.099609	221.877609
20405.585372	-1209.487667	927.921875	97.579590
20405.585372	-1209.487667	926.743164	169.875748
20405.585372	-1209.487667	925.565430	114.988609
20405.585372	-1209.487667	924.386719	254.271179
20405.585372	-1209.487667	923.208008	208.590942
20405.585372	-1209.487667	922.028320	91.278008
20405.585372	-1209.487667	920.849609	-53.727749
20405.585372	-1209.487667	919.669922	-51.544586
20405.585372	-1209.487667	919.474609	113.511505
20405.585372	-1209.487667	918.309570	49.334545
20405.585372	-1209.487667	917.143555	-33.297424
20405.585372	-1209.487667	915.977539	108.020683
20405.585372	-1209.487667	914.810547	-36.927963
20405.585372	-1209.487667	913.644531	152.770721
20405.585372	-1209.487667	912.477539	21.693636
20405.585372	-1209.487667	911.310547	82.111137
20405.585372	-1209.487667	910.143555	29.490635
20405.585372	-1209.487667	908.975586	170.562988
20405.585372	-1209.487667	907.807617	104.095634
20405.585372	-1209.487667	906.639648	113.702942
20405.585372	-1209.487667	905.471680	-118.655975
20405.585372	-1209.487667	904.303711	3.860798
20405.585372	-1209.487667	903.134766	105.589508
20405.585372	-1209.487667	901.965820	-64.474831
20405.585372	-1209.487667	900.796875	129.304092
20405.585372	-1209.487667	899.626953	92.800613
20405.585372	-1209.487667	898.457031	166.773895
20405.585372	-1209.487667	897.287109	118.753304
20405.585372	-1209.487667	896.117188	-23.579409
20405.585372	-1209.487667	894.947266	-112.961472
20405.585372	-1209.487667	893.776367	131.129807
20405.585372	-1209.487667	892.605469	124.505844
20405.585372	-1209.487667	891.434570	260.393799
20405.585372	-1209.487667	890.262695	65.276237
20405.585372	-1209.487667	889.091797	201.102707
20405.585372	-1209.487667	887.919922	222.002884
20405.585372	-1209.487667	886.748047	167.091446
20405.585372	-1209.487667	885.575195	192.566788
20405.585372	-1209.487667	884.403320	41.240284
20405.585372	-1209.487667	883.230469	62.122887
20405.585372	-1209.487667	882.057617	-22.578423
20405.585372	-1209.487667	880.883789	5.176488
20405.585372	-1209.487667	879.710938	-139.138855
20405.585372	-1209.487667	878.537109	37.690048
20405.585372	-1209.487667	877.362305	44.754505
20405.585372	-1209.487667	876.188477	-12.386969
20405.585372	-1209.487667	875.013672	-87.848541
20405.585372	-1209.487667	873.839844	-138.080963
20405.585372	-1209.487667	872.664063	6.451006
20405.585372	-1209.487667	871.489258	95.937225
20405.585372	-1209.487667	870.313477	-9.290254
20405.585372	-1209.487667	869.138672	-87.007820
20405.585372	-1209.487667	867.962891	142.065262
20405.585372	-1209.487667	866.786133	23.135513
20405.585372	-1209.487667	865.610352	25.527630
20405.585372	-1209.487667	864.433594	-75.043617
20405.585372	-1209.487667	863.256836	-33.762318
20405.585372	-1209.487667	862.079102	-129.722321
20405.585372	-1209.487667	860.902344	5.282012
20405.585372	-1209.487667	859.724609	-104.380844
20405.585372	-1209.487667	858.546875	-22.020933
20405.585372	-1209.487667	857.368164	-42.531464
20405.585372	-1209.487667	856.190430	-177.274155
20405.585372	-1209.487667	855.011719	-101.828842
20405.585372	-1209.487667	853.833008	51.221985
20405.585372	-1209.487667	852.654297	-33.253101
20405.585372	-1209.487667	851.474609	-67.480858
20405.585372	-1209.487667	850.294922	42.078285
20405.585372	-1209.487667	849.115234	-21.833080
20405.585372	-1209.487667	847.935547	-322.986542
20405.585372	-1209.487667	846.754883	-26.439432
20405.585372	-1209.487667	845.575195	-163.299026
20405.585372	-1209.487667	844.393555	7.679251
20405.585372	-1209.487667	843.212891	-122.311874
20405.585372	-1209.487667	842.032227	-90.451370
20405.585372	-1209.487667	840.850586	-156.589645
20405.585372	-1209.487667	839.668945	-10.852610
20405.585372	-1209.487667	838.486328	-240.985245
20405.585372	-1209.487667	837.304688	100.519592
20405.585372	-1209.487667	836.122070	-33.944141
20405.585372	-1209.487667	834.939453	-6.754790
20405.585372	-1209.487667	833.756836	-113.854874
20405.585372	-1209.487667	832.573242	-120.810211
20405.585372	-1209.487667	831.389648	-45.882446
20405.585372	-1209.487667	830.206055	-18.757265
20405.585372	-1209.487667	829.022461	-78.060806
20405.585372	-1209.487667	827.838867	-71.424568
20405.585372	-1209.487667	826.654297	-64.801666
20405.585372	-1209.487667	825.469727	87.241623
20405.585372	-1209.487667	824.284180	-203.821075
20405.585372	-1209.487667	823.099609	-97.266640
20405.585372	-1209.487667	821.914063	54.652622
20405.585372	-1209.487667	820.728516	147.461273
20405.585372	-1209.487667	819.542969	15.480422
20405.585372	-1209.487667	818.356445	171.783234
20405.585372	-1209.487667	817.169922	85.208725
20405.585372	-1209.487667	815.983398	-3.612419
20405.585372	-1209.487667	814.796875	-10.755114
20405.585372	-1209.487667	813.609375	45.588127
20405.585372	-1209.487667	812.422852	-13.737833
20405.585372	-1209.487667	811.235352	-25.449875
20405.585372	-1209.487667	810.046875	98.808685
20405.585372	-1209.487667	808.859375	-89.689484
20405.585372	-1209.487667	807.670898	106.993431
20405.585372	-1209.487667	806.482422	9.138436
20405.585372	-1209.487667	805.293945	-115.865532
20405.585372	-1209.487667	804.104492	-80.089050
20405.585372	-1209.487667	802.915039	-51.134384
20405.585372	-1209.487667	801.725586	-94.625786
20405.585372	-1209.487667	800.536133	18.002420
20405.585372	-1209.487667	799.345703	110.208900
20405.585372	-1209.487667	798.155273	-23.805349
20405.585372	-1209.487667	796.964844	-40.200241
20405.585372	-1209.487667	795.774414	-131.209412
20405.585372	-1209.487667	794.583008	-91.104263
20405.585372	-1209.487667	793.392578	-35.215805
20405.585372	-1209.487667	792.200195	-33.591167
20405.585372	-1209.487667	791.008789	-68.128548
20405.585372	-1209.487667	789.816406	-34.918419
20405.585372	-1209.487667	788.625000	113.410950
20405.585372	-1209.487667	787.432617	38.173317
20405.585372	-1209.487667	786.239258	-28.024204
20405.585372	-1209.487667	785.046875	-112.267799
20405.585372	-1209.487667	783.853516	-58.877605
20405.585372	-1209.487667	782.660156	-79.963974
20405.585372	-1209.487667	781.465820	-6.347810
20405.585372	-1209.487667	780.272461	19.868219
20405.585372	-1209.487667	779.078125	-50.876392
20405.585372	-1209.487667	777.883789	-13.436567
20405.585372	-1209.487667	776.688477	168.173355
20405.585372	-1209.487667	775.494141	115.397224
20405.585372	-1209.487667	774.298828	-86.030678
20405.585372	-1209.487667	773.103516	-21.682501
20405.585372	-1209.487667	771.907227	148.430267
20405.585372	-1209.487667	770.711914	131.623688
20405.585372	-1209.487667	769.515625	-89.987236
20405.585372	-1209.487667	768.318359	-25.786169
20405.585372	-1209.487667	767.122070	-150.593140
20405.585372	-1209.487667	765.924805	23.746254
20405.585372	-1209.487667	764.727539	-85.329262
20405.585372	-1209.487667	763.530273	88.873878
20405.585372	-1209.487667	762.333008	2.255308
20405.585372	-1209.487667	761.134766	113.395630
20405.585372	-1209.487667	759.936523	96.403084
20405.585372	-1209.487667	758.738281	29.974171
20405.585372	-1209.487667	757.540039	-13.996858
20405.585372	-1209.487667	756.340820	96.947479
20405.585372	-1209.487667	755.141602	151.697739
20405.585372	-1209.487667	753.942383	-107.810341
20405.585372	-1209.487667	752.742188	-73.290710
20405.585372	-1209.487667	751.541992	17.271261
20405.585372	-1209.487667	750.341797	-116.527534
20405.585372	-1209.487667	749.141602	63.646622
20405.585372	-1209.487667	747.941406	-27.565926
20405.585372	-1209.487667	746.740234	0.030894
20405.585372	-1209.487667	745.539063	-73.261536
20405.585372	-1209.487667	744.337891	39.416386
20405.585372	-1209.487667	743.135742	-78.717377
20405.585372	-1209.487667	741.933594	-78.130394
20405.585372	-1209.487667	740.731445	-126.837105
20405.585372	-1209.487667	739.529297	19.214966
20405.585372	-1209.487667	738.326172	33.116261
20405.585372	-1209.487667	737.124023	-13.439912
20405.585372	-1209.487667	735.919922	123.451035
20405.585372	-1209.487667	734.716797	237.884003
20405.585372	-1209.487667	733.513672	287.381042
20405.585372	-1209.487667	732.309570	193.724396
20405.585372	-1209.487667	731.105469	135.841232
20405.585372	-1209.487667	729.900391	254.512268
20405.585372	-1209.487667	728.696289	174.227570
20405.585372	-1209.487667	727.491211	156.495544
20405.585372	-1209.487667	726.286133	174.473495
20405.585372	-1209.487667	725.080078	199.108536
20405.585372	-1209.487667	723.874023	78.575569
20405.585372	-1209.487667	722.668945	-133.461578
20405.585372	-1209.487667	721.461914	-26.310198
20405.585372	-1209.487667	720.255859	7.129523
20405.585372	-1209.487667	719.048828	134.211823
20405.585372	-1209.487667	717.841797	47.093697
20405.585372	-1209.487667	716.634766	-19.955511
20405.585372	-1209.487667	715.427734	33.373554
20405.585372	-1209.487667	714.219727	57.666447
20405.585372	-1209.487667	713.011719	-4.997320
20405.585372	-1209.487667	711.803711	-40.936790
20405.585372	-1209.487667	710.594727	-12.301348
20405.585372	-1209.487667	709.385742	47.463230
20405.585372	-1209.487667	708.176758	-21.977716
20405.585372	-1209.487667	706.967773	-71.392426
20405.585372	-1209.487667	705.758789	-67.409492
20405.585372	-1209.487667	704.548828	101.195595
20405.585372	-1209.487667	703.338867	-104.060852
20405.585372	-1209.487667	702.127930	2.123261
20405.585372	-1209.487667	700.917969	119.343925
20405.585372	-1209.487667	699.707031	100.852440
20405.585372	-1209.487667	698.496094	17.866428
20405.585372	-1209.487667	697.285156	94.887222
20405.585372	-1209.487667	696.073242	76.291977
20405.585372	-1209.487667	694.861328	37.671482
20405.585372	-1209.487667	693.649414	-160.884064
20405.585372	-1209.487667	692.436523	255.685547
20405.585372	-1209.487667	691.224609	90.387466
20405.585372	-1209.487667	690.011719	13.900782
20405.585372	-1209.487667	688.798828	1.759327
20405.585372	-1209.487667	687.584961	182.603271
20405.585372	-1209.487667	686.372070	185.876572
20405.585372	-1209.487667	685.158203	120.357224
20405.585372	-1209.487667	683.943359	183.422958
20405.585372	-1209.487667	682.729492	195.436447
20405.585372	-1209.487667	681.514648	311.568512
20405.585372	-1209.487667	680.299805	305.738068
20405.585372	-1209.487667	679.084961	91.622765
20405.585372	-1209.487667	677.869141	462.292267
20405.585372	-1209.487667	676.653320	285.794922
20405.585372	-1209.487667	675.437500	222.242584
20405.585372	-1209.487667	674.221680	295.914001
20405.585372	-1209.487667	673.004883	256.644318
20405.585372	-1209.487667	671.789063	230.626968
20405.585372	-1209.487667	670.571289	100.605156
20405.585372	-1209.487667	669.354492	295.710632
20405.585372	-1209.487667	668.136719	256.304596
20405.585372	-1209.487667	666.919922	241.192947
20405.585372	-1209.487667	665.701172	177.415955
20405.585372	-1209.487667	664.483398	71.639992
20405.585372	-1209.487667	663.264648	120.516495
20405.585372	-1209.487667	662.045898	116.318428
20405.585372	-1209.487667	660.827148	101.038048
20405.585372	-1209.487667	659.608398	165.207153
20405.585372	-1209.487667	658.388672	107.895012
20405.585372	-1209.487667	657.168945	54.979729
20405.585372	-1209.487667	655.949219	143.262177
20405.585372	-1209.487667	654.728516	207.196289
20405.585372	-1209.487667	653.507813	215.922531
20405.585372	-1209.487667	652.287109	162.859451
20405.585372	-1209.487667	651.066406	164.894409
20405.585372	-1209.487667	649.844727	173.496841
20405.585372	-1209.487667	648.623047	146.794678
20405.585372	-1209.487667	647.401367	254.461899
20405.585372	-1209.487667	646.179688	199.035263
20405.585372	-1209.487667	644.957031	147.993454
20405.585372	-1209.487667	643.734375	222.439117
20405.585372	-1209.487667	642.511719	239.576050
20405.585372	-1209.487667	641.289063	142.215973
20405.585372	-1209.487667	640.065430	337.517151
20405.585372	-1209.487667	638.841797	284.095551
20405.585372	-1209.487667	637.618164	329.635040
20405.585372	-1209.487667	636.393555	234.372391
20405.585372	-1209.487667	635.168945	288.615112
20405.585372	-1209.487667	633.944336	199.917191
20405.585372	-1209.487667	632.719727	416.693909
20405.585372	-1209.487667	631.494141	79.640915
20405.585372	-1209.487667	630.269531	316.044373
20405.585372	-1209.487667	629.042969	240.432144
20405.585372	-1209.487667	627.817383	250.453644
20405.585372	-1209.487667	626.590820	207.741104
20405.585372	-1209.487667	625.365234	149.647781
20405.585372	-1209.487667	624.137695	271.478149
20405.585372	-1209.487667	622.911133	204.542572
20405.585372	-1209.487667	621.683594	161.723618
20405.585372	-1209.487667	620.456055	178.097794
20405.585372	-1209.487667	619.228516	286.516022
20405.585372	-1209.487667	618.000977	254.558716
20405.585372	-1209.487667	616.772461	312.433044
20405.585372	-1209.487667	615.543945	166.468628
20405.585372	-1209.487667	614.314453	99.394051
20405.585372	-1209.487667	613.085938	65.169159
20405.585372	-1209.487667	611.856445	55.008629
20405.585372	-1209.487667	610.626953	-47.131832
20405.585372	-1209.487667	609.397461	141.851669
20405.585372	-1209.487667	608.166992	328.530457
20405.585372	-1209.487667	606.936523	143.153259
20405.585372	-1209.487667	605.706055	170.003708
20405.585372	-1209.487667	604.474609	214.302444
20405.585372	-1209.487667	603.244141	221.383789
20405.585372	-1209.487667	602.012695	145.357574
20405.585372	-1209.487667	600.780273	88.999550
20405.585372	-1209.487667	599.548828	-115.949104
20405.585372	-1209.487667	598.316406	120.453857
20405.585372	-1209.487667	597.083984	22.547289
20405.585372	-1209.487667	595.851563	105.900963
20405.585372	-1209.487667	594.618164	12.343316
20405.585372	-1209.487667	593.384766	97.786026
20405.585372	-1209.487667	592.151367	250.815475
20405.585372	-1209.487667	590.917969	45.927753
20405.585372	-1209.487667	589.683594	144.310577
20405.585372	-1209.487667	588.449219	33.254642
20405.585372	-1209.487667	587.214844	50.867348
20405.585372	-1209.487667	585.979492	18.303183
20405.585372	-1209.487667	584.745117	-97.091148
20405.585372	-1209.487667	583.509766	-7.632620
20405.585372	-1209.487667	582.273438	27.294413
20405.585372	-1209.487667	581.038086	3.376616
20405.585372	-1209.487667	579.801758	-31.446749
20405.585372	-1209.487667	578.565430	22.987236
20405.585372	-1209.487667	577.329102	31.663424
20405.585372	-1209.487667	576.091797	109.951027
20405.585372	-1209.487667	574.854492	-18.518723
20405.585372	-1209.487667	573.617188	-16.434313
20405.585372	-1209.487667	572.378906	116.118347
20405.585372	-1209.487667	571.141602	-149.322754
20405.585372	-1209.487667	569.903320	-138.580811
20405.585372	-1209.487667	568.664063	-186.551392
20405.585372	-1209.487667	567.425781	-86.749657
20405.585372	-1209.487667	566.186523	-160.819183
20405.585372	-1209.487667	564.947266	-15.492437
20405.585372	-1209.487667	563.708008	19.001568
20405.585372	-1209.487667	562.467773	14.377577
20405.585372	-1209.487667	561.227539	-105.308258
20405.585372	-1209.487667	559.987305	-20.955868
20405.585372	-1209.487667	558.747070	-338.066772
20405.585372	-1209.487667	557.505859	-104.052757
20405.585372	-1209.487667	556.264648	-167.288300
20405.585372	-1209.487667	555.023438	-18.008335
20405.585372	-1209.487667	553.781250	-53.083668
20405.585372	-1209.487667	552.539063	67.898323
20405.585372	-1209.487667	551.296875	-45.220161
20405.585372	-1209.487667	550.054688	-236.300064
20405.585372	-1209.487667	548.811523	51.389286
20405.585372	-1209.487667	547.569336	20.601519
20405.585372	-1209.487667	546.325195	-68.652786
20405.585372	-1209.487667	545.082031	39.110626
20405.585372	-1209.487667	543.837891	-21.996948
20405.585372	-1209.487667	542.593750	113.813072
20405.585372	-1209.487667	541.349609	251.716782
20405.585372	-1209.487667	540.105469	71.614845
20405.585372	-1209.487667	538.860352	66.727051
20405.585372	-1209.487667	537.615234	-33.291828
20405.585372	-1209.487667	536.369141	-33.854874
20405.585372	-1209.487667	535.124023	-43.067860
20405.585372	-1209.487667	533.877930	38.451782
20405.585372	-1209.487667	532.631836	-46.397102
20405.585372	-1209.487667	531.384766	123.609039
20405.585372	-1209.487667	530.138672	-108.059425
20405.585372	-1209.487667	528.891602	55.393032
20405.585372	-1209.487667	527.643555	69.848335
20405.585372	-1209.487667	526.396484	-146.586487
20405.585372	-1209.487667	525.148438	-134.269302
20405.585372	-1209.487667	523.900391	3.129276
20405.585372	-1209.487667	522.652344	-25.578253
20405.585372	-1209.487667	521.403320	-159.924408
20405.585372	-1209.487667	520.154297	-78.679482
20405.585372	-1209.487667	518.905273	-133.240997
20405.585372	-1209.487667	517.656250	-256.730652
20405.585372	-1209.487667	516.406250	-123.850548
20405.585372	-1209.487667	515.156250	-182.704559
20405.585372	-1209.487667	513.906250	-28.384182
20405.585372	-1209.487667	512.655273	-59.271812
20405.585372	-1209.487667	511.404297	-57.873272
20405.585372	-1209.487667	510.153320	33.887302
20405.585372	-1209.487667	508.902344	-139.007996
20405.585372	-1209.487667	507.650391	-215.056961
20405.585372	-1209.487667	506.398438	-224.424728
20405.585372	-1209.487667	505.146484	-332.694275
20405.585372	-1209.487667	503.893555	-120.670624
20405.585372	-1209.487667	502.641602	-170.919571
20405.585372	-1209.487667	501.388672	-139.521027
20405.585372	-1209.487667	500.134766	-140.375046
20405.585372	-1209.487667	498.881836	-164.861435
20405.585372	-1209.487667	497.627930	-167.886978
20405.585372	-1209.487667	496.374023	-20.662020
20405.585372	-1209.487667	495.119141	96.431335
20405.585372	-1209.487667	493.865234	-16.130396
20405.585372	-1209.487667	492.610352	-60.019894
20405.585372	-1209.487667	491.355469	-106.054123
20405.585372	-1209.487667	490.099609	-38.444557
20405.585372	-1209.487667	488.843750	-73.791466
20405.585372	-1209.487667	487.587891	135.201859
20405.585372	-1209.487667	486.332031	22.638700
20405.585372	-1209.487667	485.075195	98.633438
20405.585372	-1209.487667	483.818359	-35.350891
20405.585372	-1209.487667	482.561523	44.850327
20405.585372	-1209.487667	481.304688	240.606720
20405.585372	-1209.487667	480.046875	85.177826
20405.585372	-1209.487667	478.789063	90.295052
20405.585372	-1209.487667	477.531250	97.516289
20405.585372	-1209.487667	476.272461	70.464081
20405.585372	-1209.487667	475.013672	152.464386
20405.585372	-1209.487667	473.754883	106.088562
20405.585372	-1209.487667	472.496094	123.825821
20405.585372	-1209.487667	471.236328	13.262150
20405.585372	-1209.487667	469.976563	148.447922
20405.585372	-1209.487667	468.716797	151.064484
20405.585372	-1209.487667	467.456055	160.031464
20405.585372	-1209.487667	466.196289	64.303368
20405.585372	-1209.487667	464.935547	73.175583
20405.585372	-1209.487667	463.673828	30.747950
20405.585372	-1209.487667	462.413086	223.042328
20405.585372	-1209.487667	461.151367	383.177795
20405.585372	-1209.487667	459.889648	122.925018
20405.585372	-1209.487667	458.626953	259.409637
20405.585372	-1209.487667	457.364258	242.232269
20405.585372	-1209.487667	456.101563	233.513779
20405.585372	-1209.487667	454.838867	290.792847
20405.585372	-1209.487667	453.575195	147.647629
20405.585372	-1209.487667	452.312500	115.268936
20405.585372	-1209.487667	451.047852	240.424850
20405.585372	-1209.487667	449.784180	401.639740
20405.585372	-1209.487667	448.519531	215.634995
20405.585372	-1209.487667	447.254883	276.531250
20405.585372	-1209.487667	445.990234	469.243439
20405.585372	-1209.487667	444.725586	500.052429
20405.585372	-1209.487667	443.459961	534.981140
20405.585372	-1209.487667	442.194336	514.478149
20405.585372	-1209.487667	440.927734	508.736816
20405.585372	-1209.487667	439.662109	458.230469
20405.585372	-1209.487667	438.395508	382.099976
20405.585372	-1209.487667	437.127930	305.856598
20405.585372	-1209.487667	435.861328	354.852814
20405.585372	-1209.487667	434.593750	269.855347
20405.585372	-1209.487667	433.326172	276.053711
20405.585372	-1209.487667	432.058594	146.206985
20405.585372	-1209.487667	430.790039	171.195847
20405.585372	-1209.487667	429.521484	232.077866
20405.585372	-1209.487667	428.252930	118.770798
20405.585372	-1209.487667	426.984375	321.397308
20405.585372	-1209.487667	425.714844	267.116211
20405.585372	-1209.487667	424.445313	76.953682
20405.585372	-1209.487667	423.174805	172.848114
20405.585372	-1209.487667	421.905273	289.689270
20405.585372	-1209.487667	420.634766	289.705841
20405.585372	-1209.487667	419.364258	166.619278
20405.585372	-1209.487667	418.092773	261.502289
20405.585372	-1209.487667	416.822266	294.698395
20405.585372	-1209.487667	415.550781	291.627533
20405.585372	-1209.487667	414.278320	449.158020
20405.585372	-1209.487667	413.006836	197.925903
20405.585372	-1209.487667	411.734375	219.451904
20405.585372	-1209.487667	410.461914	130.684875
20405.585372	-1209.487667	409.188477	333.501373
20405.585372	-1209.487667	407.916016	267.407410
20405.585372	-1209.487667	406.642578	249.636963
20405.585372	-1209.487667	405.368164	113.185684
20405.585372	-1209.487667	404.094727	261.727356
20405.585372	-1209.487667	402.820313	228.169571
20405.585372	-1209.487667	401.545898	196.383087
20405.585372	-1209.487667	400.270508	229.694275
20405.585372	-1209.487667	398.996094	380.853241
20405.585372	-1209.487667	397.720703	160.057495
20405.585372	-1209.487667	396.444336	255.487366
20405.585372	-1209.487667	395.168945	141.604965
20405.585372	-1209.487667	393.892578	189.757538
20405.585372	-1209.487667	392.616211	361.878601
20405.585372	-1209.487667	391.339844	189.801651
20405.585372	-1209.487667	390.062500	86.888542
20405.585372	-1209.487667	388.785156	50.986969
20405.585372	-1209.487667	387.507813	-10.670927
20405.585372	-1209.487667	386.229492	97.817696
20405.585372	-1209.487667	384.951172	222.592758
20405.585372	-1209.487667	383.672852	161.484146
20405.585372	-1209.487667	382.394531	-32.771263
20405.585372	-1209.487667	381.115234	258.685547
20405.585372	-1209.487667	379.835938	52.823006
20405.585372	-1209.487667	378.556641	40.016674
20405.585372	-1209.487667	377.277344	281.122314
20405.585372	-1209.487667	375.997070	172.394348
20405.585372	-1209.487667	374.716797	140.868057
20405.585372	-1209.487667	373.435547	110.783516
20405.585372	-1209.487667	372.155273	90.567818
20405.585372	-1209.487667	370.874023	109.571747
20405.585372	-1209.487667	369.591797	3.901392
20405.585372	-1209.487667	368.310547	-1.618572
20405.585372	-1209.487667	367.028320	-47.797855
20405.585372	-1209.487667	365.746094	29.138176
20405.585372	-1209.487667	364.463867	75.874878
20405.585372	-1209.487667	363.180664	77.698792
20405.585372	-1209.487667	361.897461	95.481812
20405.585372	-1209.487667	360.614258	-61.674847
20405.585372	-1209.487667	359.330078	132.644135
20405.585372	-1209.487667	358.045898	72.309364
20405.585372	-1209.487667	356.761719	73.975555
20405.585372	-1209.487667	355.477539	120.816582
20405.585372	-1209.487667	354.192383	133.133041
20405.585372	-1209.487667	352.907227	194.740891
20405.585372	-1209.487667	351.622070	115.008049
20405.585372	-1209.487667	350.336914	113.852844
20405.585372	-1209.487667	349.050781	-22.355644
20405.585372	-1209.487667	347.764648	133.427292
20405.585372	-1209.487667	346.477539	-113.735504
20405.585372	-1209.487667	345.191406	-125.486679
20405.585372	-1209.487667	343.904297	26.813334
20405.585372	-1209.487667	342.616211	-83.549423
20405.585372	-1209.487667	341.329102	-119.769531
20405.585372	-1209.487667	340.041016	-117.530495
20405.585372	-1209.487667	338.752930	-170.883713
20405.585372	-1209.487667	337.463867	-246.436142
20405.585372	-1209.487667	336.175781	111.235428
20405.585372	-1209.487667	334.886719	-190.462463
20405.585372	-1209.487667	333.596680	-142.688110
20405.585372	-1209.487667	332.307617	-242.420059
20405.585372	-1209.487667	331.017578	-299.766327
20405.585372	-1209.487667	329.727539	-204.159897
20405.585372	-1209.487667	328.436523	-183.160141
20405.585372	-1209.487667	327.146484	-5.155145
20405.585372	-1209.487667	325.855469	-189.578400
20405.585372	-1209.487667	324.563477	-277.599304
20405.585372	-1209.487667	323.272461	-133.738281
20405.585372	-1209.487667	321.980469	37.501728
20405.585372	-1209.487667	320.688477	-115.960579
20405.585372	-1209.487667	319.395508	-25.384760
20405.585372	-1209.487667	318.103516	32.183285
20405.585372	-1209.487667	316.810547	198.185959
20405.585372	-1209.487667	315.516602	60.373940
20405.585372	-1209.487667	314.223633	-79.223068
20405.585372	-1209.487667	312.929688	-27.269527
20405.585372	-1209.487667	311.635742	-45.969810
20405.585372	-1209.487667	310.340820	39.310371
20405.585372	-1209.487667	309.045898	-62.569317
20405.585372	-1209.487667	307.750977	91.251396
20405.585372	-1209.487667	306.456055	419.506165
20405.585372	-1209.487667	305.160156	248.736176
20405.585372	-1209.487667	303.865234	393.712830
20405.585372	-1209.487667	302.568359	397.031738
20405.585372	-1209.487667	301.272461	412.621216
20405.585372	-1209.487667	299.975586	566.913086
20405.585372	-1209.487667	298.678711	909.658936
