#X		#Y		#Wave		#Intensity
12361.797766	-1209.756333	1999.980469	-96.309227
12361.797766	-1209.756333	1999.016602	-63.622890
12361.797766	-1209.756333	1998.052734	68.931435
12361.797766	-1209.756333	1997.087891	-66.451012
12361.797766	-1209.756333	1996.123047	28.391750
12361.797766	-1209.756333	1995.158203	-60.353119
12361.797766	-1209.756333	1994.193359	-18.029385
12361.797766	-1209.756333	1993.228516	-8.137712
12361.797766	-1209.756333	1992.262695	38.674835
12361.797766	-1209.756333	1991.297852	23.371878
12361.797766	-1209.756333	1990.332031	-58.947330
12361.797766	-1209.756333	1989.366211	24.356295
12361.797766	-1209.756333	1988.399414	-90.477051
12361.797766	-1209.756333	1987.433594	49.320496
12361.797766	-1209.756333	1986.466797	-16.372726
12361.797766	-1209.756333	1985.500977	-37.707371
12361.797766	-1209.756333	1984.534180	-46.834423
12361.797766	-1209.756333	1983.567383	134.204803
12361.797766	-1209.756333	1982.599609	127.212135
12361.797766	-1209.756333	1981.632813	85.482956
12361.797766	-1209.756333	1980.665039	-92.237572
12361.797766	-1209.756333	1979.697266	88.103096
12361.797766	-1209.756333	1978.729492	50.938625
12361.797766	-1209.756333	1977.761719	72.918373
12361.797766	-1209.756333	1976.792969	191.042755
12361.797766	-1209.756333	1975.825195	37.524010
12361.797766	-1209.756333	1974.856445	207.205063
12361.797766	-1209.756333	1973.887695	38.723942
12361.797766	-1209.756333	1972.918945	3.404160
12361.797766	-1209.756333	1971.949219	167.764053
12361.797766	-1209.756333	1970.980469	179.094925
12361.797766	-1209.756333	1970.010742	89.258110
12361.797766	-1209.756333	1969.041016	199.022415
12361.797766	-1209.756333	1968.071289	128.767929
12361.797766	-1209.756333	1967.101563	115.134377
12361.797766	-1209.756333	1966.130859	34.921650
12361.797766	-1209.756333	1965.161133	67.968712
12361.797766	-1209.756333	1964.190430	-68.975517
12361.797766	-1209.756333	1963.219727	131.375153
12361.797766	-1209.756333	1962.249023	78.047638
12361.797766	-1209.756333	1961.277344	44.375648
12361.797766	-1209.756333	1960.306641	69.722679
12361.797766	-1209.756333	1959.334961	158.978653
12361.797766	-1209.756333	1958.363281	-69.155403
12361.797766	-1209.756333	1957.391602	79.031982
12361.797766	-1209.756333	1956.419922	131.229736
12361.797766	-1209.756333	1955.447266	107.160393
12361.797766	-1209.756333	1954.474609	70.777252
12361.797766	-1209.756333	1953.501953	4.887123
12361.797766	-1209.756333	1952.529297	115.901215
12361.797766	-1209.756333	1951.556641	113.844917
12361.797766	-1209.756333	1950.583984	136.327515
12361.797766	-1209.756333	1949.610352	-0.838291
12361.797766	-1209.756333	1948.636719	205.757965
12361.797766	-1209.756333	1947.663086	142.237534
12361.797766	-1209.756333	1946.689453	-34.172466
12361.797766	-1209.756333	1945.715820	-26.490587
12361.797766	-1209.756333	1944.741211	-53.171196
12361.797766	-1209.756333	1943.767578	-28.338116
12361.797766	-1209.756333	1942.792969	-40.309818
12361.797766	-1209.756333	1941.818359	38.442387
12361.797766	-1209.756333	1940.842773	-32.385300
12361.797766	-1209.756333	1939.868164	41.426319
12361.797766	-1209.756333	1938.892578	4.930041
12361.797766	-1209.756333	1937.916992	-90.357910
12361.797766	-1209.756333	1936.941406	127.958313
12361.797766	-1209.756333	1935.965820	57.180244
12361.797766	-1209.756333	1934.990234	-45.402367
12361.797766	-1209.756333	1934.013672	30.788565
12361.797766	-1209.756333	1933.037109	84.926170
12361.797766	-1209.756333	1932.060547	-5.349892
12361.797766	-1209.756333	1931.083984	-17.279886
12361.797766	-1209.756333	1930.107422	9.948586
12361.797766	-1209.756333	1929.129883	-185.418671
12361.797766	-1209.756333	1928.153320	-114.127670
12361.797766	-1209.756333	1927.175781	147.871338
12361.797766	-1209.756333	1926.198242	-18.042410
12361.797766	-1209.756333	1925.219727	72.766357
12361.797766	-1209.756333	1924.242188	-129.703079
12361.797766	-1209.756333	1923.263672	85.730309
12361.797766	-1209.756333	1922.285156	-72.666351
12361.797766	-1209.756333	1921.306641	76.758224
12361.797766	-1209.756333	1920.328125	-76.664528
12361.797766	-1209.756333	1919.349609	48.320095
12361.797766	-1209.756333	1918.370117	153.744125
12361.797766	-1209.756333	1917.391602	227.417328
12361.797766	-1209.756333	1916.412109	81.463005
12361.797766	-1209.756333	1915.431641	77.082024
12361.797766	-1209.756333	1914.452148	138.579544
12361.797766	-1209.756333	1913.472656	-9.666871
12361.797766	-1209.756333	1912.492188	22.595842
12361.797766	-1209.756333	1911.511719	152.377838
12361.797766	-1209.756333	1910.531250	-241.920532
12361.797766	-1209.756333	1909.550781	-41.432186
12361.797766	-1209.756333	1908.569336	98.083672
12361.797766	-1209.756333	1907.588867	101.143623
12361.797766	-1209.756333	1906.607422	211.384583
12361.797766	-1209.756333	1905.625977	17.205540
12361.797766	-1209.756333	1904.644531	32.498833
12361.797766	-1209.756333	1903.662109	77.012001
12361.797766	-1209.756333	1902.680664	-17.203064
12361.797766	-1209.756333	1901.698242	129.532074
12361.797766	-1209.756333	1900.715820	-20.585976
12361.797766	-1209.756333	1899.733398	121.257828
12361.797766	-1209.756333	1898.750000	2.840245
12361.797766	-1209.756333	1897.767578	-47.437981
12361.797766	-1209.756333	1896.784180	89.507332
12361.797766	-1209.756333	1895.800781	92.729065
12361.797766	-1209.756333	1894.817383	178.586548
12361.797766	-1209.756333	1893.833984	-68.447136
12361.797766	-1209.756333	1892.850586	-53.019539
12361.797766	-1209.756333	1891.866211	-112.880348
12361.797766	-1209.756333	1890.881836	-34.294727
12361.797766	-1209.756333	1889.897461	-21.282850
12361.797766	-1209.756333	1888.913086	-110.220375
12361.797766	-1209.756333	1887.927734	84.838768
12361.797766	-1209.756333	1886.943359	-13.778394
12361.797766	-1209.756333	1885.958008	8.950309
12361.797766	-1209.756333	1884.972656	21.973408
12361.797766	-1209.756333	1883.987305	42.271118
12361.797766	-1209.756333	1883.001953	-70.794525
12361.797766	-1209.756333	1882.015625	2.852354
12361.797766	-1209.756333	1881.029297	161.306686
12361.797766	-1209.756333	1880.042969	36.171204
12361.797766	-1209.756333	1879.056641	-76.802971
12361.797766	-1209.756333	1878.070313	-29.854448
12361.797766	-1209.756333	1877.083984	-21.676449
12361.797766	-1209.756333	1876.096680	51.877144
12361.797766	-1209.756333	1875.109375	130.242493
12361.797766	-1209.756333	1874.122070	-4.440657
12361.797766	-1209.756333	1873.134766	-13.229321
12361.797766	-1209.756333	1872.146484	-17.181061
12361.797766	-1209.756333	1871.159180	-4.202963
12361.797766	-1209.756333	1870.170898	-44.451275
12361.797766	-1209.756333	1869.182617	21.714239
12361.797766	-1209.756333	1868.194336	-110.421692
12361.797766	-1209.756333	1867.205078	-82.967484
12361.797766	-1209.756333	1866.216797	-159.465439
12361.797766	-1209.756333	1865.227539	44.371941
12361.797766	-1209.756333	1864.238281	-128.790207
12361.797766	-1209.756333	1863.249023	-108.651062
12361.797766	-1209.756333	1862.259766	-59.551903
12361.797766	-1209.756333	1861.269531	-107.076843
12361.797766	-1209.756333	1860.279297	-55.615376
12361.797766	-1209.756333	1859.290039	140.637878
12361.797766	-1209.756333	1858.298828	-109.674553
12361.797766	-1209.756333	1857.308594	-24.517918
12361.797766	-1209.756333	1856.318359	94.360558
12361.797766	-1209.756333	1855.327148	191.463547
12361.797766	-1209.756333	1854.335938	23.237089
12361.797766	-1209.756333	1853.344727	38.293026
12361.797766	-1209.756333	1852.353516	140.102066
12361.797766	-1209.756333	1851.362305	-20.864069
12361.797766	-1209.756333	1850.370117	160.386414
12361.797766	-1209.756333	1849.377930	151.206924
12361.797766	-1209.756333	1848.385742	50.466606
12361.797766	-1209.756333	1847.393555	2.718723
12361.797766	-1209.756333	1846.401367	75.354897
12361.797766	-1209.756333	1845.408203	34.779907
12361.797766	-1209.756333	1844.415039	83.247673
12361.797766	-1209.756333	1843.421875	105.191353
12361.797766	-1209.756333	1842.428711	88.594376
12361.797766	-1209.756333	1841.435547	47.911381
12361.797766	-1209.756333	1840.441406	-50.518433
12361.797766	-1209.756333	1839.448242	-136.924103
12361.797766	-1209.756333	1838.454102	45.946415
12361.797766	-1209.756333	1837.459961	-28.503773
12361.797766	-1209.756333	1836.464844	31.623484
12361.797766	-1209.756333	1835.470703	55.643906
12361.797766	-1209.756333	1834.475586	139.674484
12361.797766	-1209.756333	1833.480469	-16.573875
12361.797766	-1209.756333	1832.485352	-62.333977
12361.797766	-1209.756333	1831.490234	59.958260
12361.797766	-1209.756333	1830.495117	69.326874
12361.797766	-1209.756333	1829.499023	-34.167152
12361.797766	-1209.756333	1828.502930	-130.470367
12361.797766	-1209.756333	1827.506836	32.342171
12361.797766	-1209.756333	1826.510742	-6.461317
12361.797766	-1209.756333	1825.513672	12.261051
12361.797766	-1209.756333	1824.517578	155.621460
12361.797766	-1209.756333	1823.520508	20.761393
12361.797766	-1209.756333	1822.523438	48.901134
12361.797766	-1209.756333	1821.526367	110.529648
12361.797766	-1209.756333	1820.529297	-93.893867
12361.797766	-1209.756333	1819.531250	5.959226
12361.797766	-1209.756333	1818.533203	254.224991
12361.797766	-1209.756333	1817.535156	97.617516
12361.797766	-1209.756333	1816.537109	55.941269
12361.797766	-1209.756333	1815.539063	-21.685825
12361.797766	-1209.756333	1814.540039	89.738487
12361.797766	-1209.756333	1813.541992	71.841339
12361.797766	-1209.756333	1812.542969	84.991669
12361.797766	-1209.756333	1811.543945	64.587219
12361.797766	-1209.756333	1810.543945	63.259445
12361.797766	-1209.756333	1809.544922	33.177490
12361.797766	-1209.756333	1808.544922	-16.084070
12361.797766	-1209.756333	1807.544922	73.246323
12361.797766	-1209.756333	1806.544922	109.901932
12361.797766	-1209.756333	1805.544922	93.911964
12361.797766	-1209.756333	1804.544922	-53.528378
12361.797766	-1209.756333	1803.543945	138.182724
12361.797766	-1209.756333	1802.542969	16.921692
12361.797766	-1209.756333	1801.541992	46.057114
12361.797766	-1209.756333	1800.541016	-37.081467
12361.797766	-1209.756333	1799.539063	-151.286972
12361.797766	-1209.756333	1798.538086	23.217707
12361.797766	-1209.756333	1797.536133	87.838409
12361.797766	-1209.756333	1796.534180	97.501816
12361.797766	-1209.756333	1795.532227	4.540967
12361.797766	-1209.756333	1794.529297	-31.232845
12361.797766	-1209.756333	1793.527344	116.504120
12361.797766	-1209.756333	1792.524414	-86.267708
12361.797766	-1209.756333	1791.521484	82.722519
12361.797766	-1209.756333	1790.518555	-46.250702
12361.797766	-1209.756333	1789.514648	-79.965706
12361.797766	-1209.756333	1788.511719	179.212555
12361.797766	-1209.756333	1787.507813	-23.750755
12361.797766	-1209.756333	1786.503906	-86.244057
12361.797766	-1209.756333	1785.500000	58.302151
12361.797766	-1209.756333	1784.496094	40.884132
12361.797766	-1209.756333	1783.491211	11.496160
12361.797766	-1209.756333	1782.486328	-89.327477
12361.797766	-1209.756333	1781.481445	42.908562
12361.797766	-1209.756333	1780.476563	-72.304779
12361.797766	-1209.756333	1779.471680	-42.515099
12361.797766	-1209.756333	1778.465820	65.628990
12361.797766	-1209.756333	1777.460938	-66.393433
12361.797766	-1209.756333	1776.455078	5.914075
12361.797766	-1209.756333	1775.449219	137.511215
12361.797766	-1209.756333	1774.442383	164.458130
12361.797766	-1209.756333	1773.436523	65.449387
12361.797766	-1209.756333	1772.429688	30.504816
12361.797766	-1209.756333	1771.422852	-146.948242
12361.797766	-1209.756333	1770.416016	-30.087626
12361.797766	-1209.756333	1769.409180	43.933235
12361.797766	-1209.756333	1768.402344	70.391594
12361.797766	-1209.756333	1767.394531	-9.995095
12361.797766	-1209.756333	1766.386719	94.568130
12361.797766	-1209.756333	1765.378906	68.588066
12361.797766	-1209.756333	1764.371094	-11.992927
12361.797766	-1209.756333	1763.362305	127.821640
12361.797766	-1209.756333	1762.354492	229.588470
12361.797766	-1209.756333	1761.345703	39.779045
12361.797766	-1209.756333	1760.336914	22.903719
12361.797766	-1209.756333	1759.328125	98.330696
12361.797766	-1209.756333	1758.318359	104.966324
12361.797766	-1209.756333	1757.308594	59.428638
12361.797766	-1209.756333	1756.299805	63.546944
12361.797766	-1209.756333	1755.290039	34.442287
12361.797766	-1209.756333	1754.279297	14.726857
12361.797766	-1209.756333	1753.269531	35.166847
12361.797766	-1209.756333	1752.258789	237.654388
12361.797766	-1209.756333	1751.249023	56.855408
12361.797766	-1209.756333	1750.238281	13.186180
12361.797766	-1209.756333	1749.226563	52.190605
12361.797766	-1209.756333	1748.215820	190.381790
12361.797766	-1209.756333	1747.204102	-2.417192
12361.797766	-1209.756333	1746.193359	137.936005
12361.797766	-1209.756333	1745.181641	96.250534
12361.797766	-1209.756333	1744.168945	-28.169874
12361.797766	-1209.756333	1743.157227	163.815643
12361.797766	-1209.756333	1742.144531	164.403534
12361.797766	-1209.756333	1741.132813	129.512299
12361.797766	-1209.756333	1740.120117	-127.298576
12361.797766	-1209.756333	1739.106445	-1.836613
12361.797766	-1209.756333	1738.093750	106.992950
12361.797766	-1209.756333	1737.080078	227.490402
12361.797766	-1209.756333	1736.067383	67.237160
12361.797766	-1209.756333	1735.053711	62.577175
12361.797766	-1209.756333	1734.040039	107.347305
12361.797766	-1209.756333	1733.025391	-76.604248
12361.797766	-1209.756333	1732.011719	-20.193495
12361.797766	-1209.756333	1730.997070	99.725746
12361.797766	-1209.756333	1729.982422	172.412537
12361.797766	-1209.756333	1728.967773	153.146591
12361.797766	-1209.756333	1727.952148	124.388168
12361.797766	-1209.756333	1726.937500	-36.262398
12361.797766	-1209.756333	1725.921875	104.350243
12361.797766	-1209.756333	1724.906250	157.762863
12361.797766	-1209.756333	1723.890625	140.497467
12361.797766	-1209.756333	1722.875000	-65.027489
12361.797766	-1209.756333	1721.858398	-33.005405
12361.797766	-1209.756333	1720.841797	-81.017334
12361.797766	-1209.756333	1719.825195	59.003662
12361.797766	-1209.756333	1718.808594	24.955605
12361.797766	-1209.756333	1717.791992	-65.553520
12361.797766	-1209.756333	1716.774414	-8.073832
12361.797766	-1209.756333	1715.756836	-86.941872
12361.797766	-1209.756333	1714.739258	-1.429500
12361.797766	-1209.756333	1713.721680	156.781265
12361.797766	-1209.756333	1712.704102	-65.498398
12361.797766	-1209.756333	1711.685547	59.657692
12361.797766	-1209.756333	1710.667969	76.746635
12361.797766	-1209.756333	1709.649414	-11.841753
12361.797766	-1209.756333	1708.630859	-13.653478
12361.797766	-1209.756333	1707.611328	-48.376789
12361.797766	-1209.756333	1706.592773	45.846256
12361.797766	-1209.756333	1705.573242	-49.966030
12361.797766	-1209.756333	1704.553711	-227.853531
12361.797766	-1209.756333	1703.534180	-35.403442
12361.797766	-1209.756333	1702.513672	-25.883331
12361.797766	-1209.756333	1701.494141	-53.905357
12361.797766	-1209.756333	1700.473633	-25.764215
12361.797766	-1209.756333	1699.453125	-58.586384
12361.797766	-1209.756333	1698.432617	-196.828140
12361.797766	-1209.756333	1697.412109	-23.696737
12361.797766	-1209.756333	1696.390625	-68.384811
12361.797766	-1209.756333	1695.369141	-131.835007
12361.797766	-1209.756333	1694.347656	-15.148092
12361.797766	-1209.756333	1693.326172	-132.498093
12361.797766	-1209.756333	1692.304688	28.476147
12361.797766	-1209.756333	1691.282227	-23.476803
12361.797766	-1209.756333	1690.260742	191.084824
12361.797766	-1209.756333	1689.238281	-8.248939
12361.797766	-1209.756333	1688.214844	131.317551
12361.797766	-1209.756333	1687.192383	196.016373
12361.797766	-1209.756333	1686.168945	241.942230
12361.797766	-1209.756333	1685.146484	119.635986
12361.797766	-1209.756333	1684.123047	228.517380
12361.797766	-1209.756333	1683.099609	288.278198
12361.797766	-1209.756333	1682.075195	151.867874
12361.797766	-1209.756333	1681.051758	426.257324
12361.797766	-1209.756333	1680.027344	175.441162
12361.797766	-1209.756333	1679.002930	80.996147
12361.797766	-1209.756333	1677.978516	159.160492
12361.797766	-1209.756333	1676.953125	288.550446
12361.797766	-1209.756333	1675.928711	478.485931
12361.797766	-1209.756333	1674.903320	355.905640
12361.797766	-1209.756333	1673.877930	398.824005
12361.797766	-1209.756333	1672.852539	409.062225
12361.797766	-1209.756333	1671.826172	337.702332
12361.797766	-1209.756333	1670.800781	319.921936
12361.797766	-1209.756333	1669.774414	348.683868
12361.797766	-1209.756333	1668.748047	500.816254
12361.797766	-1209.756333	1667.721680	415.386414
12361.797766	-1209.756333	1666.694336	464.951782
12361.797766	-1209.756333	1665.667969	302.700134
12361.797766	-1209.756333	1664.640625	356.860596
12361.797766	-1209.756333	1663.613281	334.201874
12361.797766	-1209.756333	1662.585938	558.067688
12361.797766	-1209.756333	1661.557617	409.738068
12361.797766	-1209.756333	1660.530273	561.373657
12361.797766	-1209.756333	1659.501953	680.371338
12361.797766	-1209.756333	1658.473633	587.805603
12361.797766	-1209.756333	1657.444336	497.563904
12361.797766	-1209.756333	1656.416016	509.566711
12361.797766	-1209.756333	1655.386719	674.833923
12361.797766	-1209.756333	1654.358398	368.599640
12361.797766	-1209.756333	1653.328125	554.675232
12361.797766	-1209.756333	1652.298828	506.208405
12361.797766	-1209.756333	1651.269531	798.923340
12361.797766	-1209.756333	1650.239258	676.127258
12361.797766	-1209.756333	1649.208984	745.927063
12361.797766	-1209.756333	1648.178711	727.539551
12361.797766	-1209.756333	1647.148438	720.742065
12361.797766	-1209.756333	1646.117188	771.889709
12361.797766	-1209.756333	1645.086914	839.245178
12361.797766	-1209.756333	1644.055664	869.467590
12361.797766	-1209.756333	1643.024414	936.747070
12361.797766	-1209.756333	1641.992188	772.288086
12361.797766	-1209.756333	1640.960938	855.757751
12361.797766	-1209.756333	1639.928711	795.584839
12361.797766	-1209.756333	1638.896484	1182.333252
12361.797766	-1209.756333	1637.864258	1096.642700
12361.797766	-1209.756333	1636.832031	1073.478149
12361.797766	-1209.756333	1635.798828	1189.161377
12361.797766	-1209.756333	1634.766602	1191.434570
12361.797766	-1209.756333	1633.733398	1256.154297
12361.797766	-1209.756333	1632.699219	1172.814697
12361.797766	-1209.756333	1631.666016	1327.698853
12361.797766	-1209.756333	1630.632813	1216.649292
12361.797766	-1209.756333	1629.598633	1242.014282
12361.797766	-1209.756333	1628.564453	1117.153442
12361.797766	-1209.756333	1627.530273	1442.918579
12361.797766	-1209.756333	1626.495117	1348.100342
12361.797766	-1209.756333	1625.460938	1435.805786
12361.797766	-1209.756333	1624.425781	1345.659424
12361.797766	-1209.756333	1623.390625	1421.793457
12361.797766	-1209.756333	1622.355469	1276.304565
12361.797766	-1209.756333	1621.319336	1253.192383
12361.797766	-1209.756333	1620.284180	1366.253662
12361.797766	-1209.756333	1619.248047	1497.730835
12361.797766	-1209.756333	1618.211914	1183.999146
12361.797766	-1209.756333	1617.174805	1419.254883
12361.797766	-1209.756333	1616.138672	1386.986816
12361.797766	-1209.756333	1615.101563	1465.389648
12361.797766	-1209.756333	1614.065430	1276.434814
12361.797766	-1209.756333	1613.027344	1368.681885
12361.797766	-1209.756333	1611.990234	1553.079102
12361.797766	-1209.756333	1610.953125	1532.420044
12361.797766	-1209.756333	1609.915039	1672.989746
12361.797766	-1209.756333	1608.876953	1486.566772
12361.797766	-1209.756333	1607.838867	1387.721436
12361.797766	-1209.756333	1606.800781	1539.818848
12361.797766	-1209.756333	1605.761719	1192.512451
12361.797766	-1209.756333	1604.723633	1478.086304
12361.797766	-1209.756333	1603.684570	1627.849243
12361.797766	-1209.756333	1602.644531	1278.503174
12361.797766	-1209.756333	1601.605469	1559.371460
12361.797766	-1209.756333	1600.566406	1444.740967
12361.797766	-1209.756333	1599.526367	1468.087646
12361.797766	-1209.756333	1598.486328	1498.353760
12361.797766	-1209.756333	1597.446289	1429.843750
12361.797766	-1209.756333	1596.405273	1719.742554
12361.797766	-1209.756333	1595.365234	1614.539795
12361.797766	-1209.756333	1594.324219	1548.442017
12361.797766	-1209.756333	1593.283203	1441.082886
12361.797766	-1209.756333	1592.242188	1600.067627
12361.797766	-1209.756333	1591.200195	1520.347778
12361.797766	-1209.756333	1590.159180	1605.912720
12361.797766	-1209.756333	1589.117188	1696.064087
12361.797766	-1209.756333	1588.075195	1579.800415
12361.797766	-1209.756333	1587.032227	1610.376099
12361.797766	-1209.756333	1585.990234	1365.873779
12361.797766	-1209.756333	1584.947266	1602.869873
12361.797766	-1209.756333	1583.904297	1516.679199
12361.797766	-1209.756333	1582.861328	1377.867798
12361.797766	-1209.756333	1581.818359	1461.376221
12361.797766	-1209.756333	1580.775391	1352.503052
12361.797766	-1209.756333	1579.731445	1465.841919
12361.797766	-1209.756333	1578.687500	1471.579468
12361.797766	-1209.756333	1577.643555	1388.091309
12361.797766	-1209.756333	1576.598633	1556.429443
12361.797766	-1209.756333	1575.554688	1347.213379
12361.797766	-1209.756333	1574.509766	1346.308594
12361.797766	-1209.756333	1573.464844	1430.088867
12361.797766	-1209.756333	1572.419922	1495.597900
12361.797766	-1209.756333	1571.374023	1551.983521
12361.797766	-1209.756333	1570.329102	1446.111694
12361.797766	-1209.756333	1569.283203	1495.744141
12361.797766	-1209.756333	1568.237305	1166.097900
12361.797766	-1209.756333	1567.191406	1426.069336
12361.797766	-1209.756333	1566.144531	1432.449829
12361.797766	-1209.756333	1565.098633	1349.832520
12361.797766	-1209.756333	1564.051758	1271.869263
12361.797766	-1209.756333	1563.004883	1232.806885
12361.797766	-1209.756333	1561.957031	1257.722656
12361.797766	-1209.756333	1560.910156	1207.398193
12361.797766	-1209.756333	1559.862305	1485.683105
12361.797766	-1209.756333	1558.814453	1476.515747
12361.797766	-1209.756333	1557.766602	1399.002075
12361.797766	-1209.756333	1556.718750	1501.717163
12361.797766	-1209.756333	1555.669922	1602.171753
12361.797766	-1209.756333	1554.621094	1353.935669
12361.797766	-1209.756333	1553.573242	1465.921997
12361.797766	-1209.756333	1552.523438	1468.559204
12361.797766	-1209.756333	1551.474609	1412.050903
12361.797766	-1209.756333	1550.424805	1287.305664
12361.797766	-1209.756333	1549.375000	1171.790039
12361.797766	-1209.756333	1548.325195	1315.919922
12361.797766	-1209.756333	1547.275391	1120.929199
12361.797766	-1209.756333	1546.225586	855.545959
12361.797766	-1209.756333	1545.174805	974.843506
12361.797766	-1209.756333	1544.124023	973.609375
12361.797766	-1209.756333	1543.073242	986.098083
12361.797766	-1209.756333	1542.022461	875.871643
12361.797766	-1209.756333	1540.970703	715.745789
12361.797766	-1209.756333	1539.919922	823.976807
12361.797766	-1209.756333	1538.868164	757.255920
12361.797766	-1209.756333	1537.815430	767.883667
12361.797766	-1209.756333	1536.763672	601.409973
12361.797766	-1209.756333	1535.710938	634.939514
12361.797766	-1209.756333	1534.659180	723.041260
12361.797766	-1209.756333	1533.606445	654.536194
12361.797766	-1209.756333	1532.552734	701.894653
12361.797766	-1209.756333	1531.500000	642.665710
12361.797766	-1209.756333	1530.446289	824.042725
12361.797766	-1209.756333	1529.393555	1016.782349
12361.797766	-1209.756333	1528.338867	796.738953
12361.797766	-1209.756333	1527.285156	962.361877
12361.797766	-1209.756333	1526.231445	787.937073
12361.797766	-1209.756333	1525.176758	989.930786
12361.797766	-1209.756333	1524.122070	917.718628
12361.797766	-1209.756333	1523.067383	918.127319
12361.797766	-1209.756333	1522.012695	914.094788
12361.797766	-1209.756333	1520.957031	914.676208
12361.797766	-1209.756333	1519.901367	765.894470
12361.797766	-1209.756333	1518.845703	746.308594
12361.797766	-1209.756333	1517.790039	706.449280
12361.797766	-1209.756333	1516.734375	908.848022
12361.797766	-1209.756333	1515.677734	627.045959
12361.797766	-1209.756333	1514.621094	580.715759
12361.797766	-1209.756333	1513.564453	690.558044
12361.797766	-1209.756333	1512.507813	382.107300
12361.797766	-1209.756333	1511.450195	426.560120
12361.797766	-1209.756333	1510.393555	441.708954
12361.797766	-1209.756333	1509.335938	357.502350
12361.797766	-1209.756333	1508.278320	350.246368
12361.797766	-1209.756333	1507.219727	306.938660
12361.797766	-1209.756333	1506.162109	482.833801
12361.797766	-1209.756333	1505.103516	209.373276
12361.797766	-1209.756333	1504.044922	423.785522
12361.797766	-1209.756333	1502.986328	326.704590
12361.797766	-1209.756333	1501.926758	412.557251
12361.797766	-1209.756333	1500.868164	146.480957
12361.797766	-1209.756333	1499.808594	311.486359
12361.797766	-1209.756333	1498.749023	239.697937
12361.797766	-1209.756333	1497.688477	140.970520
12361.797766	-1209.756333	1496.628906	376.063812
12361.797766	-1209.756333	1495.568359	270.782196
12361.797766	-1209.756333	1494.507813	185.924423
12361.797766	-1209.756333	1493.447266	184.567886
12361.797766	-1209.756333	1492.386719	-59.990437
12361.797766	-1209.756333	1491.325195	101.066757
12361.797766	-1209.756333	1490.263672	298.189270
12361.797766	-1209.756333	1489.202148	38.287369
12361.797766	-1209.756333	1488.140625	-50.335110
12361.797766	-1209.756333	1487.079102	178.507492
12361.797766	-1209.756333	1486.016602	65.337952
12361.797766	-1209.756333	1484.954102	-164.668854
12361.797766	-1209.756333	1483.891602	-0.870290
12361.797766	-1209.756333	1482.829102	34.783543
12361.797766	-1209.756333	1481.765625	-93.603195
12361.797766	-1209.756333	1480.702148	-77.975182
12361.797766	-1209.756333	1479.638672	20.899059
12361.797766	-1209.756333	1478.575195	65.901405
12361.797766	-1209.756333	1477.511719	-100.143898
12361.797766	-1209.756333	1476.447266	68.601151
12361.797766	-1209.756333	1475.382813	48.773365
12361.797766	-1209.756333	1474.318359	365.690125
12361.797766	-1209.756333	1473.253906	200.169785
12361.797766	-1209.756333	1472.189453	200.848068
12361.797766	-1209.756333	1471.124023	208.299728
12361.797766	-1209.756333	1470.058594	83.598557
12361.797766	-1209.756333	1468.993164	355.640991
12361.797766	-1209.756333	1467.927734	134.923096
12361.797766	-1209.756333	1466.861328	86.871490
12361.797766	-1209.756333	1465.794922	155.259781
12361.797766	-1209.756333	1464.728516	259.602539
12361.797766	-1209.756333	1463.662109	104.564667
12361.797766	-1209.756333	1462.594727	114.872032
12361.797766	-1209.756333	1461.528320	154.525879
12361.797766	-1209.756333	1460.460938	355.653809
12361.797766	-1209.756333	1459.393555	517.889160
12361.797766	-1209.756333	1458.326172	399.720032
12361.797766	-1209.756333	1457.257813	405.975250
12361.797766	-1209.756333	1456.189453	305.309296
12361.797766	-1209.756333	1455.121094	314.377289
12361.797766	-1209.756333	1454.052734	268.059906
12361.797766	-1209.756333	1452.984375	205.512238
12361.797766	-1209.756333	1451.915039	394.997101
12361.797766	-1209.756333	1450.845703	230.571777
12361.797766	-1209.756333	1449.776367	425.338623
12361.797766	-1209.756333	1448.707031	407.564972
12361.797766	-1209.756333	1447.636719	405.171234
12361.797766	-1209.756333	1446.567383	479.131470
12361.797766	-1209.756333	1445.497070	664.204712
12361.797766	-1209.756333	1444.425781	574.176086
12361.797766	-1209.756333	1443.355469	556.556335
12361.797766	-1209.756333	1442.285156	531.408447
12361.797766	-1209.756333	1441.213867	498.712921
12361.797766	-1209.756333	1440.142578	727.095337
12361.797766	-1209.756333	1439.070313	603.919189
12361.797766	-1209.756333	1437.999023	477.450928
12361.797766	-1209.756333	1436.926758	645.220520
12361.797766	-1209.756333	1435.854492	425.825806
12361.797766	-1209.756333	1434.782227	468.733307
12361.797766	-1209.756333	1433.709961	466.452454
12361.797766	-1209.756333	1432.636719	295.676270
12361.797766	-1209.756333	1431.563477	269.625244
12361.797766	-1209.756333	1430.490234	487.717072
12361.797766	-1209.756333	1429.416992	331.910309
12361.797766	-1209.756333	1428.343750	332.274933
12361.797766	-1209.756333	1427.269531	376.885223
12361.797766	-1209.756333	1426.195313	221.872345
12361.797766	-1209.756333	1425.121094	311.179291
12361.797766	-1209.756333	1424.046875	339.316376
12361.797766	-1209.756333	1422.971680	322.554535
12361.797766	-1209.756333	1421.896484	340.276459
12361.797766	-1209.756333	1420.821289	315.572632
12361.797766	-1209.756333	1419.746094	63.447468
12361.797766	-1209.756333	1418.669922	215.911407
12361.797766	-1209.756333	1417.594727	173.467743
12361.797766	-1209.756333	1416.518555	99.500160
12361.797766	-1209.756333	1415.442383	44.983665
12361.797766	-1209.756333	1414.365234	-55.148155
12361.797766	-1209.756333	1413.289063	-38.278439
12361.797766	-1209.756333	1412.211914	100.016190
12361.797766	-1209.756333	1411.134766	320.524841
12361.797766	-1209.756333	1410.057617	60.228447
12361.797766	-1209.756333	1408.979492	-56.690964
12361.797766	-1209.756333	1407.902344	227.951965
12361.797766	-1209.756333	1406.824219	260.107758
12361.797766	-1209.756333	1405.746094	24.455660
12361.797766	-1209.756333	1404.666992	29.974897
12361.797766	-1209.756333	1403.588867	335.110870
12361.797766	-1209.756333	1402.509766	232.844040
12361.797766	-1209.756333	1401.430664	245.491028
12361.797766	-1209.756333	1400.351563	394.092285
12361.797766	-1209.756333	1399.271484	282.376404
12361.797766	-1209.756333	1398.192383	142.527252
12361.797766	-1209.756333	1397.112305	288.177368
12361.797766	-1209.756333	1396.031250	229.574448
12361.797766	-1209.756333	1394.951172	271.904846
12361.797766	-1209.756333	1393.871094	470.810333
12361.797766	-1209.756333	1392.790039	302.495483
12361.797766	-1209.756333	1391.708984	310.922638
12361.797766	-1209.756333	1390.626953	418.054352
12361.797766	-1209.756333	1389.545898	312.365265
12361.797766	-1209.756333	1388.463867	324.847412
12361.797766	-1209.756333	1387.381836	347.951141
12361.797766	-1209.756333	1386.299805	409.180786
12361.797766	-1209.756333	1385.217773	602.446838
12361.797766	-1209.756333	1384.134766	547.010010
12361.797766	-1209.756333	1383.051758	441.596741
12361.797766	-1209.756333	1381.968750	546.647827
12361.797766	-1209.756333	1380.885742	576.020020
12361.797766	-1209.756333	1379.802734	717.642395
12361.797766	-1209.756333	1378.718750	671.847290
12361.797766	-1209.756333	1377.634766	849.570740
12361.797766	-1209.756333	1376.550781	775.392212
12361.797766	-1209.756333	1375.465820	809.761292
12361.797766	-1209.756333	1374.381836	915.879272
12361.797766	-1209.756333	1373.296875	1120.087646
12361.797766	-1209.756333	1372.211914	1081.296875
12361.797766	-1209.756333	1371.126953	1095.299927
12361.797766	-1209.756333	1370.041016	1053.166138
12361.797766	-1209.756333	1368.955078	1120.500000
12361.797766	-1209.756333	1367.869141	1159.429565
12361.797766	-1209.756333	1366.783203	970.082214
12361.797766	-1209.756333	1365.697266	968.634888
12361.797766	-1209.756333	1364.610352	997.641479
12361.797766	-1209.756333	1363.523438	942.616150
12361.797766	-1209.756333	1362.436523	905.999634
12361.797766	-1209.756333	1361.349609	699.446533
12361.797766	-1209.756333	1360.261719	843.211060
12361.797766	-1209.756333	1359.174805	594.739746
12361.797766	-1209.756333	1358.086914	804.721497
12361.797766	-1209.756333	1356.998047	637.066772
12361.797766	-1209.756333	1355.910156	646.224854
12361.797766	-1209.756333	1354.821289	611.495178
12361.797766	-1209.756333	1353.732422	646.193237
12361.797766	-1209.756333	1352.643555	698.101501
12361.797766	-1209.756333	1351.554688	638.890198
12361.797766	-1209.756333	1350.464844	732.466370
12361.797766	-1209.756333	1349.375000	840.704712
12361.797766	-1209.756333	1348.285156	707.776489
12361.797766	-1209.756333	1347.195313	684.052917
12361.797766	-1209.756333	1346.105469	819.385925
12361.797766	-1209.756333	1345.014648	809.601624
12361.797766	-1209.756333	1343.923828	997.167358
12361.797766	-1209.756333	1342.833008	934.977905
12361.797766	-1209.756333	1341.741211	1063.230713
12361.797766	-1209.756333	1340.650391	1226.446655
12361.797766	-1209.756333	1339.558594	1215.964844
12361.797766	-1209.756333	1338.466797	1200.845947
12361.797766	-1209.756333	1337.374023	1192.686157
12361.797766	-1209.756333	1336.282227	1098.443481
12361.797766	-1209.756333	1335.189453	1121.311768
12361.797766	-1209.756333	1334.096680	1315.705078
12361.797766	-1209.756333	1333.003906	1280.322021
12361.797766	-1209.756333	1331.910156	1082.551758
12361.797766	-1209.756333	1330.817383	1224.783569
12361.797766	-1209.756333	1329.723633	1145.615112
12361.797766	-1209.756333	1328.629883	1157.397583
12361.797766	-1209.756333	1327.535156	1145.990356
12361.797766	-1209.756333	1326.441406	958.000061
12361.797766	-1209.756333	1325.346680	1009.894653
12361.797766	-1209.756333	1324.251953	872.980591
12361.797766	-1209.756333	1323.156250	1046.414917
12361.797766	-1209.756333	1322.061523	985.564758
12361.797766	-1209.756333	1320.965820	1037.998047
12361.797766	-1209.756333	1319.870117	968.345337
12361.797766	-1209.756333	1318.774414	836.455322
12361.797766	-1209.756333	1317.678711	867.211182
12361.797766	-1209.756333	1316.582031	712.001465
12361.797766	-1209.756333	1315.485352	816.713501
12361.797766	-1209.756333	1314.388672	750.837646
12361.797766	-1209.756333	1313.291016	635.631897
12361.797766	-1209.756333	1312.194336	623.162109
12361.797766	-1209.756333	1311.096680	627.302307
12361.797766	-1209.756333	1309.999023	510.438599
12361.797766	-1209.756333	1308.901367	615.275330
12361.797766	-1209.756333	1307.802734	547.711121
12361.797766	-1209.756333	1306.705078	662.794067
12361.797766	-1209.756333	1305.606445	656.702209
12361.797766	-1209.756333	1304.506836	454.291321
12361.797766	-1209.756333	1303.408203	486.994049
12361.797766	-1209.756333	1302.308594	572.372314
12361.797766	-1209.756333	1301.208984	492.493744
12361.797766	-1209.756333	1300.109375	420.278412
12361.797766	-1209.756333	1299.009766	512.787109
12361.797766	-1209.756333	1297.909180	646.296692
12361.797766	-1209.756333	1296.808594	610.803284
12361.797766	-1209.756333	1295.708008	404.953583
12361.797766	-1209.756333	1294.607422	462.309387
12361.797766	-1209.756333	1293.506836	467.382660
12361.797766	-1209.756333	1292.405273	445.318481
12361.797766	-1209.756333	1291.303711	405.279877
12361.797766	-1209.756333	1290.202148	311.833527
12361.797766	-1209.756333	1289.099609	419.171448
12361.797766	-1209.756333	1287.998047	277.248291
12361.797766	-1209.756333	1286.895508	323.058136
12361.797766	-1209.756333	1285.792969	243.694687
12361.797766	-1209.756333	1284.689453	265.182983
12361.797766	-1209.756333	1283.586914	278.834106
12361.797766	-1209.756333	1282.483398	385.264252
12361.797766	-1209.756333	1281.379883	498.069061
12361.797766	-1209.756333	1280.276367	394.785919
12361.797766	-1209.756333	1279.171875	273.598114
12361.797766	-1209.756333	1278.067383	379.293610
12361.797766	-1209.756333	1276.962891	338.416626
12361.797766	-1209.756333	1275.858398	274.078796
12361.797766	-1209.756333	1274.753906	425.235443
12361.797766	-1209.756333	1273.648438	461.976227
12361.797766	-1209.756333	1272.542969	427.770691
12361.797766	-1209.756333	1271.437500	425.416992
12361.797766	-1209.756333	1270.331055	346.371948
12361.797766	-1209.756333	1269.225586	474.987457
12361.797766	-1209.756333	1268.119141	325.433746
12361.797766	-1209.756333	1267.012695	412.516266
12361.797766	-1209.756333	1265.906250	457.074249
12361.797766	-1209.756333	1264.798828	402.440491
12361.797766	-1209.756333	1263.691406	504.557220
12361.797766	-1209.756333	1262.583984	548.802734
12361.797766	-1209.756333	1261.476563	407.734894
12361.797766	-1209.756333	1260.368164	390.298889
12361.797766	-1209.756333	1259.260742	311.308563
12361.797766	-1209.756333	1258.152344	321.158752
12361.797766	-1209.756333	1257.043945	321.017273
12361.797766	-1209.756333	1255.934570	294.060760
12361.797766	-1209.756333	1254.825195	245.199203
12361.797766	-1209.756333	1253.716797	340.547791
12361.797766	-1209.756333	1252.606445	198.160919
12361.797766	-1209.756333	1251.497070	67.360893
12361.797766	-1209.756333	1250.387695	184.405350
12361.797766	-1209.756333	1249.277344	154.416168
12361.797766	-1209.756333	1248.166992	139.014389
12361.797766	-1209.756333	1247.055664	166.073837
12361.797766	-1209.756333	1245.945313	110.123421
12361.797766	-1209.756333	1244.833984	79.131088
12361.797766	-1209.756333	1243.722656	120.220871
12361.797766	-1209.756333	1242.611328	126.707619
12361.797766	-1209.756333	1241.499023	42.859673
12361.797766	-1209.756333	1240.387695	12.339828
12361.797766	-1209.756333	1239.275391	58.395264
12361.797766	-1209.756333	1238.162109	11.019527
12361.797766	-1209.756333	1237.049805	93.493683
12361.797766	-1209.756333	1235.936523	36.065819
12361.797766	-1209.756333	1234.823242	135.864975
12361.797766	-1209.756333	1233.709961	189.268555
12361.797766	-1209.756333	1232.596680	226.340469
12361.797766	-1209.756333	1231.482422	68.504242
12361.797766	-1209.756333	1230.369141	119.703255
12361.797766	-1209.756333	1229.253906	-58.398369
12361.797766	-1209.756333	1228.139648	-46.537064
12361.797766	-1209.756333	1227.025391	-8.677012
12361.797766	-1209.756333	1225.910156	16.777122
12361.797766	-1209.756333	1224.794922	8.686987
12361.797766	-1209.756333	1223.679688	-88.152985
12361.797766	-1209.756333	1222.563477	-4.167022
12361.797766	-1209.756333	1221.447266	49.412834
12361.797766	-1209.756333	1220.331055	-1.617983
12361.797766	-1209.756333	1219.214844	-116.162285
12361.797766	-1209.756333	1218.098633	60.787285
12361.797766	-1209.756333	1216.981445	21.532970
12361.797766	-1209.756333	1215.864258	-59.665916
12361.797766	-1209.756333	1214.747070	-157.696533
12361.797766	-1209.756333	1213.629883	-2.211670
12361.797766	-1209.756333	1212.511719	33.325237
12361.797766	-1209.756333	1211.393555	-60.400612
12361.797766	-1209.756333	1210.275391	-19.793936
12361.797766	-1209.756333	1209.157227	-23.097336
12361.797766	-1209.756333	1208.038086	12.928801
12361.797766	-1209.756333	1206.918945	-134.936462
12361.797766	-1209.756333	1205.799805	37.261551
12361.797766	-1209.756333	1204.680664	-78.065430
12361.797766	-1209.756333	1203.560547	134.700043
12361.797766	-1209.756333	1202.441406	106.668579
12361.797766	-1209.756333	1201.321289	29.813734
12361.797766	-1209.756333	1200.200195	-46.515324
12361.797766	-1209.756333	1199.080078	-34.530098
12361.797766	-1209.756333	1197.958984	-54.322582
12361.797766	-1209.756333	1196.837891	-60.388824
12361.797766	-1209.756333	1195.716797	-17.210613
12361.797766	-1209.756333	1194.594727	-55.925533
12361.797766	-1209.756333	1193.473633	-120.201813
12361.797766	-1209.756333	1192.351563	-46.383659
12361.797766	-1209.756333	1191.229492	-57.206200
12361.797766	-1209.756333	1190.106445	8.668474
12361.797766	-1209.756333	1188.984375	48.177853
12361.797766	-1209.756333	1187.861328	-67.746101
12361.797766	-1209.756333	1186.738281	-52.894051
12361.797766	-1209.756333	1185.614258	9.409713
12361.797766	-1209.756333	1184.491211	-55.422447
12361.797766	-1209.756333	1183.367188	-142.846481
12361.797766	-1209.756333	1182.243164	37.773857
12361.797766	-1209.756333	1181.119141	-21.021654
12361.797766	-1209.756333	1179.994141	-186.039856
12361.797766	-1209.756333	1178.869141	-99.632690
12361.797766	-1209.756333	1177.744141	-13.996667
12361.797766	-1209.756333	1176.619141	-24.771683
12361.797766	-1209.756333	1175.493164	-218.611374
12361.797766	-1209.756333	1174.368164	-23.100775
12361.797766	-1209.756333	1173.242188	-150.453217
12361.797766	-1209.756333	1172.115234	17.208950
12361.797766	-1209.756333	1170.989258	-169.813400
12361.797766	-1209.756333	1169.862305	10.954744
12361.797766	-1209.756333	1168.735352	112.861015
12361.797766	-1209.756333	1167.608398	18.492146
12361.797766	-1209.756333	1166.481445	93.641899
12361.797766	-1209.756333	1165.353516	40.083157
12361.797766	-1209.756333	1164.225586	-14.964212
12361.797766	-1209.756333	1163.097656	41.963501
12361.797766	-1209.756333	1161.968750	45.013115
12361.797766	-1209.756333	1160.840820	12.286974
12361.797766	-1209.756333	1159.711914	15.639404
12361.797766	-1209.756333	1158.583008	118.919380
12361.797766	-1209.756333	1157.453125	21.053888
12361.797766	-1209.756333	1156.324219	-38.176701
12361.797766	-1209.756333	1155.194336	-131.572601
12361.797766	-1209.756333	1154.064453	-176.865738
12361.797766	-1209.756333	1152.933594	-50.812836
12361.797766	-1209.756333	1151.803711	-6.240634
12361.797766	-1209.756333	1150.672852	-52.720119
12361.797766	-1209.756333	1149.541992	-80.626602
12361.797766	-1209.756333	1148.411133	-18.621296
12361.797766	-1209.756333	1147.279297	67.833847
12361.797766	-1209.756333	1146.147461	-8.374640
12361.797766	-1209.756333	1145.015625	62.777592
12361.797766	-1209.756333	1143.883789	86.852989
12361.797766	-1209.756333	1142.750977	94.315247
12361.797766	-1209.756333	1141.619141	23.033648
12361.797766	-1209.756333	1140.486328	92.877029
12361.797766	-1209.756333	1139.352539	48.748569
12361.797766	-1209.756333	1138.219727	-53.705856
12361.797766	-1209.756333	1137.085938	-10.282645
12361.797766	-1209.756333	1135.952148	31.528168
12361.797766	-1209.756333	1134.818359	53.885746
12361.797766	-1209.756333	1133.683594	-31.739609
12361.797766	-1209.756333	1132.549805	-126.140114
12361.797766	-1209.756333	1131.415039	-19.205269
12361.797766	-1209.756333	1130.279297	259.102905
12361.797766	-1209.756333	1129.144531	207.043228
12361.797766	-1209.756333	1128.008789	184.813873
12361.797766	-1209.756333	1126.873047	126.348000
12361.797766	-1209.756333	1125.737305	9.449338
12361.797766	-1209.756333	1124.601563	-14.371330
12361.797766	-1209.756333	1123.464844	105.914612
12361.797766	-1209.756333	1122.328125	146.834213
12361.797766	-1209.756333	1121.191406	139.773300
12361.797766	-1209.756333	1120.054688	84.811966
12361.797766	-1209.756333	1118.916992	46.103733
12361.797766	-1209.756333	1117.779297	156.122101
12361.797766	-1209.756333	1116.641602	135.903290
12361.797766	-1209.756333	1115.503906	78.189552
12361.797766	-1209.756333	1114.365234	109.698708
12361.797766	-1209.756333	1113.226563	150.734528
12361.797766	-1209.756333	1112.087891	147.131073
12361.797766	-1209.756333	1110.949219	68.451935
12361.797766	-1209.756333	1109.809570	13.229245
12361.797766	-1209.756333	1108.669922	-3.909819
12361.797766	-1209.756333	1107.530273	-54.412415
12361.797766	-1209.756333	1106.390625	7.762587
12361.797766	-1209.756333	1105.250000	-33.922123
12361.797766	-1209.756333	1104.109375	34.409809
12361.797766	-1209.756333	1102.968750	84.475311
12361.797766	-1209.756333	1101.828125	30.035246
12361.797766	-1209.756333	1100.686523	39.812939
12361.797766	-1209.756333	1099.544922	28.233723
12361.797766	-1209.756333	1098.403320	15.642467
12361.797766	-1209.756333	1097.261719	113.118431
12361.797766	-1209.756333	1096.120117	139.699844
12361.797766	-1209.756333	1094.977539	10.326679
12361.797766	-1209.756333	1093.834961	100.482071
12361.797766	-1209.756333	1092.691406	87.117653
12361.797766	-1209.756333	1091.548828	-36.357834
12361.797766	-1209.756333	1090.405273	106.249680
12361.797766	-1209.756333	1089.261719	87.568024
12361.797766	-1209.756333	1088.118164	232.295624
12361.797766	-1209.756333	1086.973633	121.470863
12361.797766	-1209.756333	1085.829102	198.269531
12361.797766	-1209.756333	1084.684570	19.669863
12361.797766	-1209.756333	1083.540039	90.263351
12361.797766	-1209.756333	1082.395508	19.698639
12361.797766	-1209.756333	1081.250000	100.594048
12361.797766	-1209.756333	1080.104492	45.898983
12361.797766	-1209.756333	1078.958984	175.394913
12361.797766	-1209.756333	1077.812500	77.118530
12361.797766	-1209.756333	1076.666016	2.174129
12361.797766	-1209.756333	1075.519531	55.336353
12361.797766	-1209.756333	1074.373047	-9.378461
12361.797766	-1209.756333	1073.226563	146.290161
12361.797766	-1209.756333	1072.079102	180.530151
12361.797766	-1209.756333	1070.931641	148.162781
12361.797766	-1209.756333	1069.784180	47.506626
12361.797766	-1209.756333	1068.635742	176.358429
12361.797766	-1209.756333	1067.487305	227.914063
12361.797766	-1209.756333	1066.338867	175.034134
12361.797766	-1209.756333	1065.190430	101.693504
12361.797766	-1209.756333	1064.041992	272.307434
12361.797766	-1209.756333	1062.892578	257.699890
12361.797766	-1209.756333	1061.743164	217.828613
12361.797766	-1209.756333	1060.593750	366.311066
12361.797766	-1209.756333	1059.443359	285.418335
12361.797766	-1209.756333	1058.292969	275.739197
12361.797766	-1209.756333	1057.142578	113.788017
12361.797766	-1209.756333	1055.992188	196.741364
12361.797766	-1209.756333	1054.841797	94.122437
12361.797766	-1209.756333	1053.690430	87.711029
12361.797766	-1209.756333	1052.539063	21.566214
12361.797766	-1209.756333	1051.387695	20.873821
12361.797766	-1209.756333	1050.235352	-45.415066
12361.797766	-1209.756333	1049.083984	34.058430
12361.797766	-1209.756333	1047.931641	91.948143
12361.797766	-1209.756333	1046.778320	33.394890
12361.797766	-1209.756333	1045.625977	127.432526
12361.797766	-1209.756333	1044.472656	-12.566037
12361.797766	-1209.756333	1043.319336	-32.220196
12361.797766	-1209.756333	1042.166016	192.546021
12361.797766	-1209.756333	1041.012695	-53.873547
12361.797766	-1209.756333	1039.858398	72.917282
12361.797766	-1209.756333	1038.704102	-58.879986
12361.797766	-1209.756333	1037.549805	22.670494
12361.797766	-1209.756333	1036.394531	98.853989
12361.797766	-1209.756333	1035.239258	212.348648
12361.797766	-1209.756333	1034.083984	93.678696
12361.797766	-1209.756333	1032.928711	10.033871
12361.797766	-1209.756333	1031.773438	261.996002
12361.797766	-1209.756333	1030.617188	-61.149727
12361.797766	-1209.756333	1029.460938	76.896027
12361.797766	-1209.756333	1028.304688	102.029564
12361.797766	-1209.756333	1027.147461	221.260574
12361.797766	-1209.756333	1025.991211	206.716034
12361.797766	-1209.756333	1024.833984	100.522453
12361.797766	-1209.756333	1023.675781	79.823616
12361.797766	-1209.756333	1022.518555	0.632839
12361.797766	-1209.756333	1021.360352	-18.769190
12361.797766	-1209.756333	1020.202148	-82.907150
12361.797766	-1209.756333	1019.043945	12.722678
12361.797766	-1209.756333	1017.884766	65.782166
12361.797766	-1209.756333	1016.726563	25.041193
12361.797766	-1209.756333	1015.567383	-111.621132
12361.797766	-1209.756333	1014.407227	-149.500473
12361.797766	-1209.756333	1013.248047	68.585266
12361.797766	-1209.756333	1012.087891	50.947693
12361.797766	-1209.756333	1010.927734	-62.975784
12361.797766	-1209.756333	1009.767578	56.570972
12361.797766	-1209.756333	1008.606445	-5.691718
12361.797766	-1209.756333	1007.446289	14.580053
12361.797766	-1209.756333	1006.285156	95.987740
12361.797766	-1209.756333	1005.123047	95.547691
12361.797766	-1209.756333	1003.961914	210.240631
12361.797766	-1209.756333	1002.799805	53.062943
12361.797766	-1209.756333	1001.637695	142.465820
12361.797766	-1209.756333	1000.475586	128.028625
12361.797766	-1209.756333	999.312500	113.434464
12361.797766	-1209.756333	998.149414	-81.163292
12361.797766	-1209.756333	996.986328	112.864540
12361.797766	-1209.756333	995.823242	100.084656
12361.797766	-1209.756333	994.659180	-10.000136
12361.797766	-1209.756333	993.496094	106.500839
12361.797766	-1209.756333	992.332031	-28.739101
12361.797766	-1209.756333	991.166992	-16.237320
12361.797766	-1209.756333	990.002930	146.838852
12361.797766	-1209.756333	988.837891	22.432625
12361.797766	-1209.756333	987.672852	-56.142784
12361.797766	-1209.756333	986.506836	130.442459
12361.797766	-1209.756333	985.341797	-7.140974
12361.797766	-1209.756333	984.175781	20.059780
12361.797766	-1209.756333	983.009766	6.239315
12361.797766	-1209.756333	981.843750	-92.814522
12361.797766	-1209.756333	980.676758	-77.519516
12361.797766	-1209.756333	979.509766	155.604599
12361.797766	-1209.756333	978.342773	10.782670
12361.797766	-1209.756333	977.175781	-65.596382
12361.797766	-1209.756333	976.007813	44.317169
12361.797766	-1209.756333	974.839844	41.706753
12361.797766	-1209.756333	973.671875	21.541847
12361.797766	-1209.756333	972.503906	124.483810
12361.797766	-1209.756333	971.334961	-8.299330
12361.797766	-1209.756333	970.166016	-5.031814
12361.797766	-1209.756333	968.997070	-7.319380
12361.797766	-1209.756333	967.828125	157.928513
12361.797766	-1209.756333	966.658203	7.794413
12361.797766	-1209.756333	965.488281	-60.611931
12361.797766	-1209.756333	964.318359	42.439190
12361.797766	-1209.756333	963.148438	77.289291
12361.797766	-1209.756333	961.977539	9.776695
12361.797766	-1209.756333	960.806641	-125.161156
12361.797766	-1209.756333	959.635742	-133.513809
12361.797766	-1209.756333	958.463867	-104.901474
12361.797766	-1209.756333	957.292969	-52.250187
12361.797766	-1209.756333	956.121094	-78.433357
12361.797766	-1209.756333	954.948242	52.959316
12361.797766	-1209.756333	953.776367	25.195692
12361.797766	-1209.756333	952.603516	-27.277889
12361.797766	-1209.756333	951.430664	5.707985
12361.797766	-1209.756333	950.257813	11.198890
12361.797766	-1209.756333	949.084961	-107.924644
12361.797766	-1209.756333	947.911133	-31.141329
12361.797766	-1209.756333	946.737305	-67.392082
12361.797766	-1209.756333	945.563477	-84.639648
12361.797766	-1209.756333	944.388672	61.141132
12361.797766	-1209.756333	943.213867	4.117755
12361.797766	-1209.756333	942.039063	39.220528
12361.797766	-1209.756333	940.864258	-59.493290
12361.797766	-1209.756333	939.688477	160.833939
12361.797766	-1209.756333	938.513672	95.580566
12361.797766	-1209.756333	937.337891	57.568184
12361.797766	-1209.756333	936.161133	67.395012
12361.797766	-1209.756333	934.985352	139.831528
12361.797766	-1209.756333	933.808594	55.670952
12361.797766	-1209.756333	932.631836	-22.117460
12361.797766	-1209.756333	931.454102	185.874634
12361.797766	-1209.756333	930.277344	147.654572
12361.797766	-1209.756333	929.099609	26.031572
12361.797766	-1209.756333	927.921875	8.697111
12361.797766	-1209.756333	926.743164	55.962788
12361.797766	-1209.756333	925.565430	103.210983
12361.797766	-1209.756333	924.386719	104.586784
12361.797766	-1209.756333	923.208008	118.465256
12361.797766	-1209.756333	922.028320	-42.696526
12361.797766	-1209.756333	920.849609	60.770458
12361.797766	-1209.756333	919.669922	63.689957
12361.797766	-1209.756333	919.474609	12.627680
12361.797766	-1209.756333	918.309570	151.393585
12361.797766	-1209.756333	917.143555	146.442322
12361.797766	-1209.756333	915.977539	-91.646454
12361.797766	-1209.756333	914.810547	-104.881058
12361.797766	-1209.756333	913.644531	-197.186172
12361.797766	-1209.756333	912.477539	-100.152237
12361.797766	-1209.756333	911.310547	-71.799675
12361.797766	-1209.756333	910.143555	-18.511786
12361.797766	-1209.756333	908.975586	43.065853
12361.797766	-1209.756333	907.807617	-53.360146
12361.797766	-1209.756333	906.639648	-2.203847
12361.797766	-1209.756333	905.471680	-57.039967
12361.797766	-1209.756333	904.303711	-55.772331
12361.797766	-1209.756333	903.134766	-23.356138
12361.797766	-1209.756333	901.965820	-144.618469
12361.797766	-1209.756333	900.796875	28.960686
12361.797766	-1209.756333	899.626953	-54.912796
12361.797766	-1209.756333	898.457031	35.558048
12361.797766	-1209.756333	897.287109	65.816536
12361.797766	-1209.756333	896.117188	-208.873703
12361.797766	-1209.756333	894.947266	-25.120144
12361.797766	-1209.756333	893.776367	21.702488
12361.797766	-1209.756333	892.605469	-169.906204
12361.797766	-1209.756333	891.434570	59.307125
12361.797766	-1209.756333	890.262695	130.931595
12361.797766	-1209.756333	889.091797	115.501160
12361.797766	-1209.756333	887.919922	102.143326
12361.797766	-1209.756333	886.748047	37.009548
12361.797766	-1209.756333	885.575195	-98.501541
12361.797766	-1209.756333	884.403320	-167.723129
12361.797766	-1209.756333	883.230469	133.554245
12361.797766	-1209.756333	882.057617	12.568465
12361.797766	-1209.756333	880.883789	123.338242
12361.797766	-1209.756333	879.710938	80.988441
12361.797766	-1209.756333	878.537109	-97.838463
12361.797766	-1209.756333	877.362305	97.634727
12361.797766	-1209.756333	876.188477	135.912796
12361.797766	-1209.756333	875.013672	-1.503929
12361.797766	-1209.756333	873.839844	-8.697078
12361.797766	-1209.756333	872.664063	-90.264297
12361.797766	-1209.756333	871.489258	28.542171
12361.797766	-1209.756333	870.313477	-73.667549
12361.797766	-1209.756333	869.138672	-43.710892
12361.797766	-1209.756333	867.962891	-211.937241
12361.797766	-1209.756333	866.786133	57.419804
12361.797766	-1209.756333	865.610352	79.051178
12361.797766	-1209.756333	864.433594	34.652325
12361.797766	-1209.756333	863.256836	-46.863991
12361.797766	-1209.756333	862.079102	-29.374281
12361.797766	-1209.756333	860.902344	-84.063072
12361.797766	-1209.756333	859.724609	46.774296
12361.797766	-1209.756333	858.546875	-1.744817
12361.797766	-1209.756333	857.368164	149.606537
12361.797766	-1209.756333	856.190430	-67.854149
12361.797766	-1209.756333	855.011719	-54.564400
12361.797766	-1209.756333	853.833008	-47.469330
12361.797766	-1209.756333	852.654297	-102.150208
12361.797766	-1209.756333	851.474609	160.157455
12361.797766	-1209.756333	850.294922	76.623810
12361.797766	-1209.756333	849.115234	-66.554115
12361.797766	-1209.756333	847.935547	-113.005432
12361.797766	-1209.756333	846.754883	-73.072159
12361.797766	-1209.756333	845.575195	-39.339012
12361.797766	-1209.756333	844.393555	95.102448
12361.797766	-1209.756333	843.212891	21.885317
12361.797766	-1209.756333	842.032227	-24.601973
12361.797766	-1209.756333	840.850586	33.695946
12361.797766	-1209.756333	839.668945	13.900936
12361.797766	-1209.756333	838.486328	-30.542017
12361.797766	-1209.756333	837.304688	33.836727
12361.797766	-1209.756333	836.122070	81.753532
12361.797766	-1209.756333	834.939453	-44.816669
12361.797766	-1209.756333	833.756836	-128.259384
12361.797766	-1209.756333	832.573242	40.655441
12361.797766	-1209.756333	831.389648	98.725044
12361.797766	-1209.756333	830.206055	117.791443
12361.797766	-1209.756333	829.022461	-86.645630
12361.797766	-1209.756333	827.838867	-24.536131
12361.797766	-1209.756333	826.654297	-17.802931
12361.797766	-1209.756333	825.469727	-2.893366
12361.797766	-1209.756333	824.284180	100.081688
12361.797766	-1209.756333	823.099609	78.057503
12361.797766	-1209.756333	821.914063	131.791092
12361.797766	-1209.756333	820.728516	140.443573
12361.797766	-1209.756333	819.542969	-149.771469
12361.797766	-1209.756333	818.356445	-8.082199
12361.797766	-1209.756333	817.169922	29.181334
12361.797766	-1209.756333	815.983398	5.041305
12361.797766	-1209.756333	814.796875	85.195183
12361.797766	-1209.756333	813.609375	-61.672176
12361.797766	-1209.756333	812.422852	96.105743
12361.797766	-1209.756333	811.235352	-26.218260
12361.797766	-1209.756333	810.046875	-38.163086
12361.797766	-1209.756333	808.859375	-39.910748
12361.797766	-1209.756333	807.670898	31.857359
12361.797766	-1209.756333	806.482422	-57.762901
12361.797766	-1209.756333	805.293945	89.480621
12361.797766	-1209.756333	804.104492	42.709644
12361.797766	-1209.756333	802.915039	61.245674
12361.797766	-1209.756333	801.725586	-10.033649
12361.797766	-1209.756333	800.536133	67.621864
12361.797766	-1209.756333	799.345703	143.181992
12361.797766	-1209.756333	798.155273	141.193436
12361.797766	-1209.756333	796.964844	-87.131721
12361.797766	-1209.756333	795.774414	25.030458
12361.797766	-1209.756333	794.583008	-21.843485
12361.797766	-1209.756333	793.392578	75.944328
12361.797766	-1209.756333	792.200195	-231.728699
12361.797766	-1209.756333	791.008789	12.655934
12361.797766	-1209.756333	789.816406	47.172585
12361.797766	-1209.756333	788.625000	148.830826
12361.797766	-1209.756333	787.432617	67.227898
12361.797766	-1209.756333	786.239258	191.173004
12361.797766	-1209.756333	785.046875	60.707603
12361.797766	-1209.756333	783.853516	200.819901
12361.797766	-1209.756333	782.660156	129.330780
12361.797766	-1209.756333	781.465820	-1.124750
12361.797766	-1209.756333	780.272461	73.771812
12361.797766	-1209.756333	779.078125	-50.578918
12361.797766	-1209.756333	777.883789	16.109386
12361.797766	-1209.756333	776.688477	38.043896
12361.797766	-1209.756333	775.494141	49.781609
12361.797766	-1209.756333	774.298828	39.145306
12361.797766	-1209.756333	773.103516	85.334030
12361.797766	-1209.756333	771.907227	3.583668
12361.797766	-1209.756333	770.711914	116.673592
12361.797766	-1209.756333	769.515625	114.023560
12361.797766	-1209.756333	768.318359	-52.983932
12361.797766	-1209.756333	767.122070	33.583477
12361.797766	-1209.756333	765.924805	-1.590428
12361.797766	-1209.756333	764.727539	90.947495
12361.797766	-1209.756333	763.530273	106.385963
12361.797766	-1209.756333	762.333008	50.852680
12361.797766	-1209.756333	761.134766	47.990543
12361.797766	-1209.756333	759.936523	-98.734482
12361.797766	-1209.756333	758.738281	84.699837
12361.797766	-1209.756333	757.540039	158.677063
12361.797766	-1209.756333	756.340820	-46.793766
12361.797766	-1209.756333	755.141602	27.110353
12361.797766	-1209.756333	753.942383	-20.471130
12361.797766	-1209.756333	752.742188	57.372585
12361.797766	-1209.756333	751.541992	9.733664
12361.797766	-1209.756333	750.341797	113.758400
12361.797766	-1209.756333	749.141602	-16.846371
12361.797766	-1209.756333	747.941406	62.809319
12361.797766	-1209.756333	746.740234	61.550213
12361.797766	-1209.756333	745.539063	84.503311
12361.797766	-1209.756333	744.337891	40.739735
12361.797766	-1209.756333	743.135742	-102.015938
12361.797766	-1209.756333	741.933594	-46.843632
12361.797766	-1209.756333	740.731445	129.410324
12361.797766	-1209.756333	739.529297	91.580734
12361.797766	-1209.756333	738.326172	90.055664
12361.797766	-1209.756333	737.124023	-38.625492
12361.797766	-1209.756333	735.919922	22.339294
12361.797766	-1209.756333	734.716797	97.358696
12361.797766	-1209.756333	733.513672	15.020949
12361.797766	-1209.756333	732.309570	106.062141
12361.797766	-1209.756333	731.105469	-24.695961
12361.797766	-1209.756333	729.900391	29.963146
12361.797766	-1209.756333	728.696289	147.020248
12361.797766	-1209.756333	727.491211	-24.069124
12361.797766	-1209.756333	726.286133	-21.924942
12361.797766	-1209.756333	725.080078	100.992447
12361.797766	-1209.756333	723.874023	24.518713
12361.797766	-1209.756333	722.668945	-43.910717
12361.797766	-1209.756333	721.461914	-27.835648
12361.797766	-1209.756333	720.255859	-76.186546
12361.797766	-1209.756333	719.048828	-90.362267
12361.797766	-1209.756333	717.841797	-72.395584
12361.797766	-1209.756333	716.634766	-146.963257
12361.797766	-1209.756333	715.427734	-133.091629
12361.797766	-1209.756333	714.219727	41.515068
12361.797766	-1209.756333	713.011719	125.588394
12361.797766	-1209.756333	711.803711	193.515594
12361.797766	-1209.756333	710.594727	84.626556
12361.797766	-1209.756333	709.385742	-18.232780
12361.797766	-1209.756333	708.176758	-44.797218
12361.797766	-1209.756333	706.967773	101.232147
12361.797766	-1209.756333	705.758789	8.349548
12361.797766	-1209.756333	704.548828	3.747564
12361.797766	-1209.756333	703.338867	95.394394
12361.797766	-1209.756333	702.127930	-21.614094
12361.797766	-1209.756333	700.917969	53.880302
12361.797766	-1209.756333	699.707031	99.232277
12361.797766	-1209.756333	698.496094	42.308140
12361.797766	-1209.756333	697.285156	-98.793816
12361.797766	-1209.756333	696.073242	140.779022
12361.797766	-1209.756333	694.861328	25.676773
12361.797766	-1209.756333	693.649414	-63.381626
12361.797766	-1209.756333	692.436523	67.798653
12361.797766	-1209.756333	691.224609	262.943268
12361.797766	-1209.756333	690.011719	133.749313
12361.797766	-1209.756333	688.798828	122.626381
12361.797766	-1209.756333	687.584961	121.471840
12361.797766	-1209.756333	686.372070	286.288513
12361.797766	-1209.756333	685.158203	201.040375
12361.797766	-1209.756333	683.943359	385.687073
12361.797766	-1209.756333	682.729492	170.457687
12361.797766	-1209.756333	681.514648	305.000122
12361.797766	-1209.756333	680.299805	351.539734
12361.797766	-1209.756333	679.084961	184.285294
12361.797766	-1209.756333	677.869141	234.752243
12361.797766	-1209.756333	676.653320	85.491707
12361.797766	-1209.756333	675.437500	177.810669
12361.797766	-1209.756333	674.221680	313.965363
12361.797766	-1209.756333	673.004883	188.622986
12361.797766	-1209.756333	671.789063	212.929260
12361.797766	-1209.756333	670.571289	149.425049
12361.797766	-1209.756333	669.354492	255.423325
12361.797766	-1209.756333	668.136719	199.846909
12361.797766	-1209.756333	666.919922	267.851532
12361.797766	-1209.756333	665.701172	182.336685
12361.797766	-1209.756333	664.483398	178.521469
12361.797766	-1209.756333	663.264648	23.276314
12361.797766	-1209.756333	662.045898	61.258259
12361.797766	-1209.756333	660.827148	111.142113
12361.797766	-1209.756333	659.608398	123.149590
12361.797766	-1209.756333	658.388672	176.920410
12361.797766	-1209.756333	657.168945	216.709396
12361.797766	-1209.756333	655.949219	9.748061
12361.797766	-1209.756333	654.728516	-20.121258
12361.797766	-1209.756333	653.507813	232.394943
12361.797766	-1209.756333	652.287109	262.087280
12361.797766	-1209.756333	651.066406	122.771317
12361.797766	-1209.756333	649.844727	88.823006
12361.797766	-1209.756333	648.623047	182.035522
12361.797766	-1209.756333	647.401367	179.826950
12361.797766	-1209.756333	646.179688	207.388870
12361.797766	-1209.756333	644.957031	95.909737
12361.797766	-1209.756333	643.734375	165.123749
12361.797766	-1209.756333	642.511719	95.341141
12361.797766	-1209.756333	641.289063	140.670013
12361.797766	-1209.756333	640.065430	201.830551
12361.797766	-1209.756333	638.841797	262.945740
12361.797766	-1209.756333	637.618164	135.606644
12361.797766	-1209.756333	636.393555	123.305870
12361.797766	-1209.756333	635.168945	47.555645
12361.797766	-1209.756333	633.944336	130.382095
12361.797766	-1209.756333	632.719727	14.998390
12361.797766	-1209.756333	631.494141	165.123734
12361.797766	-1209.756333	630.269531	93.329330
12361.797766	-1209.756333	629.042969	219.580353
12361.797766	-1209.756333	627.817383	163.615845
12361.797766	-1209.756333	626.590820	26.501867
12361.797766	-1209.756333	625.365234	140.779465
12361.797766	-1209.756333	624.137695	175.847855
12361.797766	-1209.756333	622.911133	66.483292
12361.797766	-1209.756333	621.683594	137.135147
12361.797766	-1209.756333	620.456055	37.693779
12361.797766	-1209.756333	619.228516	-39.964951
12361.797766	-1209.756333	618.000977	-129.456879
12361.797766	-1209.756333	616.772461	-104.302002
12361.797766	-1209.756333	615.543945	33.454044
12361.797766	-1209.756333	614.314453	30.899675
12361.797766	-1209.756333	613.085938	46.120037
12361.797766	-1209.756333	611.856445	4.071333
12361.797766	-1209.756333	610.626953	46.923313
12361.797766	-1209.756333	609.397461	-125.366562
12361.797766	-1209.756333	608.166992	-149.594604
12361.797766	-1209.756333	606.936523	-23.879154
12361.797766	-1209.756333	605.706055	99.813454
12361.797766	-1209.756333	604.474609	12.458418
12361.797766	-1209.756333	603.244141	-76.823952
12361.797766	-1209.756333	602.012695	-57.654507
12361.797766	-1209.756333	600.780273	36.397911
12361.797766	-1209.756333	599.548828	35.848125
12361.797766	-1209.756333	598.316406	72.731590
12361.797766	-1209.756333	597.083984	15.077440
12361.797766	-1209.756333	595.851563	-3.161690
12361.797766	-1209.756333	594.618164	8.145740
12361.797766	-1209.756333	593.384766	-199.005341
12361.797766	-1209.756333	592.151367	-144.343918
12361.797766	-1209.756333	590.917969	-24.769409
12361.797766	-1209.756333	589.683594	14.124678
12361.797766	-1209.756333	588.449219	-94.467537
12361.797766	-1209.756333	587.214844	34.898769
12361.797766	-1209.756333	585.979492	40.390408
12361.797766	-1209.756333	584.745117	-9.124557
12361.797766	-1209.756333	583.509766	-164.700195
12361.797766	-1209.756333	582.273438	-102.141632
12361.797766	-1209.756333	581.038086	105.749161
12361.797766	-1209.756333	579.801758	-43.794178
12361.797766	-1209.756333	578.565430	-51.903366
12361.797766	-1209.756333	577.329102	34.227245
12361.797766	-1209.756333	576.091797	39.891544
12361.797766	-1209.756333	574.854492	-111.369400
12361.797766	-1209.756333	573.617188	110.141151
12361.797766	-1209.756333	572.378906	-76.313126
12361.797766	-1209.756333	571.141602	58.887775
12361.797766	-1209.756333	569.903320	-50.965561
12361.797766	-1209.756333	568.664063	-117.626045
12361.797766	-1209.756333	567.425781	-86.254128
12361.797766	-1209.756333	566.186523	-1.971198
12361.797766	-1209.756333	564.947266	49.015491
12361.797766	-1209.756333	563.708008	-21.386444
12361.797766	-1209.756333	562.467773	8.119532
12361.797766	-1209.756333	561.227539	-77.828735
12361.797766	-1209.756333	559.987305	14.372613
12361.797766	-1209.756333	558.747070	-63.635956
12361.797766	-1209.756333	557.505859	-86.803917
12361.797766	-1209.756333	556.264648	34.794468
12361.797766	-1209.756333	555.023438	48.847477
12361.797766	-1209.756333	553.781250	45.342693
12361.797766	-1209.756333	552.539063	90.742332
12361.797766	-1209.756333	551.296875	-121.753189
12361.797766	-1209.756333	550.054688	-74.294044
12361.797766	-1209.756333	548.811523	127.483391
12361.797766	-1209.756333	547.569336	147.623413
12361.797766	-1209.756333	546.325195	111.183922
12361.797766	-1209.756333	545.082031	-46.205700
12361.797766	-1209.756333	543.837891	24.836498
12361.797766	-1209.756333	542.593750	156.378708
12361.797766	-1209.756333	541.349609	-14.427165
12361.797766	-1209.756333	540.105469	27.458918
12361.797766	-1209.756333	538.860352	20.632631
12361.797766	-1209.756333	537.615234	-99.200897
12361.797766	-1209.756333	536.369141	59.763012
12361.797766	-1209.756333	535.124023	19.965061
12361.797766	-1209.756333	533.877930	-50.934059
12361.797766	-1209.756333	532.631836	-51.633823
12361.797766	-1209.756333	531.384766	52.870193
12361.797766	-1209.756333	530.138672	-115.172707
12361.797766	-1209.756333	528.891602	-117.645088
12361.797766	-1209.756333	527.643555	45.346394
12361.797766	-1209.756333	526.396484	21.547256
12361.797766	-1209.756333	525.148438	58.111683
12361.797766	-1209.756333	523.900391	186.117462
12361.797766	-1209.756333	522.652344	90.525024
12361.797766	-1209.756333	521.403320	113.606400
12361.797766	-1209.756333	520.154297	37.613415
12361.797766	-1209.756333	518.905273	66.633324
12361.797766	-1209.756333	517.656250	19.931063
12361.797766	-1209.756333	516.406250	31.569633
12361.797766	-1209.756333	515.156250	33.548061
12361.797766	-1209.756333	513.906250	-90.613510
12361.797766	-1209.756333	512.655273	20.191349
12361.797766	-1209.756333	511.404297	88.308044
12361.797766	-1209.756333	510.153320	-29.807419
12361.797766	-1209.756333	508.902344	-140.061874
12361.797766	-1209.756333	507.650391	-42.710793
12361.797766	-1209.756333	506.398438	-32.602051
12361.797766	-1209.756333	505.146484	107.430565
12361.797766	-1209.756333	503.893555	30.387360
12361.797766	-1209.756333	502.641602	32.868656
12361.797766	-1209.756333	501.388672	78.014977
12361.797766	-1209.756333	500.134766	76.703796
12361.797766	-1209.756333	498.881836	100.611160
12361.797766	-1209.756333	497.627930	200.055313
12361.797766	-1209.756333	496.374023	131.104050
12361.797766	-1209.756333	495.119141	126.084015
12361.797766	-1209.756333	493.865234	163.669250
12361.797766	-1209.756333	492.610352	96.823448
12361.797766	-1209.756333	491.355469	57.117321
12361.797766	-1209.756333	490.099609	25.197659
12361.797766	-1209.756333	488.843750	294.883453
12361.797766	-1209.756333	487.587891	336.431183
12361.797766	-1209.756333	486.332031	231.139572
12361.797766	-1209.756333	485.075195	166.489655
12361.797766	-1209.756333	483.818359	183.011383
12361.797766	-1209.756333	482.561523	340.511078
12361.797766	-1209.756333	481.304688	443.906769
12361.797766	-1209.756333	480.046875	369.702057
12361.797766	-1209.756333	478.789063	309.052917
12361.797766	-1209.756333	477.531250	211.785233
12361.797766	-1209.756333	476.272461	266.954071
12361.797766	-1209.756333	475.013672	360.675903
12361.797766	-1209.756333	473.754883	334.820343
12361.797766	-1209.756333	472.496094	436.202515
12361.797766	-1209.756333	471.236328	371.795532
12361.797766	-1209.756333	469.976563	322.825714
12361.797766	-1209.756333	468.716797	221.854050
12361.797766	-1209.756333	467.456055	400.183716
12361.797766	-1209.756333	466.196289	462.883759
12361.797766	-1209.756333	464.935547	411.952179
12361.797766	-1209.756333	463.673828	397.588470
12361.797766	-1209.756333	462.413086	427.461029
12361.797766	-1209.756333	461.151367	491.918793
12361.797766	-1209.756333	459.889648	377.424500
12361.797766	-1209.756333	458.626953	580.247986
12361.797766	-1209.756333	457.364258	532.988831
12361.797766	-1209.756333	456.101563	395.351654
12361.797766	-1209.756333	454.838867	396.089722
12361.797766	-1209.756333	453.575195	538.951050
12361.797766	-1209.756333	452.312500	652.867065
12361.797766	-1209.756333	451.047852	576.521545
12361.797766	-1209.756333	449.784180	440.604248
12361.797766	-1209.756333	448.519531	536.951965
12361.797766	-1209.756333	447.254883	640.843994
12361.797766	-1209.756333	445.990234	673.593079
12361.797766	-1209.756333	444.725586	558.497986
12361.797766	-1209.756333	443.459961	487.457581
12361.797766	-1209.756333	442.194336	613.853394
12361.797766	-1209.756333	440.927734	523.416382
12361.797766	-1209.756333	439.662109	664.827087
12361.797766	-1209.756333	438.395508	514.736877
12361.797766	-1209.756333	437.127930	552.335266
12361.797766	-1209.756333	435.861328	601.256836
12361.797766	-1209.756333	434.593750	697.873535
12361.797766	-1209.756333	433.326172	740.662659
12361.797766	-1209.756333	432.058594	635.846375
12361.797766	-1209.756333	430.790039	953.870789
12361.797766	-1209.756333	429.521484	661.139343
12361.797766	-1209.756333	428.252930	599.815735
12361.797766	-1209.756333	426.984375	683.670166
12361.797766	-1209.756333	425.714844	719.451721
12361.797766	-1209.756333	424.445313	728.216858
12361.797766	-1209.756333	423.174805	715.702271
12361.797766	-1209.756333	421.905273	725.872070
12361.797766	-1209.756333	420.634766	752.964722
12361.797766	-1209.756333	419.364258	617.396729
12361.797766	-1209.756333	418.092773	794.806213
12361.797766	-1209.756333	416.822266	769.444153
12361.797766	-1209.756333	415.550781	875.497253
12361.797766	-1209.756333	414.278320	866.661194
12361.797766	-1209.756333	413.006836	859.405273
12361.797766	-1209.756333	411.734375	748.780212
12361.797766	-1209.756333	410.461914	807.592896
12361.797766	-1209.756333	409.188477	890.790161
12361.797766	-1209.756333	407.916016	880.149109
12361.797766	-1209.756333	406.642578	708.993347
12361.797766	-1209.756333	405.368164	926.246765
12361.797766	-1209.756333	404.094727	773.359192
12361.797766	-1209.756333	402.820313	722.948364
12361.797766	-1209.756333	401.545898	666.384583
12361.797766	-1209.756333	400.270508	731.219604
12361.797766	-1209.756333	398.996094	730.818970
12361.797766	-1209.756333	397.720703	836.482666
12361.797766	-1209.756333	396.444336	793.148743
12361.797766	-1209.756333	395.168945	774.032593
12361.797766	-1209.756333	393.892578	838.044128
12361.797766	-1209.756333	392.616211	635.234619
12361.797766	-1209.756333	391.339844	810.244934
12361.797766	-1209.756333	390.062500	855.308289
12361.797766	-1209.756333	388.785156	736.295349
12361.797766	-1209.756333	387.507813	669.882080
12361.797766	-1209.756333	386.229492	855.446472
12361.797766	-1209.756333	384.951172	713.602783
12361.797766	-1209.756333	383.672852	933.753296
12361.797766	-1209.756333	382.394531	786.719788
12361.797766	-1209.756333	381.115234	862.929382
12361.797766	-1209.756333	379.835938	847.257446
12361.797766	-1209.756333	378.556641	716.978760
12361.797766	-1209.756333	377.277344	491.111816
12361.797766	-1209.756333	375.997070	626.657654
12361.797766	-1209.756333	374.716797	776.449402
12361.797766	-1209.756333	373.435547	853.248718
12361.797766	-1209.756333	372.155273	684.677551
12361.797766	-1209.756333	370.874023	509.543030
12361.797766	-1209.756333	369.591797	647.927246
12361.797766	-1209.756333	368.310547	590.237427
12361.797766	-1209.756333	367.028320	506.928131
12361.797766	-1209.756333	365.746094	630.834229
12361.797766	-1209.756333	364.463867	454.614166
12361.797766	-1209.756333	363.180664	564.947571
12361.797766	-1209.756333	361.897461	475.491241
12361.797766	-1209.756333	360.614258	598.635742
12361.797766	-1209.756333	359.330078	393.411957
12361.797766	-1209.756333	358.045898	559.480652
12361.797766	-1209.756333	356.761719	612.730774
12361.797766	-1209.756333	355.477539	604.225647
12361.797766	-1209.756333	354.192383	473.489227
12361.797766	-1209.756333	352.907227	760.783508
12361.797766	-1209.756333	351.622070	555.621277
12361.797766	-1209.756333	350.336914	609.688660
12361.797766	-1209.756333	349.050781	422.556122
12361.797766	-1209.756333	347.764648	426.527374
12361.797766	-1209.756333	346.477539	379.908752
12361.797766	-1209.756333	345.191406	431.788544
12361.797766	-1209.756333	343.904297	531.073120
12361.797766	-1209.756333	342.616211	400.527435
12361.797766	-1209.756333	341.329102	208.116135
12361.797766	-1209.756333	340.041016	332.572479
12361.797766	-1209.756333	338.752930	91.598587
12361.797766	-1209.756333	337.463867	253.949738
12361.797766	-1209.756333	336.175781	105.599243
12361.797766	-1209.756333	334.886719	262.359253
12361.797766	-1209.756333	333.596680	170.503494
12361.797766	-1209.756333	332.307617	221.743942
12361.797766	-1209.756333	331.017578	220.141174
12361.797766	-1209.756333	329.727539	103.652000
12361.797766	-1209.756333	328.436523	242.798264
12361.797766	-1209.756333	327.146484	26.305006
12361.797766	-1209.756333	325.855469	-49.402168
12361.797766	-1209.756333	324.563477	-76.569641
12361.797766	-1209.756333	323.272461	27.532106
12361.797766	-1209.756333	321.980469	-79.310181
12361.797766	-1209.756333	320.688477	-53.185555
12361.797766	-1209.756333	319.395508	-40.785271
12361.797766	-1209.756333	318.103516	70.641731
12361.797766	-1209.756333	316.810547	218.895477
12361.797766	-1209.756333	315.516602	7.881828
12361.797766	-1209.756333	314.223633	12.114464
12361.797766	-1209.756333	312.929688	-188.974716
12361.797766	-1209.756333	311.635742	-107.575058
12361.797766	-1209.756333	310.340820	-124.672241
12361.797766	-1209.756333	309.045898	-71.449478
12361.797766	-1209.756333	307.750977	-142.942566
12361.797766	-1209.756333	306.456055	-7.436166
12361.797766	-1209.756333	305.160156	183.029144
12361.797766	-1209.756333	303.865234	29.554968
12361.797766	-1209.756333	302.568359	120.070129
12361.797766	-1209.756333	301.272461	72.675949
12361.797766	-1209.756333	299.975586	196.076263
12361.797766	-1209.756333	298.678711	361.056305
