#X		#Y		#Wave		#Intensity
20473.204468	-740.029000	1999.980469	-67.575844
20473.204468	-740.029000	1999.016602	124.486000
20473.204468	-740.029000	1998.052734	-105.707321
20473.204468	-740.029000	1997.087891	-56.516350
20473.204468	-740.029000	1996.123047	-72.481529
20473.204468	-740.029000	1995.158203	-54.457542
20473.204468	-740.029000	1994.193359	94.150673
20473.204468	-740.029000	1993.228516	-181.397217
20473.204468	-740.029000	1992.262695	-123.230026
20473.204468	-740.029000	1991.297852	204.106400
20473.204468	-740.029000	1990.332031	102.576218
20473.204468	-740.029000	1989.366211	49.995384
20473.204468	-740.029000	1988.399414	-270.306946
20473.204468	-740.029000	1987.433594	-202.690887
20473.204468	-740.029000	1986.466797	138.898239
20473.204468	-740.029000	1985.500977	-27.035038
20473.204468	-740.029000	1984.534180	-45.056122
20473.204468	-740.029000	1983.567383	-135.218140
20473.204468	-740.029000	1982.599609	90.523506
20473.204468	-740.029000	1981.632813	303.389557
20473.204468	-740.029000	1980.665039	93.333870
20473.204468	-740.029000	1979.697266	171.927765
20473.204468	-740.029000	1978.729492	-70.919632
20473.204468	-740.029000	1977.761719	-79.499763
20473.204468	-740.029000	1976.792969	264.559479
20473.204468	-740.029000	1975.825195	-43.414921
20473.204468	-740.029000	1974.856445	134.506577
20473.204468	-740.029000	1973.887695	-11.147346
20473.204468	-740.029000	1972.918945	188.282333
20473.204468	-740.029000	1971.949219	190.049301
20473.204468	-740.029000	1970.980469	332.085602
20473.204468	-740.029000	1970.010742	69.496819
20473.204468	-740.029000	1969.041016	178.939499
20473.204468	-740.029000	1968.071289	241.277206
20473.204468	-740.029000	1967.101563	217.124115
20473.204468	-740.029000	1966.130859	12.926924
20473.204468	-740.029000	1965.161133	271.643280
20473.204468	-740.029000	1964.190430	91.731506
20473.204468	-740.029000	1963.219727	93.892822
20473.204468	-740.029000	1962.249023	145.108170
20473.204468	-740.029000	1961.277344	223.207642
20473.204468	-740.029000	1960.306641	212.538055
20473.204468	-740.029000	1959.334961	263.227478
20473.204468	-740.029000	1958.363281	163.710037
20473.204468	-740.029000	1957.391602	162.473206
20473.204468	-740.029000	1956.419922	-129.031998
20473.204468	-740.029000	1955.447266	36.718475
20473.204468	-740.029000	1954.474609	27.787256
20473.204468	-740.029000	1953.501953	220.276993
20473.204468	-740.029000	1952.529297	41.590897
20473.204468	-740.029000	1951.556641	128.199295
20473.204468	-740.029000	1950.583984	207.332062
20473.204468	-740.029000	1949.610352	94.819923
20473.204468	-740.029000	1948.636719	80.497154
20473.204468	-740.029000	1947.663086	-19.793753
20473.204468	-740.029000	1946.689453	159.695724
20473.204468	-740.029000	1945.715820	169.758789
20473.204468	-740.029000	1944.741211	17.852844
20473.204468	-740.029000	1943.767578	125.987846
20473.204468	-740.029000	1942.792969	77.092705
20473.204468	-740.029000	1941.818359	170.413651
20473.204468	-740.029000	1940.842773	89.617142
20473.204468	-740.029000	1939.868164	-228.912460
20473.204468	-740.029000	1938.892578	-25.344803
20473.204468	-740.029000	1937.916992	-20.321062
20473.204468	-740.029000	1936.941406	-145.131790
20473.204468	-740.029000	1935.965820	4.431288
20473.204468	-740.029000	1934.990234	207.823364
20473.204468	-740.029000	1934.013672	9.616867
20473.204468	-740.029000	1933.037109	132.180496
20473.204468	-740.029000	1932.060547	-19.395348
20473.204468	-740.029000	1931.083984	68.917091
20473.204468	-740.029000	1930.107422	162.119034
20473.204468	-740.029000	1929.129883	32.718781
20473.204468	-740.029000	1928.153320	123.513336
20473.204468	-740.029000	1927.175781	57.814861
20473.204468	-740.029000	1926.198242	-59.157700
20473.204468	-740.029000	1925.219727	2.381854
20473.204468	-740.029000	1924.242188	183.695435
20473.204468	-740.029000	1923.263672	62.007069
20473.204468	-740.029000	1922.285156	-208.603683
20473.204468	-740.029000	1921.306641	90.028107
20473.204468	-740.029000	1920.328125	-190.151474
20473.204468	-740.029000	1919.349609	25.458769
20473.204468	-740.029000	1918.370117	4.255790
20473.204468	-740.029000	1917.391602	-129.146652
20473.204468	-740.029000	1916.412109	69.418701
20473.204468	-740.029000	1915.431641	136.220718
20473.204468	-740.029000	1914.452148	100.612663
20473.204468	-740.029000	1913.472656	-100.757988
20473.204468	-740.029000	1912.492188	158.852051
20473.204468	-740.029000	1911.511719	-176.418106
20473.204468	-740.029000	1910.531250	170.983856
20473.204468	-740.029000	1909.550781	-49.496319
20473.204468	-740.029000	1908.569336	-101.713135
20473.204468	-740.029000	1907.588867	26.426254
20473.204468	-740.029000	1906.607422	3.572687
20473.204468	-740.029000	1905.625977	-226.197235
20473.204468	-740.029000	1904.644531	118.774635
20473.204468	-740.029000	1903.662109	-122.973763
20473.204468	-740.029000	1902.680664	-240.441544
20473.204468	-740.029000	1901.698242	-116.902458
20473.204468	-740.029000	1900.715820	-302.322662
20473.204468	-740.029000	1899.733398	-322.203613
20473.204468	-740.029000	1898.750000	39.804024
20473.204468	-740.029000	1897.767578	58.897369
20473.204468	-740.029000	1896.784180	-140.753708
20473.204468	-740.029000	1895.800781	-119.082909
20473.204468	-740.029000	1894.817383	77.612045
20473.204468	-740.029000	1893.833984	-78.014473
20473.204468	-740.029000	1892.850586	-371.990814
20473.204468	-740.029000	1891.866211	-112.036034
20473.204468	-740.029000	1890.881836	-63.388187
20473.204468	-740.029000	1889.897461	14.432017
20473.204468	-740.029000	1888.913086	-55.796383
20473.204468	-740.029000	1887.927734	5.109862
20473.204468	-740.029000	1886.943359	90.312599
20473.204468	-740.029000	1885.958008	-47.667118
20473.204468	-740.029000	1884.972656	-146.735992
20473.204468	-740.029000	1883.987305	-143.864288
20473.204468	-740.029000	1883.001953	-53.657070
20473.204468	-740.029000	1882.015625	-96.775841
20473.204468	-740.029000	1881.029297	-202.853287
20473.204468	-740.029000	1880.042969	-192.530731
20473.204468	-740.029000	1879.056641	28.620716
20473.204468	-740.029000	1878.070313	-169.355774
20473.204468	-740.029000	1877.083984	-20.879025
20473.204468	-740.029000	1876.096680	8.920703
20473.204468	-740.029000	1875.109375	70.214920
20473.204468	-740.029000	1874.122070	-40.347916
20473.204468	-740.029000	1873.134766	-44.352768
20473.204468	-740.029000	1872.146484	17.000734
20473.204468	-740.029000	1871.159180	-40.187103
20473.204468	-740.029000	1870.170898	30.865131
20473.204468	-740.029000	1869.182617	-193.128448
20473.204468	-740.029000	1868.194336	61.723591
20473.204468	-740.029000	1867.205078	115.847572
20473.204468	-740.029000	1866.216797	-66.898727
20473.204468	-740.029000	1865.227539	-181.903748
20473.204468	-740.029000	1864.238281	19.651846
20473.204468	-740.029000	1863.249023	-276.481201
20473.204468	-740.029000	1862.259766	-263.354950
20473.204468	-740.029000	1861.269531	0.899210
20473.204468	-740.029000	1860.279297	204.698212
20473.204468	-740.029000	1859.290039	27.037045
20473.204468	-740.029000	1858.298828	-97.470055
20473.204468	-740.029000	1857.308594	2.465294
20473.204468	-740.029000	1856.318359	-59.280533
20473.204468	-740.029000	1855.327148	4.410003
20473.204468	-740.029000	1854.335938	-100.746460
20473.204468	-740.029000	1853.344727	52.109066
20473.204468	-740.029000	1852.353516	178.372650
20473.204468	-740.029000	1851.362305	82.829071
20473.204468	-740.029000	1850.370117	81.278336
20473.204468	-740.029000	1849.377930	82.111946
20473.204468	-740.029000	1848.385742	109.415413
20473.204468	-740.029000	1847.393555	-68.034340
20473.204468	-740.029000	1846.401367	41.094307
20473.204468	-740.029000	1845.408203	171.812180
20473.204468	-740.029000	1844.415039	107.475708
20473.204468	-740.029000	1843.421875	33.497570
20473.204468	-740.029000	1842.428711	70.185951
20473.204468	-740.029000	1841.435547	89.976967
20473.204468	-740.029000	1840.441406	222.758209
20473.204468	-740.029000	1839.448242	83.702469
20473.204468	-740.029000	1838.454102	124.970062
20473.204468	-740.029000	1837.459961	-14.120349
20473.204468	-740.029000	1836.464844	156.821564
20473.204468	-740.029000	1835.470703	327.642883
20473.204468	-740.029000	1834.475586	-119.105858
20473.204468	-740.029000	1833.480469	53.979195
20473.204468	-740.029000	1832.485352	111.656517
20473.204468	-740.029000	1831.490234	-54.061531
20473.204468	-740.029000	1830.495117	135.514206
20473.204468	-740.029000	1829.499023	176.129181
20473.204468	-740.029000	1828.502930	46.269642
20473.204468	-740.029000	1827.506836	206.700958
20473.204468	-740.029000	1826.510742	326.210968
20473.204468	-740.029000	1825.513672	239.327118
20473.204468	-740.029000	1824.517578	-10.666378
20473.204468	-740.029000	1823.520508	-54.468391
20473.204468	-740.029000	1822.523438	191.703796
20473.204468	-740.029000	1821.526367	87.786537
20473.204468	-740.029000	1820.529297	115.604904
20473.204468	-740.029000	1819.531250	219.977890
20473.204468	-740.029000	1818.533203	388.885895
20473.204468	-740.029000	1817.535156	167.278076
20473.204468	-740.029000	1816.537109	31.849648
20473.204468	-740.029000	1815.539063	255.455093
20473.204468	-740.029000	1814.540039	-126.676804
20473.204468	-740.029000	1813.541992	139.736511
20473.204468	-740.029000	1812.542969	159.503128
20473.204468	-740.029000	1811.543945	-148.566620
20473.204468	-740.029000	1810.543945	129.316269
20473.204468	-740.029000	1809.544922	60.260494
20473.204468	-740.029000	1808.544922	-37.578960
20473.204468	-740.029000	1807.544922	-94.865852
20473.204468	-740.029000	1806.544922	187.105087
20473.204468	-740.029000	1805.544922	55.483482
20473.204468	-740.029000	1804.544922	165.070343
20473.204468	-740.029000	1803.543945	358.080811
20473.204468	-740.029000	1802.542969	142.537369
20473.204468	-740.029000	1801.541992	103.626854
20473.204468	-740.029000	1800.541016	157.697296
20473.204468	-740.029000	1799.539063	-41.378395
20473.204468	-740.029000	1798.538086	-130.741531
20473.204468	-740.029000	1797.536133	-179.654495
20473.204468	-740.029000	1796.534180	-138.044067
20473.204468	-740.029000	1795.532227	98.970116
20473.204468	-740.029000	1794.529297	-5.223891
20473.204468	-740.029000	1793.527344	114.577805
20473.204468	-740.029000	1792.524414	74.488579
20473.204468	-740.029000	1791.521484	289.257294
20473.204468	-740.029000	1790.518555	127.344505
20473.204468	-740.029000	1789.514648	105.885818
20473.204468	-740.029000	1788.511719	-27.647736
20473.204468	-740.029000	1787.507813	131.606964
20473.204468	-740.029000	1786.503906	378.739471
20473.204468	-740.029000	1785.500000	337.601135
20473.204468	-740.029000	1784.496094	-36.863819
20473.204468	-740.029000	1783.491211	16.952139
20473.204468	-740.029000	1782.486328	-57.875412
20473.204468	-740.029000	1781.481445	45.558765
20473.204468	-740.029000	1780.476563	182.088638
20473.204468	-740.029000	1779.471680	137.703506
20473.204468	-740.029000	1778.465820	69.395058
20473.204468	-740.029000	1777.460938	31.855719
20473.204468	-740.029000	1776.455078	96.339272
20473.204468	-740.029000	1775.449219	82.232147
20473.204468	-740.029000	1774.442383	63.204269
20473.204468	-740.029000	1773.436523	288.646729
20473.204468	-740.029000	1772.429688	155.278931
20473.204468	-740.029000	1771.422852	107.258621
20473.204468	-740.029000	1770.416016	44.847824
20473.204468	-740.029000	1769.409180	3.648469
20473.204468	-740.029000	1768.402344	2.631649
20473.204468	-740.029000	1767.394531	-3.309956
20473.204468	-740.029000	1766.386719	187.437393
20473.204468	-740.029000	1765.378906	95.751152
20473.204468	-740.029000	1764.371094	56.087902
20473.204468	-740.029000	1763.362305	111.072220
20473.204468	-740.029000	1762.354492	108.993607
20473.204468	-740.029000	1761.345703	64.080063
20473.204468	-740.029000	1760.336914	113.771713
20473.204468	-740.029000	1759.328125	101.685455
20473.204468	-740.029000	1758.318359	98.889557
20473.204468	-740.029000	1757.308594	-159.796356
20473.204468	-740.029000	1756.299805	296.371826
20473.204468	-740.029000	1755.290039	32.661392
20473.204468	-740.029000	1754.279297	38.630302
20473.204468	-740.029000	1753.269531	129.605484
20473.204468	-740.029000	1752.258789	-32.748238
20473.204468	-740.029000	1751.249023	-214.125687
20473.204468	-740.029000	1750.238281	93.844376
20473.204468	-740.029000	1749.226563	-123.329689
20473.204468	-740.029000	1748.215820	212.514847
20473.204468	-740.029000	1747.204102	-7.317114
20473.204468	-740.029000	1746.193359	-52.382801
20473.204468	-740.029000	1745.181641	48.841831
20473.204468	-740.029000	1744.168945	43.552788
20473.204468	-740.029000	1743.157227	-131.920334
20473.204468	-740.029000	1742.144531	193.009079
20473.204468	-740.029000	1741.132813	116.363739
20473.204468	-740.029000	1740.120117	-54.846493
20473.204468	-740.029000	1739.106445	-124.718414
20473.204468	-740.029000	1738.093750	-43.738026
20473.204468	-740.029000	1737.080078	55.891750
20473.204468	-740.029000	1736.067383	152.963943
20473.204468	-740.029000	1735.053711	108.340477
20473.204468	-740.029000	1734.040039	77.703880
20473.204468	-740.029000	1733.025391	-118.095703
20473.204468	-740.029000	1732.011719	-64.191551
20473.204468	-740.029000	1730.997070	-26.989529
20473.204468	-740.029000	1729.982422	198.471024
20473.204468	-740.029000	1728.967773	56.274780
20473.204468	-740.029000	1727.952148	78.772209
20473.204468	-740.029000	1726.937500	4.583725
20473.204468	-740.029000	1725.921875	-13.272183
20473.204468	-740.029000	1724.906250	-123.071220
20473.204468	-740.029000	1723.890625	-296.523499
20473.204468	-740.029000	1722.875000	47.454861
20473.204468	-740.029000	1721.858398	-4.014944
20473.204468	-740.029000	1720.841797	139.546021
20473.204468	-740.029000	1719.825195	174.736374
20473.204468	-740.029000	1718.808594	143.931091
20473.204468	-740.029000	1717.791992	-150.245743
20473.204468	-740.029000	1716.774414	-89.682365
20473.204468	-740.029000	1715.756836	-252.484863
20473.204468	-740.029000	1714.739258	33.237507
20473.204468	-740.029000	1713.721680	-350.594238
20473.204468	-740.029000	1712.704102	-114.587341
20473.204468	-740.029000	1711.685547	116.457291
20473.204468	-740.029000	1710.667969	-178.456741
20473.204468	-740.029000	1709.649414	-313.867035
20473.204468	-740.029000	1708.630859	-78.692001
20473.204468	-740.029000	1707.611328	-151.063049
20473.204468	-740.029000	1706.592773	294.755127
20473.204468	-740.029000	1705.573242	97.762939
20473.204468	-740.029000	1704.553711	-36.006149
20473.204468	-740.029000	1703.534180	-40.959949
20473.204468	-740.029000	1702.513672	-1.554668
20473.204468	-740.029000	1701.494141	-224.703918
20473.204468	-740.029000	1700.473633	-124.663383
20473.204468	-740.029000	1699.453125	-214.513062
20473.204468	-740.029000	1698.432617	13.990707
20473.204468	-740.029000	1697.412109	122.866028
20473.204468	-740.029000	1696.390625	27.896305
20473.204468	-740.029000	1695.369141	-13.348456
20473.204468	-740.029000	1694.347656	29.519056
20473.204468	-740.029000	1693.326172	-42.393120
20473.204468	-740.029000	1692.304688	-219.663452
20473.204468	-740.029000	1691.282227	33.261475
20473.204468	-740.029000	1690.260742	-263.455750
20473.204468	-740.029000	1689.238281	-57.630840
20473.204468	-740.029000	1688.214844	-118.465614
20473.204468	-740.029000	1687.192383	-223.779129
20473.204468	-740.029000	1686.168945	-104.919022
20473.204468	-740.029000	1685.146484	20.802948
20473.204468	-740.029000	1684.123047	22.560251
20473.204468	-740.029000	1683.099609	-6.154574
20473.204468	-740.029000	1682.075195	-34.997890
20473.204468	-740.029000	1681.051758	111.125694
20473.204468	-740.029000	1680.027344	91.375221
20473.204468	-740.029000	1679.002930	113.516182
20473.204468	-740.029000	1677.978516	86.553375
20473.204468	-740.029000	1676.953125	150.425751
20473.204468	-740.029000	1675.928711	22.986572
20473.204468	-740.029000	1674.903320	228.842270
20473.204468	-740.029000	1673.877930	45.267685
20473.204468	-740.029000	1672.852539	528.151489
20473.204468	-740.029000	1671.826172	183.601166
20473.204468	-740.029000	1670.800781	360.913391
20473.204468	-740.029000	1669.774414	260.885193
20473.204468	-740.029000	1668.748047	298.186401
20473.204468	-740.029000	1667.721680	409.884491
20473.204468	-740.029000	1666.694336	498.148224
20473.204468	-740.029000	1665.667969	509.515259
20473.204468	-740.029000	1664.640625	779.043701
20473.204468	-740.029000	1663.613281	690.126465
20473.204468	-740.029000	1662.585938	603.490295
20473.204468	-740.029000	1661.557617	1239.995972
20473.204468	-740.029000	1660.530273	881.103943
20473.204468	-740.029000	1659.501953	908.125427
20473.204468	-740.029000	1658.473633	981.545593
20473.204468	-740.029000	1657.444336	1143.141235
20473.204468	-740.029000	1656.416016	1311.599609
20473.204468	-740.029000	1655.386719	1208.140015
20473.204468	-740.029000	1654.358398	1336.908936
20473.204468	-740.029000	1653.328125	1579.286377
20473.204468	-740.029000	1652.298828	1768.142822
20473.204468	-740.029000	1651.269531	1659.786011
20473.204468	-740.029000	1650.239258	1945.875366
20473.204468	-740.029000	1649.208984	2067.075928
20473.204468	-740.029000	1648.178711	2090.753662
20473.204468	-740.029000	1647.148438	2269.758301
20473.204468	-740.029000	1646.117188	2492.674316
20473.204468	-740.029000	1645.086914	2210.102783
20473.204468	-740.029000	1644.055664	2159.355469
20473.204468	-740.029000	1643.024414	2553.518066
20473.204468	-740.029000	1641.992188	2162.032715
20473.204468	-740.029000	1640.960938	2201.547363
20473.204468	-740.029000	1639.928711	2454.062988
20473.204468	-740.029000	1638.896484	2287.329590
20473.204468	-740.029000	1637.864258	2470.214600
20473.204468	-740.029000	1636.832031	2046.558105
20473.204468	-740.029000	1635.798828	2414.478027
20473.204468	-740.029000	1634.766602	2303.306152
20473.204468	-740.029000	1633.733398	2305.486816
20473.204468	-740.029000	1632.699219	2259.049561
20473.204468	-740.029000	1631.666016	2323.636475
20473.204468	-740.029000	1630.632813	2339.633057
20473.204468	-740.029000	1629.598633	2293.177002
20473.204468	-740.029000	1628.564453	2574.900635
20473.204468	-740.029000	1627.530273	2535.330078
20473.204468	-740.029000	1626.495117	2622.805908
20473.204468	-740.029000	1625.460938	2680.243408
20473.204468	-740.029000	1624.425781	2735.323486
20473.204468	-740.029000	1623.390625	2873.501221
20473.204468	-740.029000	1622.355469	2711.540771
20473.204468	-740.029000	1621.319336	2985.823486
20473.204468	-740.029000	1620.284180	2807.769043
20473.204468	-740.029000	1619.248047	3100.401855
20473.204468	-740.029000	1618.211914	3510.571777
20473.204468	-740.029000	1617.174805	3433.978516
20473.204468	-740.029000	1616.138672	3682.558838
20473.204468	-740.029000	1615.101563	3421.580322
20473.204468	-740.029000	1614.065430	3453.459473
20473.204468	-740.029000	1613.027344	3630.476074
20473.204468	-740.029000	1611.990234	3507.968506
20473.204468	-740.029000	1610.953125	3671.164307
20473.204468	-740.029000	1609.915039	3965.576172
20473.204468	-740.029000	1608.876953	4059.584473
20473.204468	-740.029000	1607.838867	3799.068604
20473.204468	-740.029000	1606.800781	3996.721924
20473.204468	-740.029000	1605.761719	4277.157227
20473.204468	-740.029000	1604.723633	4157.220703
20473.204468	-740.029000	1603.684570	4140.865723
20473.204468	-740.029000	1602.644531	4476.418945
20473.204468	-740.029000	1601.605469	4641.756836
20473.204468	-740.029000	1600.566406	4154.180176
20473.204468	-740.029000	1599.526367	4443.719727
20473.204468	-740.029000	1598.486328	4140.303711
20473.204468	-740.029000	1597.446289	4377.003418
20473.204468	-740.029000	1596.405273	4381.634277
20473.204468	-740.029000	1595.365234	4503.483398
20473.204468	-740.029000	1594.324219	4161.479492
20473.204468	-740.029000	1593.283203	4508.423828
20473.204468	-740.029000	1592.242188	4033.559082
20473.204468	-740.029000	1591.200195	3983.490723
20473.204468	-740.029000	1590.159180	4071.205566
20473.204468	-740.029000	1589.117188	4319.523926
20473.204468	-740.029000	1588.075195	4262.775879
20473.204468	-740.029000	1587.032227	4180.884277
20473.204468	-740.029000	1585.990234	4259.618164
20473.204468	-740.029000	1584.947266	4418.612793
20473.204468	-740.029000	1583.904297	4126.149414
20473.204468	-740.029000	1582.861328	3824.726074
20473.204468	-740.029000	1581.818359	3958.780518
20473.204468	-740.029000	1580.775391	3863.832520
20473.204468	-740.029000	1579.731445	3681.974854
20473.204468	-740.029000	1578.687500	3848.296387
20473.204468	-740.029000	1577.643555	3524.787598
20473.204468	-740.029000	1576.598633	3849.172607
20473.204468	-740.029000	1575.554688	3342.940918
20473.204468	-740.029000	1574.509766	3562.206543
20473.204468	-740.029000	1573.464844	3500.157959
20473.204468	-740.029000	1572.419922	3925.343750
20473.204468	-740.029000	1571.374023	3817.720703
20473.204468	-740.029000	1570.329102	3467.967285
20473.204468	-740.029000	1569.283203	3609.827148
20473.204468	-740.029000	1568.237305	3687.769043
20473.204468	-740.029000	1567.191406	3523.631104
20473.204468	-740.029000	1566.144531	3688.579590
20473.204468	-740.029000	1565.098633	3743.988281
20473.204468	-740.029000	1564.051758	4180.788086
20473.204468	-740.029000	1563.004883	4101.627441
20473.204468	-740.029000	1561.957031	3883.380859
20473.204468	-740.029000	1560.910156	3998.535645
20473.204468	-740.029000	1559.862305	4113.757324
20473.204468	-740.029000	1558.814453	4327.152344
20473.204468	-740.029000	1557.766602	4285.177734
20473.204468	-740.029000	1556.718750	4263.879883
20473.204468	-740.029000	1555.669922	4238.152832
20473.204468	-740.029000	1554.621094	4490.645508
20473.204468	-740.029000	1553.573242	4266.937012
20473.204468	-740.029000	1552.523438	4257.586914
20473.204468	-740.029000	1551.474609	4200.574219
20473.204468	-740.029000	1550.424805	4316.799805
20473.204468	-740.029000	1549.375000	4230.478516
20473.204468	-740.029000	1548.325195	4440.294922
20473.204468	-740.029000	1547.275391	4128.959961
20473.204468	-740.029000	1546.225586	4277.583984
20473.204468	-740.029000	1545.174805	3905.270508
20473.204468	-740.029000	1544.124023	3856.279053
20473.204468	-740.029000	1543.073242	3693.751709
20473.204468	-740.029000	1542.022461	3642.871826
20473.204468	-740.029000	1540.970703	3460.303223
20473.204468	-740.029000	1539.919922	3352.996338
20473.204468	-740.029000	1538.868164	3184.527344
20473.204468	-740.029000	1537.815430	3234.394043
20473.204468	-740.029000	1536.763672	3179.934814
20473.204468	-740.029000	1535.710938	3127.926025
20473.204468	-740.029000	1534.659180	2887.660156
20473.204468	-740.029000	1533.606445	2690.781006
20473.204468	-740.029000	1532.552734	2641.681396
20473.204468	-740.029000	1531.500000	2561.023682
20473.204468	-740.029000	1530.446289	2094.847656
20473.204468	-740.029000	1529.393555	2171.217529
20473.204468	-740.029000	1528.338867	1991.421631
20473.204468	-740.029000	1527.285156	1700.785278
20473.204468	-740.029000	1526.231445	1639.431030
20473.204468	-740.029000	1525.176758	1637.208252
20473.204468	-740.029000	1524.122070	1530.926514
20473.204468	-740.029000	1523.067383	1424.877930
20473.204468	-740.029000	1522.012695	1262.428833
20473.204468	-740.029000	1520.957031	1007.361084
20473.204468	-740.029000	1519.901367	1327.756836
20473.204468	-740.029000	1518.845703	1227.119019
20473.204468	-740.029000	1517.790039	1153.878296
20473.204468	-740.029000	1516.734375	1257.387573
20473.204468	-740.029000	1515.677734	1338.413696
20473.204468	-740.029000	1514.621094	876.680237
20473.204468	-740.029000	1513.564453	1154.922607
20473.204468	-740.029000	1512.507813	1118.936768
20473.204468	-740.029000	1511.450195	1288.894775
20473.204468	-740.029000	1510.393555	1006.918152
20473.204468	-740.029000	1509.335938	926.383667
20473.204468	-740.029000	1508.278320	920.652283
20473.204468	-740.029000	1507.219727	1425.666260
20473.204468	-740.029000	1506.162109	925.615967
20473.204468	-740.029000	1505.103516	967.922485
20473.204468	-740.029000	1504.044922	933.660767
20473.204468	-740.029000	1502.986328	820.618713
20473.204468	-740.029000	1501.926758	723.622253
20473.204468	-740.029000	1500.868164	951.805054
20473.204468	-740.029000	1499.808594	424.365417
20473.204468	-740.029000	1498.749023	589.781555
20473.204468	-740.029000	1497.688477	753.083191
20473.204468	-740.029000	1496.628906	848.910217
20473.204468	-740.029000	1495.568359	827.690857
20473.204468	-740.029000	1494.507813	563.298889
20473.204468	-740.029000	1493.447266	776.920532
20473.204468	-740.029000	1492.386719	1006.444885
20473.204468	-740.029000	1491.325195	1161.762451
20473.204468	-740.029000	1490.263672	706.972412
20473.204468	-740.029000	1489.202148	581.300110
20473.204468	-740.029000	1488.140625	482.909912
20473.204468	-740.029000	1487.079102	720.116760
20473.204468	-740.029000	1486.016602	448.917511
20473.204468	-740.029000	1484.954102	400.769714
20473.204468	-740.029000	1483.891602	217.912033
20473.204468	-740.029000	1482.829102	266.975708
20473.204468	-740.029000	1481.765625	3.721949
20473.204468	-740.029000	1480.702148	66.732437
20473.204468	-740.029000	1479.638672	168.175461
20473.204468	-740.029000	1478.575195	24.836433
20473.204468	-740.029000	1477.511719	-174.301941
20473.204468	-740.029000	1476.447266	78.190475
20473.204468	-740.029000	1475.382813	48.021141
20473.204468	-740.029000	1474.318359	-170.630051
20473.204468	-740.029000	1473.253906	-34.145725
20473.204468	-740.029000	1472.189453	120.353165
20473.204468	-740.029000	1471.124023	-21.141720
20473.204468	-740.029000	1470.058594	71.251694
20473.204468	-740.029000	1468.993164	96.176079
20473.204468	-740.029000	1467.927734	58.567062
20473.204468	-740.029000	1466.861328	-92.995049
20473.204468	-740.029000	1465.794922	203.673630
20473.204468	-740.029000	1464.728516	243.453949
20473.204468	-740.029000	1463.662109	113.213097
20473.204468	-740.029000	1462.594727	72.715767
20473.204468	-740.029000	1461.528320	589.311584
20473.204468	-740.029000	1460.460938	354.684448
20473.204468	-740.029000	1459.393555	391.030457
20473.204468	-740.029000	1458.326172	635.212769
20473.204468	-740.029000	1457.257813	665.458069
20473.204468	-740.029000	1456.189453	945.830811
20473.204468	-740.029000	1455.121094	1106.002808
20473.204468	-740.029000	1454.052734	1151.297852
20473.204468	-740.029000	1452.984375	1358.577393
20473.204468	-740.029000	1451.915039	1190.299316
20473.204468	-740.029000	1450.845703	1644.237793
20473.204468	-740.029000	1449.776367	1393.832275
20473.204468	-740.029000	1448.707031	1173.851807
20473.204468	-740.029000	1447.636719	1361.839233
20473.204468	-740.029000	1446.567383	1032.804077
20473.204468	-740.029000	1445.497070	921.675903
20473.204468	-740.029000	1444.425781	666.712952
20473.204468	-740.029000	1443.355469	561.688843
20473.204468	-740.029000	1442.285156	654.451416
20473.204468	-740.029000	1441.213867	538.050415
20473.204468	-740.029000	1440.142578	506.269623
20473.204468	-740.029000	1439.070313	509.622131
20473.204468	-740.029000	1437.999023	695.211365
20473.204468	-740.029000	1436.926758	969.519287
20473.204468	-740.029000	1435.854492	671.766113
20473.204468	-740.029000	1434.782227	564.170105
20473.204468	-740.029000	1433.709961	615.277527
20473.204468	-740.029000	1432.636719	343.909332
20473.204468	-740.029000	1431.563477	227.091492
20473.204468	-740.029000	1430.490234	103.643707
20473.204468	-740.029000	1429.416992	99.901291
20473.204468	-740.029000	1428.343750	229.056931
20473.204468	-740.029000	1427.269531	-111.794098
20473.204468	-740.029000	1426.195313	32.597702
20473.204468	-740.029000	1425.121094	11.741390
20473.204468	-740.029000	1424.046875	235.659683
20473.204468	-740.029000	1422.971680	35.745449
20473.204468	-740.029000	1421.896484	12.760980
20473.204468	-740.029000	1420.821289	86.060974
20473.204468	-740.029000	1419.746094	385.931732
20473.204468	-740.029000	1418.669922	147.673126
20473.204468	-740.029000	1417.594727	471.985962
20473.204468	-740.029000	1416.518555	454.156403
20473.204468	-740.029000	1415.442383	240.129089
20473.204468	-740.029000	1414.365234	361.997528
20473.204468	-740.029000	1413.289063	516.175720
20473.204468	-740.029000	1412.211914	449.306885
20473.204468	-740.029000	1411.134766	456.580780
20473.204468	-740.029000	1410.057617	937.654724
20473.204468	-740.029000	1408.979492	621.564514
20473.204468	-740.029000	1407.902344	713.149902
20473.204468	-740.029000	1406.824219	971.014954
20473.204468	-740.029000	1405.746094	805.319031
20473.204468	-740.029000	1404.666992	1095.133911
20473.204468	-740.029000	1403.588867	1146.697998
20473.204468	-740.029000	1402.509766	1337.238037
20473.204468	-740.029000	1401.430664	1065.590332
20473.204468	-740.029000	1400.351563	1332.687378
20473.204468	-740.029000	1399.271484	1700.668213
20473.204468	-740.029000	1398.192383	1973.202881
20473.204468	-740.029000	1397.112305	2009.078369
20473.204468	-740.029000	1396.031250	1897.692749
20473.204468	-740.029000	1394.951172	1875.165894
20473.204468	-740.029000	1393.871094	1689.914551
20473.204468	-740.029000	1392.790039	1871.506470
20473.204468	-740.029000	1391.708984	1604.659058
20473.204468	-740.029000	1390.626953	1842.069092
20473.204468	-740.029000	1389.545898	1585.169434
20473.204468	-740.029000	1388.463867	1589.054565
20473.204468	-740.029000	1387.381836	1549.675537
20473.204468	-740.029000	1386.299805	1572.534912
20473.204468	-740.029000	1385.217773	1454.545410
20473.204468	-740.029000	1384.134766	1327.993042
20473.204468	-740.029000	1383.051758	1347.659912
20473.204468	-740.029000	1381.968750	1289.191284
20473.204468	-740.029000	1380.885742	1360.130859
20473.204468	-740.029000	1379.802734	1194.467407
20473.204468	-740.029000	1378.718750	1210.800049
20473.204468	-740.029000	1377.634766	1171.404297
20473.204468	-740.029000	1376.550781	1311.940796
20473.204468	-740.029000	1375.465820	1353.206665
20473.204468	-740.029000	1374.381836	1459.547363
20473.204468	-740.029000	1373.296875	1457.653931
20473.204468	-740.029000	1372.211914	1398.496216
20473.204468	-740.029000	1371.126953	1522.471313
20473.204468	-740.029000	1370.041016	1726.314087
20473.204468	-740.029000	1368.955078	1880.638794
20473.204468	-740.029000	1367.869141	1870.920288
20473.204468	-740.029000	1366.783203	1984.655396
20473.204468	-740.029000	1365.697266	2189.856201
20473.204468	-740.029000	1364.610352	2351.492920
20473.204468	-740.029000	1363.523438	2296.817139
20473.204468	-740.029000	1362.436523	2193.304199
20473.204468	-740.029000	1361.349609	2454.681152
20473.204468	-740.029000	1360.261719	2333.105957
20473.204468	-740.029000	1359.174805	2656.609619
20473.204468	-740.029000	1358.086914	2778.978760
20473.204468	-740.029000	1356.998047	2699.632080
20473.204468	-740.029000	1355.910156	2704.340088
20473.204468	-740.029000	1354.821289	2666.671387
20473.204468	-740.029000	1353.732422	2557.685059
20473.204468	-740.029000	1352.643555	2550.492920
20473.204468	-740.029000	1351.554688	2713.306152
20473.204468	-740.029000	1350.464844	2888.908936
20473.204468	-740.029000	1349.375000	2749.928467
20473.204468	-740.029000	1348.285156	2805.347412
20473.204468	-740.029000	1347.195313	3094.804932
20473.204468	-740.029000	1346.105469	3189.066650
20473.204468	-740.029000	1345.014648	3160.277100
20473.204468	-740.029000	1343.923828	3128.326172
20473.204468	-740.029000	1342.833008	3100.665039
20473.204468	-740.029000	1341.741211	2850.063965
20473.204468	-740.029000	1340.650391	2796.679443
20473.204468	-740.029000	1339.558594	2347.254150
20473.204468	-740.029000	1338.466797	2142.094727
20473.204468	-740.029000	1337.374023	2057.993408
20473.204468	-740.029000	1336.282227	1643.484741
20473.204468	-740.029000	1335.189453	1778.241821
20473.204468	-740.029000	1334.096680	1413.889526
20473.204468	-740.029000	1333.003906	1499.742676
20473.204468	-740.029000	1331.910156	1362.319946
20473.204468	-740.029000	1330.817383	1281.108276
20473.204468	-740.029000	1329.723633	1419.045410
20473.204468	-740.029000	1328.629883	1228.749878
20473.204468	-740.029000	1327.535156	1073.160645
20473.204468	-740.029000	1326.441406	1200.369385
20473.204468	-740.029000	1325.346680	1179.103516
20473.204468	-740.029000	1324.251953	1058.901245
20473.204468	-740.029000	1323.156250	1252.207764
20473.204468	-740.029000	1322.061523	1219.779907
20473.204468	-740.029000	1320.965820	1107.691650
20473.204468	-740.029000	1319.870117	1284.867310
20473.204468	-740.029000	1318.774414	1160.414673
20473.204468	-740.029000	1317.678711	1274.572266
20473.204468	-740.029000	1316.582031	1179.317017
20473.204468	-740.029000	1315.485352	1362.307495
20473.204468	-740.029000	1314.388672	1215.971558
20473.204468	-740.029000	1313.291016	1426.909546
20473.204468	-740.029000	1312.194336	1303.089722
20473.204468	-740.029000	1311.096680	1416.105103
20473.204468	-740.029000	1309.999023	1270.676025
20473.204468	-740.029000	1308.901367	1357.049072
20473.204468	-740.029000	1307.802734	1489.922363
20473.204468	-740.029000	1306.705078	1241.753662
20473.204468	-740.029000	1305.606445	1596.478638
20473.204468	-740.029000	1304.506836	1350.972534
20473.204468	-740.029000	1303.408203	1776.231812
20473.204468	-740.029000	1302.308594	1713.506836
20473.204468	-740.029000	1301.208984	1904.845703
20473.204468	-740.029000	1300.109375	1766.563110
20473.204468	-740.029000	1299.009766	1946.147583
20473.204468	-740.029000	1297.909180	1948.424927
20473.204468	-740.029000	1296.808594	1903.470459
20473.204468	-740.029000	1295.708008	1874.899536
20473.204468	-740.029000	1294.607422	2048.104980
20473.204468	-740.029000	1293.506836	1818.557983
20473.204468	-740.029000	1292.405273	1796.418457
20473.204468	-740.029000	1291.303711	2115.866943
20473.204468	-740.029000	1290.202148	1989.790161
20473.204468	-740.029000	1289.099609	2054.930664
20473.204468	-740.029000	1287.998047	2084.968750
20473.204468	-740.029000	1286.895508	2302.521484
20473.204468	-740.029000	1285.792969	2630.214355
20473.204468	-740.029000	1284.689453	2711.284180
20473.204468	-740.029000	1283.586914	3048.885254
20473.204468	-740.029000	1282.483398	3194.139404
20473.204468	-740.029000	1281.379883	2994.855225
20473.204468	-740.029000	1280.276367	3227.966797
20473.204468	-740.029000	1279.171875	2993.698975
20473.204468	-740.029000	1278.067383	3036.546387
20473.204468	-740.029000	1276.962891	3129.325684
20473.204468	-740.029000	1275.858398	2753.468750
20473.204468	-740.029000	1274.753906	2834.596924
20473.204468	-740.029000	1273.648438	2590.203369
20473.204468	-740.029000	1272.542969	2494.315186
20473.204468	-740.029000	1271.437500	2463.065674
20473.204468	-740.029000	1270.331055	2238.703613
20473.204468	-740.029000	1269.225586	1980.089966
20473.204468	-740.029000	1268.119141	1636.518799
20473.204468	-740.029000	1267.012695	1509.091675
20473.204468	-740.029000	1265.906250	1480.578491
20473.204468	-740.029000	1264.798828	1158.954712
20473.204468	-740.029000	1263.691406	1201.905884
20473.204468	-740.029000	1262.583984	767.696045
20473.204468	-740.029000	1261.476563	717.903625
20473.204468	-740.029000	1260.368164	969.162537
20473.204468	-740.029000	1259.260742	828.917297
20473.204468	-740.029000	1258.152344	1002.526978
20473.204468	-740.029000	1257.043945	949.840942
20473.204468	-740.029000	1255.934570	829.752930
20473.204468	-740.029000	1254.825195	914.487305
20473.204468	-740.029000	1253.716797	1022.596619
20473.204468	-740.029000	1252.606445	964.973877
20473.204468	-740.029000	1251.497070	728.289551
20473.204468	-740.029000	1250.387695	785.482239
20473.204468	-740.029000	1249.277344	601.035400
20473.204468	-740.029000	1248.166992	544.929443
20473.204468	-740.029000	1247.055664	390.071716
20473.204468	-740.029000	1245.945313	600.682190
20473.204468	-740.029000	1244.833984	549.459839
20473.204468	-740.029000	1243.722656	480.840210
20473.204468	-740.029000	1242.611328	442.315918
20473.204468	-740.029000	1241.499023	395.632294
20473.204468	-740.029000	1240.387695	220.179291
20473.204468	-740.029000	1239.275391	327.976227
20473.204468	-740.029000	1238.162109	122.373268
20473.204468	-740.029000	1237.049805	53.514378
20473.204468	-740.029000	1235.936523	33.293819
20473.204468	-740.029000	1234.823242	148.481171
20473.204468	-740.029000	1233.709961	34.350471
20473.204468	-740.029000	1232.596680	-118.019524
20473.204468	-740.029000	1231.482422	-215.541824
20473.204468	-740.029000	1230.369141	-182.128784
20473.204468	-740.029000	1229.253906	-131.796097
20473.204468	-740.029000	1228.139648	-101.282631
20473.204468	-740.029000	1227.025391	-118.704483
20473.204468	-740.029000	1225.910156	-13.181760
20473.204468	-740.029000	1224.794922	-177.083282
20473.204468	-740.029000	1223.679688	-82.768684
20473.204468	-740.029000	1222.563477	-158.609116
20473.204468	-740.029000	1221.447266	-23.978163
20473.204468	-740.029000	1220.331055	-243.461029
20473.204468	-740.029000	1219.214844	54.695965
20473.204468	-740.029000	1218.098633	-44.506435
20473.204468	-740.029000	1216.981445	-1.613307
20473.204468	-740.029000	1215.864258	119.792023
20473.204468	-740.029000	1214.747070	81.033585
20473.204468	-740.029000	1213.629883	6.629746
20473.204468	-740.029000	1212.511719	124.126152
20473.204468	-740.029000	1211.393555	274.043182
20473.204468	-740.029000	1210.275391	382.921692
20473.204468	-740.029000	1209.157227	280.154114
20473.204468	-740.029000	1208.038086	75.508659
20473.204468	-740.029000	1206.918945	219.173859
20473.204468	-740.029000	1205.799805	216.373245
20473.204468	-740.029000	1204.680664	326.660431
20473.204468	-740.029000	1203.560547	235.260513
20473.204468	-740.029000	1202.441406	260.699646
20473.204468	-740.029000	1201.321289	362.809875
20473.204468	-740.029000	1200.200195	411.212067
20473.204468	-740.029000	1199.080078	339.709137
20473.204468	-740.029000	1197.958984	391.242218
20473.204468	-740.029000	1196.837891	372.143890
20473.204468	-740.029000	1195.716797	241.435699
20473.204468	-740.029000	1194.594727	472.568939
20473.204468	-740.029000	1193.473633	562.447632
20473.204468	-740.029000	1192.351563	454.382629
20473.204468	-740.029000	1191.229492	414.111084
20473.204468	-740.029000	1190.106445	462.321533
20473.204468	-740.029000	1188.984375	385.513184
20473.204468	-740.029000	1187.861328	398.954468
20473.204468	-740.029000	1186.738281	319.439514
20473.204468	-740.029000	1185.614258	361.501312
20473.204468	-740.029000	1184.491211	427.967773
20473.204468	-740.029000	1183.367188	421.652802
20473.204468	-740.029000	1182.243164	418.842987
20473.204468	-740.029000	1181.119141	501.565857
20473.204468	-740.029000	1179.994141	411.282867
20473.204468	-740.029000	1178.869141	340.975250
20473.204468	-740.029000	1177.744141	104.399048
20473.204468	-740.029000	1176.619141	262.913879
20473.204468	-740.029000	1175.493164	236.767105
20473.204468	-740.029000	1174.368164	314.641418
20473.204468	-740.029000	1173.242188	74.048874
20473.204468	-740.029000	1172.115234	103.942642
20473.204468	-740.029000	1170.989258	208.545929
20473.204468	-740.029000	1169.862305	-2.497772
20473.204468	-740.029000	1168.735352	-52.867687
20473.204468	-740.029000	1167.608398	44.593750
20473.204468	-740.029000	1166.481445	56.611496
20473.204468	-740.029000	1165.353516	-64.673065
20473.204468	-740.029000	1164.225586	-84.960289
20473.204468	-740.029000	1163.097656	142.012894
20473.204468	-740.029000	1161.968750	-54.430660
20473.204468	-740.029000	1160.840820	-111.875931
20473.204468	-740.029000	1159.711914	75.679741
20473.204468	-740.029000	1158.583008	-37.075878
20473.204468	-740.029000	1157.453125	-234.440323
20473.204468	-740.029000	1156.324219	-168.940277
20473.204468	-740.029000	1155.194336	-61.276772
20473.204468	-740.029000	1154.064453	9.940461
20473.204468	-740.029000	1152.933594	-90.822685
20473.204468	-740.029000	1151.803711	-314.935028
20473.204468	-740.029000	1150.672852	-178.858871
20473.204468	-740.029000	1149.541992	-228.071777
20473.204468	-740.029000	1148.411133	22.609430
20473.204468	-740.029000	1147.279297	38.217712
20473.204468	-740.029000	1146.147461	31.317793
20473.204468	-740.029000	1145.015625	-122.617073
20473.204468	-740.029000	1143.883789	107.153946
20473.204468	-740.029000	1142.750977	295.241669
20473.204468	-740.029000	1141.619141	334.663574
20473.204468	-740.029000	1140.486328	131.021484
20473.204468	-740.029000	1139.352539	98.373405
20473.204468	-740.029000	1138.219727	239.659241
20473.204468	-740.029000	1137.085938	203.956879
20473.204468	-740.029000	1135.952148	207.164917
20473.204468	-740.029000	1134.818359	279.417847
20473.204468	-740.029000	1133.683594	204.450928
20473.204468	-740.029000	1132.549805	223.954926
20473.204468	-740.029000	1131.415039	576.313599
20473.204468	-740.029000	1130.279297	701.772644
20473.204468	-740.029000	1129.144531	903.817261
20473.204468	-740.029000	1128.008789	899.608154
20473.204468	-740.029000	1126.873047	862.682373
20473.204468	-740.029000	1125.737305	929.921509
20473.204468	-740.029000	1124.601563	866.456299
20473.204468	-740.029000	1123.464844	541.090698
20473.204468	-740.029000	1122.328125	660.940247
20473.204468	-740.029000	1121.191406	786.486328
20473.204468	-740.029000	1120.054688	606.591003
20473.204468	-740.029000	1118.916992	660.445801
20473.204468	-740.029000	1117.779297	427.473114
20473.204468	-740.029000	1116.641602	550.466919
20473.204468	-740.029000	1115.503906	410.737701
20473.204468	-740.029000	1114.365234	275.273376
20473.204468	-740.029000	1113.226563	198.028137
20473.204468	-740.029000	1112.087891	318.134766
20473.204468	-740.029000	1110.949219	293.109894
20473.204468	-740.029000	1109.809570	382.674500
20473.204468	-740.029000	1108.669922	259.608429
20473.204468	-740.029000	1107.530273	201.728058
20473.204468	-740.029000	1106.390625	342.048096
20473.204468	-740.029000	1105.250000	148.349823
20473.204468	-740.029000	1104.109375	452.390961
20473.204468	-740.029000	1102.968750	374.370758
20473.204468	-740.029000	1101.828125	313.187775
20473.204468	-740.029000	1100.686523	387.692322
20473.204468	-740.029000	1099.544922	575.981323
20473.204468	-740.029000	1098.403320	391.473907
20473.204468	-740.029000	1097.261719	557.456238
20473.204468	-740.029000	1096.120117	329.608215
20473.204468	-740.029000	1094.977539	514.034607
20473.204468	-740.029000	1093.834961	448.894440
20473.204468	-740.029000	1092.691406	381.469116
20473.204468	-740.029000	1091.548828	579.250854
20473.204468	-740.029000	1090.405273	447.318909
20473.204468	-740.029000	1089.261719	478.512329
20473.204468	-740.029000	1088.118164	247.498291
20473.204468	-740.029000	1086.973633	347.279541
20473.204468	-740.029000	1085.829102	472.737427
20473.204468	-740.029000	1084.684570	382.008820
20473.204468	-740.029000	1083.540039	146.230759
20473.204468	-740.029000	1082.395508	375.796997
20473.204468	-740.029000	1081.250000	204.488251
20473.204468	-740.029000	1080.104492	388.557373
20473.204468	-740.029000	1078.958984	428.158966
20473.204468	-740.029000	1077.812500	500.914307
20473.204468	-740.029000	1076.666016	374.106812
20473.204468	-740.029000	1075.519531	237.707474
20473.204468	-740.029000	1074.373047	349.850403
20473.204468	-740.029000	1073.226563	250.870880
20473.204468	-740.029000	1072.079102	584.398621
20473.204468	-740.029000	1070.931641	393.415771
20473.204468	-740.029000	1069.784180	506.005646
20473.204468	-740.029000	1068.635742	466.810425
20473.204468	-740.029000	1067.487305	567.941467
20473.204468	-740.029000	1066.338867	519.736938
20473.204468	-740.029000	1065.190430	468.286133
20473.204468	-740.029000	1064.041992	440.012268
20473.204468	-740.029000	1062.892578	619.811096
20473.204468	-740.029000	1061.743164	493.863708
20473.204468	-740.029000	1060.593750	656.200745
20473.204468	-740.029000	1059.443359	462.515564
20473.204468	-740.029000	1058.292969	322.620422
20473.204468	-740.029000	1057.142578	235.653336
20473.204468	-740.029000	1055.992188	438.451721
20473.204468	-740.029000	1054.841797	199.533585
20473.204468	-740.029000	1053.690430	325.044098
20473.204468	-740.029000	1052.539063	303.368134
20473.204468	-740.029000	1051.387695	328.968048
20473.204468	-740.029000	1050.235352	71.546440
20473.204468	-740.029000	1049.083984	367.009003
20473.204468	-740.029000	1047.931641	366.559235
20473.204468	-740.029000	1046.778320	524.690613
20473.204468	-740.029000	1045.625977	312.075775
20473.204468	-740.029000	1044.472656	246.960892
20473.204468	-740.029000	1043.319336	269.846619
20473.204468	-740.029000	1042.166016	186.797928
20473.204468	-740.029000	1041.012695	430.053619
20473.204468	-740.029000	1039.858398	221.026611
20473.204468	-740.029000	1038.704102	194.106628
20473.204468	-740.029000	1037.549805	89.983627
20473.204468	-740.029000	1036.394531	279.311584
20473.204468	-740.029000	1035.239258	303.687439
20473.204468	-740.029000	1034.083984	360.357819
20473.204468	-740.029000	1032.928711	377.977570
20473.204468	-740.029000	1031.773438	228.178116
20473.204468	-740.029000	1030.617188	293.468506
20473.204468	-740.029000	1029.460938	172.141434
20473.204468	-740.029000	1028.304688	244.429840
20473.204468	-740.029000	1027.147461	409.908081
20473.204468	-740.029000	1025.991211	370.638031
20473.204468	-740.029000	1024.833984	253.108643
20473.204468	-740.029000	1023.675781	65.317314
20473.204468	-740.029000	1022.518555	44.545097
20473.204468	-740.029000	1021.360352	50.895760
20473.204468	-740.029000	1020.202148	171.931030
20473.204468	-740.029000	1019.043945	328.671997
20473.204468	-740.029000	1017.884766	119.228683
20473.204468	-740.029000	1016.726563	213.212814
20473.204468	-740.029000	1015.567383	1.715821
20473.204468	-740.029000	1014.407227	220.986160
20473.204468	-740.029000	1013.248047	421.347900
20473.204468	-740.029000	1012.087891	387.615692
20473.204468	-740.029000	1010.927734	139.747360
20473.204468	-740.029000	1009.767578	230.538361
20473.204468	-740.029000	1008.606445	264.108032
20473.204468	-740.029000	1007.446289	187.983139
20473.204468	-740.029000	1006.285156	162.428024
20473.204468	-740.029000	1005.123047	249.890350
20473.204468	-740.029000	1003.961914	255.784973
20473.204468	-740.029000	1002.799805	426.130737
20473.204468	-740.029000	1001.637695	217.220871
20473.204468	-740.029000	1000.475586	125.589142
20473.204468	-740.029000	999.312500	127.330002
20473.204468	-740.029000	998.149414	290.477051
20473.204468	-740.029000	996.986328	320.078705
20473.204468	-740.029000	995.823242	68.637581
20473.204468	-740.029000	994.659180	301.481262
20473.204468	-740.029000	993.496094	40.365402
20473.204468	-740.029000	992.332031	85.888962
20473.204468	-740.029000	991.166992	113.098267
20473.204468	-740.029000	990.002930	135.257111
20473.204468	-740.029000	988.837891	293.726807
20473.204468	-740.029000	987.672852	176.629349
20473.204468	-740.029000	986.506836	243.671829
20473.204468	-740.029000	985.341797	260.205383
20473.204468	-740.029000	984.175781	-23.108299
20473.204468	-740.029000	983.009766	178.047272
20473.204468	-740.029000	981.843750	286.929504
20473.204468	-740.029000	980.676758	101.506058
20473.204468	-740.029000	979.509766	-87.045113
20473.204468	-740.029000	978.342773	-130.678528
20473.204468	-740.029000	977.175781	-41.458035
20473.204468	-740.029000	976.007813	-14.320504
20473.204468	-740.029000	974.839844	-100.759666
20473.204468	-740.029000	973.671875	24.437927
20473.204468	-740.029000	972.503906	-13.297462
20473.204468	-740.029000	971.334961	33.500450
20473.204468	-740.029000	970.166016	-156.424606
20473.204468	-740.029000	968.997070	29.915234
20473.204468	-740.029000	967.828125	238.065430
20473.204468	-740.029000	966.658203	-51.781322
20473.204468	-740.029000	965.488281	4.562199
20473.204468	-740.029000	964.318359	-128.826309
20473.204468	-740.029000	963.148438	120.581039
20473.204468	-740.029000	961.977539	209.964050
20473.204468	-740.029000	960.806641	154.306000
20473.204468	-740.029000	959.635742	268.321289
20473.204468	-740.029000	958.463867	64.457176
20473.204468	-740.029000	957.292969	94.027702
20473.204468	-740.029000	956.121094	253.312546
20473.204468	-740.029000	954.948242	48.513283
20473.204468	-740.029000	953.776367	-160.490402
20473.204468	-740.029000	952.603516	2.216668
20473.204468	-740.029000	951.430664	71.042877
20473.204468	-740.029000	950.257813	5.899831
20473.204468	-740.029000	949.084961	-178.475647
20473.204468	-740.029000	947.911133	-69.867142
20473.204468	-740.029000	946.737305	17.223673
20473.204468	-740.029000	945.563477	50.948639
20473.204468	-740.029000	944.388672	4.251592
20473.204468	-740.029000	943.213867	-47.054592
20473.204468	-740.029000	942.039063	46.953388
20473.204468	-740.029000	940.864258	143.328720
20473.204468	-740.029000	939.688477	-140.722229
20473.204468	-740.029000	938.513672	-70.903900
20473.204468	-740.029000	937.337891	90.918640
20473.204468	-740.029000	936.161133	-134.751343
20473.204468	-740.029000	934.985352	-26.460909
20473.204468	-740.029000	933.808594	-7.761850
20473.204468	-740.029000	932.631836	25.506601
20473.204468	-740.029000	931.454102	138.634552
20473.204468	-740.029000	930.277344	401.734344
20473.204468	-740.029000	929.099609	11.198269
20473.204468	-740.029000	927.921875	148.250641
20473.204468	-740.029000	926.743164	89.359192
20473.204468	-740.029000	925.565430	-124.424110
20473.204468	-740.029000	924.386719	-64.819527
20473.204468	-740.029000	923.208008	313.950104
20473.204468	-740.029000	922.028320	59.047642
20473.204468	-740.029000	920.849609	16.951073
20473.204468	-740.029000	919.669922	23.315844
20473.204468	-740.029000	919.474609	162.022766
20473.204468	-740.029000	918.309570	32.786633
20473.204468	-740.029000	917.143555	41.301270
20473.204468	-740.029000	915.977539	-172.459763
20473.204468	-740.029000	914.810547	-26.292765
20473.204468	-740.029000	913.644531	78.731651
20473.204468	-740.029000	912.477539	19.523460
20473.204468	-740.029000	911.310547	-305.199585
20473.204468	-740.029000	910.143555	-139.930344
20473.204468	-740.029000	908.975586	-85.737801
20473.204468	-740.029000	907.807617	-195.627747
20473.204468	-740.029000	906.639648	-73.971054
20473.204468	-740.029000	905.471680	-138.057510
20473.204468	-740.029000	904.303711	50.986153
20473.204468	-740.029000	903.134766	145.930664
20473.204468	-740.029000	901.965820	33.567196
20473.204468	-740.029000	900.796875	53.735779
20473.204468	-740.029000	899.626953	228.039108
20473.204468	-740.029000	898.457031	53.037899
20473.204468	-740.029000	897.287109	104.419846
20473.204468	-740.029000	896.117188	-34.425247
20473.204468	-740.029000	894.947266	-36.048965
20473.204468	-740.029000	893.776367	-208.543121
20473.204468	-740.029000	892.605469	-56.200405
20473.204468	-740.029000	891.434570	144.162903
20473.204468	-740.029000	890.262695	176.082840
20473.204468	-740.029000	889.091797	44.460339
20473.204468	-740.029000	887.919922	134.031387
20473.204468	-740.029000	886.748047	-36.026924
20473.204468	-740.029000	885.575195	-8.997039
20473.204468	-740.029000	884.403320	-39.664402
20473.204468	-740.029000	883.230469	102.599342
20473.204468	-740.029000	882.057617	160.731094
20473.204468	-740.029000	880.883789	262.036194
20473.204468	-740.029000	879.710938	284.056488
20473.204468	-740.029000	878.537109	176.448456
20473.204468	-740.029000	877.362305	203.235504
20473.204468	-740.029000	876.188477	184.402939
20473.204468	-740.029000	875.013672	170.355133
20473.204468	-740.029000	873.839844	197.051086
20473.204468	-740.029000	872.664063	194.950195
20473.204468	-740.029000	871.489258	156.865540
20473.204468	-740.029000	870.313477	-72.946152
20473.204468	-740.029000	869.138672	130.992798
20473.204468	-740.029000	867.962891	358.784698
20473.204468	-740.029000	866.786133	236.782028
20473.204468	-740.029000	865.610352	-2.532553
20473.204468	-740.029000	864.433594	177.195084
20473.204468	-740.029000	863.256836	38.477238
20473.204468	-740.029000	862.079102	-112.170258
20473.204468	-740.029000	860.902344	72.181702
20473.204468	-740.029000	859.724609	117.694649
20473.204468	-740.029000	858.546875	-233.848526
20473.204468	-740.029000	857.368164	-118.994637
20473.204468	-740.029000	856.190430	-252.844696
20473.204468	-740.029000	855.011719	-42.476635
20473.204468	-740.029000	853.833008	-152.437592
20473.204468	-740.029000	852.654297	62.551624
20473.204468	-740.029000	851.474609	143.662811
20473.204468	-740.029000	850.294922	-133.514420
20473.204468	-740.029000	849.115234	43.060833
20473.204468	-740.029000	847.935547	121.661850
20473.204468	-740.029000	846.754883	119.059929
20473.204468	-740.029000	845.575195	180.856537
20473.204468	-740.029000	844.393555	-19.823681
20473.204468	-740.029000	843.212891	63.394299
20473.204468	-740.029000	842.032227	72.623512
20473.204468	-740.029000	840.850586	-127.990860
20473.204468	-740.029000	839.668945	-56.798515
20473.204468	-740.029000	838.486328	59.623981
20473.204468	-740.029000	837.304688	-162.392136
20473.204468	-740.029000	836.122070	46.858540
20473.204468	-740.029000	834.939453	-44.116180
20473.204468	-740.029000	833.756836	-196.996201
20473.204468	-740.029000	832.573242	-4.615096
20473.204468	-740.029000	831.389648	40.075047
20473.204468	-740.029000	830.206055	-177.067627
20473.204468	-740.029000	829.022461	-144.315811
20473.204468	-740.029000	827.838867	-83.060387
20473.204468	-740.029000	826.654297	59.008492
20473.204468	-740.029000	825.469727	-155.696930
20473.204468	-740.029000	824.284180	-337.058289
20473.204468	-740.029000	823.099609	-159.462555
20473.204468	-740.029000	821.914063	-138.813385
20473.204468	-740.029000	820.728516	-187.105682
20473.204468	-740.029000	819.542969	54.394646
20473.204468	-740.029000	818.356445	-193.475433
20473.204468	-740.029000	817.169922	-182.458817
20473.204468	-740.029000	815.983398	-86.015747
20473.204468	-740.029000	814.796875	-101.200249
20473.204468	-740.029000	813.609375	-187.598328
20473.204468	-740.029000	812.422852	-193.332886
20473.204468	-740.029000	811.235352	-47.285610
20473.204468	-740.029000	810.046875	-48.366108
20473.204468	-740.029000	808.859375	-9.175606
20473.204468	-740.029000	807.670898	-31.668276
20473.204468	-740.029000	806.482422	-288.824097
20473.204468	-740.029000	805.293945	-126.493965
20473.204468	-740.029000	804.104492	-269.877472
20473.204468	-740.029000	802.915039	-31.893951
20473.204468	-740.029000	801.725586	-125.579887
20473.204468	-740.029000	800.536133	97.995033
20473.204468	-740.029000	799.345703	46.855728
20473.204468	-740.029000	798.155273	-266.997131
20473.204468	-740.029000	796.964844	-29.446693
20473.204468	-740.029000	795.774414	-35.695488
20473.204468	-740.029000	794.583008	-188.620102
20473.204468	-740.029000	793.392578	17.908484
20473.204468	-740.029000	792.200195	-68.843391
20473.204468	-740.029000	791.008789	-191.057831
20473.204468	-740.029000	789.816406	-136.020081
20473.204468	-740.029000	788.625000	-125.940704
20473.204468	-740.029000	787.432617	-30.863848
20473.204468	-740.029000	786.239258	-143.699173
20473.204468	-740.029000	785.046875	17.371279
20473.204468	-740.029000	783.853516	-154.532791
20473.204468	-740.029000	782.660156	-5.411287
20473.204468	-740.029000	781.465820	105.849052
20473.204468	-740.029000	780.272461	73.100647
20473.204468	-740.029000	779.078125	198.362305
20473.204468	-740.029000	777.883789	184.387222
20473.204468	-740.029000	776.688477	54.841232
20473.204468	-740.029000	775.494141	14.879774
20473.204468	-740.029000	774.298828	29.097546
20473.204468	-740.029000	773.103516	111.596519
20473.204468	-740.029000	771.907227	64.443733
20473.204468	-740.029000	770.711914	57.301788
20473.204468	-740.029000	769.515625	163.151794
20473.204468	-740.029000	768.318359	-96.019455
20473.204468	-740.029000	767.122070	118.000702
20473.204468	-740.029000	765.924805	96.542740
20473.204468	-740.029000	764.727539	-73.190514
20473.204468	-740.029000	763.530273	-134.690628
20473.204468	-740.029000	762.333008	158.926804
20473.204468	-740.029000	761.134766	191.362259
20473.204468	-740.029000	759.936523	68.569717
20473.204468	-740.029000	758.738281	112.659172
20473.204468	-740.029000	757.540039	215.428131
20473.204468	-740.029000	756.340820	90.201912
20473.204468	-740.029000	755.141602	80.077248
20473.204468	-740.029000	753.942383	377.558685
20473.204468	-740.029000	752.742188	329.703857
20473.204468	-740.029000	751.541992	427.361603
20473.204468	-740.029000	750.341797	494.413391
20473.204468	-740.029000	749.141602	751.453674
20473.204468	-740.029000	747.941406	550.847290
20473.204468	-740.029000	746.740234	427.674164
20473.204468	-740.029000	745.539063	58.261894
20473.204468	-740.029000	744.337891	164.902145
20473.204468	-740.029000	743.135742	142.515518
20473.204468	-740.029000	741.933594	59.147503
20473.204468	-740.029000	740.731445	36.677704
20473.204468	-740.029000	739.529297	133.635117
20473.204468	-740.029000	738.326172	-76.327400
20473.204468	-740.029000	737.124023	-19.311367
20473.204468	-740.029000	735.919922	-88.800186
20473.204468	-740.029000	734.716797	54.683155
20473.204468	-740.029000	733.513672	52.955544
20473.204468	-740.029000	732.309570	-136.008118
20473.204468	-740.029000	731.105469	-81.672600
20473.204468	-740.029000	729.900391	42.741631
20473.204468	-740.029000	728.696289	251.220688
20473.204468	-740.029000	727.491211	-40.727974
20473.204468	-740.029000	726.286133	144.186981
20473.204468	-740.029000	725.080078	39.202900
20473.204468	-740.029000	723.874023	104.750877
20473.204468	-740.029000	722.668945	333.715302
20473.204468	-740.029000	721.461914	249.590652
20473.204468	-740.029000	720.255859	268.171143
20473.204468	-740.029000	719.048828	270.340607
20473.204468	-740.029000	717.841797	384.471802
20473.204468	-740.029000	716.634766	300.156403
20473.204468	-740.029000	715.427734	171.488953
20473.204468	-740.029000	714.219727	138.439865
20473.204468	-740.029000	713.011719	119.332336
20473.204468	-740.029000	711.803711	95.507080
20473.204468	-740.029000	710.594727	11.023223
20473.204468	-740.029000	709.385742	66.336967
20473.204468	-740.029000	708.176758	-55.511726
20473.204468	-740.029000	706.967773	160.396988
20473.204468	-740.029000	705.758789	175.859940
20473.204468	-740.029000	704.548828	67.842285
20473.204468	-740.029000	703.338867	85.517334
20473.204468	-740.029000	702.127930	-6.272860
20473.204468	-740.029000	700.917969	-49.221306
20473.204468	-740.029000	699.707031	103.211555
20473.204468	-740.029000	698.496094	104.322334
20473.204468	-740.029000	697.285156	114.670609
20473.204468	-740.029000	696.073242	327.229095
20473.204468	-740.029000	694.861328	158.404922
20473.204468	-740.029000	693.649414	29.095613
20473.204468	-740.029000	692.436523	101.927086
20473.204468	-740.029000	691.224609	274.557831
20473.204468	-740.029000	690.011719	-103.407898
20473.204468	-740.029000	688.798828	34.230343
20473.204468	-740.029000	687.584961	2.267250
20473.204468	-740.029000	686.372070	-32.067909
20473.204468	-740.029000	685.158203	61.182285
20473.204468	-740.029000	683.943359	-5.764384
20473.204468	-740.029000	682.729492	124.428131
20473.204468	-740.029000	681.514648	136.220901
20473.204468	-740.029000	680.299805	194.318710
20473.204468	-740.029000	679.084961	219.873138
20473.204468	-740.029000	677.869141	152.643417
20473.204468	-740.029000	676.653320	284.660706
20473.204468	-740.029000	675.437500	377.174286
20473.204468	-740.029000	674.221680	319.028137
20473.204468	-740.029000	673.004883	168.211853
20473.204468	-740.029000	671.789063	253.557632
20473.204468	-740.029000	670.571289	429.078461
20473.204468	-740.029000	669.354492	491.063690
20473.204468	-740.029000	668.136719	312.321167
20473.204468	-740.029000	666.919922	443.581940
20473.204468	-740.029000	665.701172	491.460022
20473.204468	-740.029000	664.483398	543.883118
20473.204468	-740.029000	663.264648	543.048462
20473.204468	-740.029000	662.045898	371.111816
20473.204468	-740.029000	660.827148	545.822754
20473.204468	-740.029000	659.608398	738.882751
20473.204468	-740.029000	658.388672	596.862183
20473.204468	-740.029000	657.168945	487.174957
20473.204468	-740.029000	655.949219	578.354736
20473.204468	-740.029000	654.728516	454.748108
20473.204468	-740.029000	653.507813	453.459595
20473.204468	-740.029000	652.287109	412.887207
20473.204468	-740.029000	651.066406	314.600800
20473.204468	-740.029000	649.844727	250.895996
20473.204468	-740.029000	648.623047	272.485046
20473.204468	-740.029000	647.401367	114.178131
20473.204468	-740.029000	646.179688	442.249237
20473.204468	-740.029000	644.957031	488.969482
20473.204468	-740.029000	643.734375	213.046478
20473.204468	-740.029000	642.511719	711.191772
20473.204468	-740.029000	641.289063	545.782959
20473.204468	-740.029000	640.065430	523.151611
20473.204468	-740.029000	638.841797	293.287750
20473.204468	-740.029000	637.618164	480.068054
20473.204468	-740.029000	636.393555	234.101334
20473.204468	-740.029000	635.168945	232.059448
20473.204468	-740.029000	633.944336	303.576904
20473.204468	-740.029000	632.719727	181.842941
20473.204468	-740.029000	631.494141	21.023912
20473.204468	-740.029000	630.269531	359.052063
20473.204468	-740.029000	629.042969	333.765686
20473.204468	-740.029000	627.817383	154.500946
20473.204468	-740.029000	626.590820	51.074059
20473.204468	-740.029000	625.365234	-50.050179
20473.204468	-740.029000	624.137695	310.370483
20473.204468	-740.029000	622.911133	18.596462
20473.204468	-740.029000	621.683594	-25.203671
20473.204468	-740.029000	620.456055	13.587790
20473.204468	-740.029000	619.228516	-7.327087
20473.204468	-740.029000	618.000977	-16.801889
20473.204468	-740.029000	616.772461	95.234802
20473.204468	-740.029000	615.543945	-56.490730
20473.204468	-740.029000	614.314453	211.314575
20473.204468	-740.029000	613.085938	155.819351
20473.204468	-740.029000	611.856445	17.820707
20473.204468	-740.029000	610.626953	99.776512
20473.204468	-740.029000	609.397461	177.085220
20473.204468	-740.029000	608.166992	84.871857
20473.204468	-740.029000	606.936523	6.405936
20473.204468	-740.029000	605.706055	-92.656265
20473.204468	-740.029000	604.474609	-107.032494
20473.204468	-740.029000	603.244141	-25.329103
20473.204468	-740.029000	602.012695	143.236130
20473.204468	-740.029000	600.780273	28.110472
20473.204468	-740.029000	599.548828	-68.693123
20473.204468	-740.029000	598.316406	-67.180618
20473.204468	-740.029000	597.083984	-143.399689
20473.204468	-740.029000	595.851563	-176.188095
20473.204468	-740.029000	594.618164	-10.226578
20473.204468	-740.029000	593.384766	160.215607
20473.204468	-740.029000	592.151367	134.176636
20473.204468	-740.029000	590.917969	78.452576
20473.204468	-740.029000	589.683594	-187.269165
20473.204468	-740.029000	588.449219	-83.181610
20473.204468	-740.029000	587.214844	107.554230
20473.204468	-740.029000	585.979492	10.763498
20473.204468	-740.029000	584.745117	50.850075
20473.204468	-740.029000	583.509766	594.836121
20473.204468	-740.029000	582.273438	486.574371
20473.204468	-740.029000	581.038086	528.786072
20473.204468	-740.029000	579.801758	441.081329
20473.204468	-740.029000	578.565430	275.948792
20473.204468	-740.029000	577.329102	288.550690
20473.204468	-740.029000	576.091797	171.335205
20473.204468	-740.029000	574.854492	361.538116
20473.204468	-740.029000	573.617188	23.552095
20473.204468	-740.029000	572.378906	172.738449
20473.204468	-740.029000	571.141602	267.259827
20473.204468	-740.029000	569.903320	122.877724
20473.204468	-740.029000	568.664063	121.845177
20473.204468	-740.029000	567.425781	216.326797
20473.204468	-740.029000	566.186523	415.347717
20473.204468	-740.029000	564.947266	327.902405
20473.204468	-740.029000	563.708008	163.240967
20473.204468	-740.029000	562.467773	194.044037
20473.204468	-740.029000	561.227539	317.976898
20473.204468	-740.029000	559.987305	228.395142
20473.204468	-740.029000	558.747070	129.784164
20473.204468	-740.029000	557.505859	101.595139
20473.204468	-740.029000	556.264648	-101.319229
20473.204468	-740.029000	555.023438	-27.306551
20473.204468	-740.029000	553.781250	-180.167618
20473.204468	-740.029000	552.539063	54.896484
20473.204468	-740.029000	551.296875	-277.018524
20473.204468	-740.029000	550.054688	-168.951721
20473.204468	-740.029000	548.811523	-160.644333
20473.204468	-740.029000	547.569336	-159.113037
20473.204468	-740.029000	546.325195	-168.893890
20473.204468	-740.029000	545.082031	-51.793755
20473.204468	-740.029000	543.837891	-217.807709
20473.204468	-740.029000	542.593750	44.210556
20473.204468	-740.029000	541.349609	-17.568228
20473.204468	-740.029000	540.105469	38.394833
20473.204468	-740.029000	538.860352	-292.570160
20473.204468	-740.029000	537.615234	-64.585701
20473.204468	-740.029000	536.369141	-40.231815
20473.204468	-740.029000	535.124023	-15.853036
20473.204468	-740.029000	533.877930	-142.931549
20473.204468	-740.029000	532.631836	-349.034363
20473.204468	-740.029000	531.384766	5.420583
20473.204468	-740.029000	530.138672	32.153828
20473.204468	-740.029000	528.891602	-119.543259
20473.204468	-740.029000	527.643555	-142.416183
20473.204468	-740.029000	526.396484	17.647919
20473.204468	-740.029000	525.148438	-61.609322
20473.204468	-740.029000	523.900391	-129.511215
20473.204468	-740.029000	522.652344	-55.192158
20473.204468	-740.029000	521.403320	-220.003769
20473.204468	-740.029000	520.154297	-305.764679
20473.204468	-740.029000	518.905273	-265.172913
20473.204468	-740.029000	517.656250	-326.012421
20473.204468	-740.029000	516.406250	-310.155396
20473.204468	-740.029000	515.156250	-222.153198
20473.204468	-740.029000	513.906250	-59.799728
20473.204468	-740.029000	512.655273	-104.718178
20473.204468	-740.029000	511.404297	-34.722851
20473.204468	-740.029000	510.153320	161.370712
20473.204468	-740.029000	508.902344	143.561386
20473.204468	-740.029000	507.650391	416.126251
20473.204468	-740.029000	506.398438	452.345428
20473.204468	-740.029000	505.146484	434.594482
20473.204468	-740.029000	503.893555	268.438599
20473.204468	-740.029000	502.641602	109.138885
20473.204468	-740.029000	501.388672	408.577789
20473.204468	-740.029000	500.134766	161.720673
20473.204468	-740.029000	498.881836	56.584118
20473.204468	-740.029000	497.627930	61.616020
20473.204468	-740.029000	496.374023	-308.451202
20473.204468	-740.029000	495.119141	91.980530
20473.204468	-740.029000	493.865234	-51.093224
20473.204468	-740.029000	492.610352	95.506805
20473.204468	-740.029000	491.355469	60.280212
20473.204468	-740.029000	490.099609	76.703735
20473.204468	-740.029000	488.843750	117.824623
20473.204468	-740.029000	487.587891	152.224533
20473.204468	-740.029000	486.332031	146.270203
20473.204468	-740.029000	485.075195	391.435211
20473.204468	-740.029000	483.818359	78.395226
20473.204468	-740.029000	482.561523	85.966949
20473.204468	-740.029000	481.304688	-16.229345
20473.204468	-740.029000	480.046875	112.350883
20473.204468	-740.029000	478.789063	10.220782
20473.204468	-740.029000	477.531250	-56.029919
20473.204468	-740.029000	476.272461	76.986794
20473.204468	-740.029000	475.013672	15.240771
20473.204468	-740.029000	473.754883	54.218880
20473.204468	-740.029000	472.496094	99.894211
20473.204468	-740.029000	471.236328	-35.620037
20473.204468	-740.029000	469.976563	25.703133
20473.204468	-740.029000	468.716797	-179.049255
20473.204468	-740.029000	467.456055	177.303970
20473.204468	-740.029000	466.196289	68.678604
20473.204468	-740.029000	464.935547	-10.872788
20473.204468	-740.029000	463.673828	-5.527361
20473.204468	-740.029000	462.413086	-127.499565
20473.204468	-740.029000	461.151367	-17.238220
20473.204468	-740.029000	459.889648	289.386261
20473.204468	-740.029000	458.626953	-71.463531
20473.204468	-740.029000	457.364258	-32.789078
20473.204468	-740.029000	456.101563	166.447510
20473.204468	-740.029000	454.838867	124.675583
20473.204468	-740.029000	453.575195	49.421345
20473.204468	-740.029000	452.312500	63.324162
20473.204468	-740.029000	451.047852	90.530540
20473.204468	-740.029000	449.784180	12.927449
20473.204468	-740.029000	448.519531	-131.551224
20473.204468	-740.029000	447.254883	91.489548
20473.204468	-740.029000	445.990234	131.742737
20473.204468	-740.029000	444.725586	-139.815674
20473.204468	-740.029000	443.459961	125.119141
20473.204468	-740.029000	442.194336	131.682007
20473.204468	-740.029000	440.927734	-71.019058
20473.204468	-740.029000	439.662109	249.036713
20473.204468	-740.029000	438.395508	359.771057
20473.204468	-740.029000	437.127930	285.773926
20473.204468	-740.029000	435.861328	205.014267
20473.204468	-740.029000	434.593750	57.471367
20473.204468	-740.029000	433.326172	332.061584
20473.204468	-740.029000	432.058594	357.554077
20473.204468	-740.029000	430.790039	196.293869
20473.204468	-740.029000	429.521484	412.461700
20473.204468	-740.029000	428.252930	268.683594
20473.204468	-740.029000	426.984375	375.619476
20473.204468	-740.029000	425.714844	473.438232
20473.204468	-740.029000	424.445313	435.670898
20473.204468	-740.029000	423.174805	417.672089
20473.204468	-740.029000	421.905273	638.996338
20473.204468	-740.029000	420.634766	680.390259
20473.204468	-740.029000	419.364258	643.940308
20473.204468	-740.029000	418.092773	345.722137
20473.204468	-740.029000	416.822266	359.827911
20473.204468	-740.029000	415.550781	535.384705
20473.204468	-740.029000	414.278320	294.173676
20473.204468	-740.029000	413.006836	411.532562
20473.204468	-740.029000	411.734375	570.603088
20473.204468	-740.029000	410.461914	556.644226
20473.204468	-740.029000	409.188477	462.695282
20473.204468	-740.029000	407.916016	226.861420
20473.204468	-740.029000	406.642578	357.983643
20473.204468	-740.029000	405.368164	402.433960
20473.204468	-740.029000	404.094727	220.972626
20473.204468	-740.029000	402.820313	523.329834
20473.204468	-740.029000	401.545898	385.342590
20473.204468	-740.029000	400.270508	403.887207
20473.204468	-740.029000	398.996094	207.720322
20473.204468	-740.029000	397.720703	552.330261
20473.204468	-740.029000	396.444336	350.898590
20473.204468	-740.029000	395.168945	356.631165
20473.204468	-740.029000	393.892578	185.291855
20473.204468	-740.029000	392.616211	99.598701
20473.204468	-740.029000	391.339844	81.830658
20473.204468	-740.029000	390.062500	142.944794
20473.204468	-740.029000	388.785156	258.626129
20473.204468	-740.029000	387.507813	126.755241
20473.204468	-740.029000	386.229492	153.072128
20473.204468	-740.029000	384.951172	68.592171
20473.204468	-740.029000	383.672852	45.236950
20473.204468	-740.029000	382.394531	65.326172
20473.204468	-740.029000	381.115234	212.492172
20473.204468	-740.029000	379.835938	121.116028
20473.204468	-740.029000	378.556641	77.534019
20473.204468	-740.029000	377.277344	169.734421
20473.204468	-740.029000	375.997070	107.121521
20473.204468	-740.029000	374.716797	105.397308
20473.204468	-740.029000	373.435547	-44.475269
20473.204468	-740.029000	372.155273	-124.673271
20473.204468	-740.029000	370.874023	27.400795
20473.204468	-740.029000	369.591797	-47.844948
20473.204468	-740.029000	368.310547	-40.370216
20473.204468	-740.029000	367.028320	82.666672
20473.204468	-740.029000	365.746094	-56.650909
20473.204468	-740.029000	364.463867	5.236837
20473.204468	-740.029000	363.180664	41.985844
20473.204468	-740.029000	361.897461	49.220306
20473.204468	-740.029000	360.614258	0.597480
20473.204468	-740.029000	359.330078	16.793280
20473.204468	-740.029000	358.045898	-110.652145
20473.204468	-740.029000	356.761719	-0.023195
20473.204468	-740.029000	355.477539	56.843552
20473.204468	-740.029000	354.192383	187.089813
20473.204468	-740.029000	352.907227	28.994478
20473.204468	-740.029000	351.622070	23.206989
20473.204468	-740.029000	350.336914	-86.747643
20473.204468	-740.029000	349.050781	-125.620697
20473.204468	-740.029000	347.764648	-34.324005
20473.204468	-740.029000	346.477539	95.031883
20473.204468	-740.029000	345.191406	28.228844
20473.204468	-740.029000	343.904297	76.076843
20473.204468	-740.029000	342.616211	52.476955
20473.204468	-740.029000	341.329102	-149.675934
20473.204468	-740.029000	340.041016	-20.761068
20473.204468	-740.029000	338.752930	430.264435
20473.204468	-740.029000	337.463867	105.631836
20473.204468	-740.029000	336.175781	-69.530655
20473.204468	-740.029000	334.886719	-119.478287
20473.204468	-740.029000	333.596680	-31.220110
20473.204468	-740.029000	332.307617	-75.647865
20473.204468	-740.029000	331.017578	-180.734421
20473.204468	-740.029000	329.727539	-114.994041
20473.204468	-740.029000	328.436523	-286.823761
20473.204468	-740.029000	327.146484	-194.051636
20473.204468	-740.029000	325.855469	-223.193161
20473.204468	-740.029000	324.563477	110.074348
20473.204468	-740.029000	323.272461	-103.886093
20473.204468	-740.029000	321.980469	-77.703400
20473.204468	-740.029000	320.688477	-201.744766
20473.204468	-740.029000	319.395508	53.618095
20473.204468	-740.029000	318.103516	-224.815643
20473.204468	-740.029000	316.810547	-115.313911
20473.204468	-740.029000	315.516602	15.898516
20473.204468	-740.029000	314.223633	46.946766
20473.204468	-740.029000	312.929688	-57.115337
20473.204468	-740.029000	311.635742	-11.028302
20473.204468	-740.029000	310.340820	13.069761
20473.204468	-740.029000	309.045898	-67.459000
20473.204468	-740.029000	307.750977	93.274117
20473.204468	-740.029000	306.456055	129.700211
20473.204468	-740.029000	305.160156	291.822876
20473.204468	-740.029000	303.865234	94.900566
20473.204468	-740.029000	302.568359	395.183472
20473.204468	-740.029000	301.272461	549.364197
20473.204468	-740.029000	299.975586	505.186005
20473.204468	-740.029000	298.678711	638.554749
