#X		#Y		#Wave		#Intensity
12355.772500	-1218.080667	1999.980469	-23.040138
12355.772500	-1218.080667	1999.016602	18.922224
12355.772500	-1218.080667	1998.052734	-6.112051
12355.772500	-1218.080667	1997.087891	-1.702237
12355.772500	-1218.080667	1996.123047	47.007347
12355.772500	-1218.080667	1995.158203	31.000927
12355.772500	-1218.080667	1994.193359	121.219582
12355.772500	-1218.080667	1993.228516	203.703857
12355.772500	-1218.080667	1992.262695	-125.093048
12355.772500	-1218.080667	1991.297852	88.079338
12355.772500	-1218.080667	1990.332031	-144.559036
12355.772500	-1218.080667	1989.366211	-35.878117
12355.772500	-1218.080667	1988.399414	-229.297363
12355.772500	-1218.080667	1987.433594	-286.830505
12355.772500	-1218.080667	1986.466797	90.701775
12355.772500	-1218.080667	1985.500977	99.459244
12355.772500	-1218.080667	1984.534180	132.729446
12355.772500	-1218.080667	1983.567383	-64.080620
12355.772500	-1218.080667	1982.599609	-112.735291
12355.772500	-1218.080667	1981.632813	-70.140160
12355.772500	-1218.080667	1980.665039	58.720692
12355.772500	-1218.080667	1979.697266	-91.735710
12355.772500	-1218.080667	1978.729492	179.964615
12355.772500	-1218.080667	1977.761719	53.900948
12355.772500	-1218.080667	1976.792969	191.855988
12355.772500	-1218.080667	1975.825195	240.760391
12355.772500	-1218.080667	1974.856445	-9.074853
12355.772500	-1218.080667	1973.887695	207.327118
12355.772500	-1218.080667	1972.918945	208.916092
12355.772500	-1218.080667	1971.949219	141.320114
12355.772500	-1218.080667	1970.980469	-128.564499
12355.772500	-1218.080667	1970.010742	171.011719
12355.772500	-1218.080667	1969.041016	295.359711
12355.772500	-1218.080667	1968.071289	-33.891655
12355.772500	-1218.080667	1967.101563	60.667656
12355.772500	-1218.080667	1966.130859	108.284462
12355.772500	-1218.080667	1965.161133	-73.269272
12355.772500	-1218.080667	1964.190430	3.717838
12355.772500	-1218.080667	1963.219727	176.610443
12355.772500	-1218.080667	1962.249023	211.505493
12355.772500	-1218.080667	1961.277344	145.397919
12355.772500	-1218.080667	1960.306641	202.277771
12355.772500	-1218.080667	1959.334961	104.067009
12355.772500	-1218.080667	1958.363281	141.114563
12355.772500	-1218.080667	1957.391602	82.170219
12355.772500	-1218.080667	1956.419922	13.352796
12355.772500	-1218.080667	1955.447266	128.881805
12355.772500	-1218.080667	1954.474609	330.344330
12355.772500	-1218.080667	1953.501953	185.172394
12355.772500	-1218.080667	1952.529297	-92.672768
12355.772500	-1218.080667	1951.556641	236.319763
12355.772500	-1218.080667	1950.583984	-19.410454
12355.772500	-1218.080667	1949.610352	44.151192
12355.772500	-1218.080667	1948.636719	176.400116
12355.772500	-1218.080667	1947.663086	43.453358
12355.772500	-1218.080667	1946.689453	151.047974
12355.772500	-1218.080667	1945.715820	219.314499
12355.772500	-1218.080667	1944.741211	108.430069
12355.772500	-1218.080667	1943.767578	63.796886
12355.772500	-1218.080667	1942.792969	1.990158
12355.772500	-1218.080667	1941.818359	89.761375
12355.772500	-1218.080667	1940.842773	54.904476
12355.772500	-1218.080667	1939.868164	-16.717556
12355.772500	-1218.080667	1938.892578	105.275711
12355.772500	-1218.080667	1937.916992	200.260529
12355.772500	-1218.080667	1936.941406	-111.453575
12355.772500	-1218.080667	1935.965820	74.147926
12355.772500	-1218.080667	1934.990234	100.502335
12355.772500	-1218.080667	1934.013672	104.806358
12355.772500	-1218.080667	1933.037109	-69.589447
12355.772500	-1218.080667	1932.060547	22.853569
12355.772500	-1218.080667	1931.083984	-75.601379
12355.772500	-1218.080667	1930.107422	117.123299
12355.772500	-1218.080667	1929.129883	158.121460
12355.772500	-1218.080667	1928.153320	96.396912
12355.772500	-1218.080667	1927.175781	147.177872
12355.772500	-1218.080667	1926.198242	-90.528343
12355.772500	-1218.080667	1925.219727	23.835789
12355.772500	-1218.080667	1924.242188	326.345978
12355.772500	-1218.080667	1923.263672	193.833878
12355.772500	-1218.080667	1922.285156	251.931473
12355.772500	-1218.080667	1921.306641	-117.407219
12355.772500	-1218.080667	1920.328125	92.158455
12355.772500	-1218.080667	1919.349609	142.962296
12355.772500	-1218.080667	1918.370117	-113.815430
12355.772500	-1218.080667	1917.391602	-19.028301
12355.772500	-1218.080667	1916.412109	-31.628054
12355.772500	-1218.080667	1915.431641	-129.598450
12355.772500	-1218.080667	1914.452148	48.125614
12355.772500	-1218.080667	1913.472656	11.188066
12355.772500	-1218.080667	1912.492188	113.267075
12355.772500	-1218.080667	1911.511719	-121.100830
12355.772500	-1218.080667	1910.531250	-53.119423
12355.772500	-1218.080667	1909.550781	5.110010
12355.772500	-1218.080667	1908.569336	-38.998135
12355.772500	-1218.080667	1907.588867	-87.938965
12355.772500	-1218.080667	1906.607422	16.602345
12355.772500	-1218.080667	1905.625977	-0.632985
12355.772500	-1218.080667	1904.644531	198.848267
12355.772500	-1218.080667	1903.662109	-73.970238
12355.772500	-1218.080667	1902.680664	186.338791
12355.772500	-1218.080667	1901.698242	-91.199821
12355.772500	-1218.080667	1900.715820	6.052292
12355.772500	-1218.080667	1899.733398	-91.305382
12355.772500	-1218.080667	1898.750000	-186.175995
12355.772500	-1218.080667	1897.767578	-11.088698
12355.772500	-1218.080667	1896.784180	-86.448311
12355.772500	-1218.080667	1895.800781	-200.648987
12355.772500	-1218.080667	1894.817383	-71.771103
12355.772500	-1218.080667	1893.833984	-6.094274
12355.772500	-1218.080667	1892.850586	-52.166714
12355.772500	-1218.080667	1891.866211	-166.211960
12355.772500	-1218.080667	1890.881836	-27.647856
12355.772500	-1218.080667	1889.897461	-56.641853
12355.772500	-1218.080667	1888.913086	-66.187584
12355.772500	-1218.080667	1887.927734	21.365395
12355.772500	-1218.080667	1886.943359	70.079910
12355.772500	-1218.080667	1885.958008	-68.017082
12355.772500	-1218.080667	1884.972656	-38.678684
12355.772500	-1218.080667	1883.987305	-118.468971
12355.772500	-1218.080667	1883.001953	-69.704979
12355.772500	-1218.080667	1882.015625	-120.341774
12355.772500	-1218.080667	1881.029297	175.657425
12355.772500	-1218.080667	1880.042969	144.406174
12355.772500	-1218.080667	1879.056641	-114.572807
12355.772500	-1218.080667	1878.070313	-14.922819
12355.772500	-1218.080667	1877.083984	-14.600683
12355.772500	-1218.080667	1876.096680	131.020523
12355.772500	-1218.080667	1875.109375	70.803528
12355.772500	-1218.080667	1874.122070	-117.674339
12355.772500	-1218.080667	1873.134766	-66.478355
12355.772500	-1218.080667	1872.146484	91.169708
12355.772500	-1218.080667	1871.159180	26.195192
12355.772500	-1218.080667	1870.170898	-164.530136
12355.772500	-1218.080667	1869.182617	118.816284
12355.772500	-1218.080667	1868.194336	68.389786
12355.772500	-1218.080667	1867.205078	112.262512
12355.772500	-1218.080667	1866.216797	83.611626
12355.772500	-1218.080667	1865.227539	-12.693089
12355.772500	-1218.080667	1864.238281	4.593691
12355.772500	-1218.080667	1863.249023	147.484665
12355.772500	-1218.080667	1862.259766	36.725910
12355.772500	-1218.080667	1861.269531	-122.292137
12355.772500	-1218.080667	1860.279297	194.356461
12355.772500	-1218.080667	1859.290039	13.635717
12355.772500	-1218.080667	1858.298828	-101.868073
12355.772500	-1218.080667	1857.308594	72.215744
12355.772500	-1218.080667	1856.318359	-11.907048
12355.772500	-1218.080667	1855.327148	104.185150
12355.772500	-1218.080667	1854.335938	116.526642
12355.772500	-1218.080667	1853.344727	-90.559402
12355.772500	-1218.080667	1852.353516	-196.332855
12355.772500	-1218.080667	1851.362305	278.775543
12355.772500	-1218.080667	1850.370117	197.037888
12355.772500	-1218.080667	1849.377930	151.453339
12355.772500	-1218.080667	1848.385742	36.012012
12355.772500	-1218.080667	1847.393555	86.774361
12355.772500	-1218.080667	1846.401367	-28.649382
12355.772500	-1218.080667	1845.408203	-11.640553
12355.772500	-1218.080667	1844.415039	142.539337
12355.772500	-1218.080667	1843.421875	176.309113
12355.772500	-1218.080667	1842.428711	-88.315727
12355.772500	-1218.080667	1841.435547	255.766266
12355.772500	-1218.080667	1840.441406	-32.880093
12355.772500	-1218.080667	1839.448242	-61.729561
12355.772500	-1218.080667	1838.454102	-73.768608
12355.772500	-1218.080667	1837.459961	58.397655
12355.772500	-1218.080667	1836.464844	41.470665
12355.772500	-1218.080667	1835.470703	231.174103
12355.772500	-1218.080667	1834.475586	-38.106621
12355.772500	-1218.080667	1833.480469	91.418976
12355.772500	-1218.080667	1832.485352	59.953922
12355.772500	-1218.080667	1831.490234	-79.587837
12355.772500	-1218.080667	1830.495117	54.565075
12355.772500	-1218.080667	1829.499023	186.225204
12355.772500	-1218.080667	1828.502930	8.224258
12355.772500	-1218.080667	1827.506836	-37.788448
12355.772500	-1218.080667	1826.510742	19.327618
12355.772500	-1218.080667	1825.513672	208.288177
12355.772500	-1218.080667	1824.517578	205.299194
12355.772500	-1218.080667	1823.520508	-23.104340
12355.772500	-1218.080667	1822.523438	-2.173445
12355.772500	-1218.080667	1821.526367	85.808601
12355.772500	-1218.080667	1820.529297	63.484325
12355.772500	-1218.080667	1819.531250	160.902222
12355.772500	-1218.080667	1818.533203	42.658123
12355.772500	-1218.080667	1817.535156	48.938526
12355.772500	-1218.080667	1816.537109	69.528542
12355.772500	-1218.080667	1815.539063	226.510193
12355.772500	-1218.080667	1814.540039	167.963974
12355.772500	-1218.080667	1813.541992	-12.656959
12355.772500	-1218.080667	1812.542969	146.473434
12355.772500	-1218.080667	1811.543945	159.567596
12355.772500	-1218.080667	1810.543945	60.186344
12355.772500	-1218.080667	1809.544922	111.431702
12355.772500	-1218.080667	1808.544922	7.194748
12355.772500	-1218.080667	1807.544922	41.572952
12355.772500	-1218.080667	1806.544922	157.129852
12355.772500	-1218.080667	1805.544922	-59.546608
12355.772500	-1218.080667	1804.544922	8.078819
12355.772500	-1218.080667	1803.543945	-50.981270
12355.772500	-1218.080667	1802.542969	-16.952305
12355.772500	-1218.080667	1801.541992	12.221490
12355.772500	-1218.080667	1800.541016	19.831247
12355.772500	-1218.080667	1799.539063	175.338577
12355.772500	-1218.080667	1798.538086	-96.413765
12355.772500	-1218.080667	1797.536133	431.096863
12355.772500	-1218.080667	1796.534180	-119.831070
12355.772500	-1218.080667	1795.532227	-36.246227
12355.772500	-1218.080667	1794.529297	44.843979
12355.772500	-1218.080667	1793.527344	-62.500164
12355.772500	-1218.080667	1792.524414	-184.185349
12355.772500	-1218.080667	1791.521484	-177.214462
12355.772500	-1218.080667	1790.518555	-194.148804
12355.772500	-1218.080667	1789.514648	50.878929
12355.772500	-1218.080667	1788.511719	117.111435
12355.772500	-1218.080667	1787.507813	168.947037
12355.772500	-1218.080667	1786.503906	137.354935
12355.772500	-1218.080667	1785.500000	74.749519
12355.772500	-1218.080667	1784.496094	-16.472416
12355.772500	-1218.080667	1783.491211	127.818733
12355.772500	-1218.080667	1782.486328	29.314219
12355.772500	-1218.080667	1781.481445	-43.072517
12355.772500	-1218.080667	1780.476563	110.405006
12355.772500	-1218.080667	1779.471680	373.110474
12355.772500	-1218.080667	1778.465820	5.667273
12355.772500	-1218.080667	1777.460938	-36.101883
12355.772500	-1218.080667	1776.455078	190.573792
12355.772500	-1218.080667	1775.449219	153.357864
12355.772500	-1218.080667	1774.442383	246.708466
12355.772500	-1218.080667	1773.436523	249.694077
12355.772500	-1218.080667	1772.429688	17.507776
12355.772500	-1218.080667	1771.422852	39.343784
12355.772500	-1218.080667	1770.416016	-152.542496
12355.772500	-1218.080667	1769.409180	37.629780
12355.772500	-1218.080667	1768.402344	260.857239
12355.772500	-1218.080667	1767.394531	2.336786
12355.772500	-1218.080667	1766.386719	75.873497
12355.772500	-1218.080667	1765.378906	101.862511
12355.772500	-1218.080667	1764.371094	4.463627
12355.772500	-1218.080667	1763.362305	49.227947
12355.772500	-1218.080667	1762.354492	-145.480042
12355.772500	-1218.080667	1761.345703	69.714600
12355.772500	-1218.080667	1760.336914	130.742569
12355.772500	-1218.080667	1759.328125	-116.268478
12355.772500	-1218.080667	1758.318359	-93.315666
12355.772500	-1218.080667	1757.308594	166.305466
12355.772500	-1218.080667	1756.299805	122.729385
12355.772500	-1218.080667	1755.290039	154.803741
12355.772500	-1218.080667	1754.279297	158.366898
12355.772500	-1218.080667	1753.269531	107.422813
12355.772500	-1218.080667	1752.258789	207.784393
12355.772500	-1218.080667	1751.249023	128.277267
12355.772500	-1218.080667	1750.238281	-60.075031
12355.772500	-1218.080667	1749.226563	127.434151
12355.772500	-1218.080667	1748.215820	-65.768410
12355.772500	-1218.080667	1747.204102	123.840340
12355.772500	-1218.080667	1746.193359	15.577208
12355.772500	-1218.080667	1745.181641	72.611427
12355.772500	-1218.080667	1744.168945	193.288391
12355.772500	-1218.080667	1743.157227	261.878632
12355.772500	-1218.080667	1742.144531	-9.643485
12355.772500	-1218.080667	1741.132813	190.952942
12355.772500	-1218.080667	1740.120117	34.994518
12355.772500	-1218.080667	1739.106445	-26.627390
12355.772500	-1218.080667	1738.093750	157.040375
12355.772500	-1218.080667	1737.080078	62.200855
12355.772500	-1218.080667	1736.067383	-51.557621
12355.772500	-1218.080667	1735.053711	-130.012802
12355.772500	-1218.080667	1734.040039	196.932831
12355.772500	-1218.080667	1733.025391	224.315460
12355.772500	-1218.080667	1732.011719	48.943897
12355.772500	-1218.080667	1730.997070	-62.855743
12355.772500	-1218.080667	1729.982422	-59.287296
12355.772500	-1218.080667	1728.967773	19.545921
12355.772500	-1218.080667	1727.952148	-40.684513
12355.772500	-1218.080667	1726.937500	-145.708847
12355.772500	-1218.080667	1725.921875	-140.172501
12355.772500	-1218.080667	1724.906250	-21.776827
12355.772500	-1218.080667	1723.890625	16.480413
12355.772500	-1218.080667	1722.875000	89.912018
12355.772500	-1218.080667	1721.858398	346.663727
12355.772500	-1218.080667	1720.841797	48.261181
12355.772500	-1218.080667	1719.825195	53.165642
12355.772500	-1218.080667	1718.808594	-132.427200
12355.772500	-1218.080667	1717.791992	-120.630264
12355.772500	-1218.080667	1716.774414	137.778015
12355.772500	-1218.080667	1715.756836	-36.273872
12355.772500	-1218.080667	1714.739258	-165.724976
12355.772500	-1218.080667	1713.721680	282.478882
12355.772500	-1218.080667	1712.704102	173.960159
12355.772500	-1218.080667	1711.685547	53.642288
12355.772500	-1218.080667	1710.667969	-144.162933
12355.772500	-1218.080667	1709.649414	82.733467
12355.772500	-1218.080667	1708.630859	-65.927803
12355.772500	-1218.080667	1707.611328	12.894511
12355.772500	-1218.080667	1706.592773	51.739517
12355.772500	-1218.080667	1705.573242	69.363953
12355.772500	-1218.080667	1704.553711	44.694458
12355.772500	-1218.080667	1703.534180	-29.276211
12355.772500	-1218.080667	1702.513672	-49.420204
12355.772500	-1218.080667	1701.494141	131.862991
12355.772500	-1218.080667	1700.473633	15.475895
12355.772500	-1218.080667	1699.453125	39.571178
12355.772500	-1218.080667	1698.432617	-147.174728
12355.772500	-1218.080667	1697.412109	-97.476982
12355.772500	-1218.080667	1696.390625	169.790909
12355.772500	-1218.080667	1695.369141	191.143311
12355.772500	-1218.080667	1694.347656	343.433472
12355.772500	-1218.080667	1693.326172	139.997055
12355.772500	-1218.080667	1692.304688	144.720535
12355.772500	-1218.080667	1691.282227	53.469372
12355.772500	-1218.080667	1690.260742	242.748215
12355.772500	-1218.080667	1689.238281	-21.628828
12355.772500	-1218.080667	1688.214844	239.855392
12355.772500	-1218.080667	1687.192383	286.199188
12355.772500	-1218.080667	1686.168945	390.839294
12355.772500	-1218.080667	1685.146484	373.914948
12355.772500	-1218.080667	1684.123047	282.175140
12355.772500	-1218.080667	1683.099609	339.827637
12355.772500	-1218.080667	1682.075195	247.964935
12355.772500	-1218.080667	1681.051758	331.126251
12355.772500	-1218.080667	1680.027344	297.490753
12355.772500	-1218.080667	1679.002930	485.438416
12355.772500	-1218.080667	1677.978516	407.320709
12355.772500	-1218.080667	1676.953125	282.505249
12355.772500	-1218.080667	1675.928711	684.653015
12355.772500	-1218.080667	1674.903320	387.177032
12355.772500	-1218.080667	1673.877930	402.079712
12355.772500	-1218.080667	1672.852539	463.516235
12355.772500	-1218.080667	1671.826172	634.355042
12355.772500	-1218.080667	1670.800781	467.300629
12355.772500	-1218.080667	1669.774414	500.528229
12355.772500	-1218.080667	1668.748047	531.351135
12355.772500	-1218.080667	1667.721680	629.615051
12355.772500	-1218.080667	1666.694336	446.113861
12355.772500	-1218.080667	1665.667969	693.176880
12355.772500	-1218.080667	1664.640625	528.227661
12355.772500	-1218.080667	1663.613281	633.138550
12355.772500	-1218.080667	1662.585938	461.170288
12355.772500	-1218.080667	1661.557617	668.242554
12355.772500	-1218.080667	1660.530273	828.694946
12355.772500	-1218.080667	1659.501953	684.499451
12355.772500	-1218.080667	1658.473633	949.346985
12355.772500	-1218.080667	1657.444336	765.559387
12355.772500	-1218.080667	1656.416016	960.488403
12355.772500	-1218.080667	1655.386719	864.931824
12355.772500	-1218.080667	1654.358398	938.905701
12355.772500	-1218.080667	1653.328125	1054.565430
12355.772500	-1218.080667	1652.298828	1223.540039
12355.772500	-1218.080667	1651.269531	1011.766479
12355.772500	-1218.080667	1650.239258	1062.231567
12355.772500	-1218.080667	1649.208984	1219.355103
12355.772500	-1218.080667	1648.178711	1183.847168
12355.772500	-1218.080667	1647.148438	1357.036133
12355.772500	-1218.080667	1646.117188	1469.813965
12355.772500	-1218.080667	1645.086914	1450.384521
12355.772500	-1218.080667	1644.055664	1423.954468
12355.772500	-1218.080667	1643.024414	1286.263916
12355.772500	-1218.080667	1641.992188	1431.238037
12355.772500	-1218.080667	1640.960938	1446.415161
12355.772500	-1218.080667	1639.928711	1487.012207
12355.772500	-1218.080667	1638.896484	1696.597900
12355.772500	-1218.080667	1637.864258	1635.201538
12355.772500	-1218.080667	1636.832031	1677.959351
12355.772500	-1218.080667	1635.798828	1447.578369
12355.772500	-1218.080667	1634.766602	1619.869751
12355.772500	-1218.080667	1633.733398	1671.760132
12355.772500	-1218.080667	1632.699219	1651.889282
12355.772500	-1218.080667	1631.666016	1398.464111
12355.772500	-1218.080667	1630.632813	1739.290283
12355.772500	-1218.080667	1629.598633	1712.415771
12355.772500	-1218.080667	1628.564453	1685.530396
12355.772500	-1218.080667	1627.530273	1550.036865
12355.772500	-1218.080667	1626.495117	1932.041748
12355.772500	-1218.080667	1625.460938	2018.253662
12355.772500	-1218.080667	1624.425781	1663.326782
12355.772500	-1218.080667	1623.390625	1550.951172
12355.772500	-1218.080667	1622.355469	1902.590942
12355.772500	-1218.080667	1621.319336	1954.036255
12355.772500	-1218.080667	1620.284180	2316.977295
12355.772500	-1218.080667	1619.248047	2033.782104
12355.772500	-1218.080667	1618.211914	2071.303711
12355.772500	-1218.080667	1617.174805	1912.769775
12355.772500	-1218.080667	1616.138672	2146.271973
12355.772500	-1218.080667	1615.101563	2172.193848
12355.772500	-1218.080667	1614.065430	2403.246338
12355.772500	-1218.080667	1613.027344	2505.131104
12355.772500	-1218.080667	1611.990234	2291.357910
12355.772500	-1218.080667	1610.953125	2149.078369
12355.772500	-1218.080667	1609.915039	2393.742676
12355.772500	-1218.080667	1608.876953	2131.756836
12355.772500	-1218.080667	1607.838867	2201.379883
12355.772500	-1218.080667	1606.800781	2358.444824
12355.772500	-1218.080667	1605.761719	2248.502197
12355.772500	-1218.080667	1604.723633	2285.875732
12355.772500	-1218.080667	1603.684570	2337.031006
12355.772500	-1218.080667	1602.644531	2378.963867
12355.772500	-1218.080667	1601.605469	2381.818359
12355.772500	-1218.080667	1600.566406	2577.798828
12355.772500	-1218.080667	1599.526367	2555.345947
12355.772500	-1218.080667	1598.486328	2418.013672
12355.772500	-1218.080667	1597.446289	2418.612305
12355.772500	-1218.080667	1596.405273	2439.888916
12355.772500	-1218.080667	1595.365234	2559.954346
12355.772500	-1218.080667	1594.324219	2349.315674
12355.772500	-1218.080667	1593.283203	2632.384766
12355.772500	-1218.080667	1592.242188	2637.629150
12355.772500	-1218.080667	1591.200195	2647.470703
12355.772500	-1218.080667	1590.159180	2544.924072
12355.772500	-1218.080667	1589.117188	2676.422119
12355.772500	-1218.080667	1588.075195	2346.890381
12355.772500	-1218.080667	1587.032227	2347.714600
12355.772500	-1218.080667	1585.990234	2382.976318
12355.772500	-1218.080667	1584.947266	2709.356689
12355.772500	-1218.080667	1583.904297	2941.682861
12355.772500	-1218.080667	1582.861328	2772.971924
12355.772500	-1218.080667	1581.818359	2945.707520
12355.772500	-1218.080667	1580.775391	3242.100098
12355.772500	-1218.080667	1579.731445	3013.992920
12355.772500	-1218.080667	1578.687500	3452.273926
12355.772500	-1218.080667	1577.643555	3565.377686
12355.772500	-1218.080667	1576.598633	3332.880615
12355.772500	-1218.080667	1575.554688	3450.632080
12355.772500	-1218.080667	1574.509766	3284.687500
12355.772500	-1218.080667	1573.464844	3459.664795
12355.772500	-1218.080667	1572.419922	3346.481201
12355.772500	-1218.080667	1571.374023	3002.451416
12355.772500	-1218.080667	1570.329102	3252.971191
12355.772500	-1218.080667	1569.283203	3110.327148
12355.772500	-1218.080667	1568.237305	3178.019287
12355.772500	-1218.080667	1567.191406	2873.349854
12355.772500	-1218.080667	1566.144531	2822.385742
12355.772500	-1218.080667	1565.098633	2769.231201
12355.772500	-1218.080667	1564.051758	2581.431152
12355.772500	-1218.080667	1563.004883	2608.352539
12355.772500	-1218.080667	1561.957031	2532.605469
12355.772500	-1218.080667	1560.910156	2454.684326
12355.772500	-1218.080667	1559.862305	2296.994141
12355.772500	-1218.080667	1558.814453	2043.627930
12355.772500	-1218.080667	1557.766602	1915.864380
12355.772500	-1218.080667	1556.718750	1970.628418
12355.772500	-1218.080667	1555.669922	1731.349121
12355.772500	-1218.080667	1554.621094	1756.627197
12355.772500	-1218.080667	1553.573242	1727.290039
12355.772500	-1218.080667	1552.523438	1431.448486
12355.772500	-1218.080667	1551.474609	1345.376709
12355.772500	-1218.080667	1550.424805	1409.713135
12355.772500	-1218.080667	1549.375000	1276.005493
12355.772500	-1218.080667	1548.325195	1493.014648
12355.772500	-1218.080667	1547.275391	1163.757568
12355.772500	-1218.080667	1546.225586	1100.961670
12355.772500	-1218.080667	1545.174805	1058.736328
12355.772500	-1218.080667	1544.124023	943.822388
12355.772500	-1218.080667	1543.073242	1081.482544
12355.772500	-1218.080667	1542.022461	1316.952271
12355.772500	-1218.080667	1540.970703	1231.852905
12355.772500	-1218.080667	1539.919922	955.960754
12355.772500	-1218.080667	1538.868164	1414.273315
12355.772500	-1218.080667	1537.815430	1124.977539
12355.772500	-1218.080667	1536.763672	1471.950439
12355.772500	-1218.080667	1535.710938	1396.430542
12355.772500	-1218.080667	1534.659180	1100.786865
12355.772500	-1218.080667	1533.606445	1397.883057
12355.772500	-1218.080667	1532.552734	1359.013306
12355.772500	-1218.080667	1531.500000	1356.577271
12355.772500	-1218.080667	1530.446289	793.806519
12355.772500	-1218.080667	1529.393555	952.742859
12355.772500	-1218.080667	1528.338867	948.395630
12355.772500	-1218.080667	1527.285156	826.249634
12355.772500	-1218.080667	1526.231445	724.659546
12355.772500	-1218.080667	1525.176758	645.867126
12355.772500	-1218.080667	1524.122070	506.023285
12355.772500	-1218.080667	1523.067383	497.755920
12355.772500	-1218.080667	1522.012695	462.413605
12355.772500	-1218.080667	1520.957031	431.713165
12355.772500	-1218.080667	1519.901367	360.373352
12355.772500	-1218.080667	1518.845703	264.267212
12355.772500	-1218.080667	1517.790039	532.740234
12355.772500	-1218.080667	1516.734375	251.286606
12355.772500	-1218.080667	1515.677734	26.612741
12355.772500	-1218.080667	1514.621094	173.142014
12355.772500	-1218.080667	1513.564453	122.955322
12355.772500	-1218.080667	1512.507813	48.030067
12355.772500	-1218.080667	1511.450195	63.674759
12355.772500	-1218.080667	1510.393555	50.054230
12355.772500	-1218.080667	1509.335938	-132.948624
12355.772500	-1218.080667	1508.278320	-155.335052
12355.772500	-1218.080667	1507.219727	116.076942
12355.772500	-1218.080667	1506.162109	166.166061
12355.772500	-1218.080667	1505.103516	157.636383
12355.772500	-1218.080667	1504.044922	-53.964005
12355.772500	-1218.080667	1502.986328	-161.521103
12355.772500	-1218.080667	1501.926758	-217.014511
12355.772500	-1218.080667	1500.868164	90.925446
12355.772500	-1218.080667	1499.808594	-45.558510
12355.772500	-1218.080667	1498.749023	-150.285187
12355.772500	-1218.080667	1497.688477	-69.937828
12355.772500	-1218.080667	1496.628906	-3.013995
12355.772500	-1218.080667	1495.568359	113.594803
12355.772500	-1218.080667	1494.507813	-132.557709
12355.772500	-1218.080667	1493.447266	-209.488495
12355.772500	-1218.080667	1492.386719	-47.461555
12355.772500	-1218.080667	1491.325195	-135.385086
12355.772500	-1218.080667	1490.263672	15.559727
12355.772500	-1218.080667	1489.202148	-119.357002
12355.772500	-1218.080667	1488.140625	13.783271
12355.772500	-1218.080667	1487.079102	47.981102
12355.772500	-1218.080667	1486.016602	64.291786
12355.772500	-1218.080667	1484.954102	98.728752
12355.772500	-1218.080667	1483.891602	216.510300
12355.772500	-1218.080667	1482.829102	145.487534
12355.772500	-1218.080667	1481.765625	402.881226
12355.772500	-1218.080667	1480.702148	116.342972
12355.772500	-1218.080667	1479.638672	306.509918
12355.772500	-1218.080667	1478.575195	424.825897
12355.772500	-1218.080667	1477.511719	469.064819
12355.772500	-1218.080667	1476.447266	515.782043
12355.772500	-1218.080667	1475.382813	717.458496
12355.772500	-1218.080667	1474.318359	593.750793
12355.772500	-1218.080667	1473.253906	463.600800
12355.772500	-1218.080667	1472.189453	629.667053
12355.772500	-1218.080667	1471.124023	668.175537
12355.772500	-1218.080667	1470.058594	594.530212
12355.772500	-1218.080667	1468.993164	848.108398
12355.772500	-1218.080667	1467.927734	956.609619
12355.772500	-1218.080667	1466.861328	796.064941
12355.772500	-1218.080667	1465.794922	989.325134
12355.772500	-1218.080667	1464.728516	1095.376831
12355.772500	-1218.080667	1463.662109	1280.466309
12355.772500	-1218.080667	1462.594727	946.248291
12355.772500	-1218.080667	1461.528320	1294.232788
12355.772500	-1218.080667	1460.460938	1392.135132
12355.772500	-1218.080667	1459.393555	1338.039551
12355.772500	-1218.080667	1458.326172	1484.344727
12355.772500	-1218.080667	1457.257813	1524.010498
12355.772500	-1218.080667	1456.189453	1267.614746
12355.772500	-1218.080667	1455.121094	1229.216187
12355.772500	-1218.080667	1454.052734	1455.612061
12355.772500	-1218.080667	1452.984375	1224.442993
12355.772500	-1218.080667	1451.915039	1146.159912
12355.772500	-1218.080667	1450.845703	953.035156
12355.772500	-1218.080667	1449.776367	1086.773926
12355.772500	-1218.080667	1448.707031	1077.450562
12355.772500	-1218.080667	1447.636719	838.174622
12355.772500	-1218.080667	1446.567383	885.705933
12355.772500	-1218.080667	1445.497070	805.124878
12355.772500	-1218.080667	1444.425781	1033.226929
12355.772500	-1218.080667	1443.355469	976.040588
12355.772500	-1218.080667	1442.285156	1024.739990
12355.772500	-1218.080667	1441.213867	746.652405
12355.772500	-1218.080667	1440.142578	627.528992
12355.772500	-1218.080667	1439.070313	989.244019
12355.772500	-1218.080667	1437.999023	1015.812866
12355.772500	-1218.080667	1436.926758	1064.870850
12355.772500	-1218.080667	1435.854492	891.754517
12355.772500	-1218.080667	1434.782227	791.413147
12355.772500	-1218.080667	1433.709961	716.155212
12355.772500	-1218.080667	1432.636719	756.816650
12355.772500	-1218.080667	1431.563477	609.403442
12355.772500	-1218.080667	1430.490234	507.987701
12355.772500	-1218.080667	1429.416992	459.620178
12355.772500	-1218.080667	1428.343750	572.908142
12355.772500	-1218.080667	1427.269531	481.608002
12355.772500	-1218.080667	1426.195313	548.060974
12355.772500	-1218.080667	1425.121094	256.940704
12355.772500	-1218.080667	1424.046875	256.706024
12355.772500	-1218.080667	1422.971680	403.037689
12355.772500	-1218.080667	1421.896484	396.168915
12355.772500	-1218.080667	1420.821289	347.152130
12355.772500	-1218.080667	1419.746094	586.311340
12355.772500	-1218.080667	1418.669922	308.343567
12355.772500	-1218.080667	1417.594727	503.828827
12355.772500	-1218.080667	1416.518555	480.759094
12355.772500	-1218.080667	1415.442383	433.138031
12355.772500	-1218.080667	1414.365234	502.874054
12355.772500	-1218.080667	1413.289063	924.212158
12355.772500	-1218.080667	1412.211914	714.699890
12355.772500	-1218.080667	1411.134766	477.811157
12355.772500	-1218.080667	1410.057617	596.250671
12355.772500	-1218.080667	1408.979492	703.950867
12355.772500	-1218.080667	1407.902344	531.885803
12355.772500	-1218.080667	1406.824219	593.625916
12355.772500	-1218.080667	1405.746094	522.062134
12355.772500	-1218.080667	1404.666992	494.090393
12355.772500	-1218.080667	1403.588867	499.207031
12355.772500	-1218.080667	1402.509766	698.651428
12355.772500	-1218.080667	1401.430664	430.558167
12355.772500	-1218.080667	1400.351563	643.260803
12355.772500	-1218.080667	1399.271484	399.667542
12355.772500	-1218.080667	1398.192383	651.921753
12355.772500	-1218.080667	1397.112305	550.898804
12355.772500	-1218.080667	1396.031250	472.254974
12355.772500	-1218.080667	1394.951172	610.246033
12355.772500	-1218.080667	1393.871094	644.383850
12355.772500	-1218.080667	1392.790039	257.798065
12355.772500	-1218.080667	1391.708984	506.807465
12355.772500	-1218.080667	1390.626953	475.239166
12355.772500	-1218.080667	1389.545898	405.253876
12355.772500	-1218.080667	1388.463867	502.047424
12355.772500	-1218.080667	1387.381836	621.910767
12355.772500	-1218.080667	1386.299805	499.909668
12355.772500	-1218.080667	1385.217773	472.949829
12355.772500	-1218.080667	1384.134766	520.841492
12355.772500	-1218.080667	1383.051758	580.384705
12355.772500	-1218.080667	1381.968750	643.090576
12355.772500	-1218.080667	1380.885742	435.589386
12355.772500	-1218.080667	1379.802734	620.542542
12355.772500	-1218.080667	1378.718750	757.301819
12355.772500	-1218.080667	1377.634766	710.561279
12355.772500	-1218.080667	1376.550781	691.412048
12355.772500	-1218.080667	1375.465820	657.118225
12355.772500	-1218.080667	1374.381836	807.838989
12355.772500	-1218.080667	1373.296875	930.470703
12355.772500	-1218.080667	1372.211914	912.054382
12355.772500	-1218.080667	1371.126953	829.413513
12355.772500	-1218.080667	1370.041016	978.195679
12355.772500	-1218.080667	1368.955078	1036.480591
12355.772500	-1218.080667	1367.869141	984.570129
12355.772500	-1218.080667	1366.783203	1014.692139
12355.772500	-1218.080667	1365.697266	884.216858
12355.772500	-1218.080667	1364.610352	1123.575684
12355.772500	-1218.080667	1363.523438	1112.636719
12355.772500	-1218.080667	1362.436523	1201.528076
12355.772500	-1218.080667	1361.349609	1181.524170
12355.772500	-1218.080667	1360.261719	1469.359619
12355.772500	-1218.080667	1359.174805	1247.545532
12355.772500	-1218.080667	1358.086914	1137.053711
12355.772500	-1218.080667	1356.998047	1069.743042
12355.772500	-1218.080667	1355.910156	1301.868042
12355.772500	-1218.080667	1354.821289	1276.233154
12355.772500	-1218.080667	1353.732422	1205.354004
12355.772500	-1218.080667	1352.643555	1320.920898
12355.772500	-1218.080667	1351.554688	1520.407593
12355.772500	-1218.080667	1350.464844	1240.145264
12355.772500	-1218.080667	1349.375000	1203.418457
12355.772500	-1218.080667	1348.285156	1175.276855
12355.772500	-1218.080667	1347.195313	1293.946289
12355.772500	-1218.080667	1346.105469	1350.865234
12355.772500	-1218.080667	1345.014648	958.613220
12355.772500	-1218.080667	1343.923828	1100.462524
12355.772500	-1218.080667	1342.833008	1216.488403
12355.772500	-1218.080667	1341.741211	888.176941
12355.772500	-1218.080667	1340.650391	1088.889038
12355.772500	-1218.080667	1339.558594	1056.834351
12355.772500	-1218.080667	1338.466797	1039.007324
12355.772500	-1218.080667	1337.374023	1073.140381
12355.772500	-1218.080667	1336.282227	919.642456
12355.772500	-1218.080667	1335.189453	1058.100952
12355.772500	-1218.080667	1334.096680	1009.492188
12355.772500	-1218.080667	1333.003906	1124.348389
12355.772500	-1218.080667	1331.910156	1261.959229
12355.772500	-1218.080667	1330.817383	1242.228638
12355.772500	-1218.080667	1329.723633	1098.539917
12355.772500	-1218.080667	1328.629883	1223.110962
12355.772500	-1218.080667	1327.535156	1093.089355
12355.772500	-1218.080667	1326.441406	1189.723999
12355.772500	-1218.080667	1325.346680	1170.447632
12355.772500	-1218.080667	1324.251953	1162.514893
12355.772500	-1218.080667	1323.156250	1045.929077
12355.772500	-1218.080667	1322.061523	1047.463989
12355.772500	-1218.080667	1320.965820	1083.191406
12355.772500	-1218.080667	1319.870117	886.467407
12355.772500	-1218.080667	1318.774414	916.447205
12355.772500	-1218.080667	1317.678711	936.260498
12355.772500	-1218.080667	1316.582031	877.809448
12355.772500	-1218.080667	1315.485352	819.459412
12355.772500	-1218.080667	1314.388672	758.550110
12355.772500	-1218.080667	1313.291016	841.990723
12355.772500	-1218.080667	1312.194336	848.687195
12355.772500	-1218.080667	1311.096680	721.463928
12355.772500	-1218.080667	1309.999023	620.159546
12355.772500	-1218.080667	1308.901367	539.475098
12355.772500	-1218.080667	1307.802734	479.178406
12355.772500	-1218.080667	1306.705078	665.215759
12355.772500	-1218.080667	1305.606445	563.459106
12355.772500	-1218.080667	1304.506836	765.221008
12355.772500	-1218.080667	1303.408203	621.987305
12355.772500	-1218.080667	1302.308594	625.928162
12355.772500	-1218.080667	1301.208984	528.886536
12355.772500	-1218.080667	1300.109375	810.664001
12355.772500	-1218.080667	1299.009766	679.940063
12355.772500	-1218.080667	1297.909180	843.236145
12355.772500	-1218.080667	1296.808594	784.520813
12355.772500	-1218.080667	1295.708008	737.131775
12355.772500	-1218.080667	1294.607422	629.827698
12355.772500	-1218.080667	1293.506836	621.541870
12355.772500	-1218.080667	1292.405273	578.617432
12355.772500	-1218.080667	1291.303711	520.881897
12355.772500	-1218.080667	1290.202148	566.488464
12355.772500	-1218.080667	1289.099609	426.160126
12355.772500	-1218.080667	1287.998047	382.532379
12355.772500	-1218.080667	1286.895508	386.869843
12355.772500	-1218.080667	1285.792969	277.304565
12355.772500	-1218.080667	1284.689453	269.621307
12355.772500	-1218.080667	1283.586914	213.864319
12355.772500	-1218.080667	1282.483398	305.675568
12355.772500	-1218.080667	1281.379883	199.302109
12355.772500	-1218.080667	1280.276367	253.492813
12355.772500	-1218.080667	1279.171875	257.488678
12355.772500	-1218.080667	1278.067383	97.688011
12355.772500	-1218.080667	1276.962891	235.533005
12355.772500	-1218.080667	1275.858398	157.254898
12355.772500	-1218.080667	1274.753906	29.558575
12355.772500	-1218.080667	1273.648438	210.173508
12355.772500	-1218.080667	1272.542969	81.918724
12355.772500	-1218.080667	1271.437500	95.904366
12355.772500	-1218.080667	1270.331055	125.978188
12355.772500	-1218.080667	1269.225586	100.960701
12355.772500	-1218.080667	1268.119141	304.639465
12355.772500	-1218.080667	1267.012695	233.892899
12355.772500	-1218.080667	1265.906250	170.940475
12355.772500	-1218.080667	1264.798828	93.869446
12355.772500	-1218.080667	1263.691406	103.482864
12355.772500	-1218.080667	1262.583984	139.518829
12355.772500	-1218.080667	1261.476563	87.482040
12355.772500	-1218.080667	1260.368164	17.469557
12355.772500	-1218.080667	1259.260742	10.502500
12355.772500	-1218.080667	1258.152344	110.402199
12355.772500	-1218.080667	1257.043945	74.630760
12355.772500	-1218.080667	1255.934570	-122.586700
12355.772500	-1218.080667	1254.825195	-32.744179
12355.772500	-1218.080667	1253.716797	7.160343
12355.772500	-1218.080667	1252.606445	62.541954
12355.772500	-1218.080667	1251.497070	0.933453
12355.772500	-1218.080667	1250.387695	28.333437
12355.772500	-1218.080667	1249.277344	40.485695
12355.772500	-1218.080667	1248.166992	18.801405
12355.772500	-1218.080667	1247.055664	-66.919945
12355.772500	-1218.080667	1245.945313	67.138191
12355.772500	-1218.080667	1244.833984	48.373814
12355.772500	-1218.080667	1243.722656	104.340622
12355.772500	-1218.080667	1242.611328	129.311890
12355.772500	-1218.080667	1241.499023	112.588165
12355.772500	-1218.080667	1240.387695	-65.499451
12355.772500	-1218.080667	1239.275391	-25.796991
12355.772500	-1218.080667	1238.162109	18.117308
12355.772500	-1218.080667	1237.049805	72.120407
12355.772500	-1218.080667	1235.936523	-42.709843
12355.772500	-1218.080667	1234.823242	47.083534
12355.772500	-1218.080667	1233.709961	71.458420
12355.772500	-1218.080667	1232.596680	58.879543
12355.772500	-1218.080667	1231.482422	99.351608
12355.772500	-1218.080667	1230.369141	61.220322
12355.772500	-1218.080667	1229.253906	9.986392
12355.772500	-1218.080667	1228.139648	17.743622
12355.772500	-1218.080667	1227.025391	-1.407551
12355.772500	-1218.080667	1225.910156	90.472176
12355.772500	-1218.080667	1224.794922	155.215759
12355.772500	-1218.080667	1223.679688	189.493073
12355.772500	-1218.080667	1222.563477	349.786346
12355.772500	-1218.080667	1221.447266	342.079010
12355.772500	-1218.080667	1220.331055	251.605316
12355.772500	-1218.080667	1219.214844	435.041016
12355.772500	-1218.080667	1218.098633	341.781586
12355.772500	-1218.080667	1216.981445	306.474274
12355.772500	-1218.080667	1215.864258	321.667023
12355.772500	-1218.080667	1214.747070	422.115601
12355.772500	-1218.080667	1213.629883	265.948944
12355.772500	-1218.080667	1212.511719	240.462692
12355.772500	-1218.080667	1211.393555	143.164825
12355.772500	-1218.080667	1210.275391	99.200829
12355.772500	-1218.080667	1209.157227	-53.813103
12355.772500	-1218.080667	1208.038086	77.650124
12355.772500	-1218.080667	1206.918945	366.909088
12355.772500	-1218.080667	1205.799805	131.995056
12355.772500	-1218.080667	1204.680664	46.787933
12355.772500	-1218.080667	1203.560547	89.776657
12355.772500	-1218.080667	1202.441406	91.695320
12355.772500	-1218.080667	1201.321289	198.525681
12355.772500	-1218.080667	1200.200195	238.023575
12355.772500	-1218.080667	1199.080078	187.118561
12355.772500	-1218.080667	1197.958984	207.957306
12355.772500	-1218.080667	1196.837891	140.703400
12355.772500	-1218.080667	1195.716797	187.675247
12355.772500	-1218.080667	1194.594727	24.328465
12355.772500	-1218.080667	1193.473633	66.382935
12355.772500	-1218.080667	1192.351563	126.340584
12355.772500	-1218.080667	1191.229492	55.093658
12355.772500	-1218.080667	1190.106445	60.421879
12355.772500	-1218.080667	1188.984375	-150.719238
12355.772500	-1218.080667	1187.861328	-50.129745
12355.772500	-1218.080667	1186.738281	-48.155521
12355.772500	-1218.080667	1185.614258	-73.442726
12355.772500	-1218.080667	1184.491211	77.041603
12355.772500	-1218.080667	1183.367188	69.043068
12355.772500	-1218.080667	1182.243164	-135.630722
12355.772500	-1218.080667	1181.119141	38.486229
12355.772500	-1218.080667	1179.994141	-45.752373
12355.772500	-1218.080667	1178.869141	-7.042695
12355.772500	-1218.080667	1177.744141	-26.160906
12355.772500	-1218.080667	1176.619141	-168.633163
12355.772500	-1218.080667	1175.493164	-36.271889
12355.772500	-1218.080667	1174.368164	-151.683029
12355.772500	-1218.080667	1173.242188	4.879379
12355.772500	-1218.080667	1172.115234	4.659617
12355.772500	-1218.080667	1170.989258	109.190681
12355.772500	-1218.080667	1169.862305	119.023018
12355.772500	-1218.080667	1168.735352	-66.621147
12355.772500	-1218.080667	1167.608398	-161.382156
12355.772500	-1218.080667	1166.481445	49.306709
12355.772500	-1218.080667	1165.353516	-146.804810
12355.772500	-1218.080667	1164.225586	-220.687637
12355.772500	-1218.080667	1163.097656	-280.916626
12355.772500	-1218.080667	1161.968750	-105.810501
12355.772500	-1218.080667	1160.840820	-39.891037
12355.772500	-1218.080667	1159.711914	93.257690
12355.772500	-1218.080667	1158.583008	-223.312500
12355.772500	-1218.080667	1157.453125	-62.886299
12355.772500	-1218.080667	1156.324219	-147.944031
12355.772500	-1218.080667	1155.194336	-345.944153
12355.772500	-1218.080667	1154.064453	-279.937164
12355.772500	-1218.080667	1152.933594	-149.319229
12355.772500	-1218.080667	1151.803711	-301.069275
12355.772500	-1218.080667	1150.672852	-272.013306
12355.772500	-1218.080667	1149.541992	-272.537476
12355.772500	-1218.080667	1148.411133	-411.959747
12355.772500	-1218.080667	1147.279297	-128.775116
12355.772500	-1218.080667	1146.147461	-136.004364
12355.772500	-1218.080667	1145.015625	-282.354034
12355.772500	-1218.080667	1143.883789	-148.482803
12355.772500	-1218.080667	1142.750977	-199.544128
12355.772500	-1218.080667	1141.619141	-120.432808
12355.772500	-1218.080667	1140.486328	-108.377151
12355.772500	-1218.080667	1139.352539	-149.826004
12355.772500	-1218.080667	1138.219727	-62.008812
12355.772500	-1218.080667	1137.085938	108.045067
12355.772500	-1218.080667	1135.952148	136.029343
12355.772500	-1218.080667	1134.818359	-50.782963
12355.772500	-1218.080667	1133.683594	224.370361
12355.772500	-1218.080667	1132.549805	245.133560
12355.772500	-1218.080667	1131.415039	383.687683
12355.772500	-1218.080667	1130.279297	73.220634
12355.772500	-1218.080667	1129.144531	248.702271
12355.772500	-1218.080667	1128.008789	210.800583
12355.772500	-1218.080667	1126.873047	235.048706
12355.772500	-1218.080667	1125.737305	417.703156
12355.772500	-1218.080667	1124.601563	326.693298
12355.772500	-1218.080667	1123.464844	439.585541
12355.772500	-1218.080667	1122.328125	477.155548
12355.772500	-1218.080667	1121.191406	506.246735
12355.772500	-1218.080667	1120.054688	137.614685
12355.772500	-1218.080667	1118.916992	257.471161
12355.772500	-1218.080667	1117.779297	341.931885
12355.772500	-1218.080667	1116.641602	321.841339
12355.772500	-1218.080667	1115.503906	126.443443
12355.772500	-1218.080667	1114.365234	292.687012
12355.772500	-1218.080667	1113.226563	128.544510
12355.772500	-1218.080667	1112.087891	219.713989
12355.772500	-1218.080667	1110.949219	215.599533
12355.772500	-1218.080667	1109.809570	52.060921
12355.772500	-1218.080667	1108.669922	97.756447
12355.772500	-1218.080667	1107.530273	136.562912
12355.772500	-1218.080667	1106.390625	302.786804
12355.772500	-1218.080667	1105.250000	-25.875473
12355.772500	-1218.080667	1104.109375	56.941776
12355.772500	-1218.080667	1102.968750	94.628059
12355.772500	-1218.080667	1101.828125	215.053375
12355.772500	-1218.080667	1100.686523	133.195206
12355.772500	-1218.080667	1099.544922	242.995651
12355.772500	-1218.080667	1098.403320	338.825745
12355.772500	-1218.080667	1097.261719	328.221527
12355.772500	-1218.080667	1096.120117	171.657578
12355.772500	-1218.080667	1094.977539	320.984100
12355.772500	-1218.080667	1093.834961	375.605499
12355.772500	-1218.080667	1092.691406	284.058441
12355.772500	-1218.080667	1091.548828	295.649384
12355.772500	-1218.080667	1090.405273	402.712280
12355.772500	-1218.080667	1089.261719	379.522034
12355.772500	-1218.080667	1088.118164	312.720215
12355.772500	-1218.080667	1086.973633	417.807098
12355.772500	-1218.080667	1085.829102	334.556702
12355.772500	-1218.080667	1084.684570	265.478882
12355.772500	-1218.080667	1083.540039	128.609787
12355.772500	-1218.080667	1082.395508	346.508057
12355.772500	-1218.080667	1081.250000	322.912933
12355.772500	-1218.080667	1080.104492	431.438721
12355.772500	-1218.080667	1078.958984	354.035645
12355.772500	-1218.080667	1077.812500	303.315857
12355.772500	-1218.080667	1076.666016	307.812775
12355.772500	-1218.080667	1075.519531	248.026566
12355.772500	-1218.080667	1074.373047	345.984650
12355.772500	-1218.080667	1073.226563	378.086609
12355.772500	-1218.080667	1072.079102	373.209808
12355.772500	-1218.080667	1070.931641	335.433075
12355.772500	-1218.080667	1069.784180	313.338562
12355.772500	-1218.080667	1068.635742	347.477386
12355.772500	-1218.080667	1067.487305	442.314270
12355.772500	-1218.080667	1066.338867	390.043762
12355.772500	-1218.080667	1065.190430	443.987274
12355.772500	-1218.080667	1064.041992	464.407745
12355.772500	-1218.080667	1062.892578	321.079620
12355.772500	-1218.080667	1061.743164	590.546082
12355.772500	-1218.080667	1060.593750	402.458801
12355.772500	-1218.080667	1059.443359	461.961151
12355.772500	-1218.080667	1058.292969	393.447144
12355.772500	-1218.080667	1057.142578	320.651428
12355.772500	-1218.080667	1055.992188	476.733429
12355.772500	-1218.080667	1054.841797	379.309631
12355.772500	-1218.080667	1053.690430	456.440186
12355.772500	-1218.080667	1052.539063	507.000885
12355.772500	-1218.080667	1051.387695	372.825043
12355.772500	-1218.080667	1050.235352	228.162079
12355.772500	-1218.080667	1049.083984	331.932922
12355.772500	-1218.080667	1047.931641	227.496460
12355.772500	-1218.080667	1046.778320	237.742432
12355.772500	-1218.080667	1045.625977	208.801163
12355.772500	-1218.080667	1044.472656	118.787987
12355.772500	-1218.080667	1043.319336	282.011932
12355.772500	-1218.080667	1042.166016	216.017273
12355.772500	-1218.080667	1041.012695	119.201836
12355.772500	-1218.080667	1039.858398	283.640717
12355.772500	-1218.080667	1038.704102	366.791656
12355.772500	-1218.080667	1037.549805	378.531982
12355.772500	-1218.080667	1036.394531	252.909286
12355.772500	-1218.080667	1035.239258	169.069977
12355.772500	-1218.080667	1034.083984	285.235138
12355.772500	-1218.080667	1032.928711	206.550690
12355.772500	-1218.080667	1031.773438	66.042427
12355.772500	-1218.080667	1030.617188	280.456909
12355.772500	-1218.080667	1029.460938	254.284637
12355.772500	-1218.080667	1028.304688	271.202759
12355.772500	-1218.080667	1027.147461	232.228226
12355.772500	-1218.080667	1025.991211	399.222931
12355.772500	-1218.080667	1024.833984	-9.080528
12355.772500	-1218.080667	1023.675781	127.767372
12355.772500	-1218.080667	1022.518555	137.346649
12355.772500	-1218.080667	1021.360352	102.344666
12355.772500	-1218.080667	1020.202148	122.497513
12355.772500	-1218.080667	1019.043945	230.540024
12355.772500	-1218.080667	1017.884766	19.785627
12355.772500	-1218.080667	1016.726563	-190.706589
12355.772500	-1218.080667	1015.567383	105.902596
12355.772500	-1218.080667	1014.407227	173.104721
12355.772500	-1218.080667	1013.248047	118.853737
12355.772500	-1218.080667	1012.087891	216.411407
12355.772500	-1218.080667	1010.927734	71.137344
12355.772500	-1218.080667	1009.767578	228.517365
12355.772500	-1218.080667	1008.606445	214.950485
12355.772500	-1218.080667	1007.446289	152.978073
12355.772500	-1218.080667	1006.285156	234.899521
12355.772500	-1218.080667	1005.123047	154.258163
12355.772500	-1218.080667	1003.961914	267.665039
12355.772500	-1218.080667	1002.799805	173.067688
12355.772500	-1218.080667	1001.637695	124.873947
12355.772500	-1218.080667	1000.475586	203.078506
12355.772500	-1218.080667	999.312500	168.368088
12355.772500	-1218.080667	998.149414	95.846001
12355.772500	-1218.080667	996.986328	86.285255
12355.772500	-1218.080667	995.823242	76.014519
12355.772500	-1218.080667	994.659180	134.009399
12355.772500	-1218.080667	993.496094	89.673798
12355.772500	-1218.080667	992.332031	196.754227
12355.772500	-1218.080667	991.166992	378.215973
12355.772500	-1218.080667	990.002930	55.627243
12355.772500	-1218.080667	988.837891	-45.862358
12355.772500	-1218.080667	987.672852	183.453461
12355.772500	-1218.080667	986.506836	128.081268
12355.772500	-1218.080667	985.341797	78.389458
12355.772500	-1218.080667	984.175781	248.387634
12355.772500	-1218.080667	983.009766	105.611359
12355.772500	-1218.080667	981.843750	24.486988
12355.772500	-1218.080667	980.676758	48.726952
12355.772500	-1218.080667	979.509766	-39.745358
12355.772500	-1218.080667	978.342773	-51.443050
12355.772500	-1218.080667	977.175781	45.623703
12355.772500	-1218.080667	976.007813	-258.825012
12355.772500	-1218.080667	974.839844	66.608994
12355.772500	-1218.080667	973.671875	-102.345230
12355.772500	-1218.080667	972.503906	-42.311119
12355.772500	-1218.080667	971.334961	-23.520878
12355.772500	-1218.080667	970.166016	-133.717804
12355.772500	-1218.080667	968.997070	-140.876907
12355.772500	-1218.080667	967.828125	-208.128479
12355.772500	-1218.080667	966.658203	-7.921661
12355.772500	-1218.080667	965.488281	-13.365812
12355.772500	-1218.080667	964.318359	-79.572678
12355.772500	-1218.080667	963.148438	-194.875671
12355.772500	-1218.080667	961.977539	-186.693787
12355.772500	-1218.080667	960.806641	-152.909698
12355.772500	-1218.080667	959.635742	37.907822
12355.772500	-1218.080667	958.463867	-115.510910
12355.772500	-1218.080667	957.292969	-57.605358
12355.772500	-1218.080667	956.121094	132.010315
12355.772500	-1218.080667	954.948242	66.630524
12355.772500	-1218.080667	953.776367	118.546432
12355.772500	-1218.080667	952.603516	-42.754726
12355.772500	-1218.080667	951.430664	-154.333145
12355.772500	-1218.080667	950.257813	3.563676
12355.772500	-1218.080667	949.084961	32.162846
12355.772500	-1218.080667	947.911133	10.941496
12355.772500	-1218.080667	946.737305	13.574886
12355.772500	-1218.080667	945.563477	41.258865
12355.772500	-1218.080667	944.388672	-0.113501
12355.772500	-1218.080667	943.213867	-81.208679
12355.772500	-1218.080667	942.039063	219.374237
12355.772500	-1218.080667	940.864258	24.878960
12355.772500	-1218.080667	939.688477	148.695496
12355.772500	-1218.080667	938.513672	127.543365
12355.772500	-1218.080667	937.337891	176.298752
12355.772500	-1218.080667	936.161133	-128.052536
12355.772500	-1218.080667	934.985352	21.748207
12355.772500	-1218.080667	933.808594	83.713722
12355.772500	-1218.080667	932.631836	148.046875
12355.772500	-1218.080667	931.454102	105.875793
12355.772500	-1218.080667	930.277344	193.455429
12355.772500	-1218.080667	929.099609	143.449722
12355.772500	-1218.080667	927.921875	122.121162
12355.772500	-1218.080667	926.743164	406.615356
12355.772500	-1218.080667	925.565430	263.282135
12355.772500	-1218.080667	924.386719	96.682701
12355.772500	-1218.080667	923.208008	129.642120
12355.772500	-1218.080667	922.028320	193.675034
12355.772500	-1218.080667	920.849609	249.897034
12355.772500	-1218.080667	919.669922	254.053726
12355.772500	-1218.080667	919.474609	128.072388
12355.772500	-1218.080667	918.309570	8.127822
12355.772500	-1218.080667	917.143555	235.117340
12355.772500	-1218.080667	915.977539	78.932442
12355.772500	-1218.080667	914.810547	241.090576
12355.772500	-1218.080667	913.644531	136.679123
12355.772500	-1218.080667	912.477539	143.524551
12355.772500	-1218.080667	911.310547	46.905109
12355.772500	-1218.080667	910.143555	12.364140
12355.772500	-1218.080667	908.975586	96.741257
12355.772500	-1218.080667	907.807617	0.147745
12355.772500	-1218.080667	906.639648	-16.314468
12355.772500	-1218.080667	905.471680	-9.532730
12355.772500	-1218.080667	904.303711	51.475723
12355.772500	-1218.080667	903.134766	-42.500378
12355.772500	-1218.080667	901.965820	-71.901466
12355.772500	-1218.080667	900.796875	25.185871
12355.772500	-1218.080667	899.626953	-110.057114
12355.772500	-1218.080667	898.457031	-49.147991
12355.772500	-1218.080667	897.287109	-243.681183
12355.772500	-1218.080667	896.117188	20.973488
12355.772500	-1218.080667	894.947266	200.409073
12355.772500	-1218.080667	893.776367	158.030396
12355.772500	-1218.080667	892.605469	262.591370
12355.772500	-1218.080667	891.434570	163.497513
12355.772500	-1218.080667	890.262695	252.535461
12355.772500	-1218.080667	889.091797	362.133728
12355.772500	-1218.080667	887.919922	162.603516
12355.772500	-1218.080667	886.748047	238.682144
12355.772500	-1218.080667	885.575195	121.628792
12355.772500	-1218.080667	884.403320	38.074211
12355.772500	-1218.080667	883.230469	98.666382
12355.772500	-1218.080667	882.057617	92.325264
12355.772500	-1218.080667	880.883789	24.242594
12355.772500	-1218.080667	879.710938	164.505188
12355.772500	-1218.080667	878.537109	-9.010540
12355.772500	-1218.080667	877.362305	115.764893
12355.772500	-1218.080667	876.188477	-49.974255
12355.772500	-1218.080667	875.013672	87.592705
12355.772500	-1218.080667	873.839844	60.655159
12355.772500	-1218.080667	872.664063	38.863899
12355.772500	-1218.080667	871.489258	106.961952
12355.772500	-1218.080667	870.313477	157.053101
12355.772500	-1218.080667	869.138672	45.378513
12355.772500	-1218.080667	867.962891	82.613235
12355.772500	-1218.080667	866.786133	225.042496
12355.772500	-1218.080667	865.610352	33.868397
12355.772500	-1218.080667	864.433594	-136.709656
12355.772500	-1218.080667	863.256836	-94.363541
12355.772500	-1218.080667	862.079102	42.832611
12355.772500	-1218.080667	860.902344	31.277224
12355.772500	-1218.080667	859.724609	263.209625
12355.772500	-1218.080667	858.546875	223.414993
12355.772500	-1218.080667	857.368164	-54.631081
12355.772500	-1218.080667	856.190430	-50.812389
12355.772500	-1218.080667	855.011719	160.435516
12355.772500	-1218.080667	853.833008	243.569672
12355.772500	-1218.080667	852.654297	-82.916801
12355.772500	-1218.080667	851.474609	-22.811060
12355.772500	-1218.080667	850.294922	-34.384605
12355.772500	-1218.080667	849.115234	92.187714
12355.772500	-1218.080667	847.935547	180.335510
12355.772500	-1218.080667	846.754883	22.946388
12355.772500	-1218.080667	845.575195	105.944183
12355.772500	-1218.080667	844.393555	-53.933083
12355.772500	-1218.080667	843.212891	-52.746841
12355.772500	-1218.080667	842.032227	109.406059
12355.772500	-1218.080667	840.850586	-45.286098
12355.772500	-1218.080667	839.668945	98.907112
12355.772500	-1218.080667	838.486328	-94.035049
12355.772500	-1218.080667	837.304688	6.691175
12355.772500	-1218.080667	836.122070	-43.227058
12355.772500	-1218.080667	834.939453	-154.381607
12355.772500	-1218.080667	833.756836	22.817215
12355.772500	-1218.080667	832.573242	39.227486
12355.772500	-1218.080667	831.389648	47.972191
12355.772500	-1218.080667	830.206055	97.501343
12355.772500	-1218.080667	829.022461	32.279572
12355.772500	-1218.080667	827.838867	10.406285
12355.772500	-1218.080667	826.654297	210.237534
12355.772500	-1218.080667	825.469727	-79.198433
12355.772500	-1218.080667	824.284180	-32.283882
12355.772500	-1218.080667	823.099609	-84.723747
12355.772500	-1218.080667	821.914063	-7.294084
12355.772500	-1218.080667	820.728516	1.359542
12355.772500	-1218.080667	819.542969	-117.259232
12355.772500	-1218.080667	818.356445	-111.150932
12355.772500	-1218.080667	817.169922	50.133595
12355.772500	-1218.080667	815.983398	30.744448
12355.772500	-1218.080667	814.796875	57.126637
12355.772500	-1218.080667	813.609375	88.573509
12355.772500	-1218.080667	812.422852	-172.340485
12355.772500	-1218.080667	811.235352	-87.514671
12355.772500	-1218.080667	810.046875	-178.061737
12355.772500	-1218.080667	808.859375	36.263718
12355.772500	-1218.080667	807.670898	6.657959
12355.772500	-1218.080667	806.482422	-101.671043
12355.772500	-1218.080667	805.293945	-50.022488
12355.772500	-1218.080667	804.104492	-23.791658
12355.772500	-1218.080667	802.915039	-119.402405
12355.772500	-1218.080667	801.725586	183.363632
12355.772500	-1218.080667	800.536133	85.179878
12355.772500	-1218.080667	799.345703	111.296478
12355.772500	-1218.080667	798.155273	18.207571
12355.772500	-1218.080667	796.964844	-24.157570
12355.772500	-1218.080667	795.774414	-172.980026
12355.772500	-1218.080667	794.583008	-15.125978
12355.772500	-1218.080667	793.392578	97.035027
12355.772500	-1218.080667	792.200195	-28.974606
12355.772500	-1218.080667	791.008789	-18.196732
12355.772500	-1218.080667	789.816406	76.115158
12355.772500	-1218.080667	788.625000	172.896286
12355.772500	-1218.080667	787.432617	-358.067841
12355.772500	-1218.080667	786.239258	-198.015091
12355.772500	-1218.080667	785.046875	128.923492
12355.772500	-1218.080667	783.853516	-72.943298
12355.772500	-1218.080667	782.660156	-87.611435
12355.772500	-1218.080667	781.465820	8.952070
12355.772500	-1218.080667	780.272461	-182.725525
12355.772500	-1218.080667	779.078125	-217.651993
12355.772500	-1218.080667	777.883789	-138.884781
12355.772500	-1218.080667	776.688477	106.559219
12355.772500	-1218.080667	775.494141	-140.647095
12355.772500	-1218.080667	774.298828	92.014656
12355.772500	-1218.080667	773.103516	-157.664215
12355.772500	-1218.080667	771.907227	-21.067959
12355.772500	-1218.080667	770.711914	115.440392
12355.772500	-1218.080667	769.515625	236.726685
12355.772500	-1218.080667	768.318359	196.486603
12355.772500	-1218.080667	767.122070	12.473432
12355.772500	-1218.080667	765.924805	-110.975449
12355.772500	-1218.080667	764.727539	216.858139
12355.772500	-1218.080667	763.530273	204.255875
12355.772500	-1218.080667	762.333008	68.146896
12355.772500	-1218.080667	761.134766	110.943619
12355.772500	-1218.080667	759.936523	-93.165962
12355.772500	-1218.080667	758.738281	269.414276
12355.772500	-1218.080667	757.540039	-2.696100
12355.772500	-1218.080667	756.340820	85.254059
12355.772500	-1218.080667	755.141602	-5.563732
12355.772500	-1218.080667	753.942383	-61.152966
12355.772500	-1218.080667	752.742188	-6.060437
12355.772500	-1218.080667	751.541992	129.458694
12355.772500	-1218.080667	750.341797	-175.194763
12355.772500	-1218.080667	749.141602	-34.746952
12355.772500	-1218.080667	747.941406	130.740051
12355.772500	-1218.080667	746.740234	-10.486772
12355.772500	-1218.080667	745.539063	97.054893
12355.772500	-1218.080667	744.337891	99.001205
12355.772500	-1218.080667	743.135742	-210.530823
12355.772500	-1218.080667	741.933594	-80.541222
12355.772500	-1218.080667	740.731445	64.413818
12355.772500	-1218.080667	739.529297	-119.547119
12355.772500	-1218.080667	738.326172	-50.016144
12355.772500	-1218.080667	737.124023	-50.811672
12355.772500	-1218.080667	735.919922	-59.175850
12355.772500	-1218.080667	734.716797	-190.472107
12355.772500	-1218.080667	733.513672	51.841236
12355.772500	-1218.080667	732.309570	38.305668
12355.772500	-1218.080667	731.105469	-37.930038
12355.772500	-1218.080667	729.900391	51.201923
12355.772500	-1218.080667	728.696289	137.741119
12355.772500	-1218.080667	727.491211	209.166412
12355.772500	-1218.080667	726.286133	45.113075
12355.772500	-1218.080667	725.080078	-11.262361
12355.772500	-1218.080667	723.874023	95.042664
12355.772500	-1218.080667	722.668945	-136.610748
12355.772500	-1218.080667	721.461914	9.606184
12355.772500	-1218.080667	720.255859	30.627405
12355.772500	-1218.080667	719.048828	-58.461327
12355.772500	-1218.080667	717.841797	-205.081039
12355.772500	-1218.080667	716.634766	-56.686306
12355.772500	-1218.080667	715.427734	-10.889855
12355.772500	-1218.080667	714.219727	364.701813
12355.772500	-1218.080667	713.011719	33.008678
12355.772500	-1218.080667	711.803711	108.565491
12355.772500	-1218.080667	710.594727	-5.770492
12355.772500	-1218.080667	709.385742	-42.711933
12355.772500	-1218.080667	708.176758	80.072800
12355.772500	-1218.080667	706.967773	-44.342445
12355.772500	-1218.080667	705.758789	-98.894577
12355.772500	-1218.080667	704.548828	-81.132767
12355.772500	-1218.080667	703.338867	56.289200
12355.772500	-1218.080667	702.127930	48.953918
12355.772500	-1218.080667	700.917969	378.150208
12355.772500	-1218.080667	699.707031	173.703735
12355.772500	-1218.080667	698.496094	375.512695
12355.772500	-1218.080667	697.285156	156.080704
12355.772500	-1218.080667	696.073242	155.900330
12355.772500	-1218.080667	694.861328	364.871887
12355.772500	-1218.080667	693.649414	364.524445
12355.772500	-1218.080667	692.436523	274.488129
12355.772500	-1218.080667	691.224609	256.611237
12355.772500	-1218.080667	690.011719	136.647476
12355.772500	-1218.080667	688.798828	198.296326
12355.772500	-1218.080667	687.584961	142.941666
12355.772500	-1218.080667	686.372070	72.626625
12355.772500	-1218.080667	685.158203	218.596710
12355.772500	-1218.080667	683.943359	182.967850
12355.772500	-1218.080667	682.729492	199.484665
12355.772500	-1218.080667	681.514648	106.593575
12355.772500	-1218.080667	680.299805	55.911518
12355.772500	-1218.080667	679.084961	246.117126
12355.772500	-1218.080667	677.869141	177.912399
12355.772500	-1218.080667	676.653320	390.225952
12355.772500	-1218.080667	675.437500	321.889832
12355.772500	-1218.080667	674.221680	218.772171
12355.772500	-1218.080667	673.004883	351.347260
12355.772500	-1218.080667	671.789063	230.771957
12355.772500	-1218.080667	670.571289	177.143860
12355.772500	-1218.080667	669.354492	73.881050
12355.772500	-1218.080667	668.136719	7.781611
12355.772500	-1218.080667	666.919922	-204.590927
12355.772500	-1218.080667	665.701172	138.148621
12355.772500	-1218.080667	664.483398	121.433685
12355.772500	-1218.080667	663.264648	-26.624544
12355.772500	-1218.080667	662.045898	253.753036
12355.772500	-1218.080667	660.827148	328.438690
12355.772500	-1218.080667	659.608398	247.075226
12355.772500	-1218.080667	658.388672	215.177567
12355.772500	-1218.080667	657.168945	235.192093
12355.772500	-1218.080667	655.949219	376.355438
12355.772500	-1218.080667	654.728516	228.008591
12355.772500	-1218.080667	653.507813	161.264206
12355.772500	-1218.080667	652.287109	366.442902
12355.772500	-1218.080667	651.066406	-71.200066
12355.772500	-1218.080667	649.844727	304.331512
12355.772500	-1218.080667	648.623047	138.544067
12355.772500	-1218.080667	647.401367	14.758347
12355.772500	-1218.080667	646.179688	298.468964
12355.772500	-1218.080667	644.957031	194.331146
12355.772500	-1218.080667	643.734375	159.299927
12355.772500	-1218.080667	642.511719	176.054504
12355.772500	-1218.080667	641.289063	71.828827
12355.772500	-1218.080667	640.065430	95.874756
12355.772500	-1218.080667	638.841797	68.053810
12355.772500	-1218.080667	637.618164	202.946671
12355.772500	-1218.080667	636.393555	162.669388
12355.772500	-1218.080667	635.168945	100.166710
12355.772500	-1218.080667	633.944336	111.570168
12355.772500	-1218.080667	632.719727	214.079681
12355.772500	-1218.080667	631.494141	131.728241
12355.772500	-1218.080667	630.269531	202.063400
12355.772500	-1218.080667	629.042969	262.459900
12355.772500	-1218.080667	627.817383	-51.426132
12355.772500	-1218.080667	626.590820	92.579819
12355.772500	-1218.080667	625.365234	22.384113
12355.772500	-1218.080667	624.137695	-23.235550
12355.772500	-1218.080667	622.911133	-2.467200
12355.772500	-1218.080667	621.683594	-18.648254
12355.772500	-1218.080667	620.456055	38.893345
12355.772500	-1218.080667	619.228516	295.480835
12355.772500	-1218.080667	618.000977	234.868179
12355.772500	-1218.080667	616.772461	238.120407
12355.772500	-1218.080667	615.543945	59.533836
12355.772500	-1218.080667	614.314453	224.839539
12355.772500	-1218.080667	613.085938	9.412607
12355.772500	-1218.080667	611.856445	54.275612
12355.772500	-1218.080667	610.626953	172.718277
12355.772500	-1218.080667	609.397461	43.211498
12355.772500	-1218.080667	608.166992	78.106430
12355.772500	-1218.080667	606.936523	68.797432
12355.772500	-1218.080667	605.706055	52.099232
12355.772500	-1218.080667	604.474609	-43.092102
12355.772500	-1218.080667	603.244141	79.908714
12355.772500	-1218.080667	602.012695	-81.485352
12355.772500	-1218.080667	600.780273	-135.025955
12355.772500	-1218.080667	599.548828	-19.525677
12355.772500	-1218.080667	598.316406	-102.505180
12355.772500	-1218.080667	597.083984	-1.808980
12355.772500	-1218.080667	595.851563	79.232307
12355.772500	-1218.080667	594.618164	-77.224480
12355.772500	-1218.080667	593.384766	-20.721004
12355.772500	-1218.080667	592.151367	77.333092
12355.772500	-1218.080667	590.917969	275.623871
12355.772500	-1218.080667	589.683594	226.790649
12355.772500	-1218.080667	588.449219	124.168823
12355.772500	-1218.080667	587.214844	160.925018
12355.772500	-1218.080667	585.979492	136.544266
12355.772500	-1218.080667	584.745117	185.477249
12355.772500	-1218.080667	583.509766	-39.252811
12355.772500	-1218.080667	582.273438	46.311749
12355.772500	-1218.080667	581.038086	341.858032
12355.772500	-1218.080667	579.801758	305.217896
12355.772500	-1218.080667	578.565430	224.651749
12355.772500	-1218.080667	577.329102	-41.359226
12355.772500	-1218.080667	576.091797	163.660370
12355.772500	-1218.080667	574.854492	92.933884
12355.772500	-1218.080667	573.617188	185.652512
12355.772500	-1218.080667	572.378906	407.571991
12355.772500	-1218.080667	571.141602	197.896088
12355.772500	-1218.080667	569.903320	78.500740
12355.772500	-1218.080667	568.664063	-155.369064
12355.772500	-1218.080667	567.425781	88.403496
12355.772500	-1218.080667	566.186523	90.936646
12355.772500	-1218.080667	564.947266	130.015305
12355.772500	-1218.080667	563.708008	-13.513986
12355.772500	-1218.080667	562.467773	20.738455
12355.772500	-1218.080667	561.227539	11.190327
12355.772500	-1218.080667	559.987305	-64.025681
12355.772500	-1218.080667	558.747070	101.654755
12355.772500	-1218.080667	557.505859	-14.844389
12355.772500	-1218.080667	556.264648	338.048828
12355.772500	-1218.080667	555.023438	17.392832
12355.772500	-1218.080667	553.781250	-40.586517
12355.772500	-1218.080667	552.539063	241.710938
12355.772500	-1218.080667	551.296875	23.427622
12355.772500	-1218.080667	550.054688	33.611275
12355.772500	-1218.080667	548.811523	17.113794
12355.772500	-1218.080667	547.569336	163.348145
12355.772500	-1218.080667	546.325195	-3.591460
12355.772500	-1218.080667	545.082031	-243.219482
12355.772500	-1218.080667	543.837891	-213.361115
12355.772500	-1218.080667	542.593750	-190.742676
12355.772500	-1218.080667	541.349609	-22.554811
12355.772500	-1218.080667	540.105469	-21.704983
12355.772500	-1218.080667	538.860352	-139.598862
12355.772500	-1218.080667	537.615234	33.481319
12355.772500	-1218.080667	536.369141	-74.566345
12355.772500	-1218.080667	535.124023	-109.819160
12355.772500	-1218.080667	533.877930	-113.506027
12355.772500	-1218.080667	532.631836	69.350304
12355.772500	-1218.080667	531.384766	80.280838
12355.772500	-1218.080667	530.138672	33.178459
12355.772500	-1218.080667	528.891602	-127.588737
12355.772500	-1218.080667	527.643555	-9.950769
12355.772500	-1218.080667	526.396484	37.554165
12355.772500	-1218.080667	525.148438	-64.849182
12355.772500	-1218.080667	523.900391	156.901749
12355.772500	-1218.080667	522.652344	32.908875
12355.772500	-1218.080667	521.403320	-49.864006
12355.772500	-1218.080667	520.154297	7.641453
12355.772500	-1218.080667	518.905273	4.799479
12355.772500	-1218.080667	517.656250	-82.505013
12355.772500	-1218.080667	516.406250	-51.353069
12355.772500	-1218.080667	515.156250	-44.276657
12355.772500	-1218.080667	513.906250	-138.508209
12355.772500	-1218.080667	512.655273	15.975741
12355.772500	-1218.080667	511.404297	136.697540
12355.772500	-1218.080667	510.153320	-227.449463
12355.772500	-1218.080667	508.902344	-72.783905
12355.772500	-1218.080667	507.650391	36.084881
12355.772500	-1218.080667	506.398438	5.163059
12355.772500	-1218.080667	505.146484	73.171806
12355.772500	-1218.080667	503.893555	124.370926
12355.772500	-1218.080667	502.641602	64.809380
12355.772500	-1218.080667	501.388672	-9.088454
12355.772500	-1218.080667	500.134766	-143.073212
12355.772500	-1218.080667	498.881836	122.787186
12355.772500	-1218.080667	497.627930	80.491470
12355.772500	-1218.080667	496.374023	59.967373
12355.772500	-1218.080667	495.119141	-15.801818
12355.772500	-1218.080667	493.865234	276.629608
12355.772500	-1218.080667	492.610352	270.779144
12355.772500	-1218.080667	491.355469	-40.374454
12355.772500	-1218.080667	490.099609	-50.783623
12355.772500	-1218.080667	488.843750	49.469490
12355.772500	-1218.080667	487.587891	108.913239
12355.772500	-1218.080667	486.332031	375.043610
12355.772500	-1218.080667	485.075195	208.766373
12355.772500	-1218.080667	483.818359	299.614746
12355.772500	-1218.080667	482.561523	366.497437
12355.772500	-1218.080667	481.304688	253.390350
12355.772500	-1218.080667	480.046875	404.415710
12355.772500	-1218.080667	478.789063	399.485779
12355.772500	-1218.080667	477.531250	356.249878
12355.772500	-1218.080667	476.272461	485.797668
12355.772500	-1218.080667	475.013672	394.747833
12355.772500	-1218.080667	473.754883	442.857544
12355.772500	-1218.080667	472.496094	421.502930
12355.772500	-1218.080667	471.236328	558.383606
12355.772500	-1218.080667	469.976563	434.113281
12355.772500	-1218.080667	468.716797	729.143799
12355.772500	-1218.080667	467.456055	717.559998
12355.772500	-1218.080667	466.196289	641.382568
12355.772500	-1218.080667	464.935547	567.679016
12355.772500	-1218.080667	463.673828	659.187439
12355.772500	-1218.080667	462.413086	726.765625
12355.772500	-1218.080667	461.151367	971.377075
12355.772500	-1218.080667	459.889648	826.053406
12355.772500	-1218.080667	458.626953	934.289307
12355.772500	-1218.080667	457.364258	645.635559
12355.772500	-1218.080667	456.101563	531.604126
12355.772500	-1218.080667	454.838867	556.230347
12355.772500	-1218.080667	453.575195	626.242249
12355.772500	-1218.080667	452.312500	796.541321
12355.772500	-1218.080667	451.047852	768.540039
12355.772500	-1218.080667	449.784180	845.586975
12355.772500	-1218.080667	448.519531	631.347229
12355.772500	-1218.080667	447.254883	803.795105
12355.772500	-1218.080667	445.990234	780.468750
12355.772500	-1218.080667	444.725586	1009.972534
12355.772500	-1218.080667	443.459961	872.023254
12355.772500	-1218.080667	442.194336	1084.593018
12355.772500	-1218.080667	440.927734	948.929199
12355.772500	-1218.080667	439.662109	1006.301880
12355.772500	-1218.080667	438.395508	891.981506
12355.772500	-1218.080667	437.127930	941.996826
12355.772500	-1218.080667	435.861328	1130.027588
12355.772500	-1218.080667	434.593750	846.326904
12355.772500	-1218.080667	433.326172	781.657043
12355.772500	-1218.080667	432.058594	771.615906
12355.772500	-1218.080667	430.790039	685.261597
12355.772500	-1218.080667	429.521484	786.742126
12355.772500	-1218.080667	428.252930	904.644531
12355.772500	-1218.080667	426.984375	884.354126
12355.772500	-1218.080667	425.714844	994.638733
12355.772500	-1218.080667	424.445313	874.050476
12355.772500	-1218.080667	423.174805	1107.413574
12355.772500	-1218.080667	421.905273	1083.783081
12355.772500	-1218.080667	420.634766	1067.015869
12355.772500	-1218.080667	419.364258	1021.466675
12355.772500	-1218.080667	418.092773	902.012634
12355.772500	-1218.080667	416.822266	953.235962
12355.772500	-1218.080667	415.550781	1070.561157
12355.772500	-1218.080667	414.278320	1177.982300
12355.772500	-1218.080667	413.006836	1197.195190
12355.772500	-1218.080667	411.734375	1242.097412
12355.772500	-1218.080667	410.461914	1182.212769
12355.772500	-1218.080667	409.188477	1147.999756
12355.772500	-1218.080667	407.916016	1179.728394
12355.772500	-1218.080667	406.642578	1120.898071
12355.772500	-1218.080667	405.368164	1443.094482
12355.772500	-1218.080667	404.094727	1558.526855
12355.772500	-1218.080667	402.820313	1239.913208
12355.772500	-1218.080667	401.545898	1522.354614
12355.772500	-1218.080667	400.270508	1439.474365
12355.772500	-1218.080667	398.996094	1535.913086
12355.772500	-1218.080667	397.720703	1577.231323
12355.772500	-1218.080667	396.444336	1650.977783
12355.772500	-1218.080667	395.168945	1563.151733
12355.772500	-1218.080667	393.892578	1578.689331
12355.772500	-1218.080667	392.616211	1515.440308
12355.772500	-1218.080667	391.339844	1385.247314
12355.772500	-1218.080667	390.062500	1351.187500
12355.772500	-1218.080667	388.785156	1507.695190
12355.772500	-1218.080667	387.507813	1299.452271
12355.772500	-1218.080667	386.229492	1210.835449
12355.772500	-1218.080667	384.951172	1366.897827
12355.772500	-1218.080667	383.672852	1274.029907
12355.772500	-1218.080667	382.394531	1163.670288
12355.772500	-1218.080667	381.115234	1160.850586
12355.772500	-1218.080667	379.835938	1277.274780
12355.772500	-1218.080667	378.556641	1100.039185
12355.772500	-1218.080667	377.277344	1214.151123
12355.772500	-1218.080667	375.997070	1011.056335
12355.772500	-1218.080667	374.716797	1087.327637
12355.772500	-1218.080667	373.435547	853.531799
12355.772500	-1218.080667	372.155273	988.468750
12355.772500	-1218.080667	370.874023	846.341492
12355.772500	-1218.080667	369.591797	716.975952
12355.772500	-1218.080667	368.310547	1010.083618
12355.772500	-1218.080667	367.028320	837.765320
12355.772500	-1218.080667	365.746094	1040.563843
12355.772500	-1218.080667	364.463867	987.538696
12355.772500	-1218.080667	363.180664	1022.264099
12355.772500	-1218.080667	361.897461	852.996948
12355.772500	-1218.080667	360.614258	773.771118
12355.772500	-1218.080667	359.330078	760.928955
12355.772500	-1218.080667	358.045898	859.068665
12355.772500	-1218.080667	356.761719	609.794922
12355.772500	-1218.080667	355.477539	574.828552
12355.772500	-1218.080667	354.192383	636.475952
12355.772500	-1218.080667	352.907227	707.759216
12355.772500	-1218.080667	351.622070	549.113220
12355.772500	-1218.080667	350.336914	681.775391
12355.772500	-1218.080667	349.050781	748.701965
12355.772500	-1218.080667	347.764648	480.068481
12355.772500	-1218.080667	346.477539	413.208710
12355.772500	-1218.080667	345.191406	458.898956
12355.772500	-1218.080667	343.904297	286.252136
12355.772500	-1218.080667	342.616211	469.727478
12355.772500	-1218.080667	341.329102	237.978653
12355.772500	-1218.080667	340.041016	362.075409
12355.772500	-1218.080667	338.752930	469.246399
12355.772500	-1218.080667	337.463867	297.012482
12355.772500	-1218.080667	336.175781	337.406403
12355.772500	-1218.080667	334.886719	269.309082
12355.772500	-1218.080667	333.596680	511.721069
12355.772500	-1218.080667	332.307617	385.795654
12355.772500	-1218.080667	331.017578	102.130348
12355.772500	-1218.080667	329.727539	100.612839
12355.772500	-1218.080667	328.436523	355.163910
12355.772500	-1218.080667	327.146484	428.424011
12355.772500	-1218.080667	325.855469	336.619019
12355.772500	-1218.080667	324.563477	138.190109
12355.772500	-1218.080667	323.272461	-3.130064
12355.772500	-1218.080667	321.980469	276.799072
12355.772500	-1218.080667	320.688477	94.777039
12355.772500	-1218.080667	319.395508	58.072262
12355.772500	-1218.080667	318.103516	87.310020
12355.772500	-1218.080667	316.810547	-81.632019
12355.772500	-1218.080667	315.516602	18.006231
12355.772500	-1218.080667	314.223633	-143.474182
12355.772500	-1218.080667	312.929688	-181.342194
12355.772500	-1218.080667	311.635742	-105.006485
12355.772500	-1218.080667	310.340820	61.903843
12355.772500	-1218.080667	309.045898	-270.454590
12355.772500	-1218.080667	307.750977	44.819736
12355.772500	-1218.080667	306.456055	-150.907852
12355.772500	-1218.080667	305.160156	32.363113
12355.772500	-1218.080667	303.865234	40.205647
12355.772500	-1218.080667	302.568359	81.747017
12355.772500	-1218.080667	301.272461	92.089249
12355.772500	-1218.080667	299.975586	191.853928
12355.772500	-1218.080667	298.678711	48.225220
