#X		#Y		#Wave		#Intensity
20388.839894	-1241.305000	1999.980469	-28.712498
20388.839894	-1241.305000	1999.016602	28.970724
20388.839894	-1241.305000	1998.052734	-5.400948
20388.839894	-1241.305000	1997.087891	56.400311
20388.839894	-1241.305000	1996.123047	-58.213619
20388.839894	-1241.305000	1995.158203	-121.226563
20388.839894	-1241.305000	1994.193359	-21.199781
20388.839894	-1241.305000	1993.228516	241.790482
20388.839894	-1241.305000	1992.262695	-109.738762
20388.839894	-1241.305000	1991.297852	196.900284
20388.839894	-1241.305000	1990.332031	-46.394707
20388.839894	-1241.305000	1989.366211	-57.380611
20388.839894	-1241.305000	1988.399414	-165.213013
20388.839894	-1241.305000	1987.433594	1.199230
20388.839894	-1241.305000	1986.466797	-141.924149
20388.839894	-1241.305000	1985.500977	63.310616
20388.839894	-1241.305000	1984.534180	23.410387
20388.839894	-1241.305000	1983.567383	-83.518822
20388.839894	-1241.305000	1982.599609	-89.382248
20388.839894	-1241.305000	1981.632813	52.718300
20388.839894	-1241.305000	1980.665039	26.510839
20388.839894	-1241.305000	1979.697266	135.891647
20388.839894	-1241.305000	1978.729492	-71.105331
20388.839894	-1241.305000	1977.761719	40.225510
20388.839894	-1241.305000	1976.792969	-51.133469
20388.839894	-1241.305000	1975.825195	146.076950
20388.839894	-1241.305000	1974.856445	64.164322
20388.839894	-1241.305000	1973.887695	-57.396851
20388.839894	-1241.305000	1972.918945	-8.908987
20388.839894	-1241.305000	1971.949219	152.816147
20388.839894	-1241.305000	1970.980469	218.141235
20388.839894	-1241.305000	1970.010742	349.831696
20388.839894	-1241.305000	1969.041016	165.814072
20388.839894	-1241.305000	1968.071289	124.643288
20388.839894	-1241.305000	1967.101563	98.125000
20388.839894	-1241.305000	1966.130859	266.087830
20388.839894	-1241.305000	1965.161133	150.613846
20388.839894	-1241.305000	1964.190430	217.283798
20388.839894	-1241.305000	1963.219727	-14.101070
20388.839894	-1241.305000	1962.249023	17.883080
20388.839894	-1241.305000	1961.277344	194.956863
20388.839894	-1241.305000	1960.306641	199.620560
20388.839894	-1241.305000	1959.334961	88.555389
20388.839894	-1241.305000	1958.363281	166.849350
20388.839894	-1241.305000	1957.391602	200.766174
20388.839894	-1241.305000	1956.419922	123.946396
20388.839894	-1241.305000	1955.447266	66.751633
20388.839894	-1241.305000	1954.474609	-56.851517
20388.839894	-1241.305000	1953.501953	183.243729
20388.839894	-1241.305000	1952.529297	143.093246
20388.839894	-1241.305000	1951.556641	63.604282
20388.839894	-1241.305000	1950.583984	92.171227
20388.839894	-1241.305000	1949.610352	54.381042
20388.839894	-1241.305000	1948.636719	31.301245
20388.839894	-1241.305000	1947.663086	10.654879
20388.839894	-1241.305000	1946.689453	147.065231
20388.839894	-1241.305000	1945.715820	69.918137
20388.839894	-1241.305000	1944.741211	46.751842
20388.839894	-1241.305000	1943.767578	33.394806
20388.839894	-1241.305000	1942.792969	-97.690956
20388.839894	-1241.305000	1941.818359	134.163788
20388.839894	-1241.305000	1940.842773	-53.294285
20388.839894	-1241.305000	1939.868164	-24.982321
20388.839894	-1241.305000	1938.892578	52.330666
20388.839894	-1241.305000	1937.916992	-51.696342
20388.839894	-1241.305000	1936.941406	-84.632813
20388.839894	-1241.305000	1935.965820	19.611816
20388.839894	-1241.305000	1934.990234	-57.382744
20388.839894	-1241.305000	1934.013672	98.258278
20388.839894	-1241.305000	1933.037109	87.400261
20388.839894	-1241.305000	1932.060547	137.753418
20388.839894	-1241.305000	1931.083984	-19.886202
20388.839894	-1241.305000	1930.107422	-52.668949
20388.839894	-1241.305000	1929.129883	46.671124
20388.839894	-1241.305000	1928.153320	-152.362030
20388.839894	-1241.305000	1927.175781	61.940128
20388.839894	-1241.305000	1926.198242	-127.186829
20388.839894	-1241.305000	1925.219727	50.427071
20388.839894	-1241.305000	1924.242188	93.601524
20388.839894	-1241.305000	1923.263672	-41.573196
20388.839894	-1241.305000	1922.285156	-15.430407
20388.839894	-1241.305000	1921.306641	152.403076
20388.839894	-1241.305000	1920.328125	78.454620
20388.839894	-1241.305000	1919.349609	-188.308029
20388.839894	-1241.305000	1918.370117	-142.475037
20388.839894	-1241.305000	1917.391602	-6.312821
20388.839894	-1241.305000	1916.412109	29.791298
20388.839894	-1241.305000	1915.431641	-95.100418
20388.839894	-1241.305000	1914.452148	99.643524
20388.839894	-1241.305000	1913.472656	-73.901299
20388.839894	-1241.305000	1912.492188	45.261662
20388.839894	-1241.305000	1911.511719	-6.227641
20388.839894	-1241.305000	1910.531250	-160.026215
20388.839894	-1241.305000	1909.550781	17.706944
20388.839894	-1241.305000	1908.569336	-33.617657
20388.839894	-1241.305000	1907.588867	-84.875496
20388.839894	-1241.305000	1906.607422	-63.003498
20388.839894	-1241.305000	1905.625977	-48.400486
20388.839894	-1241.305000	1904.644531	-87.321503
20388.839894	-1241.305000	1903.662109	-284.411774
20388.839894	-1241.305000	1902.680664	80.824547
20388.839894	-1241.305000	1901.698242	-52.868668
20388.839894	-1241.305000	1900.715820	-35.630009
20388.839894	-1241.305000	1899.733398	-32.949173
20388.839894	-1241.305000	1898.750000	-129.939209
20388.839894	-1241.305000	1897.767578	-117.430191
20388.839894	-1241.305000	1896.784180	143.081696
20388.839894	-1241.305000	1895.800781	12.209366
20388.839894	-1241.305000	1894.817383	-21.367224
20388.839894	-1241.305000	1893.833984	-139.932007
20388.839894	-1241.305000	1892.850586	-27.634192
20388.839894	-1241.305000	1891.866211	-87.787056
20388.839894	-1241.305000	1890.881836	-36.175602
20388.839894	-1241.305000	1889.897461	54.297905
20388.839894	-1241.305000	1888.913086	-151.373337
20388.839894	-1241.305000	1887.927734	-5.022140
20388.839894	-1241.305000	1886.943359	-174.139114
20388.839894	-1241.305000	1885.958008	-39.903610
20388.839894	-1241.305000	1884.972656	-48.797356
20388.839894	-1241.305000	1883.987305	90.277168
20388.839894	-1241.305000	1883.001953	-17.991732
20388.839894	-1241.305000	1882.015625	-31.646832
20388.839894	-1241.305000	1881.029297	-8.913286
20388.839894	-1241.305000	1880.042969	-124.293304
20388.839894	-1241.305000	1879.056641	46.295845
20388.839894	-1241.305000	1878.070313	-214.349258
20388.839894	-1241.305000	1877.083984	-60.716259
20388.839894	-1241.305000	1876.096680	32.340538
20388.839894	-1241.305000	1875.109375	26.118128
20388.839894	-1241.305000	1874.122070	-154.369232
20388.839894	-1241.305000	1873.134766	-61.292862
20388.839894	-1241.305000	1872.146484	0.305421
20388.839894	-1241.305000	1871.159180	69.154457
20388.839894	-1241.305000	1870.170898	99.287201
20388.839894	-1241.305000	1869.182617	-155.946823
20388.839894	-1241.305000	1868.194336	128.116913
20388.839894	-1241.305000	1867.205078	-88.331017
20388.839894	-1241.305000	1866.216797	142.454636
20388.839894	-1241.305000	1865.227539	13.091823
20388.839894	-1241.305000	1864.238281	-75.145256
20388.839894	-1241.305000	1863.249023	-20.824547
20388.839894	-1241.305000	1862.259766	-130.757172
20388.839894	-1241.305000	1861.269531	24.970058
20388.839894	-1241.305000	1860.279297	-75.276939
20388.839894	-1241.305000	1859.290039	114.168549
20388.839894	-1241.305000	1858.298828	137.012024
20388.839894	-1241.305000	1857.308594	-153.837997
20388.839894	-1241.305000	1856.318359	-5.520123
20388.839894	-1241.305000	1855.327148	193.382660
20388.839894	-1241.305000	1854.335938	90.753845
20388.839894	-1241.305000	1853.344727	74.948280
20388.839894	-1241.305000	1852.353516	61.545422
20388.839894	-1241.305000	1851.362305	24.027061
20388.839894	-1241.305000	1850.370117	27.469313
20388.839894	-1241.305000	1849.377930	-10.068499
20388.839894	-1241.305000	1848.385742	-37.978596
20388.839894	-1241.305000	1847.393555	47.292107
20388.839894	-1241.305000	1846.401367	72.307442
20388.839894	-1241.305000	1845.408203	-104.943489
20388.839894	-1241.305000	1844.415039	54.828224
20388.839894	-1241.305000	1843.421875	106.212799
20388.839894	-1241.305000	1842.428711	22.804365
20388.839894	-1241.305000	1841.435547	23.592548
20388.839894	-1241.305000	1840.441406	173.466705
20388.839894	-1241.305000	1839.448242	-229.844879
20388.839894	-1241.305000	1838.454102	136.333542
20388.839894	-1241.305000	1837.459961	194.641724
20388.839894	-1241.305000	1836.464844	70.226730
20388.839894	-1241.305000	1835.470703	13.099388
20388.839894	-1241.305000	1834.475586	32.827747
20388.839894	-1241.305000	1833.480469	102.945313
20388.839894	-1241.305000	1832.485352	-206.462509
20388.839894	-1241.305000	1831.490234	74.878189
20388.839894	-1241.305000	1830.495117	209.621201
20388.839894	-1241.305000	1829.499023	-32.578888
20388.839894	-1241.305000	1828.502930	193.217972
20388.839894	-1241.305000	1827.506836	-188.156662
20388.839894	-1241.305000	1826.510742	73.454956
20388.839894	-1241.305000	1825.513672	-17.659929
20388.839894	-1241.305000	1824.517578	-27.266630
20388.839894	-1241.305000	1823.520508	152.471481
20388.839894	-1241.305000	1822.523438	135.520218
20388.839894	-1241.305000	1821.526367	207.185852
20388.839894	-1241.305000	1820.529297	142.178925
20388.839894	-1241.305000	1819.531250	5.255174
20388.839894	-1241.305000	1818.533203	67.122910
20388.839894	-1241.305000	1817.535156	90.580620
20388.839894	-1241.305000	1816.537109	279.170013
20388.839894	-1241.305000	1815.539063	218.650543
20388.839894	-1241.305000	1814.540039	-71.693970
20388.839894	-1241.305000	1813.541992	-10.227893
20388.839894	-1241.305000	1812.542969	168.370514
20388.839894	-1241.305000	1811.543945	43.027893
20388.839894	-1241.305000	1810.543945	-168.446777
20388.839894	-1241.305000	1809.544922	351.786896
20388.839894	-1241.305000	1808.544922	305.134125
20388.839894	-1241.305000	1807.544922	124.561966
20388.839894	-1241.305000	1806.544922	245.094711
20388.839894	-1241.305000	1805.544922	47.708817
20388.839894	-1241.305000	1804.544922	141.762604
20388.839894	-1241.305000	1803.543945	-12.710764
20388.839894	-1241.305000	1802.542969	145.618561
20388.839894	-1241.305000	1801.541992	36.391190
20388.839894	-1241.305000	1800.541016	24.987978
20388.839894	-1241.305000	1799.539063	190.108826
20388.839894	-1241.305000	1798.538086	-81.599190
20388.839894	-1241.305000	1797.536133	154.869125
20388.839894	-1241.305000	1796.534180	166.933136
20388.839894	-1241.305000	1795.532227	-11.890472
20388.839894	-1241.305000	1794.529297	81.077370
20388.839894	-1241.305000	1793.527344	-4.878546
20388.839894	-1241.305000	1792.524414	154.598724
20388.839894	-1241.305000	1791.521484	92.292374
20388.839894	-1241.305000	1790.518555	134.745590
20388.839894	-1241.305000	1789.514648	107.995453
20388.839894	-1241.305000	1788.511719	181.193054
20388.839894	-1241.305000	1787.507813	223.299973
20388.839894	-1241.305000	1786.503906	165.295288
20388.839894	-1241.305000	1785.500000	-7.047216
20388.839894	-1241.305000	1784.496094	56.182957
20388.839894	-1241.305000	1783.491211	47.896481
20388.839894	-1241.305000	1782.486328	179.869797
20388.839894	-1241.305000	1781.481445	-90.288292
20388.839894	-1241.305000	1780.476563	98.525223
20388.839894	-1241.305000	1779.471680	322.825439
20388.839894	-1241.305000	1778.465820	54.845924
20388.839894	-1241.305000	1777.460938	-365.244263
20388.839894	-1241.305000	1776.455078	15.523397
20388.839894	-1241.305000	1775.449219	139.446671
20388.839894	-1241.305000	1774.442383	-74.098656
20388.839894	-1241.305000	1773.436523	56.701012
20388.839894	-1241.305000	1772.429688	199.206955
20388.839894	-1241.305000	1771.422852	-240.092072
20388.839894	-1241.305000	1770.416016	65.973541
20388.839894	-1241.305000	1769.409180	200.945511
20388.839894	-1241.305000	1768.402344	281.182983
20388.839894	-1241.305000	1767.394531	399.227173
20388.839894	-1241.305000	1766.386719	19.039177
20388.839894	-1241.305000	1765.378906	53.867805
20388.839894	-1241.305000	1764.371094	126.504906
20388.839894	-1241.305000	1763.362305	177.660339
20388.839894	-1241.305000	1762.354492	129.151230
20388.839894	-1241.305000	1761.345703	210.865112
20388.839894	-1241.305000	1760.336914	204.778488
20388.839894	-1241.305000	1759.328125	184.368851
20388.839894	-1241.305000	1758.318359	152.004837
20388.839894	-1241.305000	1757.308594	-29.626753
20388.839894	-1241.305000	1756.299805	-85.829849
20388.839894	-1241.305000	1755.290039	94.551506
20388.839894	-1241.305000	1754.279297	182.451660
20388.839894	-1241.305000	1753.269531	31.255238
20388.839894	-1241.305000	1752.258789	-4.097179
20388.839894	-1241.305000	1751.249023	3.030495
20388.839894	-1241.305000	1750.238281	-63.269211
20388.839894	-1241.305000	1749.226563	38.187172
20388.839894	-1241.305000	1748.215820	94.591118
20388.839894	-1241.305000	1747.204102	-97.287666
20388.839894	-1241.305000	1746.193359	69.945885
20388.839894	-1241.305000	1745.181641	3.123597
20388.839894	-1241.305000	1744.168945	221.991547
20388.839894	-1241.305000	1743.157227	169.109573
20388.839894	-1241.305000	1742.144531	165.706375
20388.839894	-1241.305000	1741.132813	-0.672393
20388.839894	-1241.305000	1740.120117	-25.505413
20388.839894	-1241.305000	1739.106445	117.083397
20388.839894	-1241.305000	1738.093750	139.200882
20388.839894	-1241.305000	1737.080078	24.382490
20388.839894	-1241.305000	1736.067383	-71.625824
20388.839894	-1241.305000	1735.053711	94.002029
20388.839894	-1241.305000	1734.040039	66.153038
20388.839894	-1241.305000	1733.025391	78.263130
20388.839894	-1241.305000	1732.011719	-98.247017
20388.839894	-1241.305000	1730.997070	212.889374
20388.839894	-1241.305000	1729.982422	-62.738071
20388.839894	-1241.305000	1728.967773	-133.470551
20388.839894	-1241.305000	1727.952148	139.488815
20388.839894	-1241.305000	1726.937500	-136.284882
20388.839894	-1241.305000	1725.921875	-56.648819
20388.839894	-1241.305000	1724.906250	-280.725647
20388.839894	-1241.305000	1723.890625	-76.597710
20388.839894	-1241.305000	1722.875000	-49.082596
20388.839894	-1241.305000	1721.858398	39.459850
20388.839894	-1241.305000	1720.841797	123.163254
20388.839894	-1241.305000	1719.825195	-115.362221
20388.839894	-1241.305000	1718.808594	-8.356007
20388.839894	-1241.305000	1717.791992	11.554791
20388.839894	-1241.305000	1716.774414	-297.615021
20388.839894	-1241.305000	1715.756836	-61.732246
20388.839894	-1241.305000	1714.739258	16.591690
20388.839894	-1241.305000	1713.721680	-95.428459
20388.839894	-1241.305000	1712.704102	-78.365013
20388.839894	-1241.305000	1711.685547	1.966393
20388.839894	-1241.305000	1710.667969	-82.104973
20388.839894	-1241.305000	1709.649414	2.702733
20388.839894	-1241.305000	1708.630859	87.386726
20388.839894	-1241.305000	1707.611328	-46.212631
20388.839894	-1241.305000	1706.592773	-198.600327
20388.839894	-1241.305000	1705.573242	-53.245071
20388.839894	-1241.305000	1704.553711	-55.725460
20388.839894	-1241.305000	1703.534180	75.308189
20388.839894	-1241.305000	1702.513672	-121.886078
20388.839894	-1241.305000	1701.494141	135.460052
20388.839894	-1241.305000	1700.473633	36.546116
20388.839894	-1241.305000	1699.453125	-95.201134
20388.839894	-1241.305000	1698.432617	342.034851
20388.839894	-1241.305000	1697.412109	182.021851
20388.839894	-1241.305000	1696.390625	150.717697
20388.839894	-1241.305000	1695.369141	-119.361618
20388.839894	-1241.305000	1694.347656	242.338806
20388.839894	-1241.305000	1693.326172	351.170746
20388.839894	-1241.305000	1692.304688	511.342438
20388.839894	-1241.305000	1691.282227	297.207977
20388.839894	-1241.305000	1690.260742	342.619385
20388.839894	-1241.305000	1689.238281	619.346130
20388.839894	-1241.305000	1688.214844	512.593384
20388.839894	-1241.305000	1687.192383	597.434326
20388.839894	-1241.305000	1686.168945	534.977844
20388.839894	-1241.305000	1685.146484	542.565979
20388.839894	-1241.305000	1684.123047	330.550568
20388.839894	-1241.305000	1683.099609	279.659485
20388.839894	-1241.305000	1682.075195	240.382141
20388.839894	-1241.305000	1681.051758	581.512146
20388.839894	-1241.305000	1680.027344	572.404968
20388.839894	-1241.305000	1679.002930	458.254517
20388.839894	-1241.305000	1677.978516	470.052338
20388.839894	-1241.305000	1676.953125	456.119720
20388.839894	-1241.305000	1675.928711	512.104309
20388.839894	-1241.305000	1674.903320	549.348511
20388.839894	-1241.305000	1673.877930	633.143066
20388.839894	-1241.305000	1672.852539	639.950378
20388.839894	-1241.305000	1671.826172	693.289734
20388.839894	-1241.305000	1670.800781	842.084778
20388.839894	-1241.305000	1669.774414	704.287659
20388.839894	-1241.305000	1668.748047	953.044128
20388.839894	-1241.305000	1667.721680	1276.161133
20388.839894	-1241.305000	1666.694336	1024.156128
20388.839894	-1241.305000	1665.667969	895.566162
20388.839894	-1241.305000	1664.640625	1095.047241
20388.839894	-1241.305000	1663.613281	915.220032
20388.839894	-1241.305000	1662.585938	942.429626
20388.839894	-1241.305000	1661.557617	1011.435303
20388.839894	-1241.305000	1660.530273	1145.496338
20388.839894	-1241.305000	1659.501953	879.634766
20388.839894	-1241.305000	1658.473633	976.403748
20388.839894	-1241.305000	1657.444336	1033.588989
20388.839894	-1241.305000	1656.416016	1074.476196
20388.839894	-1241.305000	1655.386719	1059.560059
20388.839894	-1241.305000	1654.358398	1095.730713
20388.839894	-1241.305000	1653.328125	973.945557
20388.839894	-1241.305000	1652.298828	910.237610
20388.839894	-1241.305000	1651.269531	1141.292847
20388.839894	-1241.305000	1650.239258	1091.443848
20388.839894	-1241.305000	1649.208984	1016.075867
20388.839894	-1241.305000	1648.178711	1179.640747
20388.839894	-1241.305000	1647.148438	1203.977905
20388.839894	-1241.305000	1646.117188	1327.980225
20388.839894	-1241.305000	1645.086914	1370.801025
20388.839894	-1241.305000	1644.055664	1286.099731
20388.839894	-1241.305000	1643.024414	1338.146606
20388.839894	-1241.305000	1641.992188	1357.713379
20388.839894	-1241.305000	1640.960938	1467.626465
20388.839894	-1241.305000	1639.928711	1172.173828
20388.839894	-1241.305000	1638.896484	1194.066406
20388.839894	-1241.305000	1637.864258	1403.473755
20388.839894	-1241.305000	1636.832031	1471.605225
20388.839894	-1241.305000	1635.798828	1449.443726
20388.839894	-1241.305000	1634.766602	1614.724731
20388.839894	-1241.305000	1633.733398	1414.427734
20388.839894	-1241.305000	1632.699219	1482.491943
20388.839894	-1241.305000	1631.666016	1767.921143
20388.839894	-1241.305000	1630.632813	1539.993042
20388.839894	-1241.305000	1629.598633	1779.076294
20388.839894	-1241.305000	1628.564453	1636.754639
20388.839894	-1241.305000	1627.530273	1776.396851
20388.839894	-1241.305000	1626.495117	1848.990723
20388.839894	-1241.305000	1625.460938	1972.404907
20388.839894	-1241.305000	1624.425781	1982.619751
20388.839894	-1241.305000	1623.390625	2006.704834
20388.839894	-1241.305000	1622.355469	2016.952881
20388.839894	-1241.305000	1621.319336	1713.326538
20388.839894	-1241.305000	1620.284180	1917.504761
20388.839894	-1241.305000	1619.248047	2103.159180
20388.839894	-1241.305000	1618.211914	2219.574707
20388.839894	-1241.305000	1617.174805	2222.955811
20388.839894	-1241.305000	1616.138672	2067.292236
20388.839894	-1241.305000	1615.101563	2331.261475
20388.839894	-1241.305000	1614.065430	2535.251221
20388.839894	-1241.305000	1613.027344	2670.039551
20388.839894	-1241.305000	1611.990234	2238.068359
20388.839894	-1241.305000	1610.953125	2472.001221
20388.839894	-1241.305000	1609.915039	2574.598633
20388.839894	-1241.305000	1608.876953	2396.288574
20388.839894	-1241.305000	1607.838867	2588.727295
20388.839894	-1241.305000	1606.800781	2578.593994
20388.839894	-1241.305000	1605.761719	2646.734619
20388.839894	-1241.305000	1604.723633	2724.117676
20388.839894	-1241.305000	1603.684570	2617.479004
20388.839894	-1241.305000	1602.644531	2607.513184
20388.839894	-1241.305000	1601.605469	2691.895752
20388.839894	-1241.305000	1600.566406	2452.144775
20388.839894	-1241.305000	1599.526367	2481.456055
20388.839894	-1241.305000	1598.486328	2476.341553
20388.839894	-1241.305000	1597.446289	2588.465088
20388.839894	-1241.305000	1596.405273	2395.069580
20388.839894	-1241.305000	1595.365234	2220.196777
20388.839894	-1241.305000	1594.324219	2415.141602
20388.839894	-1241.305000	1593.283203	2497.580078
20388.839894	-1241.305000	1592.242188	2270.177490
20388.839894	-1241.305000	1591.200195	2451.411865
20388.839894	-1241.305000	1590.159180	2488.106934
20388.839894	-1241.305000	1589.117188	2380.320557
20388.839894	-1241.305000	1588.075195	2465.308350
20388.839894	-1241.305000	1587.032227	2449.424561
20388.839894	-1241.305000	1585.990234	2243.343262
20388.839894	-1241.305000	1584.947266	2415.621826
20388.839894	-1241.305000	1583.904297	2498.529541
20388.839894	-1241.305000	1582.861328	2267.573486
20388.839894	-1241.305000	1581.818359	2075.729248
20388.839894	-1241.305000	1580.775391	1838.234863
20388.839894	-1241.305000	1579.731445	2148.209229
20388.839894	-1241.305000	1578.687500	2036.871704
20388.839894	-1241.305000	1577.643555	2152.280518
20388.839894	-1241.305000	1576.598633	1917.556519
20388.839894	-1241.305000	1575.554688	1973.627441
20388.839894	-1241.305000	1574.509766	2199.042969
20388.839894	-1241.305000	1573.464844	1822.902954
20388.839894	-1241.305000	1572.419922	2048.443115
20388.839894	-1241.305000	1571.374023	2097.921875
20388.839894	-1241.305000	1570.329102	1836.599609
20388.839894	-1241.305000	1569.283203	1792.583496
20388.839894	-1241.305000	1568.237305	1632.144897
20388.839894	-1241.305000	1567.191406	1615.796875
20388.839894	-1241.305000	1566.144531	1645.223755
20388.839894	-1241.305000	1565.098633	1629.079590
20388.839894	-1241.305000	1564.051758	1740.892456
20388.839894	-1241.305000	1563.004883	1505.776978
20388.839894	-1241.305000	1561.957031	1597.222778
20388.839894	-1241.305000	1560.910156	1567.808594
20388.839894	-1241.305000	1559.862305	1673.106445
20388.839894	-1241.305000	1558.814453	1404.382813
20388.839894	-1241.305000	1557.766602	1436.910034
20388.839894	-1241.305000	1556.718750	1410.249878
20388.839894	-1241.305000	1555.669922	1340.384521
20388.839894	-1241.305000	1554.621094	1309.406250
20388.839894	-1241.305000	1553.573242	1148.672241
20388.839894	-1241.305000	1552.523438	1211.370483
20388.839894	-1241.305000	1551.474609	1388.064819
20388.839894	-1241.305000	1550.424805	1268.725708
20388.839894	-1241.305000	1549.375000	1208.755249
20388.839894	-1241.305000	1548.325195	1167.136719
20388.839894	-1241.305000	1547.275391	1335.052612
20388.839894	-1241.305000	1546.225586	1072.927612
20388.839894	-1241.305000	1545.174805	1256.954224
20388.839894	-1241.305000	1544.124023	1393.260254
20388.839894	-1241.305000	1543.073242	1299.930664
20388.839894	-1241.305000	1542.022461	1418.229980
20388.839894	-1241.305000	1540.970703	1266.063721
20388.839894	-1241.305000	1539.919922	1425.484619
20388.839894	-1241.305000	1538.868164	1337.258179
20388.839894	-1241.305000	1537.815430	1337.795898
20388.839894	-1241.305000	1536.763672	1413.430786
20388.839894	-1241.305000	1535.710938	1661.766846
20388.839894	-1241.305000	1534.659180	1435.562866
20388.839894	-1241.305000	1533.606445	1604.597046
20388.839894	-1241.305000	1532.552734	1750.987671
20388.839894	-1241.305000	1531.500000	1432.242310
20388.839894	-1241.305000	1530.446289	1490.386475
20388.839894	-1241.305000	1529.393555	1550.919189
20388.839894	-1241.305000	1528.338867	1337.116333
20388.839894	-1241.305000	1527.285156	1372.973022
20388.839894	-1241.305000	1526.231445	969.130249
20388.839894	-1241.305000	1525.176758	1105.044189
20388.839894	-1241.305000	1524.122070	1193.451660
20388.839894	-1241.305000	1523.067383	874.120850
20388.839894	-1241.305000	1522.012695	985.470154
20388.839894	-1241.305000	1520.957031	1099.171143
20388.839894	-1241.305000	1519.901367	920.856384
20388.839894	-1241.305000	1518.845703	765.391663
20388.839894	-1241.305000	1517.790039	904.390747
20388.839894	-1241.305000	1516.734375	554.649048
20388.839894	-1241.305000	1515.677734	662.235107
20388.839894	-1241.305000	1514.621094	534.653870
20388.839894	-1241.305000	1513.564453	443.454681
20388.839894	-1241.305000	1512.507813	257.462067
20388.839894	-1241.305000	1511.450195	173.418961
20388.839894	-1241.305000	1510.393555	392.456238
20388.839894	-1241.305000	1509.335938	358.430420
20388.839894	-1241.305000	1508.278320	475.952911
20388.839894	-1241.305000	1507.219727	245.673309
20388.839894	-1241.305000	1506.162109	343.137421
20388.839894	-1241.305000	1505.103516	255.536728
20388.839894	-1241.305000	1504.044922	188.437149
20388.839894	-1241.305000	1502.986328	218.575333
20388.839894	-1241.305000	1501.926758	275.929596
20388.839894	-1241.305000	1500.868164	319.876312
20388.839894	-1241.305000	1499.808594	244.385574
20388.839894	-1241.305000	1498.749023	78.855614
20388.839894	-1241.305000	1497.688477	303.658783
20388.839894	-1241.305000	1496.628906	197.102875
20388.839894	-1241.305000	1495.568359	480.705017
20388.839894	-1241.305000	1494.507813	250.502396
20388.839894	-1241.305000	1493.447266	157.991257
20388.839894	-1241.305000	1492.386719	372.048706
20388.839894	-1241.305000	1491.325195	128.943420
20388.839894	-1241.305000	1490.263672	446.809601
20388.839894	-1241.305000	1489.202148	138.799713
20388.839894	-1241.305000	1488.140625	526.624756
20388.839894	-1241.305000	1487.079102	351.810211
20388.839894	-1241.305000	1486.016602	336.973022
20388.839894	-1241.305000	1484.954102	-64.646919
20388.839894	-1241.305000	1483.891602	-4.864049
20388.839894	-1241.305000	1482.829102	-23.656860
20388.839894	-1241.305000	1481.765625	54.388985
20388.839894	-1241.305000	1480.702148	-296.772430
20388.839894	-1241.305000	1479.638672	-99.271965
20388.839894	-1241.305000	1478.575195	15.152023
20388.839894	-1241.305000	1477.511719	19.644993
20388.839894	-1241.305000	1476.447266	-216.047989
20388.839894	-1241.305000	1475.382813	125.542976
20388.839894	-1241.305000	1474.318359	-102.901550
20388.839894	-1241.305000	1473.253906	86.188629
20388.839894	-1241.305000	1472.189453	73.404198
20388.839894	-1241.305000	1471.124023	-60.150730
20388.839894	-1241.305000	1470.058594	12.820107
20388.839894	-1241.305000	1468.993164	298.544067
20388.839894	-1241.305000	1467.927734	91.473122
20388.839894	-1241.305000	1466.861328	171.895462
20388.839894	-1241.305000	1465.794922	54.994446
20388.839894	-1241.305000	1464.728516	251.500290
20388.839894	-1241.305000	1463.662109	279.533844
20388.839894	-1241.305000	1462.594727	581.330139
20388.839894	-1241.305000	1461.528320	519.613831
20388.839894	-1241.305000	1460.460938	481.613037
20388.839894	-1241.305000	1459.393555	662.510254
20388.839894	-1241.305000	1458.326172	640.598083
20388.839894	-1241.305000	1457.257813	705.946167
20388.839894	-1241.305000	1456.189453	637.881042
20388.839894	-1241.305000	1455.121094	712.050659
20388.839894	-1241.305000	1454.052734	632.724243
20388.839894	-1241.305000	1452.984375	511.631897
20388.839894	-1241.305000	1451.915039	613.168091
20388.839894	-1241.305000	1450.845703	791.504211
20388.839894	-1241.305000	1449.776367	805.206238
20388.839894	-1241.305000	1448.707031	530.756226
20388.839894	-1241.305000	1447.636719	684.125244
20388.839894	-1241.305000	1446.567383	861.612000
20388.839894	-1241.305000	1445.497070	624.055786
20388.839894	-1241.305000	1444.425781	710.208557
20388.839894	-1241.305000	1443.355469	717.080994
20388.839894	-1241.305000	1442.285156	577.191284
20388.839894	-1241.305000	1441.213867	673.349243
20388.839894	-1241.305000	1440.142578	620.861511
20388.839894	-1241.305000	1439.070313	824.776367
20388.839894	-1241.305000	1437.999023	605.403870
20388.839894	-1241.305000	1436.926758	637.938965
20388.839894	-1241.305000	1435.854492	753.199402
20388.839894	-1241.305000	1434.782227	698.344727
20388.839894	-1241.305000	1433.709961	604.003235
20388.839894	-1241.305000	1432.636719	923.186890
20388.839894	-1241.305000	1431.563477	928.882690
20388.839894	-1241.305000	1430.490234	645.240479
20388.839894	-1241.305000	1429.416992	596.169678
20388.839894	-1241.305000	1428.343750	583.661865
20388.839894	-1241.305000	1427.269531	425.950226
20388.839894	-1241.305000	1426.195313	620.136353
20388.839894	-1241.305000	1425.121094	454.758698
20388.839894	-1241.305000	1424.046875	785.439514
20388.839894	-1241.305000	1422.971680	778.051208
20388.839894	-1241.305000	1421.896484	693.983826
20388.839894	-1241.305000	1420.821289	936.131165
20388.839894	-1241.305000	1419.746094	968.096069
20388.839894	-1241.305000	1418.669922	801.940735
20388.839894	-1241.305000	1417.594727	859.944763
20388.839894	-1241.305000	1416.518555	760.163147
20388.839894	-1241.305000	1415.442383	786.225464
20388.839894	-1241.305000	1414.365234	973.811584
20388.839894	-1241.305000	1413.289063	1014.907166
20388.839894	-1241.305000	1412.211914	1034.841553
20388.839894	-1241.305000	1411.134766	1182.392212
20388.839894	-1241.305000	1410.057617	1206.950928
20388.839894	-1241.305000	1408.979492	1242.729248
20388.839894	-1241.305000	1407.902344	1224.985229
20388.839894	-1241.305000	1406.824219	1234.080322
20388.839894	-1241.305000	1405.746094	1326.266235
20388.839894	-1241.305000	1404.666992	1415.221802
20388.839894	-1241.305000	1403.588867	1399.106079
20388.839894	-1241.305000	1402.509766	1650.725220
20388.839894	-1241.305000	1401.430664	1557.644653
20388.839894	-1241.305000	1400.351563	1449.773438
20388.839894	-1241.305000	1399.271484	1448.103638
20388.839894	-1241.305000	1398.192383	1310.242432
20388.839894	-1241.305000	1397.112305	1499.299683
20388.839894	-1241.305000	1396.031250	1470.229858
20388.839894	-1241.305000	1394.951172	1441.713623
20388.839894	-1241.305000	1393.871094	1432.620117
20388.839894	-1241.305000	1392.790039	1159.279785
20388.839894	-1241.305000	1391.708984	1000.043884
20388.839894	-1241.305000	1390.626953	942.750977
20388.839894	-1241.305000	1389.545898	1095.580688
20388.839894	-1241.305000	1388.463867	1059.882690
20388.839894	-1241.305000	1387.381836	901.168335
20388.839894	-1241.305000	1386.299805	1019.815369
20388.839894	-1241.305000	1385.217773	966.543457
20388.839894	-1241.305000	1384.134766	899.574402
20388.839894	-1241.305000	1383.051758	839.518494
20388.839894	-1241.305000	1381.968750	813.312256
20388.839894	-1241.305000	1380.885742	935.696716
20388.839894	-1241.305000	1379.802734	851.661194
20388.839894	-1241.305000	1378.718750	1053.816406
20388.839894	-1241.305000	1377.634766	664.112061
20388.839894	-1241.305000	1376.550781	989.846008
20388.839894	-1241.305000	1375.465820	884.023743
20388.839894	-1241.305000	1374.381836	701.294983
20388.839894	-1241.305000	1373.296875	690.133118
20388.839894	-1241.305000	1372.211914	394.133698
20388.839894	-1241.305000	1371.126953	743.295776
20388.839894	-1241.305000	1370.041016	599.998291
20388.839894	-1241.305000	1368.955078	771.260620
20388.839894	-1241.305000	1367.869141	1017.388245
20388.839894	-1241.305000	1366.783203	933.307739
20388.839894	-1241.305000	1365.697266	1002.390991
20388.839894	-1241.305000	1364.610352	895.962830
20388.839894	-1241.305000	1363.523438	646.991333
20388.839894	-1241.305000	1362.436523	946.160767
20388.839894	-1241.305000	1361.349609	852.179138
20388.839894	-1241.305000	1360.261719	575.618408
20388.839894	-1241.305000	1359.174805	743.161133
20388.839894	-1241.305000	1358.086914	821.013306
20388.839894	-1241.305000	1356.998047	843.404419
20388.839894	-1241.305000	1355.910156	697.423706
20388.839894	-1241.305000	1354.821289	718.764893
20388.839894	-1241.305000	1353.732422	751.453003
20388.839894	-1241.305000	1352.643555	1022.292480
20388.839894	-1241.305000	1351.554688	856.072144
20388.839894	-1241.305000	1350.464844	779.782715
20388.839894	-1241.305000	1349.375000	858.505493
20388.839894	-1241.305000	1348.285156	757.888733
20388.839894	-1241.305000	1347.195313	501.983002
20388.839894	-1241.305000	1346.105469	816.637634
20388.839894	-1241.305000	1345.014648	680.088867
20388.839894	-1241.305000	1343.923828	535.322754
20388.839894	-1241.305000	1342.833008	715.047241
20388.839894	-1241.305000	1341.741211	844.850159
20388.839894	-1241.305000	1340.650391	711.185974
20388.839894	-1241.305000	1339.558594	539.046204
20388.839894	-1241.305000	1338.466797	579.112976
20388.839894	-1241.305000	1337.374023	578.987061
20388.839894	-1241.305000	1336.282227	600.700806
20388.839894	-1241.305000	1335.189453	487.072998
20388.839894	-1241.305000	1334.096680	550.144165
20388.839894	-1241.305000	1333.003906	686.669006
20388.839894	-1241.305000	1331.910156	817.870422
20388.839894	-1241.305000	1330.817383	591.482422
20388.839894	-1241.305000	1329.723633	537.742432
20388.839894	-1241.305000	1328.629883	743.349792
20388.839894	-1241.305000	1327.535156	722.158569
20388.839894	-1241.305000	1326.441406	714.951111
20388.839894	-1241.305000	1325.346680	815.774780
20388.839894	-1241.305000	1324.251953	810.970398
20388.839894	-1241.305000	1323.156250	841.353027
20388.839894	-1241.305000	1322.061523	980.726379
20388.839894	-1241.305000	1320.965820	901.430908
20388.839894	-1241.305000	1319.870117	831.974304
20388.839894	-1241.305000	1318.774414	943.192322
20388.839894	-1241.305000	1317.678711	943.363892
20388.839894	-1241.305000	1316.582031	935.789001
20388.839894	-1241.305000	1315.485352	933.335266
20388.839894	-1241.305000	1314.388672	1133.553345
20388.839894	-1241.305000	1313.291016	1225.630859
20388.839894	-1241.305000	1312.194336	1173.647095
20388.839894	-1241.305000	1311.096680	1239.640503
20388.839894	-1241.305000	1309.999023	1154.681885
20388.839894	-1241.305000	1308.901367	981.492737
20388.839894	-1241.305000	1307.802734	1146.344727
20388.839894	-1241.305000	1306.705078	1222.097168
20388.839894	-1241.305000	1305.606445	1241.634644
20388.839894	-1241.305000	1304.506836	1119.192261
20388.839894	-1241.305000	1303.408203	1221.437866
20388.839894	-1241.305000	1302.308594	1206.526611
20388.839894	-1241.305000	1301.208984	999.487000
20388.839894	-1241.305000	1300.109375	1241.524902
20388.839894	-1241.305000	1299.009766	1185.561157
20388.839894	-1241.305000	1297.909180	1395.030762
20388.839894	-1241.305000	1296.808594	1161.668091
20388.839894	-1241.305000	1295.708008	1183.515259
20388.839894	-1241.305000	1294.607422	1197.588623
20388.839894	-1241.305000	1293.506836	1377.695435
20388.839894	-1241.305000	1292.405273	1101.341431
20388.839894	-1241.305000	1291.303711	1127.801880
20388.839894	-1241.305000	1290.202148	1178.945923
20388.839894	-1241.305000	1289.099609	1079.273193
20388.839894	-1241.305000	1287.998047	820.532959
20388.839894	-1241.305000	1286.895508	925.175842
20388.839894	-1241.305000	1285.792969	873.200989
20388.839894	-1241.305000	1284.689453	898.098206
20388.839894	-1241.305000	1283.586914	944.993896
20388.839894	-1241.305000	1282.483398	719.682373
20388.839894	-1241.305000	1281.379883	590.484070
20388.839894	-1241.305000	1280.276367	829.341248
20388.839894	-1241.305000	1279.171875	629.094421
20388.839894	-1241.305000	1278.067383	753.649902
20388.839894	-1241.305000	1276.962891	625.011658
20388.839894	-1241.305000	1275.858398	492.730255
20388.839894	-1241.305000	1274.753906	489.252930
20388.839894	-1241.305000	1273.648438	344.246307
20388.839894	-1241.305000	1272.542969	480.764343
20388.839894	-1241.305000	1271.437500	347.546173
20388.839894	-1241.305000	1270.331055	333.693054
20388.839894	-1241.305000	1269.225586	295.753357
20388.839894	-1241.305000	1268.119141	261.412933
20388.839894	-1241.305000	1267.012695	381.077362
20388.839894	-1241.305000	1265.906250	451.946777
20388.839894	-1241.305000	1264.798828	362.242493
20388.839894	-1241.305000	1263.691406	236.574188
20388.839894	-1241.305000	1262.583984	309.181122
20388.839894	-1241.305000	1261.476563	181.199997
20388.839894	-1241.305000	1260.368164	358.072784
20388.839894	-1241.305000	1259.260742	235.308136
20388.839894	-1241.305000	1258.152344	281.987213
20388.839894	-1241.305000	1257.043945	228.299973
20388.839894	-1241.305000	1255.934570	285.467560
20388.839894	-1241.305000	1254.825195	339.241486
20388.839894	-1241.305000	1253.716797	493.762970
20388.839894	-1241.305000	1252.606445	446.412262
20388.839894	-1241.305000	1251.497070	325.647095
20388.839894	-1241.305000	1250.387695	296.045105
20388.839894	-1241.305000	1249.277344	490.364563
20388.839894	-1241.305000	1248.166992	346.941101
20388.839894	-1241.305000	1247.055664	469.402954
20388.839894	-1241.305000	1245.945313	267.388397
20388.839894	-1241.305000	1244.833984	224.045456
20388.839894	-1241.305000	1243.722656	227.105453
20388.839894	-1241.305000	1242.611328	288.639771
20388.839894	-1241.305000	1241.499023	208.933868
20388.839894	-1241.305000	1240.387695	241.650620
20388.839894	-1241.305000	1239.275391	216.763123
20388.839894	-1241.305000	1238.162109	130.889557
20388.839894	-1241.305000	1237.049805	7.270228
20388.839894	-1241.305000	1235.936523	188.155350
20388.839894	-1241.305000	1234.823242	247.118301
20388.839894	-1241.305000	1233.709961	157.425873
20388.839894	-1241.305000	1232.596680	222.916153
20388.839894	-1241.305000	1231.482422	-64.985031
20388.839894	-1241.305000	1230.369141	34.231609
20388.839894	-1241.305000	1229.253906	80.961197
20388.839894	-1241.305000	1228.139648	28.332506
20388.839894	-1241.305000	1227.025391	115.674675
20388.839894	-1241.305000	1225.910156	71.777634
20388.839894	-1241.305000	1224.794922	73.499336
20388.839894	-1241.305000	1223.679688	10.024629
20388.839894	-1241.305000	1222.563477	147.135529
20388.839894	-1241.305000	1221.447266	99.629585
20388.839894	-1241.305000	1220.331055	108.095970
20388.839894	-1241.305000	1219.214844	18.485178
20388.839894	-1241.305000	1218.098633	-96.309898
20388.839894	-1241.305000	1216.981445	-99.865814
20388.839894	-1241.305000	1215.864258	-56.950180
20388.839894	-1241.305000	1214.747070	-37.015781
20388.839894	-1241.305000	1213.629883	-203.911880
20388.839894	-1241.305000	1212.511719	-228.484695
20388.839894	-1241.305000	1211.393555	-48.618835
20388.839894	-1241.305000	1210.275391	19.394110
20388.839894	-1241.305000	1209.157227	-39.001148
20388.839894	-1241.305000	1208.038086	146.832397
20388.839894	-1241.305000	1206.918945	59.706692
20388.839894	-1241.305000	1205.799805	67.551826
20388.839894	-1241.305000	1204.680664	-184.860275
20388.839894	-1241.305000	1203.560547	108.012482
20388.839894	-1241.305000	1202.441406	-51.990002
20388.839894	-1241.305000	1201.321289	-59.876747
20388.839894	-1241.305000	1200.200195	-48.225571
20388.839894	-1241.305000	1199.080078	-105.142540
20388.839894	-1241.305000	1197.958984	84.311287
20388.839894	-1241.305000	1196.837891	55.619297
20388.839894	-1241.305000	1195.716797	-39.590080
20388.839894	-1241.305000	1194.594727	74.005188
20388.839894	-1241.305000	1193.473633	143.163879
20388.839894	-1241.305000	1192.351563	216.286362
20388.839894	-1241.305000	1191.229492	60.118065
20388.839894	-1241.305000	1190.106445	54.124374
20388.839894	-1241.305000	1188.984375	79.200310
20388.839894	-1241.305000	1187.861328	61.147179
20388.839894	-1241.305000	1186.738281	21.432358
20388.839894	-1241.305000	1185.614258	121.961479
20388.839894	-1241.305000	1184.491211	12.028494
20388.839894	-1241.305000	1183.367188	119.903046
20388.839894	-1241.305000	1182.243164	72.575218
20388.839894	-1241.305000	1181.119141	236.729233
20388.839894	-1241.305000	1179.994141	54.918938
20388.839894	-1241.305000	1178.869141	35.100437
20388.839894	-1241.305000	1177.744141	54.636696
20388.839894	-1241.305000	1176.619141	157.250046
20388.839894	-1241.305000	1175.493164	91.828133
20388.839894	-1241.305000	1174.368164	-112.546867
20388.839894	-1241.305000	1173.242188	27.994308
20388.839894	-1241.305000	1172.115234	78.745140
20388.839894	-1241.305000	1170.989258	-92.810394
20388.839894	-1241.305000	1169.862305	66.557930
20388.839894	-1241.305000	1168.735352	48.288303
20388.839894	-1241.305000	1167.608398	-40.613644
20388.839894	-1241.305000	1166.481445	-142.798538
20388.839894	-1241.305000	1165.353516	-141.987610
20388.839894	-1241.305000	1164.225586	4.996851
20388.839894	-1241.305000	1163.097656	89.529663
20388.839894	-1241.305000	1161.968750	-124.573486
20388.839894	-1241.305000	1160.840820	-27.735622
20388.839894	-1241.305000	1159.711914	-130.153336
20388.839894	-1241.305000	1158.583008	-82.171951
20388.839894	-1241.305000	1157.453125	-56.914486
20388.839894	-1241.305000	1156.324219	-127.518257
20388.839894	-1241.305000	1155.194336	-140.130524
20388.839894	-1241.305000	1154.064453	-135.916641
20388.839894	-1241.305000	1152.933594	-309.919769
20388.839894	-1241.305000	1151.803711	-133.604782
20388.839894	-1241.305000	1150.672852	-132.415314
20388.839894	-1241.305000	1149.541992	-70.470558
20388.839894	-1241.305000	1148.411133	-100.887772
20388.839894	-1241.305000	1147.279297	-71.195709
20388.839894	-1241.305000	1146.147461	-130.595367
20388.839894	-1241.305000	1145.015625	-148.885620
20388.839894	-1241.305000	1143.883789	-88.701279
20388.839894	-1241.305000	1142.750977	-190.497116
20388.839894	-1241.305000	1141.619141	-278.455536
20388.839894	-1241.305000	1140.486328	-149.024185
20388.839894	-1241.305000	1139.352539	-58.492336
20388.839894	-1241.305000	1138.219727	91.936539
20388.839894	-1241.305000	1137.085938	40.350571
20388.839894	-1241.305000	1135.952148	40.670517
20388.839894	-1241.305000	1134.818359	60.482353
20388.839894	-1241.305000	1133.683594	63.899208
20388.839894	-1241.305000	1132.549805	142.349152
20388.839894	-1241.305000	1131.415039	174.459747
20388.839894	-1241.305000	1130.279297	445.930084
20388.839894	-1241.305000	1129.144531	631.035278
20388.839894	-1241.305000	1128.008789	541.535461
20388.839894	-1241.305000	1126.873047	453.878174
20388.839894	-1241.305000	1125.737305	592.117371
20388.839894	-1241.305000	1124.601563	345.046051
20388.839894	-1241.305000	1123.464844	181.780746
20388.839894	-1241.305000	1122.328125	353.972595
20388.839894	-1241.305000	1121.191406	422.110046
20388.839894	-1241.305000	1120.054688	383.586731
20388.839894	-1241.305000	1118.916992	214.055115
20388.839894	-1241.305000	1117.779297	318.349243
20388.839894	-1241.305000	1116.641602	478.310059
20388.839894	-1241.305000	1115.503906	429.148682
20388.839894	-1241.305000	1114.365234	297.680420
20388.839894	-1241.305000	1113.226563	170.941742
20388.839894	-1241.305000	1112.087891	270.977753
20388.839894	-1241.305000	1110.949219	262.105988
20388.839894	-1241.305000	1109.809570	236.310532
20388.839894	-1241.305000	1108.669922	240.174973
20388.839894	-1241.305000	1107.530273	-24.709641
20388.839894	-1241.305000	1106.390625	341.693024
20388.839894	-1241.305000	1105.250000	405.051361
20388.839894	-1241.305000	1104.109375	426.325226
20388.839894	-1241.305000	1102.968750	445.594940
20388.839894	-1241.305000	1101.828125	373.780670
20388.839894	-1241.305000	1100.686523	507.087708
20388.839894	-1241.305000	1099.544922	553.308167
20388.839894	-1241.305000	1098.403320	308.442383
20388.839894	-1241.305000	1097.261719	354.024780
20388.839894	-1241.305000	1096.120117	362.953064
20388.839894	-1241.305000	1094.977539	291.345337
20388.839894	-1241.305000	1093.834961	188.691391
20388.839894	-1241.305000	1092.691406	419.830841
20388.839894	-1241.305000	1091.548828	365.580353
20388.839894	-1241.305000	1090.405273	302.343475
20388.839894	-1241.305000	1089.261719	366.205963
20388.839894	-1241.305000	1088.118164	304.225769
20388.839894	-1241.305000	1086.973633	174.657288
20388.839894	-1241.305000	1085.829102	246.878448
20388.839894	-1241.305000	1084.684570	131.874969
20388.839894	-1241.305000	1083.540039	235.205750
20388.839894	-1241.305000	1082.395508	55.584015
20388.839894	-1241.305000	1081.250000	135.827393
20388.839894	-1241.305000	1080.104492	181.674500
20388.839894	-1241.305000	1078.958984	147.196014
20388.839894	-1241.305000	1077.812500	164.025772
20388.839894	-1241.305000	1076.666016	414.269806
20388.839894	-1241.305000	1075.519531	329.924530
20388.839894	-1241.305000	1074.373047	217.084091
20388.839894	-1241.305000	1073.226563	371.991028
20388.839894	-1241.305000	1072.079102	305.711609
20388.839894	-1241.305000	1070.931641	207.805222
20388.839894	-1241.305000	1069.784180	250.774200
20388.839894	-1241.305000	1068.635742	496.995178
20388.839894	-1241.305000	1067.487305	378.617584
20388.839894	-1241.305000	1066.338867	352.310791
20388.839894	-1241.305000	1065.190430	613.746033
20388.839894	-1241.305000	1064.041992	548.893555
20388.839894	-1241.305000	1062.892578	595.324890
20388.839894	-1241.305000	1061.743164	613.187927
20388.839894	-1241.305000	1060.593750	451.597290
20388.839894	-1241.305000	1059.443359	509.501465
20388.839894	-1241.305000	1058.292969	631.157776
20388.839894	-1241.305000	1057.142578	505.970978
20388.839894	-1241.305000	1055.992188	486.871124
20388.839894	-1241.305000	1054.841797	211.603775
20388.839894	-1241.305000	1053.690430	197.013672
20388.839894	-1241.305000	1052.539063	288.716797
20388.839894	-1241.305000	1051.387695	56.939167
20388.839894	-1241.305000	1050.235352	222.906235
20388.839894	-1241.305000	1049.083984	277.072632
20388.839894	-1241.305000	1047.931641	216.201324
20388.839894	-1241.305000	1046.778320	258.358002
20388.839894	-1241.305000	1045.625977	199.057190
20388.839894	-1241.305000	1044.472656	202.434570
20388.839894	-1241.305000	1043.319336	64.797958
20388.839894	-1241.305000	1042.166016	295.813812
20388.839894	-1241.305000	1041.012695	349.165161
20388.839894	-1241.305000	1039.858398	140.603455
20388.839894	-1241.305000	1038.704102	276.447418
20388.839894	-1241.305000	1037.549805	184.935776
20388.839894	-1241.305000	1036.394531	145.237778
20388.839894	-1241.305000	1035.239258	345.275818
20388.839894	-1241.305000	1034.083984	256.730988
20388.839894	-1241.305000	1032.928711	181.513931
20388.839894	-1241.305000	1031.773438	113.751045
20388.839894	-1241.305000	1030.617188	147.169983
20388.839894	-1241.305000	1029.460938	201.960922
20388.839894	-1241.305000	1028.304688	191.530563
20388.839894	-1241.305000	1027.147461	134.332001
20388.839894	-1241.305000	1025.991211	382.684967
20388.839894	-1241.305000	1024.833984	306.122131
20388.839894	-1241.305000	1023.675781	150.891861
20388.839894	-1241.305000	1022.518555	353.031891
20388.839894	-1241.305000	1021.360352	154.680145
20388.839894	-1241.305000	1020.202148	216.439194
20388.839894	-1241.305000	1019.043945	-4.061584
20388.839894	-1241.305000	1017.884766	-49.541286
20388.839894	-1241.305000	1016.726563	-100.533066
20388.839894	-1241.305000	1015.567383	90.523422
20388.839894	-1241.305000	1014.407227	-13.484781
20388.839894	-1241.305000	1013.248047	-58.829853
20388.839894	-1241.305000	1012.087891	97.667458
20388.839894	-1241.305000	1010.927734	-193.496368
20388.839894	-1241.305000	1009.767578	-320.135376
20388.839894	-1241.305000	1008.606445	8.919756
20388.839894	-1241.305000	1007.446289	-220.299133
20388.839894	-1241.305000	1006.285156	-86.535988
20388.839894	-1241.305000	1005.123047	138.200729
20388.839894	-1241.305000	1003.961914	116.788795
20388.839894	-1241.305000	1002.799805	86.730133
20388.839894	-1241.305000	1001.637695	74.247070
20388.839894	-1241.305000	1000.475586	18.126167
20388.839894	-1241.305000	999.312500	-95.346405
20388.839894	-1241.305000	998.149414	-116.238274
20388.839894	-1241.305000	996.986328	119.324036
20388.839894	-1241.305000	995.823242	137.722778
20388.839894	-1241.305000	994.659180	122.764481
20388.839894	-1241.305000	993.496094	-162.401978
20388.839894	-1241.305000	992.332031	84.366310
20388.839894	-1241.305000	991.166992	64.751289
20388.839894	-1241.305000	990.002930	34.379547
20388.839894	-1241.305000	988.837891	-51.311283
20388.839894	-1241.305000	987.672852	-177.491104
20388.839894	-1241.305000	986.506836	0.712813
20388.839894	-1241.305000	985.341797	-40.920399
20388.839894	-1241.305000	984.175781	-8.916232
20388.839894	-1241.305000	983.009766	46.007664
20388.839894	-1241.305000	981.843750	154.569443
20388.839894	-1241.305000	980.676758	101.745171
20388.839894	-1241.305000	979.509766	86.850487
20388.839894	-1241.305000	978.342773	-88.267563
20388.839894	-1241.305000	977.175781	70.612083
20388.839894	-1241.305000	976.007813	46.554245
20388.839894	-1241.305000	974.839844	114.014290
20388.839894	-1241.305000	973.671875	-4.710548
20388.839894	-1241.305000	972.503906	-15.694153
20388.839894	-1241.305000	971.334961	-25.675524
20388.839894	-1241.305000	970.166016	-233.160156
20388.839894	-1241.305000	968.997070	-192.574448
20388.839894	-1241.305000	967.828125	-89.377090
20388.839894	-1241.305000	966.658203	-43.567928
20388.839894	-1241.305000	965.488281	-141.813507
20388.839894	-1241.305000	964.318359	-53.346897
20388.839894	-1241.305000	963.148438	-33.930496
20388.839894	-1241.305000	961.977539	-143.229324
20388.839894	-1241.305000	960.806641	39.835293
20388.839894	-1241.305000	959.635742	-73.505898
20388.839894	-1241.305000	958.463867	73.362282
20388.839894	-1241.305000	957.292969	97.125359
20388.839894	-1241.305000	956.121094	-66.827454
20388.839894	-1241.305000	954.948242	124.974754
20388.839894	-1241.305000	953.776367	62.013515
20388.839894	-1241.305000	952.603516	219.273605
20388.839894	-1241.305000	951.430664	125.505684
20388.839894	-1241.305000	950.257813	-43.556587
20388.839894	-1241.305000	949.084961	-4.984264
20388.839894	-1241.305000	947.911133	-16.518845
20388.839894	-1241.305000	946.737305	21.839418
20388.839894	-1241.305000	945.563477	109.410088
20388.839894	-1241.305000	944.388672	-168.847244
20388.839894	-1241.305000	943.213867	141.661957
20388.839894	-1241.305000	942.039063	195.531631
20388.839894	-1241.305000	940.864258	226.063751
20388.839894	-1241.305000	939.688477	258.837921
20388.839894	-1241.305000	938.513672	200.886902
20388.839894	-1241.305000	937.337891	249.404846
20388.839894	-1241.305000	936.161133	69.430931
20388.839894	-1241.305000	934.985352	250.036102
20388.839894	-1241.305000	933.808594	259.505219
20388.839894	-1241.305000	932.631836	403.873291
20388.839894	-1241.305000	931.454102	275.628021
20388.839894	-1241.305000	930.277344	264.148041
20388.839894	-1241.305000	929.099609	478.234650
20388.839894	-1241.305000	927.921875	326.738403
20388.839894	-1241.305000	926.743164	623.576477
20388.839894	-1241.305000	925.565430	490.196106
20388.839894	-1241.305000	924.386719	395.689331
20388.839894	-1241.305000	923.208008	555.038635
20388.839894	-1241.305000	922.028320	157.534164
20388.839894	-1241.305000	920.849609	166.663254
20388.839894	-1241.305000	919.669922	167.856720
20388.839894	-1241.305000	919.474609	113.841881
20388.839894	-1241.305000	918.309570	342.916901
20388.839894	-1241.305000	917.143555	261.366486
20388.839894	-1241.305000	915.977539	376.446533
20388.839894	-1241.305000	914.810547	0.016483
20388.839894	-1241.305000	913.644531	135.750290
20388.839894	-1241.305000	912.477539	-59.533783
20388.839894	-1241.305000	911.310547	218.291351
20388.839894	-1241.305000	910.143555	41.121231
20388.839894	-1241.305000	908.975586	-84.318665
20388.839894	-1241.305000	907.807617	69.279427
20388.839894	-1241.305000	906.639648	29.079582
20388.839894	-1241.305000	905.471680	169.640427
20388.839894	-1241.305000	904.303711	-149.440384
20388.839894	-1241.305000	903.134766	27.198257
20388.839894	-1241.305000	901.965820	-33.686611
20388.839894	-1241.305000	900.796875	44.766327
20388.839894	-1241.305000	899.626953	-29.035013
20388.839894	-1241.305000	898.457031	39.028736
20388.839894	-1241.305000	897.287109	-63.146946
20388.839894	-1241.305000	896.117188	-93.113838
20388.839894	-1241.305000	894.947266	147.560623
20388.839894	-1241.305000	893.776367	-142.763580
20388.839894	-1241.305000	892.605469	66.863983
20388.839894	-1241.305000	891.434570	235.167908
20388.839894	-1241.305000	890.262695	220.522705
20388.839894	-1241.305000	889.091797	437.610748
20388.839894	-1241.305000	887.919922	263.271973
20388.839894	-1241.305000	886.748047	287.175659
20388.839894	-1241.305000	885.575195	313.622955
20388.839894	-1241.305000	884.403320	316.882355
20388.839894	-1241.305000	883.230469	181.212524
20388.839894	-1241.305000	882.057617	295.043518
20388.839894	-1241.305000	880.883789	264.814178
20388.839894	-1241.305000	879.710938	203.725647
20388.839894	-1241.305000	878.537109	263.442719
20388.839894	-1241.305000	877.362305	-70.054329
20388.839894	-1241.305000	876.188477	166.926010
20388.839894	-1241.305000	875.013672	69.858940
20388.839894	-1241.305000	873.839844	150.011215
20388.839894	-1241.305000	872.664063	155.648300
20388.839894	-1241.305000	871.489258	-74.913536
20388.839894	-1241.305000	870.313477	197.645493
20388.839894	-1241.305000	869.138672	190.370575
20388.839894	-1241.305000	867.962891	316.482758
20388.839894	-1241.305000	866.786133	357.874420
20388.839894	-1241.305000	865.610352	178.681641
20388.839894	-1241.305000	864.433594	-49.176380
20388.839894	-1241.305000	863.256836	222.901520
20388.839894	-1241.305000	862.079102	-76.681389
20388.839894	-1241.305000	860.902344	177.306839
20388.839894	-1241.305000	859.724609	285.140686
20388.839894	-1241.305000	858.546875	149.580551
20388.839894	-1241.305000	857.368164	154.893860
20388.839894	-1241.305000	856.190430	-57.442158
20388.839894	-1241.305000	855.011719	-59.818268
20388.839894	-1241.305000	853.833008	19.676405
20388.839894	-1241.305000	852.654297	183.549454
20388.839894	-1241.305000	851.474609	101.744949
20388.839894	-1241.305000	850.294922	22.505836
20388.839894	-1241.305000	849.115234	81.356300
20388.839894	-1241.305000	847.935547	-189.644318
20388.839894	-1241.305000	846.754883	-92.487595
20388.839894	-1241.305000	845.575195	152.823547
20388.839894	-1241.305000	844.393555	270.255188
20388.839894	-1241.305000	843.212891	91.289993
20388.839894	-1241.305000	842.032227	-92.738472
20388.839894	-1241.305000	840.850586	-205.223282
20388.839894	-1241.305000	839.668945	19.294519
20388.839894	-1241.305000	838.486328	-77.910248
20388.839894	-1241.305000	837.304688	-134.274780
20388.839894	-1241.305000	836.122070	-239.121216
20388.839894	-1241.305000	834.939453	-142.439774
20388.839894	-1241.305000	833.756836	-15.224854
20388.839894	-1241.305000	832.573242	-41.078697
20388.839894	-1241.305000	831.389648	-112.839104
20388.839894	-1241.305000	830.206055	1.454599
20388.839894	-1241.305000	829.022461	46.869518
20388.839894	-1241.305000	827.838867	94.781357
20388.839894	-1241.305000	826.654297	106.981300
20388.839894	-1241.305000	825.469727	170.076004
20388.839894	-1241.305000	824.284180	100.714981
20388.839894	-1241.305000	823.099609	49.169621
20388.839894	-1241.305000	821.914063	61.237270
20388.839894	-1241.305000	820.728516	35.098896
20388.839894	-1241.305000	819.542969	-47.029964
20388.839894	-1241.305000	818.356445	188.773514
20388.839894	-1241.305000	817.169922	-10.397496
20388.839894	-1241.305000	815.983398	6.583656
20388.839894	-1241.305000	814.796875	-65.442490
20388.839894	-1241.305000	813.609375	129.367691
20388.839894	-1241.305000	812.422852	214.806549
20388.839894	-1241.305000	811.235352	-68.171814
20388.839894	-1241.305000	810.046875	-198.683990
20388.839894	-1241.305000	808.859375	-37.161079
20388.839894	-1241.305000	807.670898	-48.377678
20388.839894	-1241.305000	806.482422	-105.314598
20388.839894	-1241.305000	805.293945	-91.210396
20388.839894	-1241.305000	804.104492	-69.539070
20388.839894	-1241.305000	802.915039	96.673729
20388.839894	-1241.305000	801.725586	49.745117
20388.839894	-1241.305000	800.536133	-37.771469
20388.839894	-1241.305000	799.345703	102.863716
20388.839894	-1241.305000	798.155273	157.226730
20388.839894	-1241.305000	796.964844	132.973541
20388.839894	-1241.305000	795.774414	-86.389259
20388.839894	-1241.305000	794.583008	-19.476553
20388.839894	-1241.305000	793.392578	-53.928577
20388.839894	-1241.305000	792.200195	-118.793564
20388.839894	-1241.305000	791.008789	-133.043335
20388.839894	-1241.305000	789.816406	-149.860596
20388.839894	-1241.305000	788.625000	-136.346298
20388.839894	-1241.305000	787.432617	-160.828766
20388.839894	-1241.305000	786.239258	-235.931412
20388.839894	-1241.305000	785.046875	-30.348673
20388.839894	-1241.305000	783.853516	89.142647
20388.839894	-1241.305000	782.660156	8.852450
20388.839894	-1241.305000	781.465820	135.779816
20388.839894	-1241.305000	780.272461	148.913177
20388.839894	-1241.305000	779.078125	167.046783
20388.839894	-1241.305000	777.883789	134.617661
20388.839894	-1241.305000	776.688477	258.710663
20388.839894	-1241.305000	775.494141	115.105576
20388.839894	-1241.305000	774.298828	-157.214172
20388.839894	-1241.305000	773.103516	110.569435
20388.839894	-1241.305000	771.907227	80.480637
20388.839894	-1241.305000	770.711914	231.979156
20388.839894	-1241.305000	769.515625	-42.843410
20388.839894	-1241.305000	768.318359	-55.371136
20388.839894	-1241.305000	767.122070	156.423325
20388.839894	-1241.305000	765.924805	25.309107
20388.839894	-1241.305000	764.727539	75.632828
20388.839894	-1241.305000	763.530273	110.773254
20388.839894	-1241.305000	762.333008	27.467546
20388.839894	-1241.305000	761.134766	-149.028900
20388.839894	-1241.305000	759.936523	256.103394
20388.839894	-1241.305000	758.738281	-66.461899
20388.839894	-1241.305000	757.540039	99.302475
20388.839894	-1241.305000	756.340820	-120.028870
20388.839894	-1241.305000	755.141602	-34.922424
20388.839894	-1241.305000	753.942383	120.526009
20388.839894	-1241.305000	752.742188	9.308924
20388.839894	-1241.305000	751.541992	84.132820
20388.839894	-1241.305000	750.341797	23.145088
20388.839894	-1241.305000	749.141602	203.386688
20388.839894	-1241.305000	747.941406	92.051910
20388.839894	-1241.305000	746.740234	133.943649
20388.839894	-1241.305000	745.539063	110.471748
20388.839894	-1241.305000	744.337891	69.384232
20388.839894	-1241.305000	743.135742	183.908737
20388.839894	-1241.305000	741.933594	79.975731
20388.839894	-1241.305000	740.731445	204.389923
20388.839894	-1241.305000	739.529297	143.048782
20388.839894	-1241.305000	738.326172	119.305801
20388.839894	-1241.305000	737.124023	-75.003944
20388.839894	-1241.305000	735.919922	-93.777184
20388.839894	-1241.305000	734.716797	-252.966705
20388.839894	-1241.305000	733.513672	-101.365486
20388.839894	-1241.305000	732.309570	-50.107498
20388.839894	-1241.305000	731.105469	41.162991
20388.839894	-1241.305000	729.900391	162.399857
20388.839894	-1241.305000	728.696289	168.349915
20388.839894	-1241.305000	727.491211	-56.086998
20388.839894	-1241.305000	726.286133	-100.256142
20388.839894	-1241.305000	725.080078	20.711309
20388.839894	-1241.305000	723.874023	64.017075
20388.839894	-1241.305000	722.668945	52.226322
20388.839894	-1241.305000	721.461914	205.451859
20388.839894	-1241.305000	720.255859	36.008011
20388.839894	-1241.305000	719.048828	86.579330
20388.839894	-1241.305000	717.841797	-42.877338
20388.839894	-1241.305000	716.634766	-34.886166
20388.839894	-1241.305000	715.427734	-101.897118
20388.839894	-1241.305000	714.219727	-153.942947
20388.839894	-1241.305000	713.011719	-166.056870
20388.839894	-1241.305000	711.803711	-5.931930
20388.839894	-1241.305000	710.594727	-38.137115
20388.839894	-1241.305000	709.385742	-37.931049
20388.839894	-1241.305000	708.176758	109.450256
20388.839894	-1241.305000	706.967773	199.345032
20388.839894	-1241.305000	705.758789	-102.431938
20388.839894	-1241.305000	704.548828	-69.978027
20388.839894	-1241.305000	703.338867	-154.759644
20388.839894	-1241.305000	702.127930	-20.202328
20388.839894	-1241.305000	700.917969	-107.538803
20388.839894	-1241.305000	699.707031	-152.528778
20388.839894	-1241.305000	698.496094	91.420151
20388.839894	-1241.305000	697.285156	-43.337097
20388.839894	-1241.305000	696.073242	-185.553299
20388.839894	-1241.305000	694.861328	-131.082245
20388.839894	-1241.305000	693.649414	40.307045
20388.839894	-1241.305000	692.436523	-7.403904
20388.839894	-1241.305000	691.224609	-80.009689
20388.839894	-1241.305000	690.011719	83.672958
20388.839894	-1241.305000	688.798828	132.853012
20388.839894	-1241.305000	687.584961	94.946510
20388.839894	-1241.305000	686.372070	171.370087
20388.839894	-1241.305000	685.158203	91.146683
20388.839894	-1241.305000	683.943359	18.368620
20388.839894	-1241.305000	682.729492	285.933197
20388.839894	-1241.305000	681.514648	163.399399
20388.839894	-1241.305000	680.299805	227.121979
20388.839894	-1241.305000	679.084961	395.056671
20388.839894	-1241.305000	677.869141	242.682922
20388.839894	-1241.305000	676.653320	92.821419
20388.839894	-1241.305000	675.437500	275.461151
20388.839894	-1241.305000	674.221680	234.738602
20388.839894	-1241.305000	673.004883	278.319672
20388.839894	-1241.305000	671.789063	297.061249
20388.839894	-1241.305000	670.571289	335.587524
20388.839894	-1241.305000	669.354492	188.185959
20388.839894	-1241.305000	668.136719	184.537292
20388.839894	-1241.305000	666.919922	240.325714
20388.839894	-1241.305000	665.701172	169.731918
20388.839894	-1241.305000	664.483398	371.551483
20388.839894	-1241.305000	663.264648	370.233582
20388.839894	-1241.305000	662.045898	245.123749
20388.839894	-1241.305000	660.827148	335.355682
20388.839894	-1241.305000	659.608398	272.118744
20388.839894	-1241.305000	658.388672	312.781952
20388.839894	-1241.305000	657.168945	308.888214
20388.839894	-1241.305000	655.949219	406.360413
20388.839894	-1241.305000	654.728516	402.405396
20388.839894	-1241.305000	653.507813	522.020325
20388.839894	-1241.305000	652.287109	169.570389
20388.839894	-1241.305000	651.066406	-103.685562
20388.839894	-1241.305000	649.844727	322.207428
20388.839894	-1241.305000	648.623047	-34.965351
20388.839894	-1241.305000	647.401367	128.980743
20388.839894	-1241.305000	646.179688	334.812378
20388.839894	-1241.305000	644.957031	362.841003
20388.839894	-1241.305000	643.734375	79.937927
20388.839894	-1241.305000	642.511719	66.050537
20388.839894	-1241.305000	641.289063	177.953354
20388.839894	-1241.305000	640.065430	85.121933
20388.839894	-1241.305000	638.841797	278.316315
20388.839894	-1241.305000	637.618164	153.449783
20388.839894	-1241.305000	636.393555	260.282043
20388.839894	-1241.305000	635.168945	199.522476
20388.839894	-1241.305000	633.944336	234.860672
20388.839894	-1241.305000	632.719727	151.966782
20388.839894	-1241.305000	631.494141	12.471710
20388.839894	-1241.305000	630.269531	-60.488281
20388.839894	-1241.305000	629.042969	-32.510094
20388.839894	-1241.305000	627.817383	52.064194
20388.839894	-1241.305000	626.590820	139.063644
20388.839894	-1241.305000	625.365234	-24.851076
20388.839894	-1241.305000	624.137695	113.783821
20388.839894	-1241.305000	622.911133	208.118362
20388.839894	-1241.305000	621.683594	206.552063
20388.839894	-1241.305000	620.456055	347.541351
20388.839894	-1241.305000	619.228516	100.262291
20388.839894	-1241.305000	618.000977	66.827522
20388.839894	-1241.305000	616.772461	168.500977
20388.839894	-1241.305000	615.543945	341.361176
20388.839894	-1241.305000	614.314453	5.971887
20388.839894	-1241.305000	613.085938	262.285614
20388.839894	-1241.305000	611.856445	49.797844
20388.839894	-1241.305000	610.626953	99.944443
20388.839894	-1241.305000	609.397461	132.923019
20388.839894	-1241.305000	608.166992	126.669594
20388.839894	-1241.305000	606.936523	81.216652
20388.839894	-1241.305000	605.706055	116.707123
20388.839894	-1241.305000	604.474609	-24.252954
20388.839894	-1241.305000	603.244141	101.968224
20388.839894	-1241.305000	602.012695	93.425156
20388.839894	-1241.305000	600.780273	-101.231316
20388.839894	-1241.305000	599.548828	10.331616
20388.839894	-1241.305000	598.316406	261.429382
20388.839894	-1241.305000	597.083984	-33.384239
20388.839894	-1241.305000	595.851563	-44.156746
20388.839894	-1241.305000	594.618164	6.278690
20388.839894	-1241.305000	593.384766	144.797028
20388.839894	-1241.305000	592.151367	-34.632618
20388.839894	-1241.305000	590.917969	-157.703278
20388.839894	-1241.305000	589.683594	51.785225
20388.839894	-1241.305000	588.449219	183.023117
20388.839894	-1241.305000	587.214844	47.906250
20388.839894	-1241.305000	585.979492	39.930790
20388.839894	-1241.305000	584.745117	-156.059647
20388.839894	-1241.305000	583.509766	-158.998779
20388.839894	-1241.305000	582.273438	-144.796341
20388.839894	-1241.305000	581.038086	-191.563080
20388.839894	-1241.305000	579.801758	-208.971771
20388.839894	-1241.305000	578.565430	-109.199730
20388.839894	-1241.305000	577.329102	-211.878555
20388.839894	-1241.305000	576.091797	-146.174866
20388.839894	-1241.305000	574.854492	199.973083
20388.839894	-1241.305000	573.617188	80.412193
20388.839894	-1241.305000	572.378906	-48.786732
20388.839894	-1241.305000	571.141602	-151.056656
20388.839894	-1241.305000	569.903320	255.962616
20388.839894	-1241.305000	568.664063	141.621994
20388.839894	-1241.305000	567.425781	88.284042
20388.839894	-1241.305000	566.186523	217.639297
20388.839894	-1241.305000	564.947266	120.630775
20388.839894	-1241.305000	563.708008	164.890381
20388.839894	-1241.305000	562.467773	70.512672
20388.839894	-1241.305000	561.227539	39.498043
20388.839894	-1241.305000	559.987305	52.351372
20388.839894	-1241.305000	558.747070	48.255260
20388.839894	-1241.305000	557.505859	168.221436
20388.839894	-1241.305000	556.264648	-78.798927
20388.839894	-1241.305000	555.023438	43.732178
20388.839894	-1241.305000	553.781250	188.154694
20388.839894	-1241.305000	552.539063	135.849243
20388.839894	-1241.305000	551.296875	-40.203918
20388.839894	-1241.305000	550.054688	126.245003
20388.839894	-1241.305000	548.811523	52.387672
20388.839894	-1241.305000	547.569336	218.914261
20388.839894	-1241.305000	546.325195	-80.417984
20388.839894	-1241.305000	545.082031	-44.760551
20388.839894	-1241.305000	543.837891	97.681465
20388.839894	-1241.305000	542.593750	19.490973
20388.839894	-1241.305000	541.349609	205.672363
20388.839894	-1241.305000	540.105469	79.192894
20388.839894	-1241.305000	538.860352	61.903648
20388.839894	-1241.305000	537.615234	325.751343
20388.839894	-1241.305000	536.369141	93.015816
20388.839894	-1241.305000	535.124023	158.343430
20388.839894	-1241.305000	533.877930	-8.702551
20388.839894	-1241.305000	532.631836	114.896370
20388.839894	-1241.305000	531.384766	141.725800
20388.839894	-1241.305000	530.138672	-85.426117
20388.839894	-1241.305000	528.891602	-201.110977
20388.839894	-1241.305000	527.643555	-159.445786
20388.839894	-1241.305000	526.396484	116.850151
20388.839894	-1241.305000	525.148438	32.899338
20388.839894	-1241.305000	523.900391	-34.005253
20388.839894	-1241.305000	522.652344	5.538433
20388.839894	-1241.305000	521.403320	-22.493250
20388.839894	-1241.305000	520.154297	-192.936646
20388.839894	-1241.305000	518.905273	85.969467
20388.839894	-1241.305000	517.656250	-183.237366
20388.839894	-1241.305000	516.406250	-41.868870
20388.839894	-1241.305000	515.156250	-47.691650
20388.839894	-1241.305000	513.906250	59.982979
20388.839894	-1241.305000	512.655273	-32.530750
20388.839894	-1241.305000	511.404297	-6.736203
20388.839894	-1241.305000	510.153320	-337.747681
20388.839894	-1241.305000	508.902344	-53.769356
20388.839894	-1241.305000	507.650391	-68.709740
20388.839894	-1241.305000	506.398438	-273.935089
20388.839894	-1241.305000	505.146484	51.050293
20388.839894	-1241.305000	503.893555	-271.981445
20388.839894	-1241.305000	502.641602	-139.639420
20388.839894	-1241.305000	501.388672	115.517441
20388.839894	-1241.305000	500.134766	36.038357
20388.839894	-1241.305000	498.881836	134.759888
20388.839894	-1241.305000	497.627930	69.891685
20388.839894	-1241.305000	496.374023	72.479317
20388.839894	-1241.305000	495.119141	214.631531
20388.839894	-1241.305000	493.865234	260.601959
20388.839894	-1241.305000	492.610352	169.581772
20388.839894	-1241.305000	491.355469	244.509399
20388.839894	-1241.305000	490.099609	-31.384579
20388.839894	-1241.305000	488.843750	185.418060
20388.839894	-1241.305000	487.587891	111.534653
20388.839894	-1241.305000	486.332031	-67.934189
20388.839894	-1241.305000	485.075195	244.926376
20388.839894	-1241.305000	483.818359	123.209106
20388.839894	-1241.305000	482.561523	313.579681
20388.839894	-1241.305000	481.304688	319.147980
20388.839894	-1241.305000	480.046875	233.589188
20388.839894	-1241.305000	478.789063	145.699509
20388.839894	-1241.305000	477.531250	343.222229
20388.839894	-1241.305000	476.272461	497.531372
20388.839894	-1241.305000	475.013672	555.916870
20388.839894	-1241.305000	473.754883	662.219116
20388.839894	-1241.305000	472.496094	718.172119
20388.839894	-1241.305000	471.236328	659.132751
20388.839894	-1241.305000	469.976563	521.091370
20388.839894	-1241.305000	468.716797	615.349854
20388.839894	-1241.305000	467.456055	518.058533
20388.839894	-1241.305000	466.196289	542.849854
20388.839894	-1241.305000	464.935547	416.869995
20388.839894	-1241.305000	463.673828	384.216003
20388.839894	-1241.305000	462.413086	353.935913
20388.839894	-1241.305000	461.151367	703.830566
20388.839894	-1241.305000	459.889648	458.257294
20388.839894	-1241.305000	458.626953	370.492035
20388.839894	-1241.305000	457.364258	277.929840
20388.839894	-1241.305000	456.101563	390.809357
20388.839894	-1241.305000	454.838867	372.199097
20388.839894	-1241.305000	453.575195	503.970734
20388.839894	-1241.305000	452.312500	628.440063
20388.839894	-1241.305000	451.047852	702.638733
20388.839894	-1241.305000	449.784180	676.472534
20388.839894	-1241.305000	448.519531	967.552856
20388.839894	-1241.305000	447.254883	793.222961
20388.839894	-1241.305000	445.990234	840.650513
20388.839894	-1241.305000	444.725586	761.550903
20388.839894	-1241.305000	443.459961	977.956604
20388.839894	-1241.305000	442.194336	920.026672
20388.839894	-1241.305000	440.927734	769.032166
20388.839894	-1241.305000	439.662109	799.000549
20388.839894	-1241.305000	438.395508	824.016479
20388.839894	-1241.305000	437.127930	777.395020
20388.839894	-1241.305000	435.861328	959.161865
20388.839894	-1241.305000	434.593750	595.546570
20388.839894	-1241.305000	433.326172	660.240601
20388.839894	-1241.305000	432.058594	917.405396
20388.839894	-1241.305000	430.790039	884.006958
20388.839894	-1241.305000	429.521484	790.917297
20388.839894	-1241.305000	428.252930	671.453308
20388.839894	-1241.305000	426.984375	875.073975
20388.839894	-1241.305000	425.714844	1066.436035
20388.839894	-1241.305000	424.445313	919.997070
20388.839894	-1241.305000	423.174805	792.315186
20388.839894	-1241.305000	421.905273	854.384033
20388.839894	-1241.305000	420.634766	673.872314
20388.839894	-1241.305000	419.364258	754.247131
20388.839894	-1241.305000	418.092773	824.725525
20388.839894	-1241.305000	416.822266	1065.666382
20388.839894	-1241.305000	415.550781	874.292786
20388.839894	-1241.305000	414.278320	813.056091
20388.839894	-1241.305000	413.006836	827.322083
20388.839894	-1241.305000	411.734375	698.875366
20388.839894	-1241.305000	410.461914	892.429077
20388.839894	-1241.305000	409.188477	763.099182
20388.839894	-1241.305000	407.916016	851.343628
20388.839894	-1241.305000	406.642578	858.496643
20388.839894	-1241.305000	405.368164	711.168518
20388.839894	-1241.305000	404.094727	923.310730
20388.839894	-1241.305000	402.820313	784.414246
20388.839894	-1241.305000	401.545898	822.529419
20388.839894	-1241.305000	400.270508	713.309998
20388.839894	-1241.305000	398.996094	769.153748
20388.839894	-1241.305000	397.720703	691.874023
20388.839894	-1241.305000	396.444336	744.040161
20388.839894	-1241.305000	395.168945	880.644714
20388.839894	-1241.305000	393.892578	799.015442
20388.839894	-1241.305000	392.616211	683.628174
20388.839894	-1241.305000	391.339844	650.261230
20388.839894	-1241.305000	390.062500	788.595337
20388.839894	-1241.305000	388.785156	876.499390
20388.839894	-1241.305000	387.507813	522.007385
20388.839894	-1241.305000	386.229492	726.343994
20388.839894	-1241.305000	384.951172	724.407776
20388.839894	-1241.305000	383.672852	792.401489
20388.839894	-1241.305000	382.394531	743.874268
20388.839894	-1241.305000	381.115234	741.613770
20388.839894	-1241.305000	379.835938	929.433594
20388.839894	-1241.305000	378.556641	977.103149
20388.839894	-1241.305000	377.277344	750.330017
20388.839894	-1241.305000	375.997070	675.806458
20388.839894	-1241.305000	374.716797	831.179077
20388.839894	-1241.305000	373.435547	782.806580
20388.839894	-1241.305000	372.155273	761.643738
20388.839894	-1241.305000	370.874023	800.564026
20388.839894	-1241.305000	369.591797	640.543274
20388.839894	-1241.305000	368.310547	566.519287
20388.839894	-1241.305000	367.028320	597.180420
20388.839894	-1241.305000	365.746094	581.887756
20388.839894	-1241.305000	364.463867	619.428223
20388.839894	-1241.305000	363.180664	827.285156
20388.839894	-1241.305000	361.897461	601.123779
20388.839894	-1241.305000	360.614258	594.644531
20388.839894	-1241.305000	359.330078	535.036194
20388.839894	-1241.305000	358.045898	535.107849
20388.839894	-1241.305000	356.761719	839.083923
20388.839894	-1241.305000	355.477539	521.426453
20388.839894	-1241.305000	354.192383	371.390930
20388.839894	-1241.305000	352.907227	346.611938
20388.839894	-1241.305000	351.622070	238.093933
20388.839894	-1241.305000	350.336914	444.751038
20388.839894	-1241.305000	349.050781	673.057129
20388.839894	-1241.305000	347.764648	437.497101
20388.839894	-1241.305000	346.477539	331.554718
20388.839894	-1241.305000	345.191406	474.758514
20388.839894	-1241.305000	343.904297	151.929688
20388.839894	-1241.305000	342.616211	117.897644
20388.839894	-1241.305000	341.329102	201.499115
20388.839894	-1241.305000	340.041016	16.028568
20388.839894	-1241.305000	338.752930	191.626511
20388.839894	-1241.305000	337.463867	343.979309
20388.839894	-1241.305000	336.175781	108.000565
20388.839894	-1241.305000	334.886719	94.609879
20388.839894	-1241.305000	333.596680	116.429642
20388.839894	-1241.305000	332.307617	126.723816
20388.839894	-1241.305000	331.017578	78.556694
20388.839894	-1241.305000	329.727539	140.336945
20388.839894	-1241.305000	328.436523	-76.189941
20388.839894	-1241.305000	327.146484	-136.028183
20388.839894	-1241.305000	325.855469	79.707886
20388.839894	-1241.305000	324.563477	-78.685883
20388.839894	-1241.305000	323.272461	-3.585624
20388.839894	-1241.305000	321.980469	31.438747
20388.839894	-1241.305000	320.688477	-20.256872
20388.839894	-1241.305000	319.395508	-252.116974
20388.839894	-1241.305000	318.103516	-61.828033
20388.839894	-1241.305000	316.810547	-352.818481
20388.839894	-1241.305000	315.516602	-70.471977
20388.839894	-1241.305000	314.223633	-334.479187
20388.839894	-1241.305000	312.929688	-65.163406
20388.839894	-1241.305000	311.635742	-60.091122
20388.839894	-1241.305000	310.340820	104.932968
20388.839894	-1241.305000	309.045898	-22.206490
20388.839894	-1241.305000	307.750977	266.824615
20388.839894	-1241.305000	306.456055	40.055016
20388.839894	-1241.305000	305.160156	-73.623734
20388.839894	-1241.305000	303.865234	98.136658
20388.839894	-1241.305000	302.568359	112.529770
20388.839894	-1241.305000	301.272461	-27.755899
20388.839894	-1241.305000	299.975586	458.813721
20388.839894	-1241.305000	298.678711	308.837708
