#X		#Y		#Wave		#Intensity
20472.240426	-744.436000	1999.980469	-42.960827
20472.240426	-744.436000	1999.016602	-65.206223
20472.240426	-744.436000	1998.052734	-187.445297
20472.240426	-744.436000	1997.087891	26.617607
20472.240426	-744.436000	1996.123047	-151.633057
20472.240426	-744.436000	1995.158203	-67.972855
20472.240426	-744.436000	1994.193359	-22.211946
20472.240426	-744.436000	1993.228516	25.314587
20472.240426	-744.436000	1992.262695	186.048889
20472.240426	-744.436000	1991.297852	-139.112900
20472.240426	-744.436000	1990.332031	7.934247
20472.240426	-744.436000	1989.366211	226.072952
20472.240426	-744.436000	1988.399414	-19.087933
20472.240426	-744.436000	1987.433594	-7.493597
20472.240426	-744.436000	1986.466797	-80.531906
20472.240426	-744.436000	1985.500977	31.358282
20472.240426	-744.436000	1984.534180	28.980404
20472.240426	-744.436000	1983.567383	164.518051
20472.240426	-744.436000	1982.599609	-19.259457
20472.240426	-744.436000	1981.632813	26.342445
20472.240426	-744.436000	1980.665039	78.896095
20472.240426	-744.436000	1979.697266	24.794598
20472.240426	-744.436000	1978.729492	-130.948685
20472.240426	-744.436000	1977.761719	147.500549
20472.240426	-744.436000	1976.792969	30.507418
20472.240426	-744.436000	1975.825195	108.158134
20472.240426	-744.436000	1974.856445	232.311844
20472.240426	-744.436000	1973.887695	222.855194
20472.240426	-744.436000	1972.918945	109.474243
20472.240426	-744.436000	1971.949219	141.330521
20472.240426	-744.436000	1970.980469	93.968063
20472.240426	-744.436000	1970.010742	110.435364
20472.240426	-744.436000	1969.041016	79.790001
20472.240426	-744.436000	1968.071289	253.437134
20472.240426	-744.436000	1967.101563	261.686859
20472.240426	-744.436000	1966.130859	23.350489
20472.240426	-744.436000	1965.161133	80.434380
20472.240426	-744.436000	1964.190430	110.193977
20472.240426	-744.436000	1963.219727	85.572365
20472.240426	-744.436000	1962.249023	97.688690
20472.240426	-744.436000	1961.277344	173.607697
20472.240426	-744.436000	1960.306641	190.266968
20472.240426	-744.436000	1959.334961	-2.365574
20472.240426	-744.436000	1958.363281	220.623428
20472.240426	-744.436000	1957.391602	22.838085
20472.240426	-744.436000	1956.419922	33.994526
20472.240426	-744.436000	1955.447266	135.979202
20472.240426	-744.436000	1954.474609	227.975571
20472.240426	-744.436000	1953.501953	22.467581
20472.240426	-744.436000	1952.529297	-13.529863
20472.240426	-744.436000	1951.556641	309.052612
20472.240426	-744.436000	1950.583984	177.042892
20472.240426	-744.436000	1949.610352	128.493362
20472.240426	-744.436000	1948.636719	-64.969948
20472.240426	-744.436000	1947.663086	176.066101
20472.240426	-744.436000	1946.689453	78.257599
20472.240426	-744.436000	1945.715820	93.309235
20472.240426	-744.436000	1944.741211	64.145988
20472.240426	-744.436000	1943.767578	294.964630
20472.240426	-744.436000	1942.792969	214.195358
20472.240426	-744.436000	1941.818359	57.413300
20472.240426	-744.436000	1940.842773	77.175293
20472.240426	-744.436000	1939.868164	153.288849
20472.240426	-744.436000	1938.892578	-37.764084
20472.240426	-744.436000	1937.916992	-3.337799
20472.240426	-744.436000	1936.941406	21.272509
20472.240426	-744.436000	1935.965820	-34.954132
20472.240426	-744.436000	1934.990234	50.877132
20472.240426	-744.436000	1934.013672	139.129410
20472.240426	-744.436000	1933.037109	-134.931351
20472.240426	-744.436000	1932.060547	-36.861053
20472.240426	-744.436000	1931.083984	83.214943
20472.240426	-744.436000	1930.107422	34.457226
20472.240426	-744.436000	1929.129883	59.122681
20472.240426	-744.436000	1928.153320	206.091721
20472.240426	-744.436000	1927.175781	47.387363
20472.240426	-744.436000	1926.198242	-177.230637
20472.240426	-744.436000	1925.219727	48.014618
20472.240426	-744.436000	1924.242188	-71.359642
20472.240426	-744.436000	1923.263672	-29.389307
20472.240426	-744.436000	1922.285156	-94.878845
20472.240426	-744.436000	1921.306641	-150.528427
20472.240426	-744.436000	1920.328125	52.741913
20472.240426	-744.436000	1919.349609	-141.985077
20472.240426	-744.436000	1918.370117	44.217274
20472.240426	-744.436000	1917.391602	-186.942108
20472.240426	-744.436000	1916.412109	77.391228
20472.240426	-744.436000	1915.431641	-156.022568
20472.240426	-744.436000	1914.452148	-79.505516
20472.240426	-744.436000	1913.472656	-39.542641
20472.240426	-744.436000	1912.492188	-40.989906
20472.240426	-744.436000	1911.511719	-57.005310
20472.240426	-744.436000	1910.531250	-92.455444
20472.240426	-744.436000	1909.550781	15.949247
20472.240426	-744.436000	1908.569336	-38.874962
20472.240426	-744.436000	1907.588867	-147.209732
20472.240426	-744.436000	1906.607422	114.768188
20472.240426	-744.436000	1905.625977	-159.025986
20472.240426	-744.436000	1904.644531	-45.538555
20472.240426	-744.436000	1903.662109	-75.655205
20472.240426	-744.436000	1902.680664	-66.758301
20472.240426	-744.436000	1901.698242	-84.571335
20472.240426	-744.436000	1900.715820	126.373856
20472.240426	-744.436000	1899.733398	-81.079468
20472.240426	-744.436000	1898.750000	-25.742893
20472.240426	-744.436000	1897.767578	29.632004
20472.240426	-744.436000	1896.784180	-131.321655
20472.240426	-744.436000	1895.800781	-41.805351
20472.240426	-744.436000	1894.817383	-47.042629
20472.240426	-744.436000	1893.833984	171.310272
20472.240426	-744.436000	1892.850586	-198.242767
20472.240426	-744.436000	1891.866211	-191.140457
20472.240426	-744.436000	1890.881836	-135.422806
20472.240426	-744.436000	1889.897461	87.849373
20472.240426	-744.436000	1888.913086	2.802713
20472.240426	-744.436000	1887.927734	136.265076
20472.240426	-744.436000	1886.943359	124.133316
20472.240426	-744.436000	1885.958008	-249.433624
20472.240426	-744.436000	1884.972656	-64.924698
20472.240426	-744.436000	1883.987305	-105.983078
20472.240426	-744.436000	1883.001953	190.049759
20472.240426	-744.436000	1882.015625	-30.355850
20472.240426	-744.436000	1881.029297	-76.126717
20472.240426	-744.436000	1880.042969	40.518570
20472.240426	-744.436000	1879.056641	137.771545
20472.240426	-744.436000	1878.070313	-79.898003
20472.240426	-744.436000	1877.083984	17.403542
20472.240426	-744.436000	1876.096680	-125.035194
20472.240426	-744.436000	1875.109375	-8.338778
20472.240426	-744.436000	1874.122070	62.346226
20472.240426	-744.436000	1873.134766	-138.032059
20472.240426	-744.436000	1872.146484	-6.813951
20472.240426	-744.436000	1871.159180	-236.097595
20472.240426	-744.436000	1870.170898	-61.337940
20472.240426	-744.436000	1869.182617	-12.384525
20472.240426	-744.436000	1868.194336	181.636398
20472.240426	-744.436000	1867.205078	237.799484
20472.240426	-744.436000	1866.216797	105.421318
20472.240426	-744.436000	1865.227539	-17.234306
20472.240426	-744.436000	1864.238281	111.430153
20472.240426	-744.436000	1863.249023	51.627190
20472.240426	-744.436000	1862.259766	-264.165100
20472.240426	-744.436000	1861.269531	-171.754044
20472.240426	-744.436000	1860.279297	-105.941597
20472.240426	-744.436000	1859.290039	213.285721
20472.240426	-744.436000	1858.298828	64.190239
20472.240426	-744.436000	1857.308594	40.606316
20472.240426	-744.436000	1856.318359	-11.934628
20472.240426	-744.436000	1855.327148	29.592915
20472.240426	-744.436000	1854.335938	63.847904
20472.240426	-744.436000	1853.344727	86.010460
20472.240426	-744.436000	1852.353516	98.494102
20472.240426	-744.436000	1851.362305	108.533623
20472.240426	-744.436000	1850.370117	195.650452
20472.240426	-744.436000	1849.377930	157.415726
20472.240426	-744.436000	1848.385742	42.074970
20472.240426	-744.436000	1847.393555	194.069031
20472.240426	-744.436000	1846.401367	146.105331
20472.240426	-744.436000	1845.408203	237.748062
20472.240426	-744.436000	1844.415039	312.460144
20472.240426	-744.436000	1843.421875	136.810318
20472.240426	-744.436000	1842.428711	184.943542
20472.240426	-744.436000	1841.435547	119.936394
20472.240426	-744.436000	1840.441406	35.654572
20472.240426	-744.436000	1839.448242	49.939190
20472.240426	-744.436000	1838.454102	326.226227
20472.240426	-744.436000	1837.459961	354.745605
20472.240426	-744.436000	1836.464844	344.732880
20472.240426	-744.436000	1835.470703	310.623444
20472.240426	-744.436000	1834.475586	110.680931
20472.240426	-744.436000	1833.480469	225.406036
20472.240426	-744.436000	1832.485352	150.284592
20472.240426	-744.436000	1831.490234	70.308319
20472.240426	-744.436000	1830.495117	201.540207
20472.240426	-744.436000	1829.499023	306.233948
20472.240426	-744.436000	1828.502930	367.604553
20472.240426	-744.436000	1827.506836	239.314667
20472.240426	-744.436000	1826.510742	300.490814
20472.240426	-744.436000	1825.513672	179.268265
20472.240426	-744.436000	1824.517578	199.474915
20472.240426	-744.436000	1823.520508	351.436218
20472.240426	-744.436000	1822.523438	186.825790
20472.240426	-744.436000	1821.526367	242.660919
20472.240426	-744.436000	1820.529297	159.390518
20472.240426	-744.436000	1819.531250	255.718628
20472.240426	-744.436000	1818.533203	141.116257
20472.240426	-744.436000	1817.535156	122.235489
20472.240426	-744.436000	1816.537109	187.048782
20472.240426	-744.436000	1815.539063	122.447548
20472.240426	-744.436000	1814.540039	129.552368
20472.240426	-744.436000	1813.541992	119.782631
20472.240426	-744.436000	1812.542969	231.909851
20472.240426	-744.436000	1811.543945	176.420624
20472.240426	-744.436000	1810.543945	226.052322
20472.240426	-744.436000	1809.544922	332.926575
20472.240426	-744.436000	1808.544922	-2.664507
20472.240426	-744.436000	1807.544922	247.358063
20472.240426	-744.436000	1806.544922	258.165222
20472.240426	-744.436000	1805.544922	519.714050
20472.240426	-744.436000	1804.544922	190.954819
20472.240426	-744.436000	1803.543945	50.864460
20472.240426	-744.436000	1802.542969	287.990479
20472.240426	-744.436000	1801.541992	224.044952
20472.240426	-744.436000	1800.541016	272.168762
20472.240426	-744.436000	1799.539063	389.334351
20472.240426	-744.436000	1798.538086	212.800491
20472.240426	-744.436000	1797.536133	162.621216
20472.240426	-744.436000	1796.534180	9.736691
20472.240426	-744.436000	1795.532227	319.416809
20472.240426	-744.436000	1794.529297	44.631573
20472.240426	-744.436000	1793.527344	96.399094
20472.240426	-744.436000	1792.524414	7.351219
20472.240426	-744.436000	1791.521484	82.604797
20472.240426	-744.436000	1790.518555	195.785355
20472.240426	-744.436000	1789.514648	70.533119
20472.240426	-744.436000	1788.511719	197.627747
20472.240426	-744.436000	1787.507813	312.591248
20472.240426	-744.436000	1786.503906	105.930122
20472.240426	-744.436000	1785.500000	18.191896
20472.240426	-744.436000	1784.496094	144.504257
20472.240426	-744.436000	1783.491211	246.791824
20472.240426	-744.436000	1782.486328	275.113586
20472.240426	-744.436000	1781.481445	510.181335
20472.240426	-744.436000	1780.476563	238.443207
20472.240426	-744.436000	1779.471680	71.244774
20472.240426	-744.436000	1778.465820	-48.535915
20472.240426	-744.436000	1777.460938	226.093826
20472.240426	-744.436000	1776.455078	222.399765
20472.240426	-744.436000	1775.449219	35.582966
20472.240426	-744.436000	1774.442383	261.960358
20472.240426	-744.436000	1773.436523	122.331818
20472.240426	-744.436000	1772.429688	165.395447
20472.240426	-744.436000	1771.422852	234.367813
20472.240426	-744.436000	1770.416016	120.356567
20472.240426	-744.436000	1769.409180	136.721359
20472.240426	-744.436000	1768.402344	27.135342
20472.240426	-744.436000	1767.394531	327.786469
20472.240426	-744.436000	1766.386719	298.451996
20472.240426	-744.436000	1765.378906	69.741676
20472.240426	-744.436000	1764.371094	153.880585
20472.240426	-744.436000	1763.362305	57.629314
20472.240426	-744.436000	1762.354492	105.798035
20472.240426	-744.436000	1761.345703	106.350731
20472.240426	-744.436000	1760.336914	331.769073
20472.240426	-744.436000	1759.328125	208.714798
20472.240426	-744.436000	1758.318359	61.816940
20472.240426	-744.436000	1757.308594	175.226761
20472.240426	-744.436000	1756.299805	236.325806
20472.240426	-744.436000	1755.290039	13.170772
20472.240426	-744.436000	1754.279297	222.937683
20472.240426	-744.436000	1753.269531	162.719681
20472.240426	-744.436000	1752.258789	-32.519394
20472.240426	-744.436000	1751.249023	330.275360
20472.240426	-744.436000	1750.238281	222.167740
20472.240426	-744.436000	1749.226563	184.811462
20472.240426	-744.436000	1748.215820	-79.631897
20472.240426	-744.436000	1747.204102	64.650444
20472.240426	-744.436000	1746.193359	-65.392014
20472.240426	-744.436000	1745.181641	83.155357
20472.240426	-744.436000	1744.168945	-94.507652
20472.240426	-744.436000	1743.157227	-0.725197
20472.240426	-744.436000	1742.144531	40.864544
20472.240426	-744.436000	1741.132813	195.557877
20472.240426	-744.436000	1740.120117	-223.521362
20472.240426	-744.436000	1739.106445	136.021149
20472.240426	-744.436000	1738.093750	-80.397934
20472.240426	-744.436000	1737.080078	163.002426
20472.240426	-744.436000	1736.067383	21.727592
20472.240426	-744.436000	1735.053711	-13.606144
20472.240426	-744.436000	1734.040039	-98.629509
20472.240426	-744.436000	1733.025391	-190.905792
20472.240426	-744.436000	1732.011719	-73.602806
20472.240426	-744.436000	1730.997070	12.814296
20472.240426	-744.436000	1729.982422	40.111179
20472.240426	-744.436000	1728.967773	-168.310104
20472.240426	-744.436000	1727.952148	-56.628841
20472.240426	-744.436000	1726.937500	-91.130981
20472.240426	-744.436000	1725.921875	114.252831
20472.240426	-744.436000	1724.906250	-184.245865
20472.240426	-744.436000	1723.890625	-127.540260
20472.240426	-744.436000	1722.875000	-223.955688
20472.240426	-744.436000	1721.858398	-242.929123
20472.240426	-744.436000	1720.841797	-55.152950
20472.240426	-744.436000	1719.825195	393.330811
20472.240426	-744.436000	1718.808594	6.982121
20472.240426	-744.436000	1717.791992	-1.028057
20472.240426	-744.436000	1716.774414	35.402607
20472.240426	-744.436000	1715.756836	102.172585
20472.240426	-744.436000	1714.739258	-77.894753
20472.240426	-744.436000	1713.721680	-290.954529
20472.240426	-744.436000	1712.704102	-20.444012
20472.240426	-744.436000	1711.685547	-71.843636
20472.240426	-744.436000	1710.667969	76.112587
20472.240426	-744.436000	1709.649414	87.709656
20472.240426	-744.436000	1708.630859	-142.526596
20472.240426	-744.436000	1707.611328	-262.626923
20472.240426	-744.436000	1706.592773	-52.160835
20472.240426	-744.436000	1705.573242	-116.310341
20472.240426	-744.436000	1704.553711	-91.525421
20472.240426	-744.436000	1703.534180	-165.365219
20472.240426	-744.436000	1702.513672	-33.148216
20472.240426	-744.436000	1701.494141	204.301910
20472.240426	-744.436000	1700.473633	-29.376020
20472.240426	-744.436000	1699.453125	57.732201
20472.240426	-744.436000	1698.432617	76.732613
20472.240426	-744.436000	1697.412109	32.350410
20472.240426	-744.436000	1696.390625	221.871811
20472.240426	-744.436000	1695.369141	-84.979675
20472.240426	-744.436000	1694.347656	8.236081
20472.240426	-744.436000	1693.326172	-11.032981
20472.240426	-744.436000	1692.304688	264.252899
20472.240426	-744.436000	1691.282227	324.115692
20472.240426	-744.436000	1690.260742	82.217636
20472.240426	-744.436000	1689.238281	85.683853
20472.240426	-744.436000	1688.214844	409.160248
20472.240426	-744.436000	1687.192383	267.388062
20472.240426	-744.436000	1686.168945	137.180176
20472.240426	-744.436000	1685.146484	65.295013
20472.240426	-744.436000	1684.123047	77.341820
20472.240426	-744.436000	1683.099609	390.441559
20472.240426	-744.436000	1682.075195	91.635719
20472.240426	-744.436000	1681.051758	303.971893
20472.240426	-744.436000	1680.027344	331.716644
20472.240426	-744.436000	1679.002930	247.327423
20472.240426	-744.436000	1677.978516	386.771057
20472.240426	-744.436000	1676.953125	346.426422
20472.240426	-744.436000	1675.928711	364.286743
20472.240426	-744.436000	1674.903320	195.484650
20472.240426	-744.436000	1673.877930	271.360138
20472.240426	-744.436000	1672.852539	337.761017
20472.240426	-744.436000	1671.826172	317.782440
20472.240426	-744.436000	1670.800781	262.775269
20472.240426	-744.436000	1669.774414	475.485443
20472.240426	-744.436000	1668.748047	345.695953
20472.240426	-744.436000	1667.721680	369.500702
20472.240426	-744.436000	1666.694336	416.435913
20472.240426	-744.436000	1665.667969	90.910156
20472.240426	-744.436000	1664.640625	263.311981
20472.240426	-744.436000	1663.613281	326.203308
20472.240426	-744.436000	1662.585938	721.570679
20472.240426	-744.436000	1661.557617	505.066132
20472.240426	-744.436000	1660.530273	725.672424
20472.240426	-744.436000	1659.501953	697.342834
20472.240426	-744.436000	1658.473633	771.192383
20472.240426	-744.436000	1657.444336	698.503723
20472.240426	-744.436000	1656.416016	827.898071
20472.240426	-744.436000	1655.386719	1017.520325
20472.240426	-744.436000	1654.358398	642.691223
20472.240426	-744.436000	1653.328125	885.484070
20472.240426	-744.436000	1652.298828	1042.234375
20472.240426	-744.436000	1651.269531	987.640869
20472.240426	-744.436000	1650.239258	1234.630127
20472.240426	-744.436000	1649.208984	1388.647217
20472.240426	-744.436000	1648.178711	1377.842896
20472.240426	-744.436000	1647.148438	1408.715698
20472.240426	-744.436000	1646.117188	1441.801636
20472.240426	-744.436000	1645.086914	1831.850098
20472.240426	-744.436000	1644.055664	1676.971680
20472.240426	-744.436000	1643.024414	1888.234985
20472.240426	-744.436000	1641.992188	1677.654175
20472.240426	-744.436000	1640.960938	1960.533936
20472.240426	-744.436000	1639.928711	1870.345947
20472.240426	-744.436000	1638.896484	1828.768066
20472.240426	-744.436000	1637.864258	2162.207031
20472.240426	-744.436000	1636.832031	2176.046143
20472.240426	-744.436000	1635.798828	2416.604248
20472.240426	-744.436000	1634.766602	2187.358643
20472.240426	-744.436000	1633.733398	2342.147217
20472.240426	-744.436000	1632.699219	2230.831787
20472.240426	-744.436000	1631.666016	2364.671143
20472.240426	-744.436000	1630.632813	2632.520996
20472.240426	-744.436000	1629.598633	2675.990967
20472.240426	-744.436000	1628.564453	2761.017334
20472.240426	-744.436000	1627.530273	2924.549805
20472.240426	-744.436000	1626.495117	2870.811523
20472.240426	-744.436000	1625.460938	2891.014160
20472.240426	-744.436000	1624.425781	2934.255371
20472.240426	-744.436000	1623.390625	3286.850586
20472.240426	-744.436000	1622.355469	3170.696533
20472.240426	-744.436000	1621.319336	3384.582764
20472.240426	-744.436000	1620.284180	3333.047363
20472.240426	-744.436000	1619.248047	3272.270020
20472.240426	-744.436000	1618.211914	3698.206299
20472.240426	-744.436000	1617.174805	3720.374756
20472.240426	-744.436000	1616.138672	3784.066650
20472.240426	-744.436000	1615.101563	3813.134033
20472.240426	-744.436000	1614.065430	4197.161621
20472.240426	-744.436000	1613.027344	3912.737549
20472.240426	-744.436000	1611.990234	4324.239258
20472.240426	-744.436000	1610.953125	4373.954590
20472.240426	-744.436000	1609.915039	4637.819824
20472.240426	-744.436000	1608.876953	4643.717773
20472.240426	-744.436000	1607.838867	4394.102539
20472.240426	-744.436000	1606.800781	4202.149902
20472.240426	-744.436000	1605.761719	4617.790527
20472.240426	-744.436000	1604.723633	4646.799316
20472.240426	-744.436000	1603.684570	4563.088379
20472.240426	-744.436000	1602.644531	4670.304199
20472.240426	-744.436000	1601.605469	4669.472168
20472.240426	-744.436000	1600.566406	4339.926758
20472.240426	-744.436000	1599.526367	4438.050293
20472.240426	-744.436000	1598.486328	4421.275879
20472.240426	-744.436000	1597.446289	4223.043457
20472.240426	-744.436000	1596.405273	4201.791992
20472.240426	-744.436000	1595.365234	4159.957520
20472.240426	-744.436000	1594.324219	4255.942871
20472.240426	-744.436000	1593.283203	4285.368652
20472.240426	-744.436000	1592.242188	4133.508301
20472.240426	-744.436000	1591.200195	4165.336426
20472.240426	-744.436000	1590.159180	4105.462891
20472.240426	-744.436000	1589.117188	4336.993164
20472.240426	-744.436000	1588.075195	4295.565430
20472.240426	-744.436000	1587.032227	4231.269043
20472.240426	-744.436000	1585.990234	4038.706055
20472.240426	-744.436000	1584.947266	4217.609375
20472.240426	-744.436000	1583.904297	3974.833252
20472.240426	-744.436000	1582.861328	3929.286865
20472.240426	-744.436000	1581.818359	4135.839355
20472.240426	-744.436000	1580.775391	4095.028076
20472.240426	-744.436000	1579.731445	4370.312012
20472.240426	-744.436000	1578.687500	4137.299805
20472.240426	-744.436000	1577.643555	4179.163086
20472.240426	-744.436000	1576.598633	4163.861328
20472.240426	-744.436000	1575.554688	3848.935303
20472.240426	-744.436000	1574.509766	4376.094727
20472.240426	-744.436000	1573.464844	3896.738770
20472.240426	-744.436000	1572.419922	4138.030762
20472.240426	-744.436000	1571.374023	3723.111084
20472.240426	-744.436000	1570.329102	3516.509033
20472.240426	-744.436000	1569.283203	3703.179932
20472.240426	-744.436000	1568.237305	3375.752197
20472.240426	-744.436000	1567.191406	3722.526367
20472.240426	-744.436000	1566.144531	3596.433838
20472.240426	-744.436000	1565.098633	3653.231689
20472.240426	-744.436000	1564.051758	3794.585205
20472.240426	-744.436000	1563.004883	3700.874023
20472.240426	-744.436000	1561.957031	3543.396484
20472.240426	-744.436000	1560.910156	3675.932617
20472.240426	-744.436000	1559.862305	3571.251709
20472.240426	-744.436000	1558.814453	3580.793701
20472.240426	-744.436000	1557.766602	3405.737793
20472.240426	-744.436000	1556.718750	3559.222656
20472.240426	-744.436000	1555.669922	3361.692871
20472.240426	-744.436000	1554.621094	2870.360352
20472.240426	-744.436000	1553.573242	3224.810059
20472.240426	-744.436000	1552.523438	3014.193359
20472.240426	-744.436000	1551.474609	2951.890137
20472.240426	-744.436000	1550.424805	2985.388672
20472.240426	-744.436000	1549.375000	2836.862061
20472.240426	-744.436000	1548.325195	2945.795898
20472.240426	-744.436000	1547.275391	3077.600586
20472.240426	-744.436000	1546.225586	3020.629150
20472.240426	-744.436000	1545.174805	2613.434570
20472.240426	-744.436000	1544.124023	2636.487305
20472.240426	-744.436000	1543.073242	2500.490234
20472.240426	-744.436000	1542.022461	2451.114990
20472.240426	-744.436000	1540.970703	2599.688232
20472.240426	-744.436000	1539.919922	2575.643799
20472.240426	-744.436000	1538.868164	2438.131836
20472.240426	-744.436000	1537.815430	2314.457031
20472.240426	-744.436000	1536.763672	2168.303711
20472.240426	-744.436000	1535.710938	2294.901367
20472.240426	-744.436000	1534.659180	1972.041138
20472.240426	-744.436000	1533.606445	2253.356934
20472.240426	-744.436000	1532.552734	2296.388184
20472.240426	-744.436000	1531.500000	2450.799805
20472.240426	-744.436000	1530.446289	2432.875488
20472.240426	-744.436000	1529.393555	2226.876953
20472.240426	-744.436000	1528.338867	2329.556641
20472.240426	-744.436000	1527.285156	2135.348633
20472.240426	-744.436000	1526.231445	2306.413818
20472.240426	-744.436000	1525.176758	2250.910889
20472.240426	-744.436000	1524.122070	2032.453491
20472.240426	-744.436000	1523.067383	2083.902344
20472.240426	-744.436000	1522.012695	2081.157471
20472.240426	-744.436000	1520.957031	2105.768799
20472.240426	-744.436000	1519.901367	2010.550781
20472.240426	-744.436000	1518.845703	1949.529541
20472.240426	-744.436000	1517.790039	1847.987793
20472.240426	-744.436000	1516.734375	2144.991211
20472.240426	-744.436000	1515.677734	1878.661255
20472.240426	-744.436000	1514.621094	1540.252319
20472.240426	-744.436000	1513.564453	1751.786987
20472.240426	-744.436000	1512.507813	1486.307373
20472.240426	-744.436000	1511.450195	1404.254150
20472.240426	-744.436000	1510.393555	1372.187012
20472.240426	-744.436000	1509.335938	1647.681641
20472.240426	-744.436000	1508.278320	1541.420654
20472.240426	-744.436000	1507.219727	1114.610962
20472.240426	-744.436000	1506.162109	1187.353638
20472.240426	-744.436000	1505.103516	962.186707
20472.240426	-744.436000	1504.044922	1103.077148
20472.240426	-744.436000	1502.986328	934.883240
20472.240426	-744.436000	1501.926758	1137.078613
20472.240426	-744.436000	1500.868164	985.174011
20472.240426	-744.436000	1499.808594	596.662842
20472.240426	-744.436000	1498.749023	571.661133
20472.240426	-744.436000	1497.688477	862.582703
20472.240426	-744.436000	1496.628906	463.719696
20472.240426	-744.436000	1495.568359	299.658936
20472.240426	-744.436000	1494.507813	313.927643
20472.240426	-744.436000	1493.447266	427.561676
20472.240426	-744.436000	1492.386719	446.757050
20472.240426	-744.436000	1491.325195	72.001053
20472.240426	-744.436000	1490.263672	91.704689
20472.240426	-744.436000	1489.202148	-203.572800
20472.240426	-744.436000	1488.140625	98.012970
20472.240426	-744.436000	1487.079102	-18.894836
20472.240426	-744.436000	1486.016602	6.223266
20472.240426	-744.436000	1484.954102	-107.916252
20472.240426	-744.436000	1483.891602	122.353157
20472.240426	-744.436000	1482.829102	-22.782448
20472.240426	-744.436000	1481.765625	-111.427795
20472.240426	-744.436000	1480.702148	63.187298
20472.240426	-744.436000	1479.638672	-36.217964
20472.240426	-744.436000	1478.575195	217.413483
20472.240426	-744.436000	1477.511719	253.300766
20472.240426	-744.436000	1476.447266	291.551117
20472.240426	-744.436000	1475.382813	89.886612
20472.240426	-744.436000	1474.318359	18.590801
20472.240426	-744.436000	1473.253906	129.497971
20472.240426	-744.436000	1472.189453	36.284184
20472.240426	-744.436000	1471.124023	93.688522
20472.240426	-744.436000	1470.058594	227.552933
20472.240426	-744.436000	1468.993164	417.656952
20472.240426	-744.436000	1467.927734	578.467590
20472.240426	-744.436000	1466.861328	121.714882
20472.240426	-744.436000	1465.794922	321.091431
20472.240426	-744.436000	1464.728516	402.404022
20472.240426	-744.436000	1463.662109	172.709366
20472.240426	-744.436000	1462.594727	131.252075
20472.240426	-744.436000	1461.528320	83.197701
20472.240426	-744.436000	1460.460938	317.183990
20472.240426	-744.436000	1459.393555	216.407852
20472.240426	-744.436000	1458.326172	424.304840
20472.240426	-744.436000	1457.257813	569.220154
20472.240426	-744.436000	1456.189453	815.308960
20472.240426	-744.436000	1455.121094	771.788025
20472.240426	-744.436000	1454.052734	667.368103
20472.240426	-744.436000	1452.984375	1035.232788
20472.240426	-744.436000	1451.915039	864.378662
20472.240426	-744.436000	1450.845703	873.543640
20472.240426	-744.436000	1449.776367	1171.946289
20472.240426	-744.436000	1448.707031	735.025879
20472.240426	-744.436000	1447.636719	927.811035
20472.240426	-744.436000	1446.567383	903.281128
20472.240426	-744.436000	1445.497070	1108.697021
20472.240426	-744.436000	1444.425781	993.340393
20472.240426	-744.436000	1443.355469	951.075745
20472.240426	-744.436000	1442.285156	1085.865723
20472.240426	-744.436000	1441.213867	842.312622
20472.240426	-744.436000	1440.142578	1081.374512
20472.240426	-744.436000	1439.070313	1041.306152
20472.240426	-744.436000	1437.999023	1215.108643
20472.240426	-744.436000	1436.926758	1379.182861
20472.240426	-744.436000	1435.854492	1195.984131
20472.240426	-744.436000	1434.782227	1167.767822
20472.240426	-744.436000	1433.709961	1510.047119
20472.240426	-744.436000	1432.636719	1645.447144
20472.240426	-744.436000	1431.563477	1503.486816
20472.240426	-744.436000	1430.490234	1448.761108
20472.240426	-744.436000	1429.416992	1499.374878
20472.240426	-744.436000	1428.343750	1518.028931
20472.240426	-744.436000	1427.269531	1552.103149
20472.240426	-744.436000	1426.195313	1323.281372
20472.240426	-744.436000	1425.121094	1309.408325
20472.240426	-744.436000	1424.046875	1036.520508
20472.240426	-744.436000	1422.971680	967.184631
20472.240426	-744.436000	1421.896484	945.547913
20472.240426	-744.436000	1420.821289	840.086243
20472.240426	-744.436000	1419.746094	625.912109
20472.240426	-744.436000	1418.669922	332.026459
20472.240426	-744.436000	1417.594727	414.235870
20472.240426	-744.436000	1416.518555	309.748291
20472.240426	-744.436000	1415.442383	156.465424
20472.240426	-744.436000	1414.365234	186.201538
20472.240426	-744.436000	1413.289063	187.779007
20472.240426	-744.436000	1412.211914	188.338974
20472.240426	-744.436000	1411.134766	52.700268
20472.240426	-744.436000	1410.057617	-124.495422
20472.240426	-744.436000	1408.979492	49.199863
20472.240426	-744.436000	1407.902344	507.553619
20472.240426	-744.436000	1406.824219	336.220703
20472.240426	-744.436000	1405.746094	327.065674
20472.240426	-744.436000	1404.666992	382.509949
20472.240426	-744.436000	1403.588867	623.979431
20472.240426	-744.436000	1402.509766	541.107117
20472.240426	-744.436000	1401.430664	387.459808
20472.240426	-744.436000	1400.351563	627.839172
20472.240426	-744.436000	1399.271484	785.915649
20472.240426	-744.436000	1398.192383	746.778992
20472.240426	-744.436000	1397.112305	1157.347290
20472.240426	-744.436000	1396.031250	785.370178
20472.240426	-744.436000	1394.951172	826.820862
20472.240426	-744.436000	1393.871094	700.315430
20472.240426	-744.436000	1392.790039	602.636536
20472.240426	-744.436000	1391.708984	582.868713
20472.240426	-744.436000	1390.626953	298.906311
20472.240426	-744.436000	1389.545898	672.714905
20472.240426	-744.436000	1388.463867	305.354218
20472.240426	-744.436000	1387.381836	493.052399
20472.240426	-744.436000	1386.299805	334.987823
20472.240426	-744.436000	1385.217773	422.192505
20472.240426	-744.436000	1384.134766	411.071625
20472.240426	-744.436000	1383.051758	217.801727
20472.240426	-744.436000	1381.968750	287.363922
20472.240426	-744.436000	1380.885742	192.500992
20472.240426	-744.436000	1379.802734	286.926483
20472.240426	-744.436000	1378.718750	232.866776
20472.240426	-744.436000	1377.634766	424.358734
20472.240426	-744.436000	1376.550781	256.777954
20472.240426	-744.436000	1375.465820	531.527039
20472.240426	-744.436000	1374.381836	409.392426
20472.240426	-744.436000	1373.296875	517.042236
20472.240426	-744.436000	1372.211914	238.467545
20472.240426	-744.436000	1371.126953	624.389526
20472.240426	-744.436000	1370.041016	221.035828
20472.240426	-744.436000	1368.955078	602.008240
20472.240426	-744.436000	1367.869141	472.463562
20472.240426	-744.436000	1366.783203	417.392395
20472.240426	-744.436000	1365.697266	230.387024
20472.240426	-744.436000	1364.610352	278.470825
20472.240426	-744.436000	1363.523438	306.223206
20472.240426	-744.436000	1362.436523	99.472687
20472.240426	-744.436000	1361.349609	-42.502975
20472.240426	-744.436000	1360.261719	-162.920029
20472.240426	-744.436000	1359.174805	157.999130
20472.240426	-744.436000	1358.086914	-59.314976
20472.240426	-744.436000	1356.998047	-22.568563
20472.240426	-744.436000	1355.910156	63.802139
20472.240426	-744.436000	1354.821289	-40.929680
20472.240426	-744.436000	1353.732422	131.618530
20472.240426	-744.436000	1352.643555	5.269383
20472.240426	-744.436000	1351.554688	84.335686
20472.240426	-744.436000	1350.464844	274.696228
20472.240426	-744.436000	1349.375000	-50.036648
20472.240426	-744.436000	1348.285156	-36.079399
20472.240426	-744.436000	1347.195313	65.144424
20472.240426	-744.436000	1346.105469	383.254242
20472.240426	-744.436000	1345.014648	-63.798225
20472.240426	-744.436000	1343.923828	-46.346691
20472.240426	-744.436000	1342.833008	-95.490494
20472.240426	-744.436000	1341.741211	48.822060
20472.240426	-744.436000	1340.650391	-303.687286
20472.240426	-744.436000	1339.558594	49.797562
20472.240426	-744.436000	1338.466797	-37.354637
20472.240426	-744.436000	1337.374023	68.412186
20472.240426	-744.436000	1336.282227	-185.886368
20472.240426	-744.436000	1335.189453	270.664490
20472.240426	-744.436000	1334.096680	184.179016
20472.240426	-744.436000	1333.003906	192.122284
20472.240426	-744.436000	1331.910156	110.238434
20472.240426	-744.436000	1330.817383	179.719574
20472.240426	-744.436000	1329.723633	-46.793747
20472.240426	-744.436000	1328.629883	-235.305054
20472.240426	-744.436000	1327.535156	11.979068
20472.240426	-744.436000	1326.441406	-112.308823
20472.240426	-744.436000	1325.346680	119.263748
20472.240426	-744.436000	1324.251953	195.557999
20472.240426	-744.436000	1323.156250	326.031830
20472.240426	-744.436000	1322.061523	281.486847
20472.240426	-744.436000	1320.965820	125.965714
20472.240426	-744.436000	1319.870117	207.151489
20472.240426	-744.436000	1318.774414	325.673218
20472.240426	-744.436000	1317.678711	381.788879
20472.240426	-744.436000	1316.582031	324.869049
20472.240426	-744.436000	1315.485352	441.770203
20472.240426	-744.436000	1314.388672	400.506134
20472.240426	-744.436000	1313.291016	331.453552
20472.240426	-744.436000	1312.194336	535.002136
20472.240426	-744.436000	1311.096680	411.004852
20472.240426	-744.436000	1309.999023	550.481750
20472.240426	-744.436000	1308.901367	506.585327
20472.240426	-744.436000	1307.802734	623.526672
20472.240426	-744.436000	1306.705078	571.169189
20472.240426	-744.436000	1305.606445	486.020996
20472.240426	-744.436000	1304.506836	408.920410
20472.240426	-744.436000	1303.408203	603.003662
20472.240426	-744.436000	1302.308594	578.847839
20472.240426	-744.436000	1301.208984	617.909668
20472.240426	-744.436000	1300.109375	676.761658
20472.240426	-744.436000	1299.009766	631.263245
20472.240426	-744.436000	1297.909180	561.944641
20472.240426	-744.436000	1296.808594	849.785828
20472.240426	-744.436000	1295.708008	819.952942
20472.240426	-744.436000	1294.607422	1007.123779
20472.240426	-744.436000	1293.506836	734.648193
20472.240426	-744.436000	1292.405273	772.941406
20472.240426	-744.436000	1291.303711	796.522156
20472.240426	-744.436000	1290.202148	489.728455
20472.240426	-744.436000	1289.099609	657.471802
20472.240426	-744.436000	1287.998047	824.439453
20472.240426	-744.436000	1286.895508	759.866394
20472.240426	-744.436000	1285.792969	601.282898
20472.240426	-744.436000	1284.689453	994.770569
20472.240426	-744.436000	1283.586914	800.424316
20472.240426	-744.436000	1282.483398	914.659485
20472.240426	-744.436000	1281.379883	797.517639
20472.240426	-744.436000	1280.276367	1040.688477
20472.240426	-744.436000	1279.171875	1346.595703
20472.240426	-744.436000	1278.067383	1084.966309
20472.240426	-744.436000	1276.962891	1247.847412
20472.240426	-744.436000	1275.858398	1205.575073
20472.240426	-744.436000	1274.753906	1018.448303
20472.240426	-744.436000	1273.648438	1018.754456
20472.240426	-744.436000	1272.542969	962.899963
20472.240426	-744.436000	1271.437500	950.980713
20472.240426	-744.436000	1270.331055	749.864258
20472.240426	-744.436000	1269.225586	807.505737
20472.240426	-744.436000	1268.119141	615.376099
20472.240426	-744.436000	1267.012695	458.338959
20472.240426	-744.436000	1265.906250	466.937378
20472.240426	-744.436000	1264.798828	550.310486
20472.240426	-744.436000	1263.691406	551.438782
20472.240426	-744.436000	1262.583984	256.084290
20472.240426	-744.436000	1261.476563	267.268707
20472.240426	-744.436000	1260.368164	358.771820
20472.240426	-744.436000	1259.260742	644.060181
20472.240426	-744.436000	1258.152344	314.341644
20472.240426	-744.436000	1257.043945	361.793884
20472.240426	-744.436000	1255.934570	362.282776
20472.240426	-744.436000	1254.825195	552.614929
20472.240426	-744.436000	1253.716797	455.339142
20472.240426	-744.436000	1252.606445	390.278931
20472.240426	-744.436000	1251.497070	431.769562
20472.240426	-744.436000	1250.387695	388.376129
20472.240426	-744.436000	1249.277344	360.618805
20472.240426	-744.436000	1248.166992	405.860870
20472.240426	-744.436000	1247.055664	356.679169
20472.240426	-744.436000	1245.945313	131.133926
20472.240426	-744.436000	1244.833984	176.853073
20472.240426	-744.436000	1243.722656	80.205788
20472.240426	-744.436000	1242.611328	177.844772
20472.240426	-744.436000	1241.499023	272.012909
20472.240426	-744.436000	1240.387695	201.827118
20472.240426	-744.436000	1239.275391	49.727879
20472.240426	-744.436000	1238.162109	101.221390
20472.240426	-744.436000	1237.049805	249.147354
20472.240426	-744.436000	1235.936523	41.856319
20472.240426	-744.436000	1234.823242	156.971497
20472.240426	-744.436000	1233.709961	61.161274
20472.240426	-744.436000	1232.596680	145.285477
20472.240426	-744.436000	1231.482422	285.334991
20472.240426	-744.436000	1230.369141	252.243469
20472.240426	-744.436000	1229.253906	215.947403
20472.240426	-744.436000	1228.139648	186.456589
20472.240426	-744.436000	1227.025391	274.672089
20472.240426	-744.436000	1225.910156	41.436199
20472.240426	-744.436000	1224.794922	126.052109
20472.240426	-744.436000	1223.679688	49.592598
20472.240426	-744.436000	1222.563477	94.995667
20472.240426	-744.436000	1221.447266	17.662220
20472.240426	-744.436000	1220.331055	-37.471634
20472.240426	-744.436000	1219.214844	-118.815483
20472.240426	-744.436000	1218.098633	-40.923447
20472.240426	-744.436000	1216.981445	-108.361534
20472.240426	-744.436000	1215.864258	-42.906361
20472.240426	-744.436000	1214.747070	61.800106
20472.240426	-744.436000	1213.629883	-57.889946
20472.240426	-744.436000	1212.511719	-114.589531
20472.240426	-744.436000	1211.393555	11.409316
20472.240426	-744.436000	1210.275391	66.402168
20472.240426	-744.436000	1209.157227	-124.229446
20472.240426	-744.436000	1208.038086	-149.725616
20472.240426	-744.436000	1206.918945	-61.868397
20472.240426	-744.436000	1205.799805	-135.607300
20472.240426	-744.436000	1204.680664	-13.637876
20472.240426	-744.436000	1203.560547	-47.231628
20472.240426	-744.436000	1202.441406	110.680008
20472.240426	-744.436000	1201.321289	10.834560
20472.240426	-744.436000	1200.200195	-118.060341
20472.240426	-744.436000	1199.080078	-115.685783
20472.240426	-744.436000	1197.958984	-184.551605
20472.240426	-744.436000	1196.837891	178.115387
20472.240426	-744.436000	1195.716797	26.987852
20472.240426	-744.436000	1194.594727	61.890671
20472.240426	-744.436000	1193.473633	-131.925980
20472.240426	-744.436000	1192.351563	-161.258560
20472.240426	-744.436000	1191.229492	54.175240
20472.240426	-744.436000	1190.106445	-17.486444
20472.240426	-744.436000	1188.984375	-139.430389
20472.240426	-744.436000	1187.861328	-129.641983
20472.240426	-744.436000	1186.738281	-94.062233
20472.240426	-744.436000	1185.614258	105.221184
20472.240426	-744.436000	1184.491211	256.001556
20472.240426	-744.436000	1183.367188	75.421951
20472.240426	-744.436000	1182.243164	89.869759
20472.240426	-744.436000	1181.119141	89.951439
20472.240426	-744.436000	1179.994141	29.189417
20472.240426	-744.436000	1178.869141	183.604156
20472.240426	-744.436000	1177.744141	159.121460
20472.240426	-744.436000	1176.619141	149.933807
20472.240426	-744.436000	1175.493164	129.071182
20472.240426	-744.436000	1174.368164	87.022560
20472.240426	-744.436000	1173.242188	281.236511
20472.240426	-744.436000	1172.115234	346.194366
20472.240426	-744.436000	1170.989258	366.673706
20472.240426	-744.436000	1169.862305	695.230042
20472.240426	-744.436000	1168.735352	512.058472
20472.240426	-744.436000	1167.608398	626.922852
20472.240426	-744.436000	1166.481445	665.412231
20472.240426	-744.436000	1165.353516	533.057922
20472.240426	-744.436000	1164.225586	623.950012
20472.240426	-744.436000	1163.097656	515.734070
20472.240426	-744.436000	1161.968750	615.191406
20472.240426	-744.436000	1160.840820	818.628418
20472.240426	-744.436000	1159.711914	799.140381
20472.240426	-744.436000	1158.583008	876.800171
20472.240426	-744.436000	1157.453125	843.695313
20472.240426	-744.436000	1156.324219	738.533325
20472.240426	-744.436000	1155.194336	743.996765
20472.240426	-744.436000	1154.064453	798.429443
20472.240426	-744.436000	1152.933594	629.453735
20472.240426	-744.436000	1151.803711	814.962524
20472.240426	-744.436000	1150.672852	844.497986
20472.240426	-744.436000	1149.541992	782.918091
20472.240426	-744.436000	1148.411133	597.335388
20472.240426	-744.436000	1147.279297	690.778320
20472.240426	-744.436000	1146.147461	443.751343
20472.240426	-744.436000	1145.015625	584.406372
20472.240426	-744.436000	1143.883789	477.854187
20472.240426	-744.436000	1142.750977	302.100311
20472.240426	-744.436000	1141.619141	258.176025
20472.240426	-744.436000	1140.486328	240.278397
20472.240426	-744.436000	1139.352539	242.929138
20472.240426	-744.436000	1138.219727	258.182617
20472.240426	-744.436000	1137.085938	345.070282
20472.240426	-744.436000	1135.952148	507.365265
20472.240426	-744.436000	1134.818359	571.681458
20472.240426	-744.436000	1133.683594	509.343994
20472.240426	-744.436000	1132.549805	875.371155
20472.240426	-744.436000	1131.415039	1005.474243
20472.240426	-744.436000	1130.279297	1033.872314
20472.240426	-744.436000	1129.144531	1061.171143
20472.240426	-744.436000	1128.008789	993.339294
20472.240426	-744.436000	1126.873047	1116.672241
20472.240426	-744.436000	1125.737305	1013.090515
20472.240426	-744.436000	1124.601563	965.686707
20472.240426	-744.436000	1123.464844	705.566467
20472.240426	-744.436000	1122.328125	736.979797
20472.240426	-744.436000	1121.191406	646.488892
20472.240426	-744.436000	1120.054688	673.047729
20472.240426	-744.436000	1118.916992	580.458923
20472.240426	-744.436000	1117.779297	621.823425
20472.240426	-744.436000	1116.641602	444.581512
20472.240426	-744.436000	1115.503906	623.338501
20472.240426	-744.436000	1114.365234	665.674927
20472.240426	-744.436000	1113.226563	291.673767
20472.240426	-744.436000	1112.087891	506.061432
20472.240426	-744.436000	1110.949219	557.242065
20472.240426	-744.436000	1109.809570	522.994202
20472.240426	-744.436000	1108.669922	374.321075
20472.240426	-744.436000	1107.530273	86.918907
20472.240426	-744.436000	1106.390625	319.635284
20472.240426	-744.436000	1105.250000	408.065735
20472.240426	-744.436000	1104.109375	384.640747
20472.240426	-744.436000	1102.968750	610.617126
20472.240426	-744.436000	1101.828125	317.746735
20472.240426	-744.436000	1100.686523	423.187317
20472.240426	-744.436000	1099.544922	391.223328
20472.240426	-744.436000	1098.403320	687.258057
20472.240426	-744.436000	1097.261719	680.312012
20472.240426	-744.436000	1096.120117	515.926270
20472.240426	-744.436000	1094.977539	465.748291
20472.240426	-744.436000	1093.834961	332.957642
20472.240426	-744.436000	1092.691406	515.948669
20472.240426	-744.436000	1091.548828	477.723694
20472.240426	-744.436000	1090.405273	529.705200
20472.240426	-744.436000	1089.261719	552.670776
20472.240426	-744.436000	1088.118164	467.650757
20472.240426	-744.436000	1086.973633	381.462036
20472.240426	-744.436000	1085.829102	287.764343
20472.240426	-744.436000	1084.684570	312.893768
20472.240426	-744.436000	1083.540039	380.784058
20472.240426	-744.436000	1082.395508	179.470490
20472.240426	-744.436000	1081.250000	607.326111
20472.240426	-744.436000	1080.104492	561.412598
20472.240426	-744.436000	1078.958984	610.958618
20472.240426	-744.436000	1077.812500	844.538147
20472.240426	-744.436000	1076.666016	1071.538452
20472.240426	-744.436000	1075.519531	1139.837524
20472.240426	-744.436000	1074.373047	915.536316
20472.240426	-744.436000	1073.226563	1007.025635
20472.240426	-744.436000	1072.079102	891.495178
20472.240426	-744.436000	1070.931641	738.548462
20472.240426	-744.436000	1069.784180	723.350891
20472.240426	-744.436000	1068.635742	717.796936
20472.240426	-744.436000	1067.487305	639.604675
20472.240426	-744.436000	1066.338867	567.776489
20472.240426	-744.436000	1065.190430	695.504944
20472.240426	-744.436000	1064.041992	609.249451
20472.240426	-744.436000	1062.892578	556.576782
20472.240426	-744.436000	1061.743164	522.102234
20472.240426	-744.436000	1060.593750	480.316284
20472.240426	-744.436000	1059.443359	330.289581
20472.240426	-744.436000	1058.292969	409.308441
20472.240426	-744.436000	1057.142578	293.545105
20472.240426	-744.436000	1055.992188	194.245117
20472.240426	-744.436000	1054.841797	235.692001
20472.240426	-744.436000	1053.690430	34.839676
20472.240426	-744.436000	1052.539063	48.996544
20472.240426	-744.436000	1051.387695	143.169830
20472.240426	-744.436000	1050.235352	-97.227814
20472.240426	-744.436000	1049.083984	-15.902387
20472.240426	-744.436000	1047.931641	128.009979
20472.240426	-744.436000	1046.778320	-111.609718
20472.240426	-744.436000	1045.625977	-56.214928
20472.240426	-744.436000	1044.472656	3.551816
20472.240426	-744.436000	1043.319336	-19.427053
20472.240426	-744.436000	1042.166016	137.761032
20472.240426	-744.436000	1041.012695	-84.226257
20472.240426	-744.436000	1039.858398	363.418488
20472.240426	-744.436000	1038.704102	194.787048
20472.240426	-744.436000	1037.549805	396.245148
20472.240426	-744.436000	1036.394531	270.772797
20472.240426	-744.436000	1035.239258	292.474762
20472.240426	-744.436000	1034.083984	279.622070
20472.240426	-744.436000	1032.928711	415.242523
20472.240426	-744.436000	1031.773438	345.115936
20472.240426	-744.436000	1030.617188	117.097908
20472.240426	-744.436000	1029.460938	223.436234
20472.240426	-744.436000	1028.304688	159.532791
20472.240426	-744.436000	1027.147461	291.977325
20472.240426	-744.436000	1025.991211	270.848694
20472.240426	-744.436000	1024.833984	291.016205
20472.240426	-744.436000	1023.675781	-109.992554
20472.240426	-744.436000	1022.518555	-52.878403
20472.240426	-744.436000	1021.360352	-61.732559
20472.240426	-744.436000	1020.202148	66.388832
20472.240426	-744.436000	1019.043945	-126.808601
20472.240426	-744.436000	1017.884766	-196.964310
20472.240426	-744.436000	1016.726563	-126.916924
20472.240426	-744.436000	1015.567383	-16.324896
20472.240426	-744.436000	1014.407227	74.260353
20472.240426	-744.436000	1013.248047	17.777027
20472.240426	-744.436000	1012.087891	-27.582209
20472.240426	-744.436000	1010.927734	-142.874771
20472.240426	-744.436000	1009.767578	42.172363
20472.240426	-744.436000	1008.606445	-64.942169
20472.240426	-744.436000	1007.446289	-50.820385
20472.240426	-744.436000	1006.285156	92.385857
20472.240426	-744.436000	1005.123047	24.435713
20472.240426	-744.436000	1003.961914	117.643646
20472.240426	-744.436000	1002.799805	314.560486
20472.240426	-744.436000	1001.637695	71.236855
20472.240426	-744.436000	1000.475586	185.616730
20472.240426	-744.436000	999.312500	391.644409
20472.240426	-744.436000	998.149414	308.368835
20472.240426	-744.436000	996.986328	38.366756
20472.240426	-744.436000	995.823242	182.610458
20472.240426	-744.436000	994.659180	146.687546
20472.240426	-744.436000	993.496094	-27.427979
20472.240426	-744.436000	992.332031	158.195236
20472.240426	-744.436000	991.166992	171.699173
20472.240426	-744.436000	990.002930	-3.008126
20472.240426	-744.436000	988.837891	130.189819
20472.240426	-744.436000	987.672852	129.811310
20472.240426	-744.436000	986.506836	213.210068
20472.240426	-744.436000	985.341797	-29.568604
20472.240426	-744.436000	984.175781	-79.802338
20472.240426	-744.436000	983.009766	69.898560
20472.240426	-744.436000	981.843750	51.896011
20472.240426	-744.436000	980.676758	102.721130
20472.240426	-744.436000	979.509766	295.805786
20472.240426	-744.436000	978.342773	299.318573
20472.240426	-744.436000	977.175781	95.485634
20472.240426	-744.436000	976.007813	134.812454
20472.240426	-744.436000	974.839844	87.339561
20472.240426	-744.436000	973.671875	-21.962713
20472.240426	-744.436000	972.503906	286.581024
20472.240426	-744.436000	971.334961	324.365601
20472.240426	-744.436000	970.166016	423.220886
20472.240426	-744.436000	968.997070	327.899414
20472.240426	-744.436000	967.828125	-21.636330
20472.240426	-744.436000	966.658203	107.483856
20472.240426	-744.436000	965.488281	232.173050
20472.240426	-744.436000	964.318359	285.426971
20472.240426	-744.436000	963.148438	266.524475
20472.240426	-744.436000	961.977539	393.196869
20472.240426	-744.436000	960.806641	200.795898
20472.240426	-744.436000	959.635742	318.235260
20472.240426	-744.436000	958.463867	373.917908
20472.240426	-744.436000	957.292969	418.239746
20472.240426	-744.436000	956.121094	478.050018
20472.240426	-744.436000	954.948242	357.019989
20472.240426	-744.436000	953.776367	329.764648
20472.240426	-744.436000	952.603516	260.071381
20472.240426	-744.436000	951.430664	-34.799374
20472.240426	-744.436000	950.257813	409.010315
20472.240426	-744.436000	949.084961	358.645538
20472.240426	-744.436000	947.911133	337.673767
20472.240426	-744.436000	946.737305	211.415192
20472.240426	-744.436000	945.563477	582.832275
20472.240426	-744.436000	944.388672	236.750076
20472.240426	-744.436000	943.213867	147.364975
20472.240426	-744.436000	942.039063	274.573944
20472.240426	-744.436000	940.864258	-52.190868
20472.240426	-744.436000	939.688477	278.539978
20472.240426	-744.436000	938.513672	137.073181
20472.240426	-744.436000	937.337891	123.979897
20472.240426	-744.436000	936.161133	-25.763006
20472.240426	-744.436000	934.985352	-133.030136
20472.240426	-744.436000	933.808594	197.054947
20472.240426	-744.436000	932.631836	83.419464
20472.240426	-744.436000	931.454102	357.954346
20472.240426	-744.436000	930.277344	555.507935
20472.240426	-744.436000	929.099609	537.551147
20472.240426	-744.436000	927.921875	700.869568
20472.240426	-744.436000	926.743164	789.515198
20472.240426	-744.436000	925.565430	758.601379
20472.240426	-744.436000	924.386719	670.147278
20472.240426	-744.436000	923.208008	528.350098
20472.240426	-744.436000	922.028320	719.098267
20472.240426	-744.436000	920.849609	291.696930
20472.240426	-744.436000	919.669922	293.335907
20472.240426	-744.436000	919.474609	546.505127
20472.240426	-744.436000	918.309570	281.084076
20472.240426	-744.436000	917.143555	326.674011
20472.240426	-744.436000	915.977539	280.631378
20472.240426	-744.436000	914.810547	15.275081
20472.240426	-744.436000	913.644531	22.426390
20472.240426	-744.436000	912.477539	14.628944
20472.240426	-744.436000	911.310547	121.679787
20472.240426	-744.436000	910.143555	-73.429535
20472.240426	-744.436000	908.975586	-108.997536
20472.240426	-744.436000	907.807617	-187.127457
20472.240426	-744.436000	906.639648	-167.481079
20472.240426	-744.436000	905.471680	-20.361805
20472.240426	-744.436000	904.303711	26.771688
20472.240426	-744.436000	903.134766	44.095272
20472.240426	-744.436000	901.965820	40.121094
20472.240426	-744.436000	900.796875	38.226406
20472.240426	-744.436000	899.626953	140.329117
20472.240426	-744.436000	898.457031	-3.912999
20472.240426	-744.436000	897.287109	170.226868
20472.240426	-744.436000	896.117188	244.513657
20472.240426	-744.436000	894.947266	263.562836
20472.240426	-744.436000	893.776367	235.893661
20472.240426	-744.436000	892.605469	290.898438
20472.240426	-744.436000	891.434570	314.030518
20472.240426	-744.436000	890.262695	519.417419
20472.240426	-744.436000	889.091797	718.316467
20472.240426	-744.436000	887.919922	474.218781
20472.240426	-744.436000	886.748047	685.668152
20472.240426	-744.436000	885.575195	373.806519
20472.240426	-744.436000	884.403320	307.681549
20472.240426	-744.436000	883.230469	372.810425
20472.240426	-744.436000	882.057617	403.999695
20472.240426	-744.436000	880.883789	339.893188
20472.240426	-744.436000	879.710938	165.738968
20472.240426	-744.436000	878.537109	120.660309
20472.240426	-744.436000	877.362305	367.441406
20472.240426	-744.436000	876.188477	182.683121
20472.240426	-744.436000	875.013672	348.922485
20472.240426	-744.436000	873.839844	352.287842
20472.240426	-744.436000	872.664063	294.318817
20472.240426	-744.436000	871.489258	255.348083
20472.240426	-744.436000	870.313477	389.575470
20472.240426	-744.436000	869.138672	156.203781
20472.240426	-744.436000	867.962891	279.753021
20472.240426	-744.436000	866.786133	356.761261
20472.240426	-744.436000	865.610352	-108.775589
20472.240426	-744.436000	864.433594	240.430832
20472.240426	-744.436000	863.256836	87.290146
20472.240426	-744.436000	862.079102	117.695457
20472.240426	-744.436000	860.902344	-31.224268
20472.240426	-744.436000	859.724609	-28.304993
20472.240426	-744.436000	858.546875	-111.865501
20472.240426	-744.436000	857.368164	-170.141754
20472.240426	-744.436000	856.190430	-255.831696
20472.240426	-744.436000	855.011719	-259.361420
20472.240426	-744.436000	853.833008	-85.989082
20472.240426	-744.436000	852.654297	-133.863083
20472.240426	-744.436000	851.474609	140.394669
20472.240426	-744.436000	850.294922	-181.263931
20472.240426	-744.436000	849.115234	-98.724617
20472.240426	-744.436000	847.935547	-201.441513
20472.240426	-744.436000	846.754883	-137.953674
20472.240426	-744.436000	845.575195	-74.533691
20472.240426	-744.436000	844.393555	-143.674774
20472.240426	-744.436000	843.212891	39.479500
20472.240426	-744.436000	842.032227	-59.171509
20472.240426	-744.436000	840.850586	-10.707094
20472.240426	-744.436000	839.668945	-220.762009
20472.240426	-744.436000	838.486328	132.249405
20472.240426	-744.436000	837.304688	407.358734
20472.240426	-744.436000	836.122070	260.213867
20472.240426	-744.436000	834.939453	379.728973
20472.240426	-744.436000	833.756836	444.572968
20472.240426	-744.436000	832.573242	486.259979
20472.240426	-744.436000	831.389648	372.614471
20472.240426	-744.436000	830.206055	523.296509
20472.240426	-744.436000	829.022461	657.093079
20472.240426	-744.436000	827.838867	633.518677
20472.240426	-744.436000	826.654297	509.274811
20472.240426	-744.436000	825.469727	456.303284
20472.240426	-744.436000	824.284180	541.620911
20472.240426	-744.436000	823.099609	356.576385
20472.240426	-744.436000	821.914063	278.393921
20472.240426	-744.436000	820.728516	342.615997
20472.240426	-744.436000	819.542969	484.239502
20472.240426	-744.436000	818.356445	267.770355
20472.240426	-744.436000	817.169922	187.392746
20472.240426	-744.436000	815.983398	117.465866
20472.240426	-744.436000	814.796875	-130.316101
20472.240426	-744.436000	813.609375	-85.196449
20472.240426	-744.436000	812.422852	-312.014282
20472.240426	-744.436000	811.235352	-80.880142
20472.240426	-744.436000	810.046875	-46.395859
20472.240426	-744.436000	808.859375	142.692459
20472.240426	-744.436000	807.670898	76.721298
20472.240426	-744.436000	806.482422	179.951340
20472.240426	-744.436000	805.293945	93.016190
20472.240426	-744.436000	804.104492	168.953445
20472.240426	-744.436000	802.915039	61.077599
20472.240426	-744.436000	801.725586	82.618927
20472.240426	-744.436000	800.536133	24.795984
20472.240426	-744.436000	799.345703	127.613022
20472.240426	-744.436000	798.155273	280.404205
20472.240426	-744.436000	796.964844	113.967148
20472.240426	-744.436000	795.774414	103.946228
20472.240426	-744.436000	794.583008	512.932434
20472.240426	-744.436000	793.392578	127.536087
20472.240426	-744.436000	792.200195	302.836121
20472.240426	-744.436000	791.008789	221.738586
20472.240426	-744.436000	789.816406	-36.446644
20472.240426	-744.436000	788.625000	205.274887
20472.240426	-744.436000	787.432617	159.488342
20472.240426	-744.436000	786.239258	90.765656
20472.240426	-744.436000	785.046875	-136.164124
20472.240426	-744.436000	783.853516	246.668671
20472.240426	-744.436000	782.660156	283.920990
20472.240426	-744.436000	781.465820	144.292740
20472.240426	-744.436000	780.272461	295.826782
20472.240426	-744.436000	779.078125	266.346985
20472.240426	-744.436000	777.883789	390.657837
20472.240426	-744.436000	776.688477	217.651566
20472.240426	-744.436000	775.494141	202.590057
20472.240426	-744.436000	774.298828	229.027298
20472.240426	-744.436000	773.103516	211.779770
20472.240426	-744.436000	771.907227	177.868332
20472.240426	-744.436000	770.711914	189.596283
20472.240426	-744.436000	769.515625	213.715546
20472.240426	-744.436000	768.318359	148.524612
20472.240426	-744.436000	767.122070	452.645416
20472.240426	-744.436000	765.924805	237.956543
20472.240426	-744.436000	764.727539	127.003288
20472.240426	-744.436000	763.530273	111.427071
20472.240426	-744.436000	762.333008	182.875168
20472.240426	-744.436000	761.134766	30.373989
20472.240426	-744.436000	759.936523	-111.759544
20472.240426	-744.436000	758.738281	98.332825
20472.240426	-744.436000	757.540039	55.560108
20472.240426	-744.436000	756.340820	-121.873734
20472.240426	-744.436000	755.141602	-21.830271
20472.240426	-744.436000	753.942383	-25.395584
20472.240426	-744.436000	752.742188	-72.485954
20472.240426	-744.436000	751.541992	-49.259678
20472.240426	-744.436000	750.341797	-24.031334
20472.240426	-744.436000	749.141602	94.206772
20472.240426	-744.436000	747.941406	1.398851
20472.240426	-744.436000	746.740234	136.001480
20472.240426	-744.436000	745.539063	88.578285
20472.240426	-744.436000	744.337891	-14.686255
20472.240426	-744.436000	743.135742	98.989502
20472.240426	-744.436000	741.933594	51.420334
20472.240426	-744.436000	740.731445	53.381546
20472.240426	-744.436000	739.529297	75.932640
20472.240426	-744.436000	738.326172	-221.599976
20472.240426	-744.436000	737.124023	-56.695515
20472.240426	-744.436000	735.919922	62.668213
20472.240426	-744.436000	734.716797	49.877136
20472.240426	-744.436000	733.513672	-113.557785
20472.240426	-744.436000	732.309570	-239.865997
20472.240426	-744.436000	731.105469	-1.209789
20472.240426	-744.436000	729.900391	35.247723
20472.240426	-744.436000	728.696289	-2.565713
20472.240426	-744.436000	727.491211	-118.735153
20472.240426	-744.436000	726.286133	51.459187
20472.240426	-744.436000	725.080078	-64.799294
20472.240426	-744.436000	723.874023	-1.903002
20472.240426	-744.436000	722.668945	132.975555
20472.240426	-744.436000	721.461914	35.111904
20472.240426	-744.436000	720.255859	42.196468
20472.240426	-744.436000	719.048828	90.366287
20472.240426	-744.436000	717.841797	278.347382
20472.240426	-744.436000	716.634766	334.552948
20472.240426	-744.436000	715.427734	148.021149
20472.240426	-744.436000	714.219727	265.782776
20472.240426	-744.436000	713.011719	371.101196
20472.240426	-744.436000	711.803711	385.891571
20472.240426	-744.436000	710.594727	248.564423
20472.240426	-744.436000	709.385742	203.675308
20472.240426	-744.436000	708.176758	88.915787
20472.240426	-744.436000	706.967773	337.590759
20472.240426	-744.436000	705.758789	206.308838
20472.240426	-744.436000	704.548828	222.796783
20472.240426	-744.436000	703.338867	-17.291937
20472.240426	-744.436000	702.127930	29.886578
20472.240426	-744.436000	700.917969	128.272202
20472.240426	-744.436000	699.707031	210.146194
20472.240426	-744.436000	698.496094	357.538239
20472.240426	-744.436000	697.285156	412.563904
20472.240426	-744.436000	696.073242	280.997528
20472.240426	-744.436000	694.861328	212.951065
20472.240426	-744.436000	693.649414	341.543945
20472.240426	-744.436000	692.436523	447.489014
20472.240426	-744.436000	691.224609	379.278656
20472.240426	-744.436000	690.011719	542.384033
20472.240426	-744.436000	688.798828	584.596008
20472.240426	-744.436000	687.584961	653.333252
20472.240426	-744.436000	686.372070	650.380737
20472.240426	-744.436000	685.158203	739.421143
20472.240426	-744.436000	683.943359	705.651062
20472.240426	-744.436000	682.729492	999.009888
20472.240426	-744.436000	681.514648	905.806274
20472.240426	-744.436000	680.299805	1076.252319
20472.240426	-744.436000	679.084961	1091.269409
20472.240426	-744.436000	677.869141	1320.739990
20472.240426	-744.436000	676.653320	1343.759277
20472.240426	-744.436000	675.437500	1397.350220
20472.240426	-744.436000	674.221680	1381.448853
20472.240426	-744.436000	673.004883	1310.381104
20472.240426	-744.436000	671.789063	1486.247192
20472.240426	-744.436000	670.571289	1506.902710
20472.240426	-744.436000	669.354492	1992.633179
20472.240426	-744.436000	668.136719	2188.482666
20472.240426	-744.436000	666.919922	2384.208984
20472.240426	-744.436000	665.701172	2777.547607
20472.240426	-744.436000	664.483398	3080.999023
20472.240426	-744.436000	663.264648	3162.139160
20472.240426	-744.436000	662.045898	3186.152344
20472.240426	-744.436000	660.827148	3134.741699
20472.240426	-744.436000	659.608398	2847.066895
20472.240426	-744.436000	658.388672	2797.693115
20472.240426	-744.436000	657.168945	2709.618896
20472.240426	-744.436000	655.949219	2843.390137
20472.240426	-744.436000	654.728516	2470.375000
20472.240426	-744.436000	653.507813	2361.954834
20472.240426	-744.436000	652.287109	2371.515137
20472.240426	-744.436000	651.066406	2448.143066
20472.240426	-744.436000	649.844727	2463.698975
20472.240426	-744.436000	648.623047	2649.960938
20472.240426	-744.436000	647.401367	2661.332031
20472.240426	-744.436000	646.179688	2926.647217
20472.240426	-744.436000	644.957031	3169.464355
20472.240426	-744.436000	643.734375	3507.604736
20472.240426	-744.436000	642.511719	3435.395020
20472.240426	-744.436000	641.289063	3247.467529
20472.240426	-744.436000	640.065430	3199.631836
20472.240426	-744.436000	638.841797	3551.558838
20472.240426	-744.436000	637.618164	3252.048340
20472.240426	-744.436000	636.393555	3191.984131
20472.240426	-744.436000	635.168945	2888.561035
20472.240426	-744.436000	633.944336	2536.582520
20472.240426	-744.436000	632.719727	2302.303711
20472.240426	-744.436000	631.494141	1719.501221
20472.240426	-744.436000	630.269531	1629.318604
20472.240426	-744.436000	629.042969	1462.157593
20472.240426	-744.436000	627.817383	1049.982056
20472.240426	-744.436000	626.590820	1385.177246
20472.240426	-744.436000	625.365234	1548.134766
20472.240426	-744.436000	624.137695	1393.204468
20472.240426	-744.436000	622.911133	1236.312622
20472.240426	-744.436000	621.683594	1231.212158
20472.240426	-744.436000	620.456055	1292.856689
20472.240426	-744.436000	619.228516	1237.166260
20472.240426	-744.436000	618.000977	1223.953857
20472.240426	-744.436000	616.772461	1683.775391
20472.240426	-744.436000	615.543945	1652.263062
20472.240426	-744.436000	614.314453	1642.980591
20472.240426	-744.436000	613.085938	1522.591675
20472.240426	-744.436000	611.856445	1434.563232
20472.240426	-744.436000	610.626953	1215.309937
20472.240426	-744.436000	609.397461	911.354431
20472.240426	-744.436000	608.166992	754.876953
20472.240426	-744.436000	606.936523	893.116211
20472.240426	-744.436000	605.706055	807.338196
20472.240426	-744.436000	604.474609	834.563904
20472.240426	-744.436000	603.244141	807.338684
20472.240426	-744.436000	602.012695	473.633728
20472.240426	-744.436000	600.780273	341.672211
20472.240426	-744.436000	599.548828	88.854881
20472.240426	-744.436000	598.316406	303.658905
20472.240426	-744.436000	597.083984	357.212646
20472.240426	-744.436000	595.851563	432.917969
20472.240426	-744.436000	594.618164	353.536224
20472.240426	-744.436000	593.384766	310.450623
20472.240426	-744.436000	592.151367	416.365814
20472.240426	-744.436000	590.917969	143.899445
20472.240426	-744.436000	589.683594	131.130417
20472.240426	-744.436000	588.449219	-171.290573
20472.240426	-744.436000	587.214844	-103.483116
20472.240426	-744.436000	585.979492	-21.605558
20472.240426	-744.436000	584.745117	-96.536880
20472.240426	-744.436000	583.509766	-161.361847
20472.240426	-744.436000	582.273438	-185.940216
20472.240426	-744.436000	581.038086	-85.901131
20472.240426	-744.436000	579.801758	184.865158
20472.240426	-744.436000	578.565430	270.793335
20472.240426	-744.436000	577.329102	426.999146
20472.240426	-744.436000	576.091797	555.069641
20472.240426	-744.436000	574.854492	231.558456
20472.240426	-744.436000	573.617188	365.723022
20472.240426	-744.436000	572.378906	481.814453
20472.240426	-744.436000	571.141602	188.749908
20472.240426	-744.436000	569.903320	110.415054
20472.240426	-744.436000	568.664063	380.999969
20472.240426	-744.436000	567.425781	-78.076591
20472.240426	-744.436000	566.186523	54.263702
20472.240426	-744.436000	564.947266	124.493126
20472.240426	-744.436000	563.708008	66.548630
20472.240426	-744.436000	562.467773	70.763725
20472.240426	-744.436000	561.227539	49.006989
20472.240426	-744.436000	559.987305	27.319830
20472.240426	-744.436000	558.747070	-226.459488
20472.240426	-744.436000	557.505859	186.255615
20472.240426	-744.436000	556.264648	62.709431
20472.240426	-744.436000	555.023438	163.296814
20472.240426	-744.436000	553.781250	105.926735
20472.240426	-744.436000	552.539063	18.660643
20472.240426	-744.436000	551.296875	191.352310
20472.240426	-744.436000	550.054688	136.221695
20472.240426	-744.436000	548.811523	225.037292
20472.240426	-744.436000	547.569336	114.137772
20472.240426	-744.436000	546.325195	235.017792
20472.240426	-744.436000	545.082031	-91.334587
20472.240426	-744.436000	543.837891	-102.064034
20472.240426	-744.436000	542.593750	158.727142
20472.240426	-744.436000	541.349609	36.364166
20472.240426	-744.436000	540.105469	-97.835571
20472.240426	-744.436000	538.860352	-94.276146
20472.240426	-744.436000	537.615234	-72.688202
20472.240426	-744.436000	536.369141	-160.685715
20472.240426	-744.436000	535.124023	-81.118172
20472.240426	-744.436000	533.877930	-95.170441
20472.240426	-744.436000	532.631836	4.440077
20472.240426	-744.436000	531.384766	-19.416103
20472.240426	-744.436000	530.138672	-190.545242
20472.240426	-744.436000	528.891602	28.749031
20472.240426	-744.436000	527.643555	-44.602798
20472.240426	-744.436000	526.396484	-72.052109
20472.240426	-744.436000	525.148438	-5.880740
20472.240426	-744.436000	523.900391	118.048531
20472.240426	-744.436000	522.652344	-68.271736
20472.240426	-744.436000	521.403320	79.659065
20472.240426	-744.436000	520.154297	52.659409
20472.240426	-744.436000	518.905273	83.409187
20472.240426	-744.436000	517.656250	30.770845
20472.240426	-744.436000	516.406250	21.955008
20472.240426	-744.436000	515.156250	239.691711
20472.240426	-744.436000	513.906250	217.118622
20472.240426	-744.436000	512.655273	121.176834
20472.240426	-744.436000	511.404297	231.827423
20472.240426	-744.436000	510.153320	5.115054
20472.240426	-744.436000	508.902344	-13.053394
20472.240426	-744.436000	507.650391	54.182156
20472.240426	-744.436000	506.398438	-41.164120
20472.240426	-744.436000	505.146484	-43.175800
20472.240426	-744.436000	503.893555	178.936859
20472.240426	-744.436000	502.641602	228.597290
20472.240426	-744.436000	501.388672	321.919708
20472.240426	-744.436000	500.134766	163.657349
20472.240426	-744.436000	498.881836	379.946808
20472.240426	-744.436000	497.627930	416.002014
20472.240426	-744.436000	496.374023	705.574219
20472.240426	-744.436000	495.119141	890.182495
20472.240426	-744.436000	493.865234	1092.609985
20472.240426	-744.436000	492.610352	1198.068726
20472.240426	-744.436000	491.355469	1204.643433
20472.240426	-744.436000	490.099609	1009.541382
20472.240426	-744.436000	488.843750	737.477600
20472.240426	-744.436000	487.587891	811.594666
20472.240426	-744.436000	486.332031	773.082947
20472.240426	-744.436000	485.075195	540.985596
20472.240426	-744.436000	483.818359	220.144821
20472.240426	-744.436000	482.561523	462.491821
20472.240426	-744.436000	481.304688	315.732117
20472.240426	-744.436000	480.046875	364.571594
20472.240426	-744.436000	478.789063	612.833191
20472.240426	-744.436000	477.531250	274.861725
20472.240426	-744.436000	476.272461	272.538605
20472.240426	-744.436000	475.013672	424.146149
20472.240426	-744.436000	473.754883	575.733826
20472.240426	-744.436000	472.496094	305.298096
20472.240426	-744.436000	471.236328	362.291351
20472.240426	-744.436000	469.976563	11.273450
20472.240426	-744.436000	468.716797	184.643845
20472.240426	-744.436000	467.456055	-12.445383
20472.240426	-744.436000	466.196289	97.870865
20472.240426	-744.436000	464.935547	-225.116028
20472.240426	-744.436000	463.673828	282.964417
20472.240426	-744.436000	462.413086	-73.364136
20472.240426	-744.436000	461.151367	64.467598
20472.240426	-744.436000	459.889648	74.338356
20472.240426	-744.436000	458.626953	25.178421
20472.240426	-744.436000	457.364258	170.747986
20472.240426	-744.436000	456.101563	121.560974
20472.240426	-744.436000	454.838867	90.066650
20472.240426	-744.436000	453.575195	76.245262
20472.240426	-744.436000	452.312500	396.476501
20472.240426	-744.436000	451.047852	480.754639
20472.240426	-744.436000	449.784180	297.802887
20472.240426	-744.436000	448.519531	615.666870
20472.240426	-744.436000	447.254883	621.140442
20472.240426	-744.436000	445.990234	528.390259
20472.240426	-744.436000	444.725586	492.519226
20472.240426	-744.436000	443.459961	493.860046
20472.240426	-744.436000	442.194336	444.101410
20472.240426	-744.436000	440.927734	439.372314
20472.240426	-744.436000	439.662109	450.226074
20472.240426	-744.436000	438.395508	388.417480
20472.240426	-744.436000	437.127930	387.268463
20472.240426	-744.436000	435.861328	376.188568
20472.240426	-744.436000	434.593750	617.706665
20472.240426	-744.436000	433.326172	386.893127
20472.240426	-744.436000	432.058594	510.481293
20472.240426	-744.436000	430.790039	712.155884
20472.240426	-744.436000	429.521484	706.060059
20472.240426	-744.436000	428.252930	688.027893
20472.240426	-744.436000	426.984375	892.857178
20472.240426	-744.436000	425.714844	555.492493
20472.240426	-744.436000	424.445313	470.346039
20472.240426	-744.436000	423.174805	455.384064
20472.240426	-744.436000	421.905273	553.568054
20472.240426	-744.436000	420.634766	393.435150
20472.240426	-744.436000	419.364258	450.000519
20472.240426	-744.436000	418.092773	453.493073
20472.240426	-744.436000	416.822266	443.009399
20472.240426	-744.436000	415.550781	416.581787
20472.240426	-744.436000	414.278320	694.405518
20472.240426	-744.436000	413.006836	647.730103
20472.240426	-744.436000	411.734375	790.009094
20472.240426	-744.436000	410.461914	617.708252
20472.240426	-744.436000	409.188477	901.554077
20472.240426	-744.436000	407.916016	757.753113
20472.240426	-744.436000	406.642578	713.024719
20472.240426	-744.436000	405.368164	915.446350
20472.240426	-744.436000	404.094727	1074.449829
20472.240426	-744.436000	402.820313	815.888306
20472.240426	-744.436000	401.545898	858.914490
20472.240426	-744.436000	400.270508	850.756836
20472.240426	-744.436000	398.996094	859.603638
20472.240426	-744.436000	397.720703	1064.527954
20472.240426	-744.436000	396.444336	1002.105042
20472.240426	-744.436000	395.168945	1069.518921
20472.240426	-744.436000	393.892578	1219.943970
20472.240426	-744.436000	392.616211	951.441528
20472.240426	-744.436000	391.339844	958.568970
20472.240426	-744.436000	390.062500	813.340820
20472.240426	-744.436000	388.785156	980.458862
20472.240426	-744.436000	387.507813	691.991089
20472.240426	-744.436000	386.229492	861.472351
20472.240426	-744.436000	384.951172	767.846985
20472.240426	-744.436000	383.672852	580.242065
20472.240426	-744.436000	382.394531	343.358551
20472.240426	-744.436000	381.115234	758.047424
20472.240426	-744.436000	379.835938	335.109772
20472.240426	-744.436000	378.556641	425.724670
20472.240426	-744.436000	377.277344	633.734619
20472.240426	-744.436000	375.997070	512.873718
20472.240426	-744.436000	374.716797	488.057892
20472.240426	-744.436000	373.435547	762.765747
20472.240426	-744.436000	372.155273	559.479248
20472.240426	-744.436000	370.874023	618.780212
20472.240426	-744.436000	369.591797	587.813477
20472.240426	-744.436000	368.310547	391.103149
20472.240426	-744.436000	367.028320	439.281311
20472.240426	-744.436000	365.746094	548.224670
20472.240426	-744.436000	364.463867	613.320496
20472.240426	-744.436000	363.180664	473.885590
20472.240426	-744.436000	361.897461	520.942261
20472.240426	-744.436000	360.614258	454.457977
20472.240426	-744.436000	359.330078	202.869995
20472.240426	-744.436000	358.045898	301.976990
20472.240426	-744.436000	356.761719	301.020111
20472.240426	-744.436000	355.477539	571.171509
20472.240426	-744.436000	354.192383	412.580444
20472.240426	-744.436000	352.907227	567.477051
20472.240426	-744.436000	351.622070	519.844116
20472.240426	-744.436000	350.336914	302.607269
20472.240426	-744.436000	349.050781	172.607651
20472.240426	-744.436000	347.764648	486.927032
20472.240426	-744.436000	346.477539	52.410519
20472.240426	-744.436000	345.191406	303.318451
20472.240426	-744.436000	343.904297	347.772156
20472.240426	-744.436000	342.616211	230.222336
20472.240426	-744.436000	341.329102	201.513535
20472.240426	-744.436000	340.041016	14.668836
20472.240426	-744.436000	338.752930	10.969658
20472.240426	-744.436000	337.463867	36.027542
20472.240426	-744.436000	336.175781	105.297485
20472.240426	-744.436000	334.886719	128.059219
20472.240426	-744.436000	333.596680	19.554680
20472.240426	-744.436000	332.307617	-116.093727
20472.240426	-744.436000	331.017578	-157.756866
20472.240426	-744.436000	329.727539	38.856163
20472.240426	-744.436000	328.436523	-151.884598
20472.240426	-744.436000	327.146484	-2.467212
20472.240426	-744.436000	325.855469	140.499710
20472.240426	-744.436000	324.563477	190.429672
20472.240426	-744.436000	323.272461	-190.889160
20472.240426	-744.436000	321.980469	-123.063499
20472.240426	-744.436000	320.688477	-48.350166
20472.240426	-744.436000	319.395508	-20.687429
20472.240426	-744.436000	318.103516	194.395386
20472.240426	-744.436000	316.810547	-71.741577
20472.240426	-744.436000	315.516602	171.859238
20472.240426	-744.436000	314.223633	112.999039
20472.240426	-744.436000	312.929688	-18.059757
20472.240426	-744.436000	311.635742	308.317291
20472.240426	-744.436000	310.340820	282.152557
20472.240426	-744.436000	309.045898	82.063667
20472.240426	-744.436000	307.750977	202.806137
20472.240426	-744.436000	306.456055	387.220581
20472.240426	-744.436000	305.160156	44.772793
20472.240426	-744.436000	303.865234	-15.414154
20472.240426	-744.436000	302.568359	14.504604
20472.240426	-744.436000	301.272461	-1.268153
20472.240426	-744.436000	299.975586	17.434025
20472.240426	-744.436000	298.678711	49.561497
