#X		#Y		#Wave		#Intensity
-7070.890426	6595.901667	1999.946289	108.639069
-7070.890426	6595.901667	1998.981445	54.957867
-7070.890426	6595.901667	1998.017578	-48.248169
-7070.890426	6595.901667	1997.052734	297.350494
-7070.890426	6595.901667	1996.088867	1.338941
-7070.890426	6595.901667	1995.124023	-14.423850
-7070.890426	6595.901667	1994.159180	121.113312
-7070.890426	6595.901667	1993.193359	-166.636337
-7070.890426	6595.901667	1992.228516	-285.718079
-7070.890426	6595.901667	1991.262695	100.410919
-7070.890426	6595.901667	1990.296875	55.956577
-7070.890426	6595.901667	1989.331055	-40.259533
-7070.890426	6595.901667	1988.365234	-10.085693
-7070.890426	6595.901667	1987.398438	72.194786
-7070.890426	6595.901667	1986.432617	144.723404
-7070.890426	6595.901667	1985.465820	106.121902
-7070.890426	6595.901667	1984.499023	-78.161179
-7070.890426	6595.901667	1983.532227	185.154282
-7070.890426	6595.901667	1982.565430	290.363098
-7070.890426	6595.901667	1981.597656	232.606323
-7070.890426	6595.901667	1980.629883	-123.894386
-7070.890426	6595.901667	1979.662109	-42.963093
-7070.890426	6595.901667	1978.694336	344.273529
-7070.890426	6595.901667	1977.726563	205.611679
-7070.890426	6595.901667	1976.758789	84.402397
-7070.890426	6595.901667	1975.790039	99.098495
-7070.890426	6595.901667	1974.821289	89.226974
-7070.890426	6595.901667	1973.852539	-137.634369
-7070.890426	6595.901667	1972.883789	-75.709419
-7070.890426	6595.901667	1971.915039	18.356148
-7070.890426	6595.901667	1970.945313	28.649855
-7070.890426	6595.901667	1969.975586	-66.972397
-7070.890426	6595.901667	1969.005859	-81.129700
-7070.890426	6595.901667	1968.036133	87.167320
-7070.890426	6595.901667	1967.066406	-50.038189
-7070.890426	6595.901667	1966.096680	-130.453964
-7070.890426	6595.901667	1965.125977	-67.910500
-7070.890426	6595.901667	1964.155273	-69.343040
-7070.890426	6595.901667	1963.184570	20.390488
-7070.890426	6595.901667	1962.213867	174.158768
-7070.890426	6595.901667	1961.242188	22.750971
-7070.890426	6595.901667	1960.271484	85.536934
-7070.890426	6595.901667	1959.299805	-124.727646
-7070.890426	6595.901667	1958.328125	-150.378448
-7070.890426	6595.901667	1957.356445	-109.567940
-7070.890426	6595.901667	1956.384766	22.252630
-7070.890426	6595.901667	1955.412109	139.319412
-7070.890426	6595.901667	1954.439453	153.150269
-7070.890426	6595.901667	1953.467773	34.307919
-7070.890426	6595.901667	1952.495117	109.653610
-7070.890426	6595.901667	1951.521484	128.505051
-7070.890426	6595.901667	1950.548828	198.956360
-7070.890426	6595.901667	1949.575195	109.792984
-7070.890426	6595.901667	1948.601563	185.187210
-7070.890426	6595.901667	1947.627930	83.833801
-7070.890426	6595.901667	1946.654297	122.434433
-7070.890426	6595.901667	1945.680664	50.615608
-7070.890426	6595.901667	1944.706055	15.641726
-7070.890426	6595.901667	1943.732422	12.580579
-7070.890426	6595.901667	1942.757813	7.080582
-7070.890426	6595.901667	1941.783203	-49.899639
-7070.890426	6595.901667	1940.807617	204.497314
-7070.890426	6595.901667	1939.833008	34.763168
-7070.890426	6595.901667	1938.857422	-29.525667
-7070.890426	6595.901667	1937.881836	114.476303
-7070.890426	6595.901667	1936.906250	148.185089
-7070.890426	6595.901667	1935.930664	-16.512533
-7070.890426	6595.901667	1934.955078	-139.523712
-7070.890426	6595.901667	1933.978516	26.412590
-7070.890426	6595.901667	1933.001953	-57.406746
-7070.890426	6595.901667	1932.025391	39.905216
-7070.890426	6595.901667	1931.048828	61.311634
-7070.890426	6595.901667	1930.072266	-51.862003
-7070.890426	6595.901667	1929.094727	-57.378929
-7070.890426	6595.901667	1928.118164	-28.674498
-7070.890426	6595.901667	1927.140625	-134.481537
-7070.890426	6595.901667	1926.163086	-54.470554
-7070.890426	6595.901667	1925.184570	-196.935989
-7070.890426	6595.901667	1924.207031	325.339478
-7070.890426	6595.901667	1923.228516	111.952110
-7070.890426	6595.901667	1922.250000	181.994293
-7070.890426	6595.901667	1921.271484	-55.762810
-7070.890426	6595.901667	1920.292969	280.404144
-7070.890426	6595.901667	1919.314453	147.645264
-7070.890426	6595.901667	1918.334961	114.989456
-7070.890426	6595.901667	1917.355469	-103.170776
-7070.890426	6595.901667	1916.375977	20.338230
-7070.890426	6595.901667	1915.396484	-46.529541
-7070.890426	6595.901667	1914.416992	145.151596
-7070.890426	6595.901667	1913.436523	-60.794571
-7070.890426	6595.901667	1912.457031	-8.240427
-7070.890426	6595.901667	1911.476563	36.944126
-7070.890426	6595.901667	1910.496094	-90.984665
-7070.890426	6595.901667	1909.515625	-2.015997
-7070.890426	6595.901667	1908.534180	-0.834910
-7070.890426	6595.901667	1907.552734	-67.905655
-7070.890426	6595.901667	1906.572266	-290.873932
-7070.890426	6595.901667	1905.590820	102.290428
-7070.890426	6595.901667	1904.608398	142.233994
-7070.890426	6595.901667	1903.626953	-170.847260
-7070.890426	6595.901667	1902.644531	0.465346
-7070.890426	6595.901667	1901.663086	93.799644
-7070.890426	6595.901667	1900.680664	-7.577184
-7070.890426	6595.901667	1899.698242	-74.910080
-7070.890426	6595.901667	1898.714844	-62.011230
-7070.890426	6595.901667	1897.732422	-63.757187
-7070.890426	6595.901667	1896.749023	-33.947468
-7070.890426	6595.901667	1895.765625	-193.786697
-7070.890426	6595.901667	1894.782227	35.206062
-7070.890426	6595.901667	1893.798828	30.810555
-7070.890426	6595.901667	1892.814453	191.553314
-7070.890426	6595.901667	1891.831055	94.731384
-7070.890426	6595.901667	1890.846680	41.603352
-7070.890426	6595.901667	1889.862305	36.998249
-7070.890426	6595.901667	1888.877930	-178.844101
-7070.890426	6595.901667	1887.892578	-125.267426
-7070.890426	6595.901667	1886.908203	158.751511
-7070.890426	6595.901667	1885.922852	-100.826004
-7070.890426	6595.901667	1884.937500	-66.864906
-7070.890426	6595.901667	1883.952148	20.379622
-7070.890426	6595.901667	1882.965820	-93.712723
-7070.890426	6595.901667	1881.980469	-33.275265
-7070.890426	6595.901667	1880.994141	-21.393068
-7070.890426	6595.901667	1880.007813	242.454056
-7070.890426	6595.901667	1879.021484	-31.734121
-7070.890426	6595.901667	1878.035156	-136.307388
-7070.890426	6595.901667	1877.047852	40.049286
-7070.890426	6595.901667	1876.061523	-28.292770
-7070.890426	6595.901667	1875.074219	31.649179
-7070.890426	6595.901667	1874.086914	127.819580
-7070.890426	6595.901667	1873.098633	-231.094650
-7070.890426	6595.901667	1872.111328	85.164116
-7070.890426	6595.901667	1871.123047	6.907290
-7070.890426	6595.901667	1870.135742	-25.422678
-7070.890426	6595.901667	1869.147461	203.381927
-7070.890426	6595.901667	1868.158203	40.342381
-7070.890426	6595.901667	1867.169922	99.709122
-7070.890426	6595.901667	1866.180664	81.649521
-7070.890426	6595.901667	1865.192383	-207.112076
-7070.890426	6595.901667	1864.203125	-63.348938
-7070.890426	6595.901667	1863.213867	256.640015
-7070.890426	6595.901667	1862.223633	-51.493904
-7070.890426	6595.901667	1861.234375	186.154785
-7070.890426	6595.901667	1860.244141	-6.085026
-7070.890426	6595.901667	1859.253906	79.275124
-7070.890426	6595.901667	1858.263672	-76.791046
-7070.890426	6595.901667	1857.273438	66.341576
-7070.890426	6595.901667	1856.282227	91.150162
-7070.890426	6595.901667	1855.291992	272.669891
-7070.890426	6595.901667	1854.300781	229.788574
-7070.890426	6595.901667	1853.309570	-1.200220
-7070.890426	6595.901667	1852.317383	-70.650536
-7070.890426	6595.901667	1851.326172	117.756500
-7070.890426	6595.901667	1850.333984	21.685627
-7070.890426	6595.901667	1849.342773	113.516502
-7070.890426	6595.901667	1848.350586	224.524033
-7070.890426	6595.901667	1847.357422	51.241440
-7070.890426	6595.901667	1846.365234	53.746021
-7070.890426	6595.901667	1845.372070	3.225442
-7070.890426	6595.901667	1844.379883	150.043365
-7070.890426	6595.901667	1843.386719	149.945862
-7070.890426	6595.901667	1842.393555	-196.687836
-7070.890426	6595.901667	1841.399414	103.869759
-7070.890426	6595.901667	1840.406250	175.765961
-7070.890426	6595.901667	1839.412109	173.028671
-7070.890426	6595.901667	1838.417969	78.872337
-7070.890426	6595.901667	1837.423828	126.521858
-7070.890426	6595.901667	1836.429688	8.263644
-7070.890426	6595.901667	1835.434570	-11.487611
-7070.890426	6595.901667	1834.440430	141.694427
-7070.890426	6595.901667	1833.445313	225.101700
-7070.890426	6595.901667	1832.450195	99.485168
-7070.890426	6595.901667	1831.454102	24.282757
-7070.890426	6595.901667	1830.458984	126.706421
-7070.890426	6595.901667	1829.462891	-15.788241
-7070.890426	6595.901667	1828.466797	302.472809
-7070.890426	6595.901667	1827.470703	135.899109
-7070.890426	6595.901667	1826.474609	281.186310
-7070.890426	6595.901667	1825.478516	304.046661
-7070.890426	6595.901667	1824.481445	-11.268685
-7070.890426	6595.901667	1823.484375	69.070801
-7070.890426	6595.901667	1822.487305	163.710037
-7070.890426	6595.901667	1821.490234	90.499969
-7070.890426	6595.901667	1820.493164	256.881409
-7070.890426	6595.901667	1819.495117	54.208786
-7070.890426	6595.901667	1818.498047	218.037064
-7070.890426	6595.901667	1817.500000	99.164482
-7070.890426	6595.901667	1816.500977	193.380356
-7070.890426	6595.901667	1815.502930	67.276108
-7070.890426	6595.901667	1814.504883	-87.549789
-7070.890426	6595.901667	1813.505859	-77.254906
-7070.890426	6595.901667	1812.506836	28.690155
-7070.890426	6595.901667	1811.507813	132.153961
-7070.890426	6595.901667	1810.508789	-87.337669
-7070.890426	6595.901667	1809.508789	35.139565
-7070.890426	6595.901667	1808.508789	109.709969
-7070.890426	6595.901667	1807.508789	69.472610
-7070.890426	6595.901667	1806.508789	105.678894
-7070.890426	6595.901667	1805.508789	206.339020
-7070.890426	6595.901667	1804.508789	-101.590515
-7070.890426	6595.901667	1803.507813	77.795792
-7070.890426	6595.901667	1802.506836	-65.313004
-7070.890426	6595.901667	1801.505859	87.647003
-7070.890426	6595.901667	1800.504883	25.664558
-7070.890426	6595.901667	1799.502930	414.738770
-7070.890426	6595.901667	1798.501953	152.190094
-7070.890426	6595.901667	1797.500000	-45.889946
-7070.890426	6595.901667	1796.498047	58.997494
-7070.890426	6595.901667	1795.496094	-46.063133
-7070.890426	6595.901667	1794.493164	27.699560
-7070.890426	6595.901667	1793.491211	151.461914
-7070.890426	6595.901667	1792.488281	-25.187868
-7070.890426	6595.901667	1791.485352	-116.022217
-7070.890426	6595.901667	1790.482422	-85.347298
-7070.890426	6595.901667	1789.478516	57.232136
-7070.890426	6595.901667	1788.475586	102.075417
-7070.890426	6595.901667	1787.471680	56.370960
-7070.890426	6595.901667	1786.467773	-17.922983
-7070.890426	6595.901667	1785.463867	243.402069
-7070.890426	6595.901667	1784.459961	-95.140701
-7070.890426	6595.901667	1783.455078	151.746094
-7070.890426	6595.901667	1782.450195	27.380220
-7070.890426	6595.901667	1781.445313	-113.622604
-7070.890426	6595.901667	1780.440430	26.007631
-7070.890426	6595.901667	1779.435547	-95.989326
-7070.890426	6595.901667	1778.429688	12.607601
-7070.890426	6595.901667	1777.424805	-26.222391
-7070.890426	6595.901667	1776.418945	-69.827698
-7070.890426	6595.901667	1775.413086	-130.079788
-7070.890426	6595.901667	1774.406250	-95.331917
-7070.890426	6595.901667	1773.400391	-13.124181
-7070.890426	6595.901667	1772.393555	159.246552
-7070.890426	6595.901667	1771.386719	58.507576
-7070.890426	6595.901667	1770.379883	28.983593
-7070.890426	6595.901667	1769.373047	-109.722366
-7070.890426	6595.901667	1768.365234	102.746262
-7070.890426	6595.901667	1767.358398	-180.684479
-7070.890426	6595.901667	1766.350586	15.056390
-7070.890426	6595.901667	1765.342773	92.129913
-7070.890426	6595.901667	1764.334961	95.649872
-7070.890426	6595.901667	1763.326172	103.876999
-7070.890426	6595.901667	1762.318359	154.739517
-7070.890426	6595.901667	1761.309570	-40.879284
-7070.890426	6595.901667	1760.300781	-16.124916
-7070.890426	6595.901667	1759.291016	150.706635
-7070.890426	6595.901667	1758.282227	9.593606
-7070.890426	6595.901667	1757.272461	-29.683474
-7070.890426	6595.901667	1756.262695	2.049340
-7070.890426	6595.901667	1755.252930	-27.790459
-7070.890426	6595.901667	1754.243164	8.616961
-7070.890426	6595.901667	1753.233398	-189.236694
-7070.890426	6595.901667	1752.222656	204.323166
-7070.890426	6595.901667	1751.211914	-83.411270
-7070.890426	6595.901667	1750.201172	-56.570362
-7070.890426	6595.901667	1749.190430	31.707724
-7070.890426	6595.901667	1748.179688	-40.796249
-7070.890426	6595.901667	1747.167969	-229.095276
-7070.890426	6595.901667	1746.156250	-84.192009
-7070.890426	6595.901667	1745.144531	44.101570
-7070.890426	6595.901667	1744.132813	11.722471
-7070.890426	6595.901667	1743.121094	-207.212601
-7070.890426	6595.901667	1742.108398	-199.435455
-7070.890426	6595.901667	1741.095703	-309.702576
-7070.890426	6595.901667	1740.083008	-226.417770
-7070.890426	6595.901667	1739.070313	29.070835
-7070.890426	6595.901667	1738.057617	86.277412
-7070.890426	6595.901667	1737.043945	25.507175
-7070.890426	6595.901667	1736.030273	-77.702332
-7070.890426	6595.901667	1735.016602	-18.197292
-7070.890426	6595.901667	1734.002930	-17.661791
-7070.890426	6595.901667	1732.989258	-111.414673
-7070.890426	6595.901667	1731.974609	9.287728
-7070.890426	6595.901667	1730.959961	-112.736740
-7070.890426	6595.901667	1729.945313	-22.724890
-7070.890426	6595.901667	1728.930664	-81.129356
-7070.890426	6595.901667	1727.916016	-113.620544
-7070.890426	6595.901667	1726.900391	-87.258545
-7070.890426	6595.901667	1725.885742	-173.891449
-7070.890426	6595.901667	1724.870117	-147.546188
-7070.890426	6595.901667	1723.853516	-170.634384
-7070.890426	6595.901667	1722.837891	-24.342976
-7070.890426	6595.901667	1721.822266	131.293335
-7070.890426	6595.901667	1720.805664	-63.517025
-7070.890426	6595.901667	1719.789063	101.453041
-7070.890426	6595.901667	1718.772461	-119.145584
-7070.890426	6595.901667	1717.754883	10.502944
-7070.890426	6595.901667	1716.738281	-17.327335
-7070.890426	6595.901667	1715.720703	-31.061846
-7070.890426	6595.901667	1714.703125	-28.353363
-7070.890426	6595.901667	1713.685547	-82.009026
-7070.890426	6595.901667	1712.667969	-95.732460
-7070.890426	6595.901667	1711.649414	54.862499
-7070.890426	6595.901667	1710.630859	-99.712875
-7070.890426	6595.901667	1709.612305	-59.465908
-7070.890426	6595.901667	1708.593750	-16.889297
-7070.890426	6595.901667	1707.575195	-9.513814
-7070.890426	6595.901667	1706.555664	33.031082
-7070.890426	6595.901667	1705.536133	73.214668
-7070.890426	6595.901667	1704.516602	129.794250
-7070.890426	6595.901667	1703.497070	29.316208
-7070.890426	6595.901667	1702.477539	10.896234
-7070.890426	6595.901667	1701.457031	41.683212
-7070.890426	6595.901667	1700.437500	86.522392
-7070.890426	6595.901667	1699.416992	54.052872
-7070.890426	6595.901667	1698.395508	7.544670
-7070.890426	6595.901667	1697.375000	337.991425
-7070.890426	6595.901667	1696.354492	261.032257
-7070.890426	6595.901667	1695.333008	6.241889
-7070.890426	6595.901667	1694.311523	259.294586
-7070.890426	6595.901667	1693.290039	32.686909
-7070.890426	6595.901667	1692.267578	54.092220
-7070.890426	6595.901667	1691.246094	89.532372
-7070.890426	6595.901667	1690.223633	253.551880
-7070.890426	6595.901667	1689.201172	146.358170
-7070.890426	6595.901667	1688.178711	319.668518
-7070.890426	6595.901667	1687.155273	107.366264
-7070.890426	6595.901667	1686.132813	-46.435020
-7070.890426	6595.901667	1685.109375	143.185242
-7070.890426	6595.901667	1684.085938	267.354340
-7070.890426	6595.901667	1683.062500	218.705566
-7070.890426	6595.901667	1682.039063	137.405365
-7070.890426	6595.901667	1681.014648	343.220001
-7070.890426	6595.901667	1679.990234	189.606781
-7070.890426	6595.901667	1678.965820	190.046646
-7070.890426	6595.901667	1677.941406	204.496063
-7070.890426	6595.901667	1676.916992	244.606873
-7070.890426	6595.901667	1675.891602	280.046753
-7070.890426	6595.901667	1674.866211	121.992691
-7070.890426	6595.901667	1673.840820	225.066193
-7070.890426	6595.901667	1672.815430	22.836081
-7070.890426	6595.901667	1671.790039	107.281296
-7070.890426	6595.901667	1670.763672	233.634079
-7070.890426	6595.901667	1669.737305	152.671875
-7070.890426	6595.901667	1668.710938	39.158810
-7070.890426	6595.901667	1667.684570	165.502533
-7070.890426	6595.901667	1666.658203	391.906616
-7070.890426	6595.901667	1665.630859	108.574051
-7070.890426	6595.901667	1664.603516	388.449219
-7070.890426	6595.901667	1663.576172	479.803070
-7070.890426	6595.901667	1662.548828	426.936798
-7070.890426	6595.901667	1661.520508	297.366974
-7070.890426	6595.901667	1660.493164	321.321472
-7070.890426	6595.901667	1659.464844	47.743259
-7070.890426	6595.901667	1658.436523	239.107788
-7070.890426	6595.901667	1657.408203	351.417419
-7070.890426	6595.901667	1656.378906	440.469147
-7070.890426	6595.901667	1655.350586	499.318726
-7070.890426	6595.901667	1654.321289	539.585083
-7070.890426	6595.901667	1653.291992	440.549225
-7070.890426	6595.901667	1652.261719	450.676239
-7070.890426	6595.901667	1651.232422	497.964020
-7070.890426	6595.901667	1650.202148	714.648926
-7070.890426	6595.901667	1649.171875	636.630920
-7070.890426	6595.901667	1648.141602	853.256226
-7070.890426	6595.901667	1647.111328	439.018341
-7070.890426	6595.901667	1646.080078	820.273071
-7070.890426	6595.901667	1645.049805	1059.998535
-7070.890426	6595.901667	1644.018555	1019.202881
-7070.890426	6595.901667	1642.987305	665.608215
-7070.890426	6595.901667	1641.955078	784.820435
-7070.890426	6595.901667	1640.923828	922.551819
-7070.890426	6595.901667	1639.891602	1173.739380
-7070.890426	6595.901667	1638.859375	1028.899170
-7070.890426	6595.901667	1637.827148	1240.670044
-7070.890426	6595.901667	1636.794922	1308.880737
-7070.890426	6595.901667	1635.761719	1215.097168
-7070.890426	6595.901667	1634.729492	1169.975708
-7070.890426	6595.901667	1633.696289	1120.270874
-7070.890426	6595.901667	1632.662109	1061.362305
-7070.890426	6595.901667	1631.628906	1071.886353
-7070.890426	6595.901667	1630.594727	1419.978882
-7070.890426	6595.901667	1629.561523	1314.918823
-7070.890426	6595.901667	1628.527344	1424.857666
-7070.890426	6595.901667	1627.493164	1490.886353
-7070.890426	6595.901667	1626.458008	1402.137573
-7070.890426	6595.901667	1625.423828	1398.923096
-7070.890426	6595.901667	1624.388672	1229.473022
-7070.890426	6595.901667	1623.353516	1429.534180
-7070.890426	6595.901667	1622.318359	1391.794556
-7070.890426	6595.901667	1621.282227	1448.722778
-7070.890426	6595.901667	1620.247070	1441.064087
-7070.890426	6595.901667	1619.210938	1433.439453
-7070.890426	6595.901667	1618.174805	1555.023193
-7070.890426	6595.901667	1617.137695	1508.247314
-7070.890426	6595.901667	1616.101563	1281.690552
-7070.890426	6595.901667	1615.064453	1405.649902
-7070.890426	6595.901667	1614.027344	1467.369873
-7070.890426	6595.901667	1612.990234	1457.673340
-7070.890426	6595.901667	1611.953125	1494.097534
-7070.890426	6595.901667	1610.916016	1479.871338
-7070.890426	6595.901667	1609.877930	1477.202393
-7070.890426	6595.901667	1608.839844	1440.038086
-7070.890426	6595.901667	1607.801758	1697.597656
-7070.890426	6595.901667	1606.763672	1706.520020
-7070.890426	6595.901667	1605.724609	1637.237549
-7070.890426	6595.901667	1604.685547	1556.521851
-7070.890426	6595.901667	1603.646484	1832.423828
-7070.890426	6595.901667	1602.607422	1714.988892
-7070.890426	6595.901667	1601.568359	1671.225098
-7070.890426	6595.901667	1600.528320	1820.629517
-7070.890426	6595.901667	1599.489258	1455.160400
-7070.890426	6595.901667	1598.449219	1462.156982
-7070.890426	6595.901667	1597.408203	1641.514282
-7070.890426	6595.901667	1596.368164	1779.500977
-7070.890426	6595.901667	1595.327148	1765.893921
-7070.890426	6595.901667	1594.287109	1371.164795
-7070.890426	6595.901667	1593.246094	1426.608398
-7070.890426	6595.901667	1592.204102	1610.615723
-7070.890426	6595.901667	1591.163086	1599.533081
-7070.890426	6595.901667	1590.121094	1544.905640
-7070.890426	6595.901667	1589.079102	1325.177856
-7070.890426	6595.901667	1588.037109	1378.518188
-7070.890426	6595.901667	1586.995117	1725.403564
-7070.890426	6595.901667	1585.953125	1430.255981
-7070.890426	6595.901667	1584.910156	1465.350464
-7070.890426	6595.901667	1583.867188	1555.483032
-7070.890426	6595.901667	1582.824219	1446.284912
-7070.890426	6595.901667	1581.781250	1609.791382
-7070.890426	6595.901667	1580.737305	1486.980835
-7070.890426	6595.901667	1579.693359	1570.365967
-7070.890426	6595.901667	1578.649414	1454.581543
-7070.890426	6595.901667	1577.605469	1222.151611
-7070.890426	6595.901667	1576.561523	1273.652344
-7070.890426	6595.901667	1575.516602	1425.863159
-7070.890426	6595.901667	1574.472656	1282.952759
-7070.890426	6595.901667	1573.427734	1272.809692
-7070.890426	6595.901667	1572.381836	1294.737305
-7070.890426	6595.901667	1571.336914	1138.372437
-7070.890426	6595.901667	1570.291016	1094.133423
-7070.890426	6595.901667	1569.246094	1036.252930
-7070.890426	6595.901667	1568.200195	1051.569092
-7070.890426	6595.901667	1567.153320	1238.275879
-7070.890426	6595.901667	1566.107422	824.236206
-7070.890426	6595.901667	1565.060547	1134.343506
-7070.890426	6595.901667	1564.013672	1225.193604
-7070.890426	6595.901667	1562.966797	1142.569702
-7070.890426	6595.901667	1561.919922	1098.833618
-7070.890426	6595.901667	1560.872070	1032.351074
-7070.890426	6595.901667	1559.825195	1194.096069
-7070.890426	6595.901667	1558.777344	1118.610962
-7070.890426	6595.901667	1557.729492	954.268494
-7070.890426	6595.901667	1556.680664	1134.343018
-7070.890426	6595.901667	1555.632813	1257.415283
-7070.890426	6595.901667	1554.583984	1116.104370
-7070.890426	6595.901667	1553.535156	1082.011230
-7070.890426	6595.901667	1552.486328	1150.513062
-7070.890426	6595.901667	1551.436523	943.423462
-7070.890426	6595.901667	1550.387695	1025.705688
-7070.890426	6595.901667	1549.337891	1010.106018
-7070.890426	6595.901667	1548.288086	1085.631470
-7070.890426	6595.901667	1547.238281	785.633911
-7070.890426	6595.901667	1546.187500	959.143982
-7070.890426	6595.901667	1545.136719	898.301331
-7070.890426	6595.901667	1544.086914	955.829407
-7070.890426	6595.901667	1543.035156	815.533386
-7070.890426	6595.901667	1541.984375	848.163025
-7070.890426	6595.901667	1540.933594	958.136047
-7070.890426	6595.901667	1539.881836	918.112366
-7070.890426	6595.901667	1538.830078	862.258606
-7070.890426	6595.901667	1537.778320	672.437317
-7070.890426	6595.901667	1536.725586	753.071289
-7070.890426	6595.901667	1535.673828	874.617065
-7070.890426	6595.901667	1534.621094	1071.108887
-7070.890426	6595.901667	1533.568359	486.621002
-7070.890426	6595.901667	1532.515625	699.124512
-7070.890426	6595.901667	1531.461914	741.406677
-7070.890426	6595.901667	1530.409180	493.315094
-7070.890426	6595.901667	1529.355469	694.537781
-7070.890426	6595.901667	1528.301758	612.243591
-7070.890426	6595.901667	1527.247070	647.959473
-7070.890426	6595.901667	1526.193359	459.278595
-7070.890426	6595.901667	1525.138672	488.337616
-7070.890426	6595.901667	1524.083984	542.376526
-7070.890426	6595.901667	1523.029297	675.760620
-7070.890426	6595.901667	1521.974609	494.276184
-7070.890426	6595.901667	1520.918945	591.508057
-7070.890426	6595.901667	1519.863281	451.000641
-7070.890426	6595.901667	1518.807617	276.654419
-7070.890426	6595.901667	1517.751953	521.194092
-7070.890426	6595.901667	1516.696289	129.776962
-7070.890426	6595.901667	1515.639648	539.552612
-7070.890426	6595.901667	1514.583008	426.665771
-7070.890426	6595.901667	1513.526367	295.796112
-7070.890426	6595.901667	1512.469727	524.588318
-7070.890426	6595.901667	1511.412109	554.402100
-7070.890426	6595.901667	1510.355469	455.426422
-7070.890426	6595.901667	1509.297852	691.029236
-7070.890426	6595.901667	1508.240234	248.755234
-7070.890426	6595.901667	1507.181641	254.015182
-7070.890426	6595.901667	1506.124023	225.459412
-7070.890426	6595.901667	1505.065430	467.961243
-7070.890426	6595.901667	1504.006836	362.746735
-7070.890426	6595.901667	1502.948242	485.623566
-7070.890426	6595.901667	1501.888672	317.390442
-7070.890426	6595.901667	1500.830078	550.922729
-7070.890426	6595.901667	1499.770508	358.062042
-7070.890426	6595.901667	1498.710938	339.015594
-7070.890426	6595.901667	1497.650391	389.951538
-7070.890426	6595.901667	1496.590820	357.513184
-7070.890426	6595.901667	1495.530273	65.931366
-7070.890426	6595.901667	1494.469727	108.078033
-7070.890426	6595.901667	1493.409180	139.008865
-7070.890426	6595.901667	1492.348633	79.883034
-7070.890426	6595.901667	1491.287109	115.448135
-7070.890426	6595.901667	1490.225586	45.228172
-7070.890426	6595.901667	1489.164063	-15.891106
-7070.890426	6595.901667	1488.102539	-117.437065
-7070.890426	6595.901667	1487.041016	-45.582565
-7070.890426	6595.901667	1485.978516	-23.188135
-7070.890426	6595.901667	1484.916016	-84.014267
-7070.890426	6595.901667	1483.853516	-340.346130
-7070.890426	6595.901667	1482.791016	-133.309769
-7070.890426	6595.901667	1481.727539	-162.351364
-7070.890426	6595.901667	1480.664063	-101.426056
-7070.890426	6595.901667	1479.600586	-168.539719
-7070.890426	6595.901667	1478.537109	-42.359394
-7070.890426	6595.901667	1477.473633	133.264267
-7070.890426	6595.901667	1476.409180	-45.932053
-7070.890426	6595.901667	1475.344727	221.780792
-7070.890426	6595.901667	1474.280273	188.573639
-7070.890426	6595.901667	1473.215820	178.111450
-7070.890426	6595.901667	1472.151367	320.049438
-7070.890426	6595.901667	1471.085938	307.352081
-7070.890426	6595.901667	1470.020508	451.794128
-7070.890426	6595.901667	1468.955078	541.937012
-7070.890426	6595.901667	1467.888672	471.218018
-7070.890426	6595.901667	1466.823242	487.920502
-7070.890426	6595.901667	1465.756836	762.072632
-7070.890426	6595.901667	1464.690430	695.839355
-7070.890426	6595.901667	1463.624023	582.913940
-7070.890426	6595.901667	1462.556641	335.571960
-7070.890426	6595.901667	1461.490234	801.840149
-7070.890426	6595.901667	1460.422852	637.946472
-7070.890426	6595.901667	1459.355469	603.586914
-7070.890426	6595.901667	1458.287109	544.960999
-7070.890426	6595.901667	1457.219727	773.638000
-7070.890426	6595.901667	1456.151367	443.135437
-7070.890426	6595.901667	1455.083008	585.086426
-7070.890426	6595.901667	1454.014648	523.190125
-7070.890426	6595.901667	1452.945313	552.321106
-7070.890426	6595.901667	1451.876953	853.361511
-7070.890426	6595.901667	1450.807617	890.155579
-7070.890426	6595.901667	1449.738281	670.686829
-7070.890426	6595.901667	1448.668945	598.443237
-7070.890426	6595.901667	1447.598633	748.107483
-7070.890426	6595.901667	1446.528320	618.287659
-7070.890426	6595.901667	1445.458008	742.576477
-7070.890426	6595.901667	1444.387695	454.756958
-7070.890426	6595.901667	1443.317383	732.073975
-7070.890426	6595.901667	1442.246094	760.641968
-7070.890426	6595.901667	1441.174805	704.795471
-7070.890426	6595.901667	1440.103516	855.305786
-7070.890426	6595.901667	1439.032227	932.408936
-7070.890426	6595.901667	1437.960938	630.478882
-7070.890426	6595.901667	1436.888672	613.749390
-7070.890426	6595.901667	1435.816406	496.837830
-7070.890426	6595.901667	1434.744141	760.918823
-7070.890426	6595.901667	1433.670898	800.391479
-7070.890426	6595.901667	1432.598633	567.142456
-7070.890426	6595.901667	1431.525391	566.156799
-7070.890426	6595.901667	1430.452148	565.357239
-7070.890426	6595.901667	1429.378906	481.187805
-7070.890426	6595.901667	1428.304688	512.259766
-7070.890426	6595.901667	1427.231445	421.354828
-7070.890426	6595.901667	1426.157227	499.471161
-7070.890426	6595.901667	1425.083008	365.287079
-7070.890426	6595.901667	1424.007813	391.810486
-7070.890426	6595.901667	1422.933594	154.331406
-7070.890426	6595.901667	1421.858398	221.066238
-7070.890426	6595.901667	1420.783203	515.299438
-7070.890426	6595.901667	1419.708008	314.414581
-7070.890426	6595.901667	1418.631836	450.035034
-7070.890426	6595.901667	1417.555664	457.032043
-7070.890426	6595.901667	1416.479492	362.699249
-7070.890426	6595.901667	1415.403320	187.153534
-7070.890426	6595.901667	1414.327148	496.587982
-7070.890426	6595.901667	1413.250000	257.378204
-7070.890426	6595.901667	1412.173828	541.100220
-7070.890426	6595.901667	1411.096680	199.801529
-7070.890426	6595.901667	1410.018555	394.800293
-7070.890426	6595.901667	1408.941406	236.275757
-7070.890426	6595.901667	1407.863281	398.387970
-7070.890426	6595.901667	1406.785156	144.828934
-7070.890426	6595.901667	1405.707031	563.876587
-7070.890426	6595.901667	1404.628906	358.611694
-7070.890426	6595.901667	1403.549805	452.352661
-7070.890426	6595.901667	1402.470703	574.235535
-7070.890426	6595.901667	1401.391602	518.605652
-7070.890426	6595.901667	1400.312500	752.125793
-7070.890426	6595.901667	1399.233398	566.869873
-7070.890426	6595.901667	1398.153320	433.725739
-7070.890426	6595.901667	1397.073242	553.503113
-7070.890426	6595.901667	1395.993164	611.175232
-7070.890426	6595.901667	1394.913086	704.893066
-7070.890426	6595.901667	1393.832031	549.742126
-7070.890426	6595.901667	1392.750977	593.198730
-7070.890426	6595.901667	1391.669922	772.856323
-7070.890426	6595.901667	1390.588867	676.592346
-7070.890426	6595.901667	1389.506836	444.988617
-7070.890426	6595.901667	1388.425781	681.505554
-7070.890426	6595.901667	1387.343750	668.797180
-7070.890426	6595.901667	1386.261719	471.303558
-7070.890426	6595.901667	1385.178711	494.724609
-7070.890426	6595.901667	1384.096680	423.141632
-7070.890426	6595.901667	1383.013672	617.282166
-7070.890426	6595.901667	1381.930664	676.835083
-7070.890426	6595.901667	1380.846680	849.726135
-7070.890426	6595.901667	1379.763672	548.686584
-7070.890426	6595.901667	1378.679688	659.782227
-7070.890426	6595.901667	1377.595703	787.664612
-7070.890426	6595.901667	1376.511719	396.315704
-7070.890426	6595.901667	1375.427734	656.758545
-7070.890426	6595.901667	1374.342773	661.047058
-7070.890426	6595.901667	1373.257813	355.746552
-7070.890426	6595.901667	1372.172852	451.468994
-7070.890426	6595.901667	1371.087891	637.631836
-7070.890426	6595.901667	1370.001953	777.656372
-7070.890426	6595.901667	1368.916992	556.515137
-7070.890426	6595.901667	1367.831055	629.227966
-7070.890426	6595.901667	1366.744141	628.530762
-7070.890426	6595.901667	1365.658203	598.928101
-7070.890426	6595.901667	1364.571289	504.133331
-7070.890426	6595.901667	1363.484375	608.645081
-7070.890426	6595.901667	1362.397461	685.459900
-7070.890426	6595.901667	1361.310547	289.361481
-7070.890426	6595.901667	1360.222656	375.620087
-7070.890426	6595.901667	1359.135742	394.075714
-7070.890426	6595.901667	1358.047852	490.887451
-7070.890426	6595.901667	1356.958984	383.871277
-7070.890426	6595.901667	1355.871094	333.161987
-7070.890426	6595.901667	1354.782227	513.857300
-7070.890426	6595.901667	1353.693359	466.098022
-7070.890426	6595.901667	1352.604492	547.851501
-7070.890426	6595.901667	1351.515625	462.190399
-7070.890426	6595.901667	1350.425781	266.282684
-7070.890426	6595.901667	1349.335938	259.293457
-7070.890426	6595.901667	1348.246094	381.405823
-7070.890426	6595.901667	1347.156250	127.368301
-7070.890426	6595.901667	1346.066406	414.247742
-7070.890426	6595.901667	1344.975586	198.603790
-7070.890426	6595.901667	1343.884766	207.764526
-7070.890426	6595.901667	1342.793945	374.459869
-7070.890426	6595.901667	1341.702148	293.290558
-7070.890426	6595.901667	1340.611328	224.513550
-7070.890426	6595.901667	1339.519531	359.772278
-7070.890426	6595.901667	1338.427734	148.127060
-7070.890426	6595.901667	1337.334961	293.872101
-7070.890426	6595.901667	1336.243164	310.888092
-7070.890426	6595.901667	1335.150391	229.407593
-7070.890426	6595.901667	1334.057617	319.536682
-7070.890426	6595.901667	1332.964844	308.302185
-7070.890426	6595.901667	1331.871094	153.757172
-7070.890426	6595.901667	1330.778320	102.198151
-7070.890426	6595.901667	1329.684570	271.503387
-7070.890426	6595.901667	1328.590820	246.517105
-7070.890426	6595.901667	1327.496094	174.729019
-7070.890426	6595.901667	1326.402344	344.022369
-7070.890426	6595.901667	1325.307617	272.983551
-7070.890426	6595.901667	1324.212891	400.590546
-7070.890426	6595.901667	1323.117188	103.866310
-7070.890426	6595.901667	1322.022461	236.896042
-7070.890426	6595.901667	1320.926758	305.045654
-7070.890426	6595.901667	1319.831055	545.269531
-7070.890426	6595.901667	1318.735352	410.947968
-7070.890426	6595.901667	1317.638672	605.831604
-7070.890426	6595.901667	1316.542969	427.288605
-7070.890426	6595.901667	1315.446289	265.569855
-7070.890426	6595.901667	1314.349609	521.027100
-7070.890426	6595.901667	1313.251953	298.748871
-7070.890426	6595.901667	1312.155273	426.958771
-7070.890426	6595.901667	1311.057617	434.767059
-7070.890426	6595.901667	1309.959961	344.943481
-7070.890426	6595.901667	1308.862305	372.393646
-7070.890426	6595.901667	1307.763672	578.091003
-7070.890426	6595.901667	1306.665039	644.222168
-7070.890426	6595.901667	1305.566406	481.551239
-7070.890426	6595.901667	1304.467773	385.523865
-7070.890426	6595.901667	1303.369141	309.180542
-7070.890426	6595.901667	1302.269531	308.509369
-7070.890426	6595.901667	1301.169922	231.901947
-7070.890426	6595.901667	1300.070313	469.750336
-7070.890426	6595.901667	1298.970703	266.756073
-7070.890426	6595.901667	1297.870117	356.991272
-7070.890426	6595.901667	1296.769531	370.293854
-7070.890426	6595.901667	1295.668945	324.580200
-7070.890426	6595.901667	1294.568359	405.820435
-7070.890426	6595.901667	1293.466797	349.808441
-7070.890426	6595.901667	1292.366211	270.806366
-7070.890426	6595.901667	1291.264648	370.619232
-7070.890426	6595.901667	1290.162109	231.283600
-7070.890426	6595.901667	1289.060547	93.512817
-7070.890426	6595.901667	1287.958008	145.323837
-7070.890426	6595.901667	1286.855469	187.041809
-7070.890426	6595.901667	1285.752930	195.977661
-7070.890426	6595.901667	1284.650391	114.379860
-7070.890426	6595.901667	1283.546875	58.912369
-7070.890426	6595.901667	1282.444336	-96.759354
-7070.890426	6595.901667	1281.339844	-32.508450
-7070.890426	6595.901667	1280.236328	117.455048
-7070.890426	6595.901667	1279.132813	7.866409
-7070.890426	6595.901667	1278.028320	56.772415
-7070.890426	6595.901667	1276.923828	-72.689308
-7070.890426	6595.901667	1275.819336	-71.674614
-7070.890426	6595.901667	1274.713867	118.057625
-7070.890426	6595.901667	1273.608398	34.334488
-7070.890426	6595.901667	1272.503906	-68.743500
-7070.890426	6595.901667	1271.397461	285.760040
-7070.890426	6595.901667	1270.291992	121.174217
-7070.890426	6595.901667	1269.185547	-15.613918
-7070.890426	6595.901667	1268.080078	-52.501331
-7070.890426	6595.901667	1266.972656	22.659243
-7070.890426	6595.901667	1265.866211	68.123711
-7070.890426	6595.901667	1264.759766	143.226929
-7070.890426	6595.901667	1263.652344	173.191422
-7070.890426	6595.901667	1262.544922	114.350174
-7070.890426	6595.901667	1261.436523	-42.863369
-7070.890426	6595.901667	1260.329102	-14.499398
-7070.890426	6595.901667	1259.220703	46.205025
-7070.890426	6595.901667	1258.112305	-110.962959
-7070.890426	6595.901667	1257.003906	38.731445
-7070.890426	6595.901667	1255.895508	-30.835350
-7070.890426	6595.901667	1254.786133	-60.610809
-7070.890426	6595.901667	1253.676758	-15.816544
-7070.890426	6595.901667	1252.567383	-69.109344
-7070.890426	6595.901667	1251.458008	-31.951656
-7070.890426	6595.901667	1250.347656	-116.566383
-7070.890426	6595.901667	1249.237305	-10.075475
-7070.890426	6595.901667	1248.126953	-48.679653
-7070.890426	6595.901667	1247.016602	0.583448
-7070.890426	6595.901667	1245.905273	-34.671238
-7070.890426	6595.901667	1244.793945	1.618008
-7070.890426	6595.901667	1243.682617	-161.793488
-7070.890426	6595.901667	1242.571289	-105.402321
-7070.890426	6595.901667	1241.459961	-75.464874
-7070.890426	6595.901667	1240.347656	-53.017654
-7070.890426	6595.901667	1239.235352	6.358575
-7070.890426	6595.901667	1238.123047	-64.602325
-7070.890426	6595.901667	1237.009766	-6.106814
-7070.890426	6595.901667	1235.897461	108.841461
-7070.890426	6595.901667	1234.784180	-81.082047
-7070.890426	6595.901667	1233.670898	-156.684570
-7070.890426	6595.901667	1232.556641	64.508987
-7070.890426	6595.901667	1231.443359	-72.246040
-7070.890426	6595.901667	1230.329102	-151.920837
-7070.890426	6595.901667	1229.214844	-37.379204
-7070.890426	6595.901667	1228.099609	-266.216400
-7070.890426	6595.901667	1226.985352	123.939270
-7070.890426	6595.901667	1225.870117	-19.511454
-7070.890426	6595.901667	1224.754883	-33.202770
-7070.890426	6595.901667	1223.639648	-18.289440
-7070.890426	6595.901667	1222.523438	129.062836
-7070.890426	6595.901667	1221.408203	79.841263
-7070.890426	6595.901667	1220.291992	-44.202095
-7070.890426	6595.901667	1219.174805	10.667583
-7070.890426	6595.901667	1218.058594	14.130037
-7070.890426	6595.901667	1216.941406	-83.309875
-7070.890426	6595.901667	1215.824219	-37.914055
-7070.890426	6595.901667	1214.707031	-177.243484
-7070.890426	6595.901667	1213.589844	-4.155055
-7070.890426	6595.901667	1212.471680	27.318159
-7070.890426	6595.901667	1211.353516	-132.155930
-7070.890426	6595.901667	1210.235352	60.201538
-7070.890426	6595.901667	1209.117188	87.831558
-7070.890426	6595.901667	1207.998047	-7.353739
-7070.890426	6595.901667	1206.878906	-121.867958
-7070.890426	6595.901667	1205.759766	-40.435143
-7070.890426	6595.901667	1204.640625	66.872047
-7070.890426	6595.901667	1203.520508	0.174607
-7070.890426	6595.901667	1202.401367	-75.884949
-7070.890426	6595.901667	1201.281250	48.684788
-7070.890426	6595.901667	1200.160156	-182.272903
-7070.890426	6595.901667	1199.040039	-60.679790
-7070.890426	6595.901667	1197.918945	106.199524
-7070.890426	6595.901667	1196.797852	-89.334778
-7070.890426	6595.901667	1195.676758	-57.667828
-7070.890426	6595.901667	1194.555664	72.084778
-7070.890426	6595.901667	1193.433594	-30.470858
-7070.890426	6595.901667	1192.311523	-169.553925
-7070.890426	6595.901667	1191.189453	-1.383510
-7070.890426	6595.901667	1190.066406	-84.510841
-7070.890426	6595.901667	1188.944336	-211.997635
-7070.890426	6595.901667	1187.821289	-27.642281
-7070.890426	6595.901667	1186.698242	-109.913780
-7070.890426	6595.901667	1185.574219	17.072084
-7070.890426	6595.901667	1184.451172	-100.155289
-7070.890426	6595.901667	1183.327148	-9.282256
-7070.890426	6595.901667	1182.203125	116.112007
-7070.890426	6595.901667	1181.078125	18.635210
-7070.890426	6595.901667	1179.954102	116.496758
-7070.890426	6595.901667	1178.829102	-134.998764
-7070.890426	6595.901667	1177.704102	16.551077
-7070.890426	6595.901667	1176.579102	-18.633307
-7070.890426	6595.901667	1175.453125	-93.617203
-7070.890426	6595.901667	1174.327148	-135.624039
-7070.890426	6595.901667	1173.201172	-76.141373
-7070.890426	6595.901667	1172.075195	-3.782753
-7070.890426	6595.901667	1170.949219	-124.819916
-7070.890426	6595.901667	1169.822266	-158.526337
-7070.890426	6595.901667	1168.695313	-4.431855
-7070.890426	6595.901667	1167.568359	26.683025
-7070.890426	6595.901667	1166.440430	103.139458
-7070.890426	6595.901667	1165.313477	1.896930
-7070.890426	6595.901667	1164.185547	-22.662779
-7070.890426	6595.901667	1163.057617	-3.213812
-7070.890426	6595.901667	1161.928711	93.166405
-7070.890426	6595.901667	1160.800781	96.107635
-7070.890426	6595.901667	1159.671875	86.714012
-7070.890426	6595.901667	1158.541992	107.706894
-7070.890426	6595.901667	1157.413086	-177.728027
-7070.890426	6595.901667	1156.283203	94.025833
-7070.890426	6595.901667	1155.154297	22.108456
-7070.890426	6595.901667	1154.023438	67.313652
-7070.890426	6595.901667	1152.893555	61.681263
-7070.890426	6595.901667	1151.763672	143.206909
-7070.890426	6595.901667	1150.632813	92.140938
-7070.890426	6595.901667	1149.501953	139.391800
-7070.890426	6595.901667	1148.370117	-21.258009
-7070.890426	6595.901667	1147.239258	282.069427
-7070.890426	6595.901667	1146.107422	63.072998
-7070.890426	6595.901667	1144.975586	0.296115
-7070.890426	6595.901667	1143.843750	-20.696880
-7070.890426	6595.901667	1142.710938	157.261093
-7070.890426	6595.901667	1141.578125	176.300491
-7070.890426	6595.901667	1140.445313	220.451523
-7070.890426	6595.901667	1139.312500	89.641815
-7070.890426	6595.901667	1138.178711	195.356659
-7070.890426	6595.901667	1137.045898	266.456238
-7070.890426	6595.901667	1135.912109	159.629944
-7070.890426	6595.901667	1134.777344	168.370712
-7070.890426	6595.901667	1133.643555	211.988281
-7070.890426	6595.901667	1132.508789	409.409058
-7070.890426	6595.901667	1131.374023	672.747375
-7070.890426	6595.901667	1130.239258	486.215088
-7070.890426	6595.901667	1129.104492	570.176453
-7070.890426	6595.901667	1127.968750	820.687683
-7070.890426	6595.901667	1126.833008	660.700195
-7070.890426	6595.901667	1125.697266	854.640808
-7070.890426	6595.901667	1124.560547	708.447388
-7070.890426	6595.901667	1123.424805	620.017456
-7070.890426	6595.901667	1122.288086	493.590210
-7070.890426	6595.901667	1121.151367	536.787170
-7070.890426	6595.901667	1120.013672	510.150726
-7070.890426	6595.901667	1118.876953	533.618713
-7070.890426	6595.901667	1117.739258	541.776611
-7070.890426	6595.901667	1116.601563	471.558807
-7070.890426	6595.901667	1115.462891	353.294556
-7070.890426	6595.901667	1114.324219	273.652588
-7070.890426	6595.901667	1113.186523	370.704315
-7070.890426	6595.901667	1112.046875	479.477112
-7070.890426	6595.901667	1110.908203	320.384155
-7070.890426	6595.901667	1109.769531	457.321960
-7070.890426	6595.901667	1108.629883	185.736771
-7070.890426	6595.901667	1107.490234	184.859207
-7070.890426	6595.901667	1106.349609	285.607086
-7070.890426	6595.901667	1105.209961	466.933075
-7070.890426	6595.901667	1104.069336	287.927612
-7070.890426	6595.901667	1102.928711	469.376190
-7070.890426	6595.901667	1101.787109	336.966949
-7070.890426	6595.901667	1100.646484	289.521179
-7070.890426	6595.901667	1099.504883	455.166016
-7070.890426	6595.901667	1098.363281	461.204773
-7070.890426	6595.901667	1097.221680	377.716675
-7070.890426	6595.901667	1096.079102	418.130951
-7070.890426	6595.901667	1094.936523	437.681671
-7070.890426	6595.901667	1093.793945	453.728394
-7070.890426	6595.901667	1092.651367	347.518341
-7070.890426	6595.901667	1091.507813	231.967865
-7070.890426	6595.901667	1090.364258	279.836700
-7070.890426	6595.901667	1089.220703	286.418915
-7070.890426	6595.901667	1088.077148	223.373932
-7070.890426	6595.901667	1086.933594	323.771271
-7070.890426	6595.901667	1085.789063	227.072006
-7070.890426	6595.901667	1084.644531	166.911102
-7070.890426	6595.901667	1083.499023	201.542542
-7070.890426	6595.901667	1082.354492	188.210876
-7070.890426	6595.901667	1081.208984	285.783264
-7070.890426	6595.901667	1080.063477	260.157501
-7070.890426	6595.901667	1078.917969	130.642441
-7070.890426	6595.901667	1077.771484	417.623718
-7070.890426	6595.901667	1076.625977	356.420563
-7070.890426	6595.901667	1075.479492	323.773743
-7070.890426	6595.901667	1074.332031	349.181458
-7070.890426	6595.901667	1073.185547	367.180939
-7070.890426	6595.901667	1072.038086	415.234467
-7070.890426	6595.901667	1070.890625	512.653259
-7070.890426	6595.901667	1069.743164	515.170044
-7070.890426	6595.901667	1068.594727	278.489532
-7070.890426	6595.901667	1067.447266	349.329102
-7070.890426	6595.901667	1066.298828	371.294189
-7070.890426	6595.901667	1065.149414	518.037292
-7070.890426	6595.901667	1064.000977	467.712555
-7070.890426	6595.901667	1062.851563	612.641968
-7070.890426	6595.901667	1061.702148	598.986816
-7070.890426	6595.901667	1060.552734	793.646790
-7070.890426	6595.901667	1059.402344	616.845886
-7070.890426	6595.901667	1058.252930	526.939819
-7070.890426	6595.901667	1057.102539	273.607697
-7070.890426	6595.901667	1055.951172	216.074326
-7070.890426	6595.901667	1054.800781	120.735703
-7070.890426	6595.901667	1053.649414	252.190628
-7070.890426	6595.901667	1052.498047	206.100662
-7070.890426	6595.901667	1051.346680	151.364609
-7070.890426	6595.901667	1050.194336	234.859543
-7070.890426	6595.901667	1049.042969	329.925171
-7070.890426	6595.901667	1047.890625	324.869934
-7070.890426	6595.901667	1046.738281	192.467896
-7070.890426	6595.901667	1045.584961	154.996429
-7070.890426	6595.901667	1044.431641	164.335129
-7070.890426	6595.901667	1043.278320	65.080086
-7070.890426	6595.901667	1042.125000	258.562775
-7070.890426	6595.901667	1040.971680	160.374405
-7070.890426	6595.901667	1039.817383	348.957245
-7070.890426	6595.901667	1038.663086	477.563141
-7070.890426	6595.901667	1037.508789	246.571442
-7070.890426	6595.901667	1036.353516	357.546356
-7070.890426	6595.901667	1035.198242	406.078766
-7070.890426	6595.901667	1034.042969	306.340942
-7070.890426	6595.901667	1032.887695	238.634125
-7070.890426	6595.901667	1031.732422	220.128647
-7070.890426	6595.901667	1030.576172	331.519501
-7070.890426	6595.901667	1029.419922	169.258011
-7070.890426	6595.901667	1028.263672	233.695251
-7070.890426	6595.901667	1027.106445	327.697998
-7070.890426	6595.901667	1025.949219	489.292877
-7070.890426	6595.901667	1024.792969	126.040833
-7070.890426	6595.901667	1023.634766	389.564606
-7070.890426	6595.901667	1022.477539	302.074402
-7070.890426	6595.901667	1021.319336	129.700638
-7070.890426	6595.901667	1020.161133	26.715229
-7070.890426	6595.901667	1019.002930	0.831522
-7070.890426	6595.901667	1017.843750	69.085083
-7070.890426	6595.901667	1016.684570	176.306488
-7070.890426	6595.901667	1015.525391	262.417114
-7070.890426	6595.901667	1014.366211	53.031704
-7070.890426	6595.901667	1013.207031	32.931992
-7070.890426	6595.901667	1012.046875	32.646595
-7070.890426	6595.901667	1010.886719	75.969116
-7070.890426	6595.901667	1009.726563	50.091450
-7070.890426	6595.901667	1008.565430	119.241379
-7070.890426	6595.901667	1007.404297	93.742851
-7070.890426	6595.901667	1006.243164	-34.996418
-7070.890426	6595.901667	1005.082031	-49.258144
-7070.890426	6595.901667	1003.920898	138.470856
-7070.890426	6595.901667	1002.758789	95.416336
-7070.890426	6595.901667	1001.596680	167.744125
-7070.890426	6595.901667	1000.433594	193.207306
-7070.890426	6595.901667	999.271484	67.775864
-7070.890426	6595.901667	998.108398	44.116516
-7070.890426	6595.901667	996.945313	113.545586
-7070.890426	6595.901667	995.782227	114.059677
-7070.890426	6595.901667	994.618164	-66.654640
-7070.890426	6595.901667	993.454102	-114.098373
-7070.890426	6595.901667	992.290039	-16.260275
-7070.890426	6595.901667	991.125977	186.604309
-7070.890426	6595.901667	989.960938	133.332306
-7070.890426	6595.901667	988.796875	15.406674
-7070.890426	6595.901667	987.630859	-8.807452
-7070.890426	6595.901667	986.465820	203.664703
-7070.890426	6595.901667	985.300781	-56.764774
-7070.890426	6595.901667	984.134766	-64.193611
-7070.890426	6595.901667	982.968750	4.017947
-7070.890426	6595.901667	981.801758	88.880539
-7070.890426	6595.901667	980.635742	88.582413
-7070.890426	6595.901667	979.468750	116.553520
-7070.890426	6595.901667	978.301758	34.490299
-7070.890426	6595.901667	977.133789	-11.719696
-7070.890426	6595.901667	975.966797	102.829636
-7070.890426	6595.901667	974.798828	253.513474
-7070.890426	6595.901667	973.630859	-22.232456
-7070.890426	6595.901667	972.461914	-33.591911
-7070.890426	6595.901667	971.293945	59.320763
-7070.890426	6595.901667	970.125000	111.303528
-7070.890426	6595.901667	968.956055	129.635895
-7070.890426	6595.901667	967.786133	-147.413803
-7070.890426	6595.901667	966.617188	25.747202
-7070.890426	6595.901667	965.447266	15.439258
-7070.890426	6595.901667	964.276367	32.345470
-7070.890426	6595.901667	963.106445	-88.669914
-7070.890426	6595.901667	961.935547	-91.604919
-7070.890426	6595.901667	960.764648	-16.184895
-7070.890426	6595.901667	959.593750	-261.484528
-7070.890426	6595.901667	958.422852	-77.372498
-7070.890426	6595.901667	957.250977	-50.601959
-7070.890426	6595.901667	956.079102	206.145676
-7070.890426	6595.901667	954.907227	-229.581253
-7070.890426	6595.901667	953.734375	-49.883595
-7070.890426	6595.901667	952.562500	47.245495
-7070.890426	6595.901667	951.389648	49.691723
-7070.890426	6595.901667	950.215820	34.586414
-7070.890426	6595.901667	949.042969	-6.215930
-7070.890426	6595.901667	947.869141	-29.527859
-7070.890426	6595.901667	946.695313	6.275860
-7070.890426	6595.901667	945.521484	-72.688103
-7070.890426	6595.901667	944.346680	-39.233517
-7070.890426	6595.901667	943.172852	-148.343796
-7070.890426	6595.901667	941.998047	-86.926216
-7070.890426	6595.901667	940.822266	25.072397
-7070.890426	6595.901667	939.647461	33.625637
-7070.890426	6595.901667	938.471680	73.904358
-7070.890426	6595.901667	937.295898	38.438030
-7070.890426	6595.901667	936.119141	99.778130
-7070.890426	6595.901667	934.943359	144.285889
-7070.890426	6595.901667	933.766602	72.923195
-7070.890426	6595.901667	932.589844	149.078857
-7070.890426	6595.901667	931.413086	277.670288
-7070.890426	6595.901667	930.235352	187.405228
-7070.890426	6595.901667	929.057617	387.531799
-7070.890426	6595.901667	927.879883	30.265274
-7070.890426	6595.901667	926.702148	169.337479
-7070.890426	6595.901667	925.523438	161.233475
-7070.890426	6595.901667	924.344727	155.218979
-7070.890426	6595.901667	923.166016	39.924229
-7070.890426	6595.901667	921.987305	149.545898
-7070.890426	6595.901667	920.807617	86.846397
-7070.890426	6595.901667	919.627930	89.637283
-7070.890426	6595.901667	919.497070	-44.835754
-7070.890426	6595.901667	918.331055	39.533726
-7070.890426	6595.901667	917.165039	65.083496
-7070.890426	6595.901667	915.999023	-39.528885
-7070.890426	6595.901667	914.833008	-18.145887
-7070.890426	6595.901667	913.666016	-40.828304
-7070.890426	6595.901667	912.499023	-120.137749
-7070.890426	6595.901667	911.332031	-128.078796
-7070.890426	6595.901667	910.165039	-115.031052
-7070.890426	6595.901667	908.997070	-3.419542
-7070.890426	6595.901667	907.830078	-46.978294
-7070.890426	6595.901667	906.661133	-163.860901
-7070.890426	6595.901667	905.493164	-108.844879
-7070.890426	6595.901667	904.325195	-116.692184
-7070.890426	6595.901667	903.156250	-216.686234
-7070.890426	6595.901667	901.987305	-197.249146
-7070.890426	6595.901667	900.818359	75.555840
-7070.890426	6595.901667	899.648438	-28.554680
-7070.890426	6595.901667	898.478516	-38.419868
-7070.890426	6595.901667	897.308594	-242.876434
-7070.890426	6595.901667	896.138672	-87.379227
-7070.890426	6595.901667	894.968750	61.796543
-7070.890426	6595.901667	893.797852	1.798186
-7070.890426	6595.901667	892.626953	132.113571
-7070.890426	6595.901667	891.456055	182.954788
-7070.890426	6595.901667	890.284180	160.643951
-7070.890426	6595.901667	889.113281	50.593990
-7070.890426	6595.901667	887.941406	97.298576
-7070.890426	6595.901667	886.768555	110.584076
-7070.890426	6595.901667	885.596680	48.700191
-7070.890426	6595.901667	884.423828	87.082085
-7070.890426	6595.901667	883.250977	87.891281
-7070.890426	6595.901667	882.078125	-21.893606
-7070.890426	6595.901667	880.905273	-123.269531
-7070.890426	6595.901667	879.731445	-36.823502
-7070.890426	6595.901667	878.557617	5.804163
-7070.890426	6595.901667	877.383789	-16.211664
-7070.890426	6595.901667	876.209961	-17.351381
-7070.890426	6595.901667	875.035156	-168.550583
-7070.890426	6595.901667	873.860352	117.983871
-7070.890426	6595.901667	872.685547	64.788185
-7070.890426	6595.901667	871.510742	-5.032157
-7070.890426	6595.901667	870.334961	-99.795540
-7070.890426	6595.901667	869.159180	-104.958893
-7070.890426	6595.901667	867.983398	-51.806400
-7070.890426	6595.901667	866.807617	-171.422043
-7070.890426	6595.901667	865.630859	42.007645
-7070.890426	6595.901667	864.454102	-15.116944
-7070.890426	6595.901667	863.277344	25.573296
-7070.890426	6595.901667	862.100586	-43.963669
-7070.890426	6595.901667	860.922852	192.218475
-7070.890426	6595.901667	859.745117	-43.598167
-7070.890426	6595.901667	858.567383	-96.389236
-7070.890426	6595.901667	857.389648	-184.467316
-7070.890426	6595.901667	856.210938	-41.864590
-7070.890426	6595.901667	855.032227	65.384552
-7070.890426	6595.901667	853.853516	-128.529572
-7070.890426	6595.901667	852.674805	76.322609
-7070.890426	6595.901667	851.495117	142.022217
-7070.890426	6595.901667	850.315430	132.993744
-7070.890426	6595.901667	849.135742	57.584690
-7070.890426	6595.901667	847.956055	58.987286
-7070.890426	6595.901667	846.775391	-70.267136
-7070.890426	6595.901667	845.595703	-60.506409
-7070.890426	6595.901667	844.415039	-110.858124
-7070.890426	6595.901667	843.233398	102.100410
-7070.890426	6595.901667	842.052734	-14.549565
-7070.890426	6595.901667	840.871094	1.484323
-7070.890426	6595.901667	839.689453	-175.140259
-7070.890426	6595.901667	838.506836	14.944984
-7070.890426	6595.901667	837.325195	-43.537281
-7070.890426	6595.901667	836.142578	109.206375
-7070.890426	6595.901667	834.959961	-63.085415
-7070.890426	6595.901667	833.777344	-24.194189
-7070.890426	6595.901667	832.593750	18.838184
-7070.890426	6595.901667	831.410156	18.425070
-7070.890426	6595.901667	830.226563	-68.841072
-7070.890426	6595.901667	829.042969	-21.646124
-7070.890426	6595.901667	827.858398	-9.599325
-7070.890426	6595.901667	826.673828	56.198925
-7070.890426	6595.901667	825.489258	51.719952
-7070.890426	6595.901667	824.304688	119.571777
-7070.890426	6595.901667	823.120117	-89.400261
-7070.890426	6595.901667	821.934570	-7.062257
-7070.890426	6595.901667	820.749023	-108.519592
-7070.890426	6595.901667	819.562500	-38.570980
-7070.890426	6595.901667	818.376953	47.869034
-7070.890426	6595.901667	817.190430	-109.217476
-7070.890426	6595.901667	816.003906	-51.657642
-7070.890426	6595.901667	814.817383	7.950424
-7070.890426	6595.901667	813.629883	-35.568951
-7070.890426	6595.901667	812.442383	-25.452143
-7070.890426	6595.901667	811.254883	145.464432
-7070.890426	6595.901667	810.067383	23.650007
-7070.890426	6595.901667	808.878906	-147.559387
-7070.890426	6595.901667	807.690430	-195.077927
-7070.890426	6595.901667	806.501953	-127.222549
-7070.890426	6595.901667	805.313477	115.654671
-7070.890426	6595.901667	804.124023	-18.342697
-7070.890426	6595.901667	802.934570	-102.874977
-7070.890426	6595.901667	801.745117	-47.418327
-7070.890426	6595.901667	800.555664	14.190761
-7070.890426	6595.901667	799.365234	-59.993973
-7070.890426	6595.901667	798.175781	-60.105209
-7070.890426	6595.901667	796.985352	-58.154026
-7070.890426	6595.901667	795.793945	108.276939
-7070.890426	6595.901667	794.603516	44.418247
-7070.890426	6595.901667	793.412109	50.462898
-7070.890426	6595.901667	792.220703	-77.048378
-7070.890426	6595.901667	791.028320	-319.541382
-7070.890426	6595.901667	789.836914	-71.078568
-7070.890426	6595.901667	788.644531	-30.108568
-7070.890426	6595.901667	787.452148	-30.218622
-7070.890426	6595.901667	786.258789	-122.692009
-7070.890426	6595.901667	785.066406	-233.604843
-7070.890426	6595.901667	783.873047	-24.410730
-7070.890426	6595.901667	782.679688	-57.357071
-7070.890426	6595.901667	781.485352	-96.444977
-7070.890426	6595.901667	780.291992	-110.922440
-7070.890426	6595.901667	779.097656	28.349640
-7070.890426	6595.901667	777.903320	44.581852
-7070.890426	6595.901667	776.708008	-49.851002
-7070.890426	6595.901667	775.512695	-220.057663
-7070.890426	6595.901667	774.318359	-17.421286
-7070.890426	6595.901667	773.122070	-101.572861
-7070.890426	6595.901667	771.926758	-77.192513
-7070.890426	6595.901667	770.730469	-26.221392
-7070.890426	6595.901667	769.534180	-3.937194
-7070.890426	6595.901667	768.337891	120.629990
-7070.890426	6595.901667	767.141602	-98.551910
-7070.890426	6595.901667	765.944336	132.309708
-7070.890426	6595.901667	764.747070	29.742849
-7070.890426	6595.901667	763.549805	-38.043358
-7070.890426	6595.901667	762.351563	78.144974
-7070.890426	6595.901667	761.154297	8.293513
-7070.890426	6595.901667	759.956055	244.929520
-7070.890426	6595.901667	758.757813	130.092758
-7070.890426	6595.901667	757.558594	174.586395
-7070.890426	6595.901667	756.359375	151.654327
-7070.890426	6595.901667	755.160156	185.868927
-7070.890426	6595.901667	753.960938	17.980291
-7070.890426	6595.901667	752.761719	176.634018
-7070.890426	6595.901667	751.561523	-48.358074
-7070.890426	6595.901667	750.361328	220.338806
-7070.890426	6595.901667	749.160156	11.691710
-7070.890426	6595.901667	747.959961	282.244293
-7070.890426	6595.901667	746.758789	318.230316
-7070.890426	6595.901667	745.557617	260.417267
-7070.890426	6595.901667	744.356445	396.172394
-7070.890426	6595.901667	743.154297	324.043640
-7070.890426	6595.901667	741.952148	184.696030
-7070.890426	6595.901667	740.750000	49.444027
-7070.890426	6595.901667	739.547852	223.675385
-7070.890426	6595.901667	738.344727	161.679138
-7070.890426	6595.901667	737.142578	105.771873
-7070.890426	6595.901667	735.939453	-45.777054
-7070.890426	6595.901667	734.735352	87.493233
-7070.890426	6595.901667	733.532227	188.122177
-7070.890426	6595.901667	732.328125	73.130875
-7070.890426	6595.901667	731.124023	287.484406
-7070.890426	6595.901667	729.918945	278.126770
-7070.890426	6595.901667	728.714844	45.192436
-7070.890426	6595.901667	727.509766	88.622139
-7070.890426	6595.901667	726.303711	20.268316
-7070.890426	6595.901667	725.098633	-62.323231
-7070.890426	6595.901667	723.892578	5.324128
-7070.890426	6595.901667	722.686523	22.142504
-7070.890426	6595.901667	721.480469	63.257896
-7070.890426	6595.901667	720.274414	71.837326
-7070.890426	6595.901667	719.067383	175.712143
-7070.890426	6595.901667	717.860352	-75.461739
-7070.890426	6595.901667	716.653320	52.624306
-7070.890426	6595.901667	715.445313	-24.168228
-7070.890426	6595.901667	714.238281	83.470901
-7070.890426	6595.901667	713.030273	116.024391
-7070.890426	6595.901667	711.821289	221.449158
-7070.890426	6595.901667	710.613281	83.677811
-7070.890426	6595.901667	709.404297	81.601929
-7070.890426	6595.901667	708.195313	152.360245
-7070.890426	6595.901667	706.986328	172.414688
-7070.890426	6595.901667	705.776367	153.940857
-7070.890426	6595.901667	704.566406	36.252422
-7070.890426	6595.901667	703.356445	-6.594904
-7070.890426	6595.901667	702.146484	223.583511
-7070.890426	6595.901667	700.935547	231.139801
-7070.890426	6595.901667	699.724609	68.783379
-7070.890426	6595.901667	698.513672	221.777985
-7070.890426	6595.901667	697.302734	138.171555
-7070.890426	6595.901667	696.090820	8.056245
-7070.890426	6595.901667	694.878906	71.862411
-7070.890426	6595.901667	693.666992	-40.153011
-7070.890426	6595.901667	692.455078	29.546206
-7070.890426	6595.901667	691.242188	127.407486
-7070.890426	6595.901667	690.029297	138.354599
-7070.890426	6595.901667	688.816406	240.034164
-7070.890426	6595.901667	687.602539	184.214722
-7070.890426	6595.901667	686.389648	340.149567
-7070.890426	6595.901667	685.175781	179.297455
-7070.890426	6595.901667	683.960938	199.909348
-7070.890426	6595.901667	682.747070	240.589523
-7070.890426	6595.901667	681.532227	319.465363
-7070.890426	6595.901667	680.317383	120.136955
-7070.890426	6595.901667	679.102539	297.557648
-7070.890426	6595.901667	677.886719	63.904686
-7070.890426	6595.901667	676.670898	218.938599
-7070.890426	6595.901667	675.455078	253.014084
-7070.890426	6595.901667	674.239258	329.260284
-7070.890426	6595.901667	673.022461	238.341537
-7070.890426	6595.901667	671.805664	133.286255
-7070.890426	6595.901667	670.588867	360.122040
-7070.890426	6595.901667	669.372070	196.575714
-7070.890426	6595.901667	668.154297	125.507690
-7070.890426	6595.901667	666.936523	359.967194
-7070.890426	6595.901667	665.718750	111.825653
-7070.890426	6595.901667	664.500977	231.453491
-7070.890426	6595.901667	663.282227	166.090744
-7070.890426	6595.901667	662.063477	339.703003
-7070.890426	6595.901667	660.844727	262.103149
-7070.890426	6595.901667	659.625000	204.517349
-7070.890426	6595.901667	658.405273	134.812836
-7070.890426	6595.901667	657.185547	342.016388
-7070.890426	6595.901667	655.965820	332.314972
-7070.890426	6595.901667	654.745117	262.331940
-7070.890426	6595.901667	653.525391	91.987846
-7070.890426	6595.901667	652.303711	164.264969
-7070.890426	6595.901667	651.083008	162.226929
-7070.890426	6595.901667	649.861328	184.142136
-7070.890426	6595.901667	648.640625	17.560760
-7070.890426	6595.901667	647.417969	33.279598
-7070.890426	6595.901667	646.196289	227.179718
-7070.890426	6595.901667	644.973633	260.665649
-7070.890426	6595.901667	643.750977	326.071625
-7070.890426	6595.901667	642.528320	201.157028
-7070.890426	6595.901667	641.305664	206.291641
-7070.890426	6595.901667	640.082031	177.297272
-7070.890426	6595.901667	638.858398	168.216553
-7070.890426	6595.901667	637.634766	43.015991
-7070.890426	6595.901667	636.410156	229.739853
-7070.890426	6595.901667	635.185547	152.350021
-7070.890426	6595.901667	633.960938	262.794525
-7070.890426	6595.901667	632.736328	129.254745
-7070.890426	6595.901667	631.510742	153.517914
-7070.890426	6595.901667	630.285156	195.641998
-7070.890426	6595.901667	629.059570	81.847572
-7070.890426	6595.901667	627.833984	-8.043238
-7070.890426	6595.901667	626.607422	-58.078461
-7070.890426	6595.901667	625.380859	99.389183
-7070.890426	6595.901667	624.154297	-134.464584
-7070.890426	6595.901667	622.927734	46.676594
-7070.890426	6595.901667	621.700195	50.092567
-7070.890426	6595.901667	620.472656	91.289444
-7070.890426	6595.901667	619.245117	86.499657
-7070.890426	6595.901667	618.016602	199.215775
-7070.890426	6595.901667	616.788086	-146.637848
-7070.890426	6595.901667	615.559570	111.326622
-7070.890426	6595.901667	614.331055	104.102448
-7070.890426	6595.901667	613.101563	216.277618
-7070.890426	6595.901667	611.872070	105.258415
-7070.890426	6595.901667	610.642578	33.996193
-7070.890426	6595.901667	609.413086	-73.173874
-7070.890426	6595.901667	608.182617	201.693390
-7070.890426	6595.901667	606.952148	104.258583
-7070.890426	6595.901667	605.721680	92.296417
-7070.890426	6595.901667	604.491211	-130.588318
-7070.890426	6595.901667	603.259766	-17.444826
-7070.890426	6595.901667	602.028320	-31.691172
-7070.890426	6595.901667	600.796875	-173.244949
-7070.890426	6595.901667	599.564453	158.097397
-7070.890426	6595.901667	598.332031	75.946457
-7070.890426	6595.901667	597.099609	-20.179764
-7070.890426	6595.901667	595.867188	-52.822773
-7070.890426	6595.901667	594.633789	-129.244095
-7070.890426	6595.901667	593.400391	-102.514381
-7070.890426	6595.901667	592.166992	-141.394775
-7070.890426	6595.901667	590.933594	-25.593731
-7070.890426	6595.901667	589.699219	-142.055588
-7070.890426	6595.901667	588.464844	-36.433582
-7070.890426	6595.901667	587.230469	126.545387
-7070.890426	6595.901667	585.995117	67.304962
-7070.890426	6595.901667	584.760742	130.883575
-7070.890426	6595.901667	583.525391	2.104384
-7070.890426	6595.901667	582.289063	114.988388
-7070.890426	6595.901667	581.053711	25.683937
-7070.890426	6595.901667	579.817383	41.275509
-7070.890426	6595.901667	578.581055	46.860683
-7070.890426	6595.901667	577.343750	42.442814
-7070.890426	6595.901667	576.107422	95.331093
-7070.890426	6595.901667	574.870117	108.519646
-7070.890426	6595.901667	573.631836	48.403675
-7070.890426	6595.901667	572.394531	-31.553801
-7070.890426	6595.901667	571.156250	-18.636372
-7070.890426	6595.901667	569.917969	87.103828
-7070.890426	6595.901667	568.679688	-28.675003
-7070.890426	6595.901667	567.440430	-31.858585
-7070.890426	6595.901667	566.202148	-52.905956
-7070.890426	6595.901667	564.961914	54.350742
-7070.890426	6595.901667	563.722656	-20.213253
-7070.890426	6595.901667	562.482422	136.178207
-7070.890426	6595.901667	561.243164	189.770798
-7070.890426	6595.901667	560.001953	182.057831
-7070.890426	6595.901667	558.761719	164.404663
-7070.890426	6595.901667	557.520508	172.316498
-7070.890426	6595.901667	556.279297	-157.136780
-7070.890426	6595.901667	555.038086	-92.135628
-7070.890426	6595.901667	553.795898	-60.766460
-7070.890426	6595.901667	552.554688	-98.470139
-7070.890426	6595.901667	551.311523	9.582414
-7070.890426	6595.901667	550.069336	-67.687386
-7070.890426	6595.901667	548.826172	26.371420
-7070.890426	6595.901667	547.583984	128.201294
-7070.890426	6595.901667	546.339844	64.501793
-7070.890426	6595.901667	545.096680	-85.851845
-7070.890426	6595.901667	543.852539	-13.815484
-7070.890426	6595.901667	542.608398	-79.621201
-7070.890426	6595.901667	541.364258	-21.525503
-7070.890426	6595.901667	540.119141	-20.569365
-7070.890426	6595.901667	538.875000	76.687515
-7070.890426	6595.901667	537.628906	-262.644165
-7070.890426	6595.901667	536.383789	-100.646118
-7070.890426	6595.901667	535.137695	-139.238678
-7070.890426	6595.901667	533.892578	-36.402069
-7070.890426	6595.901667	532.645508	-200.840576
-7070.890426	6595.901667	531.399414	-62.807232
-7070.890426	6595.901667	530.152344	86.883713
-7070.890426	6595.901667	528.905273	-254.325439
-7070.890426	6595.901667	527.658203	-257.857208
-7070.890426	6595.901667	526.410156	-232.014694
-7070.890426	6595.901667	525.163086	-231.729752
-7070.890426	6595.901667	523.914063	-0.061996
-7070.890426	6595.901667	522.666016	-168.582016
-7070.890426	6595.901667	521.416992	-254.740372
-7070.890426	6595.901667	520.167969	-109.607262
-7070.890426	6595.901667	518.918945	-233.067154
-7070.890426	6595.901667	517.669922	-103.764328
-7070.890426	6595.901667	516.419922	-96.020805
-7070.890426	6595.901667	515.169922	-137.284637
-7070.890426	6595.901667	513.919922	-251.019470
-7070.890426	6595.901667	512.668945	-104.385361
-7070.890426	6595.901667	511.417969	-104.644806
-7070.890426	6595.901667	510.166992	-157.775177
-7070.890426	6595.901667	508.916016	-101.360359
-7070.890426	6595.901667	507.664063	-64.573273
-7070.890426	6595.901667	506.412109	93.408531
-7070.890426	6595.901667	505.160156	67.506966
-7070.890426	6595.901667	503.907227	-42.476456
-7070.890426	6595.901667	502.655273	-72.308876
-7070.890426	6595.901667	501.402344	-63.089523
-7070.890426	6595.901667	500.148438	-229.722855
-7070.890426	6595.901667	498.895508	-7.652797
-7070.890426	6595.901667	497.641602	-33.694611
-7070.890426	6595.901667	496.387695	-104.652931
-7070.890426	6595.901667	495.132813	-52.654408
-7070.890426	6595.901667	493.878906	57.845284
-7070.890426	6595.901667	492.624023	162.409439
-7070.890426	6595.901667	491.368164	-27.630426
-7070.890426	6595.901667	490.113281	41.757244
-7070.890426	6595.901667	488.857422	40.895245
-7070.890426	6595.901667	487.601563	127.724754
-7070.890426	6595.901667	486.344727	117.043411
-7070.890426	6595.901667	485.088867	36.210743
-7070.890426	6595.901667	483.832031	124.854820
-7070.890426	6595.901667	482.575195	75.161720
-7070.890426	6595.901667	481.317383	72.188484
-7070.890426	6595.901667	480.059570	150.955048
-7070.890426	6595.901667	478.801758	326.980743
-7070.890426	6595.901667	477.543945	78.703728
-7070.890426	6595.901667	476.285156	133.992218
-7070.890426	6595.901667	475.027344	366.241425
-7070.890426	6595.901667	473.767578	151.082764
-7070.890426	6595.901667	472.508789	95.425575
-7070.890426	6595.901667	471.249023	107.788338
-7070.890426	6595.901667	469.989258	355.266479
-7070.890426	6595.901667	468.729492	142.129517
-7070.890426	6595.901667	467.469727	43.665413
-7070.890426	6595.901667	466.208984	102.513817
-7070.890426	6595.901667	464.948242	215.671112
-7070.890426	6595.901667	463.686523	-16.809256
-7070.890426	6595.901667	462.425781	313.632141
-7070.890426	6595.901667	461.164063	32.647305
-7070.890426	6595.901667	459.901367	159.137589
-7070.890426	6595.901667	458.639648	79.945366
-7070.890426	6595.901667	457.376953	334.272827
-7070.890426	6595.901667	456.114258	49.470020
-7070.890426	6595.901667	454.851563	-47.239956
-7070.890426	6595.901667	453.587891	311.442963
-7070.890426	6595.901667	452.324219	117.728813
-7070.890426	6595.901667	451.060547	228.163406
-7070.890426	6595.901667	449.796875	284.264069
-7070.890426	6595.901667	448.532227	164.068344
-7070.890426	6595.901667	447.267578	291.644012
-7070.890426	6595.901667	446.002930	339.741302
-7070.890426	6595.901667	444.737305	304.527802
-7070.890426	6595.901667	443.471680	234.429321
-7070.890426	6595.901667	442.206055	202.960037
-7070.890426	6595.901667	440.940430	266.170135
-7070.890426	6595.901667	439.673828	124.317909
-7070.890426	6595.901667	438.407227	388.336334
-7070.890426	6595.901667	437.140625	271.439880
-7070.890426	6595.901667	435.873047	338.020782
-7070.890426	6595.901667	434.605469	247.994812
-7070.890426	6595.901667	433.337891	374.184204
-7070.890426	6595.901667	432.070313	256.910828
-7070.890426	6595.901667	430.801758	187.802811
-7070.890426	6595.901667	429.533203	213.153214
-7070.890426	6595.901667	428.264648	485.327118
-7070.890426	6595.901667	426.996094	427.347504
-7070.890426	6595.901667	425.726563	74.126045
-7070.890426	6595.901667	424.457031	239.597687
-7070.890426	6595.901667	423.186523	140.687897
-7070.890426	6595.901667	421.916992	166.929932
-7070.890426	6595.901667	420.646484	410.707550
-7070.890426	6595.901667	419.375977	274.629700
-7070.890426	6595.901667	418.104492	234.693268
-7070.890426	6595.901667	416.833008	338.982391
-7070.890426	6595.901667	415.561523	342.871674
-7070.890426	6595.901667	414.290039	111.668022
-7070.890426	6595.901667	413.017578	36.181557
-7070.890426	6595.901667	411.746094	222.151474
-7070.890426	6595.901667	410.472656	105.713058
-7070.890426	6595.901667	409.200195	-47.496685
-7070.890426	6595.901667	407.926758	81.701515
-7070.890426	6595.901667	406.653320	-37.471027
-7070.890426	6595.901667	405.379883	-39.679867
-7070.890426	6595.901667	404.105469	80.734215
-7070.890426	6595.901667	402.831055	235.317154
-7070.890426	6595.901667	401.556641	126.310303
-7070.890426	6595.901667	400.282227	239.722122
-7070.890426	6595.901667	399.006836	147.229401
-7070.890426	6595.901667	397.731445	71.629265
-7070.890426	6595.901667	396.456055	183.695404
-7070.890426	6595.901667	395.179688	218.491776
-7070.890426	6595.901667	393.903320	62.888214
-7070.890426	6595.901667	392.626953	455.367828
-7070.890426	6595.901667	391.350586	137.711975
-7070.890426	6595.901667	390.073242	197.299454
-7070.890426	6595.901667	388.795898	304.223969
-7070.890426	6595.901667	387.518555	134.600311
-7070.890426	6595.901667	386.240234	-110.277840
-7070.890426	6595.901667	384.961914	127.006058
-7070.890426	6595.901667	383.683594	273.549347
-7070.890426	6595.901667	382.405273	162.821854
-7070.890426	6595.901667	381.125977	20.813162
-7070.890426	6595.901667	379.846680	-22.330332
-7070.890426	6595.901667	378.567383	48.611267
-7070.890426	6595.901667	377.287109	130.217682
-7070.890426	6595.901667	376.006836	86.695488
-7070.890426	6595.901667	374.726563	241.232285
-7070.890426	6595.901667	373.446289	217.083389
-7070.890426	6595.901667	372.165039	79.293030
-7070.890426	6595.901667	370.883789	267.409119
-7070.890426	6595.901667	369.602539	152.680954
-7070.890426	6595.901667	368.320313	88.586876
-7070.890426	6595.901667	367.039063	-45.181496
-7070.890426	6595.901667	365.755859	66.307236
-7070.890426	6595.901667	364.473633	-80.951561
-7070.890426	6595.901667	363.190430	-97.591583
-7070.890426	6595.901667	361.907227	-63.833931
-7070.890426	6595.901667	360.624023	94.644257
-7070.890426	6595.901667	359.340820	-76.149445
-7070.890426	6595.901667	358.056641	127.471878
-7070.890426	6595.901667	356.772461	47.616184
-7070.890426	6595.901667	355.487305	-107.875160
-7070.890426	6595.901667	354.202148	104.995461
-7070.890426	6595.901667	352.916992	144.938141
-7070.890426	6595.901667	351.631836	53.921825
-7070.890426	6595.901667	350.346680	-46.144066
-7070.890426	6595.901667	349.060547	69.298286
-7070.890426	6595.901667	347.774414	40.378700
-7070.890426	6595.901667	346.487305	-49.170742
-7070.890426	6595.901667	345.200195	-88.971992
-7070.890426	6595.901667	343.913086	-84.813118
-7070.890426	6595.901667	342.625977	-70.998871
-7070.890426	6595.901667	341.338867	-78.007866
-7070.890426	6595.901667	340.050781	-159.149261
-7070.890426	6595.901667	338.762695	-130.042130
-7070.890426	6595.901667	337.473633	-165.662964
-7070.890426	6595.901667	336.184570	-76.018150
-7070.890426	6595.901667	334.895508	-94.840118
-7070.890426	6595.901667	333.606445	-106.292198
-7070.890426	6595.901667	332.317383	-53.488083
-7070.890426	6595.901667	331.027344	-58.058907
-7070.890426	6595.901667	329.736328	-161.776428
-7070.890426	6595.901667	328.446289	-184.291428
-7070.890426	6595.901667	327.155273	12.607668
-7070.890426	6595.901667	325.864258	-240.601303
-7070.890426	6595.901667	324.573242	-319.959778
-7070.890426	6595.901667	323.281250	-316.703979
-7070.890426	6595.901667	321.989258	-77.389847
-7070.890426	6595.901667	320.697266	64.306137
-7070.890426	6595.901667	319.405273	11.772458
-7070.890426	6595.901667	318.112305	9.278265
-7070.890426	6595.901667	316.819336	-39.771126
-7070.890426	6595.901667	315.526367	29.268072
-7070.890426	6595.901667	314.232422	269.138824
-7070.890426	6595.901667	312.938477	257.790436
-7070.890426	6595.901667	311.644531	163.670532
-7070.890426	6595.901667	310.349609	217.388748
-7070.890426	6595.901667	309.054688	191.949356
-7070.890426	6595.901667	307.759766	367.105621
-7070.890426	6595.901667	306.464844	326.827911
-7070.890426	6595.901667	305.168945	401.745331
-7070.890426	6595.901667	303.873047	502.996643
-7070.890426	6595.901667	302.577148	430.259827
-7070.890426	6595.901667	301.281250	937.019714
-7070.890426	6595.901667	299.984375	938.978149
