#X		#Y		#Wave		#Intensity
-7258.878723	6556.728333	1999.946289	71.069580
-7258.878723	6556.728333	1998.981445	-26.052433
-7258.878723	6556.728333	1998.017578	-69.678452
-7258.878723	6556.728333	1997.052734	52.827137
-7258.878723	6556.728333	1996.088867	21.757757
-7258.878723	6556.728333	1995.124023	50.230896
-7258.878723	6556.728333	1994.159180	26.760361
-7258.878723	6556.728333	1993.193359	211.379761
-7258.878723	6556.728333	1992.228516	180.611984
-7258.878723	6556.728333	1991.262695	78.140205
-7258.878723	6556.728333	1990.296875	40.124546
-7258.878723	6556.728333	1989.331055	165.504456
-7258.878723	6556.728333	1988.365234	-176.677032
-7258.878723	6556.728333	1987.398438	32.926777
-7258.878723	6556.728333	1986.432617	-24.573025
-7258.878723	6556.728333	1985.465820	63.892048
-7258.878723	6556.728333	1984.499023	41.137135
-7258.878723	6556.728333	1983.532227	-100.191574
-7258.878723	6556.728333	1982.565430	-51.127560
-7258.878723	6556.728333	1981.597656	69.623711
-7258.878723	6556.728333	1980.629883	94.041298
-7258.878723	6556.728333	1979.662109	-17.340796
-7258.878723	6556.728333	1978.694336	39.287323
-7258.878723	6556.728333	1977.726563	21.874750
-7258.878723	6556.728333	1976.758789	-47.322758
-7258.878723	6556.728333	1975.790039	169.839386
-7258.878723	6556.728333	1974.821289	-91.741440
-7258.878723	6556.728333	1973.852539	88.427895
-7258.878723	6556.728333	1972.883789	-131.024673
-7258.878723	6556.728333	1971.915039	-56.880863
-7258.878723	6556.728333	1970.945313	56.724472
-7258.878723	6556.728333	1969.975586	125.949829
-7258.878723	6556.728333	1969.005859	49.760635
-7258.878723	6556.728333	1968.036133	168.317673
-7258.878723	6556.728333	1967.066406	-80.256378
-7258.878723	6556.728333	1966.096680	-92.216705
-7258.878723	6556.728333	1965.125977	-126.310616
-7258.878723	6556.728333	1964.155273	39.101761
-7258.878723	6556.728333	1963.184570	41.984520
-7258.878723	6556.728333	1962.213867	-134.804657
-7258.878723	6556.728333	1961.242188	-163.834167
-7258.878723	6556.728333	1960.271484	-30.422384
-7258.878723	6556.728333	1959.299805	11.933331
-7258.878723	6556.728333	1958.328125	98.571533
-7258.878723	6556.728333	1957.356445	47.476959
-7258.878723	6556.728333	1956.384766	80.022552
-7258.878723	6556.728333	1955.412109	-39.846657
-7258.878723	6556.728333	1954.439453	-51.504032
-7258.878723	6556.728333	1953.467773	74.480217
-7258.878723	6556.728333	1952.495117	-79.669159
-7258.878723	6556.728333	1951.521484	-24.937973
-7258.878723	6556.728333	1950.548828	98.558830
-7258.878723	6556.728333	1949.575195	-1.442644
-7258.878723	6556.728333	1948.601563	9.089034
-7258.878723	6556.728333	1947.627930	-39.286015
-7258.878723	6556.728333	1946.654297	52.261883
-7258.878723	6556.728333	1945.680664	-20.622158
-7258.878723	6556.728333	1944.706055	-5.149004
-7258.878723	6556.728333	1943.732422	2.968205
-7258.878723	6556.728333	1942.757813	45.422890
-7258.878723	6556.728333	1941.783203	136.908127
-7258.878723	6556.728333	1940.807617	-2.081761
-7258.878723	6556.728333	1939.833008	23.208334
-7258.878723	6556.728333	1938.857422	87.702911
-7258.878723	6556.728333	1937.881836	-21.786257
-7258.878723	6556.728333	1936.906250	25.549667
-7258.878723	6556.728333	1935.930664	-17.753414
-7258.878723	6556.728333	1934.955078	27.118250
-7258.878723	6556.728333	1933.978516	67.076080
-7258.878723	6556.728333	1933.001953	38.476826
-7258.878723	6556.728333	1932.025391	22.125004
-7258.878723	6556.728333	1931.048828	15.564890
-7258.878723	6556.728333	1930.072266	4.112259
-7258.878723	6556.728333	1929.094727	53.811890
-7258.878723	6556.728333	1928.118164	-62.811897
-7258.878723	6556.728333	1927.140625	-32.687454
-7258.878723	6556.728333	1926.163086	-22.136644
-7258.878723	6556.728333	1925.184570	71.509377
-7258.878723	6556.728333	1924.207031	57.587505
-7258.878723	6556.728333	1923.228516	-44.296413
-7258.878723	6556.728333	1922.250000	93.253601
-7258.878723	6556.728333	1921.271484	-3.728795
-7258.878723	6556.728333	1920.292969	77.581581
-7258.878723	6556.728333	1919.314453	105.139320
-7258.878723	6556.728333	1918.334961	81.414558
-7258.878723	6556.728333	1917.355469	-93.628281
-7258.878723	6556.728333	1916.375977	-102.684952
-7258.878723	6556.728333	1915.396484	-65.395073
-7258.878723	6556.728333	1914.416992	-45.204403
-7258.878723	6556.728333	1913.436523	192.018845
-7258.878723	6556.728333	1912.457031	143.857483
-7258.878723	6556.728333	1911.476563	-48.133484
-7258.878723	6556.728333	1910.496094	54.862568
-7258.878723	6556.728333	1909.515625	-68.830528
-7258.878723	6556.728333	1908.534180	-77.975067
-7258.878723	6556.728333	1907.552734	61.468792
-7258.878723	6556.728333	1906.572266	-18.356514
-7258.878723	6556.728333	1905.590820	-0.761326
-7258.878723	6556.728333	1904.608398	-41.621025
-7258.878723	6556.728333	1903.626953	-67.874428
-7258.878723	6556.728333	1902.644531	-4.084384
-7258.878723	6556.728333	1901.663086	-32.799488
-7258.878723	6556.728333	1900.680664	-61.520615
-7258.878723	6556.728333	1899.698242	-104.842026
-7258.878723	6556.728333	1898.714844	-65.478203
-7258.878723	6556.728333	1897.732422	134.333908
-7258.878723	6556.728333	1896.749023	54.482529
-7258.878723	6556.728333	1895.765625	198.258240
-7258.878723	6556.728333	1894.782227	-97.893890
-7258.878723	6556.728333	1893.798828	38.531746
-7258.878723	6556.728333	1892.814453	-24.310745
-7258.878723	6556.728333	1891.831055	80.438637
-7258.878723	6556.728333	1890.846680	-45.561558
-7258.878723	6556.728333	1889.862305	66.397385
-7258.878723	6556.728333	1888.877930	-23.180843
-7258.878723	6556.728333	1887.892578	-44.790627
-7258.878723	6556.728333	1886.908203	33.075718
-7258.878723	6556.728333	1885.922852	108.465744
-7258.878723	6556.728333	1884.937500	-51.476162
-7258.878723	6556.728333	1883.952148	35.986641
-7258.878723	6556.728333	1882.965820	11.859216
-7258.878723	6556.728333	1881.980469	-97.126900
-7258.878723	6556.728333	1880.994141	-26.734371
-7258.878723	6556.728333	1880.007813	16.953777
-7258.878723	6556.728333	1879.021484	31.530178
-7258.878723	6556.728333	1878.035156	-48.394474
-7258.878723	6556.728333	1877.047852	-45.965599
-7258.878723	6556.728333	1876.061523	9.715623
-7258.878723	6556.728333	1875.074219	75.036697
-7258.878723	6556.728333	1874.086914	96.740936
-7258.878723	6556.728333	1873.098633	-36.476803
-7258.878723	6556.728333	1872.111328	55.366943
-7258.878723	6556.728333	1871.123047	101.186890
-7258.878723	6556.728333	1870.135742	188.088196
-7258.878723	6556.728333	1869.147461	42.772102
-7258.878723	6556.728333	1868.158203	15.963075
-7258.878723	6556.728333	1867.169922	20.569141
-7258.878723	6556.728333	1866.180664	17.898378
-7258.878723	6556.728333	1865.192383	-88.703590
-7258.878723	6556.728333	1864.203125	48.733337
-7258.878723	6556.728333	1863.213867	12.171027
-7258.878723	6556.728333	1862.223633	4.579533
-7258.878723	6556.728333	1861.234375	28.360825
-7258.878723	6556.728333	1860.244141	139.020981
-7258.878723	6556.728333	1859.253906	124.098640
-7258.878723	6556.728333	1858.263672	10.210928
-7258.878723	6556.728333	1857.273438	60.419823
-7258.878723	6556.728333	1856.282227	120.233856
-7258.878723	6556.728333	1855.291992	30.460060
-7258.878723	6556.728333	1854.300781	136.029572
-7258.878723	6556.728333	1853.309570	-11.628192
-7258.878723	6556.728333	1852.317383	117.966393
-7258.878723	6556.728333	1851.326172	216.158173
-7258.878723	6556.728333	1850.333984	203.439636
-7258.878723	6556.728333	1849.342773	65.421837
-7258.878723	6556.728333	1848.350586	59.915527
-7258.878723	6556.728333	1847.357422	162.761963
-7258.878723	6556.728333	1846.365234	39.203178
-7258.878723	6556.728333	1845.372070	-120.446266
-7258.878723	6556.728333	1844.379883	-36.950092
-7258.878723	6556.728333	1843.386719	17.610182
-7258.878723	6556.728333	1842.393555	-60.209301
-7258.878723	6556.728333	1841.399414	225.227631
-7258.878723	6556.728333	1840.406250	41.521233
-7258.878723	6556.728333	1839.412109	-82.023483
-7258.878723	6556.728333	1838.417969	-32.436199
-7258.878723	6556.728333	1837.423828	38.743076
-7258.878723	6556.728333	1836.429688	47.383514
-7258.878723	6556.728333	1835.434570	128.082596
-7258.878723	6556.728333	1834.440430	11.725993
-7258.878723	6556.728333	1833.445313	37.107265
-7258.878723	6556.728333	1832.450195	-79.238190
-7258.878723	6556.728333	1831.454102	51.749920
-7258.878723	6556.728333	1830.458984	108.246536
-7258.878723	6556.728333	1829.462891	-22.521872
-7258.878723	6556.728333	1828.466797	38.717026
-7258.878723	6556.728333	1827.470703	18.332422
-7258.878723	6556.728333	1826.474609	137.066071
-7258.878723	6556.728333	1825.478516	78.248589
-7258.878723	6556.728333	1824.481445	-52.511040
-7258.878723	6556.728333	1823.484375	-25.009705
-7258.878723	6556.728333	1822.487305	218.192596
-7258.878723	6556.728333	1821.490234	15.511948
-7258.878723	6556.728333	1820.493164	54.895187
-7258.878723	6556.728333	1819.495117	-8.777310
-7258.878723	6556.728333	1818.498047	-14.960433
-7258.878723	6556.728333	1817.500000	-128.932587
-7258.878723	6556.728333	1816.500977	-10.636165
-7258.878723	6556.728333	1815.502930	121.957993
-7258.878723	6556.728333	1814.504883	70.184311
-7258.878723	6556.728333	1813.505859	-110.816208
-7258.878723	6556.728333	1812.506836	160.417114
-7258.878723	6556.728333	1811.507813	36.832119
-7258.878723	6556.728333	1810.508789	-31.721987
-7258.878723	6556.728333	1809.508789	36.021690
-7258.878723	6556.728333	1808.508789	-1.474606
-7258.878723	6556.728333	1807.508789	-172.835297
-7258.878723	6556.728333	1806.508789	4.760999
-7258.878723	6556.728333	1805.508789	-20.828691
-7258.878723	6556.728333	1804.508789	53.903049
-7258.878723	6556.728333	1803.507813	68.869972
-7258.878723	6556.728333	1802.506836	-88.128143
-7258.878723	6556.728333	1801.505859	-23.045300
-7258.878723	6556.728333	1800.504883	-3.364305
-7258.878723	6556.728333	1799.502930	44.924221
-7258.878723	6556.728333	1798.501953	188.624069
-7258.878723	6556.728333	1797.500000	55.496548
-7258.878723	6556.728333	1796.498047	-79.987518
-7258.878723	6556.728333	1795.496094	-27.038002
-7258.878723	6556.728333	1794.493164	28.251369
-7258.878723	6556.728333	1793.491211	-207.341293
-7258.878723	6556.728333	1792.488281	45.749340
-7258.878723	6556.728333	1791.485352	179.570343
-7258.878723	6556.728333	1790.482422	13.111594
-7258.878723	6556.728333	1789.478516	-0.850150
-7258.878723	6556.728333	1788.475586	159.039108
-7258.878723	6556.728333	1787.471680	-0.243365
-7258.878723	6556.728333	1786.467773	4.789052
-7258.878723	6556.728333	1785.463867	-6.863516
-7258.878723	6556.728333	1784.459961	24.305882
-7258.878723	6556.728333	1783.455078	-32.599907
-7258.878723	6556.728333	1782.450195	3.276924
-7258.878723	6556.728333	1781.445313	51.012180
-7258.878723	6556.728333	1780.440430	60.659698
-7258.878723	6556.728333	1779.435547	-22.443977
-7258.878723	6556.728333	1778.429688	134.556351
-7258.878723	6556.728333	1777.424805	122.732391
-7258.878723	6556.728333	1776.418945	99.008743
-7258.878723	6556.728333	1775.413086	13.503125
-7258.878723	6556.728333	1774.406250	49.151230
-7258.878723	6556.728333	1773.400391	137.018555
-7258.878723	6556.728333	1772.393555	25.373320
-7258.878723	6556.728333	1771.386719	72.811340
-7258.878723	6556.728333	1770.379883	27.643290
-7258.878723	6556.728333	1769.373047	-69.735680
-7258.878723	6556.728333	1768.365234	32.205257
-7258.878723	6556.728333	1767.358398	-91.269478
-7258.878723	6556.728333	1766.350586	24.830313
-7258.878723	6556.728333	1765.342773	83.956017
-7258.878723	6556.728333	1764.334961	-6.324361
-7258.878723	6556.728333	1763.326172	59.855862
-7258.878723	6556.728333	1762.318359	-9.091757
-7258.878723	6556.728333	1761.309570	73.614342
-7258.878723	6556.728333	1760.300781	-11.932300
-7258.878723	6556.728333	1759.291016	82.547058
-7258.878723	6556.728333	1758.282227	-76.417236
-7258.878723	6556.728333	1757.272461	-29.350899
-7258.878723	6556.728333	1756.262695	-27.297504
-7258.878723	6556.728333	1755.252930	-63.130939
-7258.878723	6556.728333	1754.243164	38.281261
-7258.878723	6556.728333	1753.233398	-44.903042
-7258.878723	6556.728333	1752.222656	-151.731400
-7258.878723	6556.728333	1751.211914	11.076431
-7258.878723	6556.728333	1750.201172	48.483952
-7258.878723	6556.728333	1749.190430	-51.258198
-7258.878723	6556.728333	1748.179688	-16.248993
-7258.878723	6556.728333	1747.167969	134.524017
-7258.878723	6556.728333	1746.156250	117.467102
-7258.878723	6556.728333	1745.144531	15.358246
-7258.878723	6556.728333	1744.132813	95.136063
-7258.878723	6556.728333	1743.121094	21.375906
-7258.878723	6556.728333	1742.108398	75.116524
-7258.878723	6556.728333	1741.095703	50.924419
-7258.878723	6556.728333	1740.083008	81.008232
-7258.878723	6556.728333	1739.070313	-75.343803
-7258.878723	6556.728333	1738.057617	49.088684
-7258.878723	6556.728333	1737.043945	-3.447603
-7258.878723	6556.728333	1736.030273	-1.738644
-7258.878723	6556.728333	1735.016602	61.258194
-7258.878723	6556.728333	1734.002930	-80.873444
-7258.878723	6556.728333	1732.989258	-74.479591
-7258.878723	6556.728333	1731.974609	-96.383911
-7258.878723	6556.728333	1730.959961	41.915276
-7258.878723	6556.728333	1729.945313	-149.630707
-7258.878723	6556.728333	1728.930664	-25.532444
-7258.878723	6556.728333	1727.916016	41.993420
-7258.878723	6556.728333	1726.900391	17.662235
-7258.878723	6556.728333	1725.885742	-164.370789
-7258.878723	6556.728333	1724.870117	44.297531
-7258.878723	6556.728333	1723.853516	-130.646164
-7258.878723	6556.728333	1722.837891	-143.215515
-7258.878723	6556.728333	1721.822266	77.051353
-7258.878723	6556.728333	1720.805664	10.333121
-7258.878723	6556.728333	1719.789063	54.128181
-7258.878723	6556.728333	1718.772461	50.882484
-7258.878723	6556.728333	1717.754883	-48.734604
-7258.878723	6556.728333	1716.738281	-63.732239
-7258.878723	6556.728333	1715.720703	-22.357311
-7258.878723	6556.728333	1714.703125	80.059509
-7258.878723	6556.728333	1713.685547	32.130699
-7258.878723	6556.728333	1712.667969	-62.749065
-7258.878723	6556.728333	1711.649414	-213.947083
-7258.878723	6556.728333	1710.630859	64.404747
-7258.878723	6556.728333	1709.612305	-143.098206
-7258.878723	6556.728333	1708.593750	36.575485
-7258.878723	6556.728333	1707.575195	-46.543755
-7258.878723	6556.728333	1706.555664	69.697235
-7258.878723	6556.728333	1705.536133	-57.971581
-7258.878723	6556.728333	1704.516602	-105.894768
-7258.878723	6556.728333	1703.497070	-55.367077
-7258.878723	6556.728333	1702.477539	-115.008957
-7258.878723	6556.728333	1701.457031	3.423537
-7258.878723	6556.728333	1700.437500	-14.060415
-7258.878723	6556.728333	1699.416992	31.684622
-7258.878723	6556.728333	1698.395508	124.231552
-7258.878723	6556.728333	1697.375000	-104.001236
-7258.878723	6556.728333	1696.354492	178.120331
-7258.878723	6556.728333	1695.333008	38.873363
-7258.878723	6556.728333	1694.311523	49.419556
-7258.878723	6556.728333	1693.290039	90.365509
-7258.878723	6556.728333	1692.267578	-30.101521
-7258.878723	6556.728333	1691.246094	64.612236
-7258.878723	6556.728333	1690.223633	21.335201
-7258.878723	6556.728333	1689.201172	111.308205
-7258.878723	6556.728333	1688.178711	79.709137
-7258.878723	6556.728333	1687.155273	50.447407
-7258.878723	6556.728333	1686.132813	25.866821
-7258.878723	6556.728333	1685.109375	-115.504036
-7258.878723	6556.728333	1684.085938	79.458496
-7258.878723	6556.728333	1683.062500	82.880066
-7258.878723	6556.728333	1682.039063	93.297470
-7258.878723	6556.728333	1681.014648	-92.353065
-7258.878723	6556.728333	1679.990234	48.754288
-7258.878723	6556.728333	1678.965820	87.146057
-7258.878723	6556.728333	1677.941406	48.541168
-7258.878723	6556.728333	1676.916992	173.197601
-7258.878723	6556.728333	1675.891602	174.214661
-7258.878723	6556.728333	1674.866211	170.563690
-7258.878723	6556.728333	1673.840820	62.022205
-7258.878723	6556.728333	1672.815430	216.849655
-7258.878723	6556.728333	1671.790039	71.052567
-7258.878723	6556.728333	1670.763672	-23.448498
-7258.878723	6556.728333	1669.737305	217.461395
-7258.878723	6556.728333	1668.710938	136.930832
-7258.878723	6556.728333	1667.684570	179.818405
-7258.878723	6556.728333	1666.658203	150.527115
-7258.878723	6556.728333	1665.630859	51.422359
-7258.878723	6556.728333	1664.603516	247.852936
-7258.878723	6556.728333	1663.576172	13.833688
-7258.878723	6556.728333	1662.548828	270.662140
-7258.878723	6556.728333	1661.520508	120.433655
-7258.878723	6556.728333	1660.493164	242.287125
-7258.878723	6556.728333	1659.464844	278.079132
-7258.878723	6556.728333	1658.436523	176.733688
-7258.878723	6556.728333	1657.408203	361.231934
-7258.878723	6556.728333	1656.378906	373.737091
-7258.878723	6556.728333	1655.350586	358.366577
-7258.878723	6556.728333	1654.321289	166.501877
-7258.878723	6556.728333	1653.291992	146.525986
-7258.878723	6556.728333	1652.261719	358.690033
-7258.878723	6556.728333	1651.232422	173.895142
-7258.878723	6556.728333	1650.202148	314.034943
-7258.878723	6556.728333	1649.171875	184.994461
-7258.878723	6556.728333	1648.141602	113.993073
-7258.878723	6556.728333	1647.111328	270.294128
-7258.878723	6556.728333	1646.080078	447.397827
-7258.878723	6556.728333	1645.049805	339.293610
-7258.878723	6556.728333	1644.018555	330.891754
-7258.878723	6556.728333	1642.987305	496.294037
-7258.878723	6556.728333	1641.955078	397.502106
-7258.878723	6556.728333	1640.923828	340.449249
-7258.878723	6556.728333	1639.891602	417.742554
-7258.878723	6556.728333	1638.859375	379.228851
-7258.878723	6556.728333	1637.827148	410.184753
-7258.878723	6556.728333	1636.794922	561.490723
-7258.878723	6556.728333	1635.761719	474.372620
-7258.878723	6556.728333	1634.729492	461.334442
-7258.878723	6556.728333	1633.696289	508.443817
-7258.878723	6556.728333	1632.662109	495.398651
-7258.878723	6556.728333	1631.628906	637.295715
-7258.878723	6556.728333	1630.594727	515.572876
-7258.878723	6556.728333	1629.561523	678.219360
-7258.878723	6556.728333	1628.527344	612.005493
-7258.878723	6556.728333	1627.493164	501.918701
-7258.878723	6556.728333	1626.458008	694.504639
-7258.878723	6556.728333	1625.423828	457.416229
-7258.878723	6556.728333	1624.388672	550.643433
-7258.878723	6556.728333	1623.353516	636.911560
-7258.878723	6556.728333	1622.318359	584.648010
-7258.878723	6556.728333	1621.282227	562.406677
-7258.878723	6556.728333	1620.247070	579.409302
-7258.878723	6556.728333	1619.210938	527.194336
-7258.878723	6556.728333	1618.174805	507.296509
-7258.878723	6556.728333	1617.137695	667.283508
-7258.878723	6556.728333	1616.101563	458.310059
-7258.878723	6556.728333	1615.064453	410.783783
-7258.878723	6556.728333	1614.027344	476.215027
-7258.878723	6556.728333	1612.990234	424.105377
-7258.878723	6556.728333	1611.953125	468.784180
-7258.878723	6556.728333	1610.916016	490.416565
-7258.878723	6556.728333	1609.877930	479.800293
-7258.878723	6556.728333	1608.839844	480.707336
-7258.878723	6556.728333	1607.801758	532.265320
-7258.878723	6556.728333	1606.763672	443.409912
-7258.878723	6556.728333	1605.724609	506.469147
-7258.878723	6556.728333	1604.685547	716.757996
-7258.878723	6556.728333	1603.646484	588.829346
-7258.878723	6556.728333	1602.607422	598.947449
-7258.878723	6556.728333	1601.568359	599.871399
-7258.878723	6556.728333	1600.528320	745.631287
-7258.878723	6556.728333	1599.489258	509.796173
-7258.878723	6556.728333	1598.449219	614.166992
-7258.878723	6556.728333	1597.408203	559.966675
-7258.878723	6556.728333	1596.368164	570.119568
-7258.878723	6556.728333	1595.327148	571.085876
-7258.878723	6556.728333	1594.287109	705.247131
-7258.878723	6556.728333	1593.246094	586.821716
-7258.878723	6556.728333	1592.204102	723.231323
-7258.878723	6556.728333	1591.163086	471.761597
-7258.878723	6556.728333	1590.121094	654.047607
-7258.878723	6556.728333	1589.079102	510.522339
-7258.878723	6556.728333	1588.037109	300.549194
-7258.878723	6556.728333	1586.995117	505.721161
-7258.878723	6556.728333	1585.953125	449.458771
-7258.878723	6556.728333	1584.910156	466.575104
-7258.878723	6556.728333	1583.867188	442.442993
-7258.878723	6556.728333	1582.824219	530.605103
-7258.878723	6556.728333	1581.781250	446.927734
-7258.878723	6556.728333	1580.737305	381.613739
-7258.878723	6556.728333	1579.693359	421.674042
-7258.878723	6556.728333	1578.649414	553.310913
-7258.878723	6556.728333	1577.605469	396.483582
-7258.878723	6556.728333	1576.561523	345.006104
-7258.878723	6556.728333	1575.516602	318.725861
-7258.878723	6556.728333	1574.472656	411.434021
-7258.878723	6556.728333	1573.427734	478.952972
-7258.878723	6556.728333	1572.381836	438.972473
-7258.878723	6556.728333	1571.336914	282.418274
-7258.878723	6556.728333	1570.291016	434.534851
-7258.878723	6556.728333	1569.246094	433.480865
-7258.878723	6556.728333	1568.200195	229.066742
-7258.878723	6556.728333	1567.153320	271.478180
-7258.878723	6556.728333	1566.107422	231.660477
-7258.878723	6556.728333	1565.060547	335.740448
-7258.878723	6556.728333	1564.013672	521.990173
-7258.878723	6556.728333	1562.966797	457.071808
-7258.878723	6556.728333	1561.919922	280.357147
-7258.878723	6556.728333	1560.872070	489.364136
-7258.878723	6556.728333	1559.825195	435.938690
-7258.878723	6556.728333	1558.777344	489.752319
-7258.878723	6556.728333	1557.729492	431.811279
-7258.878723	6556.728333	1556.680664	460.548126
-7258.878723	6556.728333	1555.632813	573.639221
-7258.878723	6556.728333	1554.583984	563.619507
-7258.878723	6556.728333	1553.535156	713.132385
-7258.878723	6556.728333	1552.486328	641.604187
-7258.878723	6556.728333	1551.436523	702.232300
-7258.878723	6556.728333	1550.387695	669.481018
-7258.878723	6556.728333	1549.337891	823.466370
-7258.878723	6556.728333	1548.288086	742.924988
-7258.878723	6556.728333	1547.238281	878.658264
-7258.878723	6556.728333	1546.187500	886.914856
-7258.878723	6556.728333	1545.136719	970.265808
-7258.878723	6556.728333	1544.086914	844.327881
-7258.878723	6556.728333	1543.035156	954.973816
-7258.878723	6556.728333	1541.984375	890.511902
-7258.878723	6556.728333	1540.933594	814.724915
-7258.878723	6556.728333	1539.881836	766.256165
-7258.878723	6556.728333	1538.830078	711.005615
-7258.878723	6556.728333	1537.778320	808.021240
-7258.878723	6556.728333	1536.725586	848.222778
-7258.878723	6556.728333	1535.673828	597.722961
-7258.878723	6556.728333	1534.621094	574.405396
-7258.878723	6556.728333	1533.568359	455.764252
-7258.878723	6556.728333	1532.515625	691.276733
-7258.878723	6556.728333	1531.461914	765.587219
-7258.878723	6556.728333	1530.409180	342.999115
-7258.878723	6556.728333	1529.355469	412.847961
-7258.878723	6556.728333	1528.301758	741.241577
-7258.878723	6556.728333	1527.247070	498.094452
-7258.878723	6556.728333	1526.193359	645.009155
-7258.878723	6556.728333	1525.138672	388.415161
-7258.878723	6556.728333	1524.083984	469.607666
-7258.878723	6556.728333	1523.029297	512.268921
-7258.878723	6556.728333	1521.974609	344.257935
-7258.878723	6556.728333	1520.918945	466.233459
-7258.878723	6556.728333	1519.863281	368.531128
-7258.878723	6556.728333	1518.807617	481.436737
-7258.878723	6556.728333	1517.751953	349.856171
-7258.878723	6556.728333	1516.696289	281.713837
-7258.878723	6556.728333	1515.639648	301.858490
-7258.878723	6556.728333	1514.583008	326.539307
-7258.878723	6556.728333	1513.526367	378.372131
-7258.878723	6556.728333	1512.469727	439.249603
-7258.878723	6556.728333	1511.412109	233.340881
-7258.878723	6556.728333	1510.355469	147.338318
-7258.878723	6556.728333	1509.297852	149.525894
-7258.878723	6556.728333	1508.240234	169.809372
-7258.878723	6556.728333	1507.181641	183.325760
-7258.878723	6556.728333	1506.124023	72.637337
-7258.878723	6556.728333	1505.065430	169.761642
-7258.878723	6556.728333	1504.006836	61.417850
-7258.878723	6556.728333	1502.948242	79.544540
-7258.878723	6556.728333	1501.888672	34.492649
-7258.878723	6556.728333	1500.830078	165.479050
-7258.878723	6556.728333	1499.770508	152.054199
-7258.878723	6556.728333	1498.710938	28.138313
-7258.878723	6556.728333	1497.650391	102.733322
-7258.878723	6556.728333	1496.590820	134.486084
-7258.878723	6556.728333	1495.530273	8.457463
-7258.878723	6556.728333	1494.469727	-99.469498
-7258.878723	6556.728333	1493.409180	146.425995
-7258.878723	6556.728333	1492.348633	94.878868
-7258.878723	6556.728333	1491.287109	68.148499
-7258.878723	6556.728333	1490.225586	-14.846046
-7258.878723	6556.728333	1489.164063	3.530560
-7258.878723	6556.728333	1488.102539	-45.607342
-7258.878723	6556.728333	1487.041016	-112.706947
-7258.878723	6556.728333	1485.978516	29.499519
-7258.878723	6556.728333	1484.916016	18.730320
-7258.878723	6556.728333	1483.853516	-151.769852
-7258.878723	6556.728333	1482.791016	64.643135
-7258.878723	6556.728333	1481.727539	-269.825867
-7258.878723	6556.728333	1480.664063	-102.883003
-7258.878723	6556.728333	1479.600586	-135.985733
-7258.878723	6556.728333	1478.537109	-54.468445
-7258.878723	6556.728333	1477.473633	49.490196
-7258.878723	6556.728333	1476.409180	56.917435
-7258.878723	6556.728333	1475.344727	-294.924255
-7258.878723	6556.728333	1474.280273	-273.981079
-7258.878723	6556.728333	1473.215820	-102.567474
-7258.878723	6556.728333	1472.151367	68.750244
-7258.878723	6556.728333	1471.085938	-60.555279
-7258.878723	6556.728333	1470.020508	-183.022949
-7258.878723	6556.728333	1468.955078	-78.897835
-7258.878723	6556.728333	1467.888672	-19.870298
-7258.878723	6556.728333	1466.823242	84.243774
-7258.878723	6556.728333	1465.756836	230.668625
-7258.878723	6556.728333	1464.690430	86.052696
-7258.878723	6556.728333	1463.624023	62.130917
-7258.878723	6556.728333	1462.556641	85.612930
-7258.878723	6556.728333	1461.490234	93.542458
-7258.878723	6556.728333	1460.422852	-59.505917
-7258.878723	6556.728333	1459.355469	52.791416
-7258.878723	6556.728333	1458.287109	80.987961
-7258.878723	6556.728333	1457.219727	60.139446
-7258.878723	6556.728333	1456.151367	65.410477
-7258.878723	6556.728333	1455.083008	75.139702
-7258.878723	6556.728333	1454.014648	167.725601
-7258.878723	6556.728333	1452.945313	92.654381
-7258.878723	6556.728333	1451.876953	87.269142
-7258.878723	6556.728333	1450.807617	258.075043
-7258.878723	6556.728333	1449.738281	234.573700
-7258.878723	6556.728333	1448.668945	182.489731
-7258.878723	6556.728333	1447.598633	221.118576
-7258.878723	6556.728333	1446.528320	240.925156
-7258.878723	6556.728333	1445.458008	216.573044
-7258.878723	6556.728333	1444.387695	345.584229
-7258.878723	6556.728333	1443.317383	316.549561
-7258.878723	6556.728333	1442.246094	353.482819
-7258.878723	6556.728333	1441.174805	209.050949
-7258.878723	6556.728333	1440.103516	298.385315
-7258.878723	6556.728333	1439.032227	366.606506
-7258.878723	6556.728333	1437.960938	358.902557
-7258.878723	6556.728333	1436.888672	383.042694
-7258.878723	6556.728333	1435.816406	406.158112
-7258.878723	6556.728333	1434.744141	447.583771
-7258.878723	6556.728333	1433.670898	431.338074
-7258.878723	6556.728333	1432.598633	437.916443
-7258.878723	6556.728333	1431.525391	446.651611
-7258.878723	6556.728333	1430.452148	289.919678
-7258.878723	6556.728333	1429.378906	517.933594
-7258.878723	6556.728333	1428.304688	424.229370
-7258.878723	6556.728333	1427.231445	582.712402
-7258.878723	6556.728333	1426.157227	299.131165
-7258.878723	6556.728333	1425.083008	408.361145
-7258.878723	6556.728333	1424.007813	555.860901
-7258.878723	6556.728333	1422.933594	465.013611
-7258.878723	6556.728333	1421.858398	591.419983
-7258.878723	6556.728333	1420.783203	475.960815
-7258.878723	6556.728333	1419.708008	643.875366
-7258.878723	6556.728333	1418.631836	528.123657
-7258.878723	6556.728333	1417.555664	757.225098
-7258.878723	6556.728333	1416.479492	530.987366
-7258.878723	6556.728333	1415.403320	569.628113
-7258.878723	6556.728333	1414.327148	573.339722
-7258.878723	6556.728333	1413.250000	503.128296
-7258.878723	6556.728333	1412.173828	570.627014
-7258.878723	6556.728333	1411.096680	507.836487
-7258.878723	6556.728333	1410.018555	564.512634
-7258.878723	6556.728333	1408.941406	595.224915
-7258.878723	6556.728333	1407.863281	388.372559
-7258.878723	6556.728333	1406.785156	406.274506
-7258.878723	6556.728333	1405.707031	387.416016
-7258.878723	6556.728333	1404.628906	521.307800
-7258.878723	6556.728333	1403.549805	450.506012
-7258.878723	6556.728333	1402.470703	530.220032
-7258.878723	6556.728333	1401.391602	293.532898
-7258.878723	6556.728333	1400.312500	259.494293
-7258.878723	6556.728333	1399.233398	585.667664
-7258.878723	6556.728333	1398.153320	203.982346
-7258.878723	6556.728333	1397.073242	452.188599
-7258.878723	6556.728333	1395.993164	512.659424
-7258.878723	6556.728333	1394.913086	493.843048
-7258.878723	6556.728333	1393.832031	371.639984
-7258.878723	6556.728333	1392.750977	341.009460
-7258.878723	6556.728333	1391.669922	269.551514
-7258.878723	6556.728333	1390.588867	349.663544
-7258.878723	6556.728333	1389.506836	407.557739
-7258.878723	6556.728333	1388.425781	327.729950
-7258.878723	6556.728333	1387.343750	262.009399
-7258.878723	6556.728333	1386.261719	216.101730
-7258.878723	6556.728333	1385.178711	393.403809
-7258.878723	6556.728333	1384.096680	453.627563
-7258.878723	6556.728333	1383.013672	265.166931
-7258.878723	6556.728333	1381.930664	279.959839
-7258.878723	6556.728333	1380.846680	293.605347
-7258.878723	6556.728333	1379.763672	248.593079
-7258.878723	6556.728333	1378.679688	371.933319
-7258.878723	6556.728333	1377.595703	360.957458
-7258.878723	6556.728333	1376.511719	286.380280
-7258.878723	6556.728333	1375.427734	41.062988
-7258.878723	6556.728333	1374.342773	221.868973
-7258.878723	6556.728333	1373.257813	264.998199
-7258.878723	6556.728333	1372.172852	220.302124
-7258.878723	6556.728333	1371.087891	278.978912
-7258.878723	6556.728333	1370.001953	313.671783
-7258.878723	6556.728333	1368.916992	231.479263
-7258.878723	6556.728333	1367.831055	273.901794
-7258.878723	6556.728333	1366.744141	234.833862
-7258.878723	6556.728333	1365.658203	374.726898
-7258.878723	6556.728333	1364.571289	234.343643
-7258.878723	6556.728333	1363.484375	258.243774
-7258.878723	6556.728333	1362.397461	230.424210
-7258.878723	6556.728333	1361.310547	290.192505
-7258.878723	6556.728333	1360.222656	136.294540
-7258.878723	6556.728333	1359.135742	153.293335
-7258.878723	6556.728333	1358.047852	223.992432
-7258.878723	6556.728333	1356.958984	133.934723
-7258.878723	6556.728333	1355.871094	68.019020
-7258.878723	6556.728333	1354.782227	98.097786
-7258.878723	6556.728333	1353.693359	146.180649
-7258.878723	6556.728333	1352.604492	164.900803
-7258.878723	6556.728333	1351.515625	-68.194519
-7258.878723	6556.728333	1350.425781	99.008965
-7258.878723	6556.728333	1349.335938	54.888954
-7258.878723	6556.728333	1348.246094	148.353531
-7258.878723	6556.728333	1347.156250	184.812210
-7258.878723	6556.728333	1346.066406	75.793228
-7258.878723	6556.728333	1344.975586	65.970497
-7258.878723	6556.728333	1343.884766	211.543396
-7258.878723	6556.728333	1342.793945	278.938538
-7258.878723	6556.728333	1341.702148	267.614136
-7258.878723	6556.728333	1340.611328	82.432724
-7258.878723	6556.728333	1339.519531	-13.950426
-7258.878723	6556.728333	1338.427734	12.155172
-7258.878723	6556.728333	1337.334961	132.358154
-7258.878723	6556.728333	1336.243164	129.303162
-7258.878723	6556.728333	1335.150391	159.762299
-7258.878723	6556.728333	1334.057617	136.570023
-7258.878723	6556.728333	1332.964844	95.769623
-7258.878723	6556.728333	1331.871094	212.895630
-7258.878723	6556.728333	1330.778320	226.911804
-7258.878723	6556.728333	1329.684570	65.587051
-7258.878723	6556.728333	1328.590820	98.626778
-7258.878723	6556.728333	1327.496094	213.416153
-7258.878723	6556.728333	1326.402344	279.906128
-7258.878723	6556.728333	1325.307617	193.144012
-7258.878723	6556.728333	1324.212891	248.160873
-7258.878723	6556.728333	1323.117188	330.037231
-7258.878723	6556.728333	1322.022461	202.822525
-7258.878723	6556.728333	1320.926758	352.545166
-7258.878723	6556.728333	1319.831055	329.720032
-7258.878723	6556.728333	1318.735352	405.354767
-7258.878723	6556.728333	1317.638672	448.252655
-7258.878723	6556.728333	1316.542969	508.721741
-7258.878723	6556.728333	1315.446289	511.936096
-7258.878723	6556.728333	1314.349609	573.866089
-7258.878723	6556.728333	1313.251953	756.327209
-7258.878723	6556.728333	1312.155273	727.637207
-7258.878723	6556.728333	1311.057617	784.409668
-7258.878723	6556.728333	1309.959961	624.089539
-7258.878723	6556.728333	1308.862305	414.581940
-7258.878723	6556.728333	1307.763672	461.865540
-7258.878723	6556.728333	1306.665039	458.094116
-7258.878723	6556.728333	1305.566406	395.218750
-7258.878723	6556.728333	1304.467773	428.315369
-7258.878723	6556.728333	1303.369141	360.057709
-7258.878723	6556.728333	1302.269531	373.905457
-7258.878723	6556.728333	1301.169922	193.252579
-7258.878723	6556.728333	1300.070313	358.791779
-7258.878723	6556.728333	1298.970703	288.840302
-7258.878723	6556.728333	1297.870117	430.181641
-7258.878723	6556.728333	1296.769531	335.270233
-7258.878723	6556.728333	1295.668945	367.319275
-7258.878723	6556.728333	1294.568359	426.960968
-7258.878723	6556.728333	1293.466797	302.364105
-7258.878723	6556.728333	1292.366211	366.579193
-7258.878723	6556.728333	1291.264648	269.346924
-7258.878723	6556.728333	1290.162109	255.150574
-7258.878723	6556.728333	1289.060547	306.872559
-7258.878723	6556.728333	1287.958008	349.714111
-7258.878723	6556.728333	1286.855469	243.069489
-7258.878723	6556.728333	1285.752930	274.131866
-7258.878723	6556.728333	1284.650391	408.363464
-7258.878723	6556.728333	1283.546875	205.429810
-7258.878723	6556.728333	1282.444336	160.323563
-7258.878723	6556.728333	1281.339844	349.174500
-7258.878723	6556.728333	1280.236328	330.414001
-7258.878723	6556.728333	1279.132813	288.213470
-7258.878723	6556.728333	1278.028320	138.105194
-7258.878723	6556.728333	1276.923828	149.538956
-7258.878723	6556.728333	1275.819336	233.378372
-7258.878723	6556.728333	1274.713867	188.184555
-7258.878723	6556.728333	1273.608398	71.982956
-7258.878723	6556.728333	1272.503906	220.734543
-7258.878723	6556.728333	1271.397461	252.604523
-7258.878723	6556.728333	1270.291992	148.555756
-7258.878723	6556.728333	1269.185547	141.212189
-7258.878723	6556.728333	1268.080078	26.255148
-7258.878723	6556.728333	1266.972656	210.782104
-7258.878723	6556.728333	1265.866211	253.223541
-7258.878723	6556.728333	1264.759766	36.103058
-7258.878723	6556.728333	1263.652344	168.403732
-7258.878723	6556.728333	1262.544922	143.271530
-7258.878723	6556.728333	1261.436523	108.104591
-7258.878723	6556.728333	1260.329102	159.953751
-7258.878723	6556.728333	1259.220703	148.989517
-7258.878723	6556.728333	1258.112305	196.858307
-7258.878723	6556.728333	1257.003906	124.515503
-7258.878723	6556.728333	1255.895508	141.186508
-7258.878723	6556.728333	1254.786133	25.950193
-7258.878723	6556.728333	1253.676758	68.387993
-7258.878723	6556.728333	1252.567383	-12.699983
-7258.878723	6556.728333	1251.458008	-19.339300
-7258.878723	6556.728333	1250.347656	-15.719127
-7258.878723	6556.728333	1249.237305	175.493408
-7258.878723	6556.728333	1248.126953	5.449970
-7258.878723	6556.728333	1247.016602	34.786621
-7258.878723	6556.728333	1245.905273	1.955338
-7258.878723	6556.728333	1244.793945	17.059464
-7258.878723	6556.728333	1243.682617	239.014343
-7258.878723	6556.728333	1242.571289	25.946280
-7258.878723	6556.728333	1241.459961	51.397076
-7258.878723	6556.728333	1240.347656	300.344635
-7258.878723	6556.728333	1239.235352	289.915680
-7258.878723	6556.728333	1238.123047	280.617859
-7258.878723	6556.728333	1237.009766	227.593185
-7258.878723	6556.728333	1235.897461	364.730469
-7258.878723	6556.728333	1234.784180	478.796814
-7258.878723	6556.728333	1233.670898	415.673279
-7258.878723	6556.728333	1232.556641	461.098572
-7258.878723	6556.728333	1231.443359	347.723236
-7258.878723	6556.728333	1230.329102	330.225983
-7258.878723	6556.728333	1229.214844	253.763794
-7258.878723	6556.728333	1228.099609	310.425934
-7258.878723	6556.728333	1226.985352	249.044083
-7258.878723	6556.728333	1225.870117	138.559677
-7258.878723	6556.728333	1224.754883	240.159943
-7258.878723	6556.728333	1223.639648	225.287598
-7258.878723	6556.728333	1222.523438	46.916218
-7258.878723	6556.728333	1221.408203	48.180180
-7258.878723	6556.728333	1220.291992	103.009232
-7258.878723	6556.728333	1219.174805	-64.510345
-7258.878723	6556.728333	1218.058594	-63.854065
-7258.878723	6556.728333	1216.941406	54.336071
-7258.878723	6556.728333	1215.824219	38.846405
-7258.878723	6556.728333	1214.707031	-65.645981
-7258.878723	6556.728333	1213.589844	-75.970352
-7258.878723	6556.728333	1212.471680	-148.622818
-7258.878723	6556.728333	1211.353516	6.410976
-7258.878723	6556.728333	1210.235352	-11.395981
-7258.878723	6556.728333	1209.117188	-117.796288
-7258.878723	6556.728333	1207.998047	-109.380768
-7258.878723	6556.728333	1206.878906	97.528008
-7258.878723	6556.728333	1205.759766	2.114458
-7258.878723	6556.728333	1204.640625	-31.332014
-7258.878723	6556.728333	1203.520508	-90.580452
-7258.878723	6556.728333	1202.401367	-70.509727
-7258.878723	6556.728333	1201.281250	9.791452
-7258.878723	6556.728333	1200.160156	-77.173149
-7258.878723	6556.728333	1199.040039	45.459770
-7258.878723	6556.728333	1197.918945	-128.880905
-7258.878723	6556.728333	1196.797852	-7.951329
-7258.878723	6556.728333	1195.676758	-87.442566
-7258.878723	6556.728333	1194.555664	-50.266388
-7258.878723	6556.728333	1193.433594	22.630949
-7258.878723	6556.728333	1192.311523	-108.026253
-7258.878723	6556.728333	1191.189453	-96.910973
-7258.878723	6556.728333	1190.066406	-45.259045
-7258.878723	6556.728333	1188.944336	-81.458115
-7258.878723	6556.728333	1187.821289	-75.751656
-7258.878723	6556.728333	1186.698242	-132.147766
-7258.878723	6556.728333	1185.574219	-194.352982
-7258.878723	6556.728333	1184.451172	-39.593315
-7258.878723	6556.728333	1183.327148	-186.188889
-7258.878723	6556.728333	1182.203125	-89.729370
-7258.878723	6556.728333	1181.078125	-133.225449
-7258.878723	6556.728333	1179.954102	-101.013985
-7258.878723	6556.728333	1178.829102	-192.609451
-7258.878723	6556.728333	1177.704102	-77.861725
-7258.878723	6556.728333	1176.579102	-165.405212
-7258.878723	6556.728333	1175.453125	-136.186646
-7258.878723	6556.728333	1174.327148	-88.410416
-7258.878723	6556.728333	1173.201172	-82.835907
-7258.878723	6556.728333	1172.075195	-80.975914
-7258.878723	6556.728333	1170.949219	-218.233398
-7258.878723	6556.728333	1169.822266	-78.870529
-7258.878723	6556.728333	1168.695313	14.204727
-7258.878723	6556.728333	1167.568359	-83.951591
-7258.878723	6556.728333	1166.440430	88.395416
-7258.878723	6556.728333	1165.313477	95.790291
-7258.878723	6556.728333	1164.185547	-133.206741
-7258.878723	6556.728333	1163.057617	-46.940647
-7258.878723	6556.728333	1161.928711	-35.007103
-7258.878723	6556.728333	1160.800781	70.769333
-7258.878723	6556.728333	1159.671875	65.114388
-7258.878723	6556.728333	1158.541992	39.920536
-7258.878723	6556.728333	1157.413086	-61.033241
-7258.878723	6556.728333	1156.283203	71.114029
-7258.878723	6556.728333	1155.154297	98.242897
-7258.878723	6556.728333	1154.023438	60.522526
-7258.878723	6556.728333	1152.893555	13.620014
-7258.878723	6556.728333	1151.763672	104.463600
-7258.878723	6556.728333	1150.632813	-12.504328
-7258.878723	6556.728333	1149.501953	-8.241950
-7258.878723	6556.728333	1148.370117	-50.660397
-7258.878723	6556.728333	1147.239258	84.455910
-7258.878723	6556.728333	1146.107422	-75.852898
-7258.878723	6556.728333	1144.975586	-49.752514
-7258.878723	6556.728333	1143.843750	-38.133625
-7258.878723	6556.728333	1142.710938	-30.320456
-7258.878723	6556.728333	1141.578125	21.449062
-7258.878723	6556.728333	1140.445313	-52.516052
-7258.878723	6556.728333	1139.312500	107.306602
-7258.878723	6556.728333	1138.178711	99.093758
-7258.878723	6556.728333	1137.045898	60.555725
-7258.878723	6556.728333	1135.912109	66.457176
-7258.878723	6556.728333	1134.777344	-15.718070
-7258.878723	6556.728333	1133.643555	108.332108
-7258.878723	6556.728333	1132.508789	48.847473
-7258.878723	6556.728333	1131.374023	116.441711
-7258.878723	6556.728333	1130.239258	181.239273
-7258.878723	6556.728333	1129.104492	189.679596
-7258.878723	6556.728333	1127.968750	76.994553
-7258.878723	6556.728333	1126.833008	64.563499
-7258.878723	6556.728333	1125.697266	250.216949
-7258.878723	6556.728333	1124.560547	197.841095
-7258.878723	6556.728333	1123.424805	216.030151
-7258.878723	6556.728333	1122.288086	141.227417
-7258.878723	6556.728333	1121.151367	114.796158
-7258.878723	6556.728333	1120.013672	85.720215
-7258.878723	6556.728333	1118.876953	167.755447
-7258.878723	6556.728333	1117.739258	143.488708
-7258.878723	6556.728333	1116.601563	87.540604
-7258.878723	6556.728333	1115.462891	85.525322
-7258.878723	6556.728333	1114.324219	45.384766
-7258.878723	6556.728333	1113.186523	76.097008
-7258.878723	6556.728333	1112.046875	56.534439
-7258.878723	6556.728333	1110.908203	51.591240
-7258.878723	6556.728333	1109.769531	-19.189680
-7258.878723	6556.728333	1108.629883	-11.745413
-7258.878723	6556.728333	1107.490234	52.181423
-7258.878723	6556.728333	1106.349609	-1.308675
-7258.878723	6556.728333	1105.209961	-16.833708
-7258.878723	6556.728333	1104.069336	-17.424122
-7258.878723	6556.728333	1102.928711	58.552006
-7258.878723	6556.728333	1101.787109	132.097015
-7258.878723	6556.728333	1100.646484	14.173032
-7258.878723	6556.728333	1099.504883	-58.641045
-7258.878723	6556.728333	1098.363281	52.448841
-7258.878723	6556.728333	1097.221680	-67.387863
-7258.878723	6556.728333	1096.079102	24.713482
-7258.878723	6556.728333	1094.936523	173.086014
-7258.878723	6556.728333	1093.793945	158.977798
-7258.878723	6556.728333	1092.651367	22.638857
-7258.878723	6556.728333	1091.507813	74.283913
-7258.878723	6556.728333	1090.364258	104.535194
-7258.878723	6556.728333	1089.220703	119.505524
-7258.878723	6556.728333	1088.077148	93.315536
-7258.878723	6556.728333	1086.933594	74.666443
-7258.878723	6556.728333	1085.789063	77.385727
-7258.878723	6556.728333	1084.644531	22.183075
-7258.878723	6556.728333	1083.499023	127.025131
-7258.878723	6556.728333	1082.354492	81.643250
-7258.878723	6556.728333	1081.208984	66.463379
-7258.878723	6556.728333	1080.063477	251.427643
-7258.878723	6556.728333	1078.917969	139.819275
-7258.878723	6556.728333	1077.771484	359.139587
-7258.878723	6556.728333	1076.625977	225.163467
-7258.878723	6556.728333	1075.479492	323.571686
-7258.878723	6556.728333	1074.332031	213.037628
-7258.878723	6556.728333	1073.185547	326.834229
-7258.878723	6556.728333	1072.038086	194.227264
-7258.878723	6556.728333	1070.890625	150.799484
-7258.878723	6556.728333	1069.743164	151.785828
-7258.878723	6556.728333	1068.594727	90.524017
-7258.878723	6556.728333	1067.447266	282.758728
-7258.878723	6556.728333	1066.298828	201.220490
-7258.878723	6556.728333	1065.149414	302.357147
-7258.878723	6556.728333	1064.000977	271.320618
-7258.878723	6556.728333	1062.851563	338.785248
-7258.878723	6556.728333	1061.702148	275.705994
-7258.878723	6556.728333	1060.552734	430.265045
-7258.878723	6556.728333	1059.402344	120.884079
-7258.878723	6556.728333	1058.252930	270.084717
-7258.878723	6556.728333	1057.102539	264.831818
-7258.878723	6556.728333	1055.951172	160.897461
-7258.878723	6556.728333	1054.800781	143.113785
-7258.878723	6556.728333	1053.649414	70.189827
-7258.878723	6556.728333	1052.498047	64.304161
-7258.878723	6556.728333	1051.346680	49.712250
-7258.878723	6556.728333	1050.194336	100.662918
-7258.878723	6556.728333	1049.042969	148.661240
-7258.878723	6556.728333	1047.890625	167.911789
-7258.878723	6556.728333	1046.738281	39.470150
-7258.878723	6556.728333	1045.584961	109.084160
-7258.878723	6556.728333	1044.431641	33.261536
-7258.878723	6556.728333	1043.278320	24.999460
-7258.878723	6556.728333	1042.125000	31.106627
-7258.878723	6556.728333	1040.971680	79.777473
-7258.878723	6556.728333	1039.817383	171.011810
-7258.878723	6556.728333	1038.663086	133.610321
-7258.878723	6556.728333	1037.508789	128.611237
-7258.878723	6556.728333	1036.353516	43.020668
-7258.878723	6556.728333	1035.198242	106.592476
-7258.878723	6556.728333	1034.042969	162.833618
-7258.878723	6556.728333	1032.887695	97.860901
-7258.878723	6556.728333	1031.732422	47.342415
-7258.878723	6556.728333	1030.576172	49.825802
-7258.878723	6556.728333	1029.419922	36.769032
-7258.878723	6556.728333	1028.263672	207.285995
-7258.878723	6556.728333	1027.106445	145.463882
-7258.878723	6556.728333	1025.949219	-128.296448
-7258.878723	6556.728333	1024.792969	84.261299
-7258.878723	6556.728333	1023.634766	14.376509
-7258.878723	6556.728333	1022.477539	67.153816
-7258.878723	6556.728333	1021.319336	78.383217
-7258.878723	6556.728333	1020.161133	-7.959734
-7258.878723	6556.728333	1019.002930	-137.955460
-7258.878723	6556.728333	1017.843750	71.290840
-7258.878723	6556.728333	1016.684570	93.970085
-7258.878723	6556.728333	1015.525391	53.120487
-7258.878723	6556.728333	1014.366211	72.880859
-7258.878723	6556.728333	1013.207031	197.084351
-7258.878723	6556.728333	1012.046875	-14.294631
-7258.878723	6556.728333	1010.886719	-243.897202
-7258.878723	6556.728333	1009.726563	88.718170
-7258.878723	6556.728333	1008.565430	156.366730
-7258.878723	6556.728333	1007.404297	21.353170
-7258.878723	6556.728333	1006.243164	82.292854
-7258.878723	6556.728333	1005.082031	-39.262798
-7258.878723	6556.728333	1003.920898	-40.857586
-7258.878723	6556.728333	1002.758789	82.985847
-7258.878723	6556.728333	1001.596680	188.675217
-7258.878723	6556.728333	1000.433594	126.723999
-7258.878723	6556.728333	999.271484	-64.258591
-7258.878723	6556.728333	998.108398	-60.441517
-7258.878723	6556.728333	996.945313	-62.350174
-7258.878723	6556.728333	995.782227	-41.255901
-7258.878723	6556.728333	994.618164	-33.427902
-7258.878723	6556.728333	993.454102	20.933126
-7258.878723	6556.728333	992.290039	-38.719543
-7258.878723	6556.728333	991.125977	15.895012
-7258.878723	6556.728333	989.960938	4.832788
-7258.878723	6556.728333	988.796875	79.795723
-7258.878723	6556.728333	987.630859	132.994019
-7258.878723	6556.728333	986.465820	79.051758
-7258.878723	6556.728333	985.300781	287.717834
-7258.878723	6556.728333	984.134766	23.335382
-7258.878723	6556.728333	982.968750	186.901428
-7258.878723	6556.728333	981.801758	134.559891
-7258.878723	6556.728333	980.635742	106.538536
-7258.878723	6556.728333	979.468750	63.483463
-7258.878723	6556.728333	978.301758	197.697357
-7258.878723	6556.728333	977.133789	130.756760
-7258.878723	6556.728333	975.966797	-43.006100
-7258.878723	6556.728333	974.798828	80.455795
-7258.878723	6556.728333	973.630859	34.553989
-7258.878723	6556.728333	972.461914	133.951477
-7258.878723	6556.728333	971.293945	89.702148
-7258.878723	6556.728333	970.125000	-35.498539
-7258.878723	6556.728333	968.956055	100.637421
-7258.878723	6556.728333	967.786133	53.234966
-7258.878723	6556.728333	966.617188	-4.216525
-7258.878723	6556.728333	965.447266	-124.877007
-7258.878723	6556.728333	964.276367	-38.856659
-7258.878723	6556.728333	963.106445	19.097054
-7258.878723	6556.728333	961.935547	-37.342785
-7258.878723	6556.728333	960.764648	-179.053253
-7258.878723	6556.728333	959.593750	-232.155273
-7258.878723	6556.728333	958.422852	-20.046173
-7258.878723	6556.728333	957.250977	54.946404
-7258.878723	6556.728333	956.079102	90.924850
-7258.878723	6556.728333	954.907227	30.536774
-7258.878723	6556.728333	953.734375	129.656693
-7258.878723	6556.728333	952.562500	-68.281822
-7258.878723	6556.728333	951.389648	-27.255966
-7258.878723	6556.728333	950.215820	21.757864
-7258.878723	6556.728333	949.042969	14.843102
-7258.878723	6556.728333	947.869141	118.867805
-7258.878723	6556.728333	946.695313	-121.995865
-7258.878723	6556.728333	945.521484	37.477325
-7258.878723	6556.728333	944.346680	80.766937
-7258.878723	6556.728333	943.172852	-1.229728
-7258.878723	6556.728333	941.998047	-101.333496
-7258.878723	6556.728333	940.822266	4.979234
-7258.878723	6556.728333	939.647461	74.048599
-7258.878723	6556.728333	938.471680	-15.703020
-7258.878723	6556.728333	937.295898	156.324677
-7258.878723	6556.728333	936.119141	54.025845
-7258.878723	6556.728333	934.943359	117.694641
-7258.878723	6556.728333	933.766602	146.390228
-7258.878723	6556.728333	932.589844	-23.864269
-7258.878723	6556.728333	931.413086	7.194950
-7258.878723	6556.728333	930.235352	20.711588
-7258.878723	6556.728333	929.057617	24.155024
-7258.878723	6556.728333	927.879883	57.807613
-7258.878723	6556.728333	926.702148	76.386780
-7258.878723	6556.728333	925.523438	-38.374889
-7258.878723	6556.728333	924.344727	-85.183830
-7258.878723	6556.728333	923.166016	-74.103882
-7258.878723	6556.728333	921.987305	17.461750
-7258.878723	6556.728333	920.807617	23.515728
-7258.878723	6556.728333	919.627930	25.986809
-7258.878723	6556.728333	919.497070	-301.981384
-7258.878723	6556.728333	918.331055	8.258833
-7258.878723	6556.728333	917.165039	-93.729897
-7258.878723	6556.728333	915.999023	-24.822443
-7258.878723	6556.728333	914.833008	-76.499657
-7258.878723	6556.728333	913.666016	45.143497
-7258.878723	6556.728333	912.499023	-26.585377
-7258.878723	6556.728333	911.332031	-38.024071
-7258.878723	6556.728333	910.165039	-179.955688
-7258.878723	6556.728333	908.997070	16.945274
-7258.878723	6556.728333	907.830078	-79.754097
-7258.878723	6556.728333	906.661133	-61.014015
-7258.878723	6556.728333	905.493164	-67.347710
-7258.878723	6556.728333	904.325195	-76.172348
-7258.878723	6556.728333	903.156250	25.320993
-7258.878723	6556.728333	901.987305	16.511572
-7258.878723	6556.728333	900.818359	82.892639
-7258.878723	6556.728333	899.648438	26.506550
-7258.878723	6556.728333	898.478516	-14.813861
-7258.878723	6556.728333	897.308594	-43.581699
-7258.878723	6556.728333	896.138672	188.062485
-7258.878723	6556.728333	894.968750	76.688583
-7258.878723	6556.728333	893.797852	65.485016
-7258.878723	6556.728333	892.626953	86.828964
-7258.878723	6556.728333	891.456055	-99.459183
-7258.878723	6556.728333	890.284180	57.004303
-7258.878723	6556.728333	889.113281	-29.145508
-7258.878723	6556.728333	887.941406	89.767998
-7258.878723	6556.728333	886.768555	71.171669
-7258.878723	6556.728333	885.596680	-102.349327
-7258.878723	6556.728333	884.423828	16.554544
-7258.878723	6556.728333	883.250977	47.992294
-7258.878723	6556.728333	882.078125	119.394142
-7258.878723	6556.728333	880.905273	1.004761
-7258.878723	6556.728333	879.731445	82.407204
-7258.878723	6556.728333	878.557617	146.319305
-7258.878723	6556.728333	877.383789	87.939346
-7258.878723	6556.728333	876.209961	126.905052
-7258.878723	6556.728333	875.035156	88.543655
-7258.878723	6556.728333	873.860352	82.635429
-7258.878723	6556.728333	872.685547	91.706764
-7258.878723	6556.728333	871.510742	-68.733032
-7258.878723	6556.728333	870.334961	5.204333
-7258.878723	6556.728333	869.159180	-87.834709
-7258.878723	6556.728333	867.983398	33.445747
-7258.878723	6556.728333	866.807617	72.491524
-7258.878723	6556.728333	865.630859	148.896515
-7258.878723	6556.728333	864.454102	65.931114
-7258.878723	6556.728333	863.277344	42.761341
-7258.878723	6556.728333	862.100586	158.996078
-7258.878723	6556.728333	860.922852	-28.382065
-7258.878723	6556.728333	859.745117	-215.667694
-7258.878723	6556.728333	858.567383	42.379887
-7258.878723	6556.728333	857.389648	-127.402901
-7258.878723	6556.728333	856.210938	41.046680
-7258.878723	6556.728333	855.032227	137.354355
-7258.878723	6556.728333	853.853516	-154.074158
-7258.878723	6556.728333	852.674805	-52.764244
-7258.878723	6556.728333	851.495117	-43.397293
-7258.878723	6556.728333	850.315430	47.947773
-7258.878723	6556.728333	849.135742	2.689857
-7258.878723	6556.728333	847.956055	-7.774104
-7258.878723	6556.728333	846.775391	-110.059525
-7258.878723	6556.728333	845.595703	-8.785313
-7258.878723	6556.728333	844.415039	37.878792
-7258.878723	6556.728333	843.233398	99.426422
-7258.878723	6556.728333	842.052734	54.312313
-7258.878723	6556.728333	840.871094	-82.515038
-7258.878723	6556.728333	839.689453	-75.475540
-7258.878723	6556.728333	838.506836	-175.004837
-7258.878723	6556.728333	837.325195	-34.096066
-7258.878723	6556.728333	836.142578	-84.008179
-7258.878723	6556.728333	834.959961	-84.341301
-7258.878723	6556.728333	833.777344	6.978219
-7258.878723	6556.728333	832.593750	-30.481827
-7258.878723	6556.728333	831.410156	-258.535492
-7258.878723	6556.728333	830.226563	-110.260475
-7258.878723	6556.728333	829.042969	-127.830734
-7258.878723	6556.728333	827.858398	-105.790237
-7258.878723	6556.728333	826.673828	-46.639626
-7258.878723	6556.728333	825.489258	-46.853123
-7258.878723	6556.728333	824.304688	-29.743336
-7258.878723	6556.728333	823.120117	-84.316734
-7258.878723	6556.728333	821.934570	-116.605537
-7258.878723	6556.728333	820.749023	-5.546007
-7258.878723	6556.728333	819.562500	-30.394472
-7258.878723	6556.728333	818.376953	-60.162071
-7258.878723	6556.728333	817.190430	-102.247574
-7258.878723	6556.728333	816.003906	11.245709
-7258.878723	6556.728333	814.817383	-67.837135
-7258.878723	6556.728333	813.629883	154.224640
-7258.878723	6556.728333	812.442383	80.110390
-7258.878723	6556.728333	811.254883	-23.564295
-7258.878723	6556.728333	810.067383	104.665268
-7258.878723	6556.728333	808.878906	-114.841957
-7258.878723	6556.728333	807.690430	40.502510
-7258.878723	6556.728333	806.501953	-169.014862
-7258.878723	6556.728333	805.313477	-18.627642
-7258.878723	6556.728333	804.124023	-6.265423
-7258.878723	6556.728333	802.934570	-35.774334
-7258.878723	6556.728333	801.745117	129.309799
-7258.878723	6556.728333	800.555664	-50.396511
-7258.878723	6556.728333	799.365234	171.272385
-7258.878723	6556.728333	798.175781	18.730259
-7258.878723	6556.728333	796.985352	65.595192
-7258.878723	6556.728333	795.793945	-64.690102
-7258.878723	6556.728333	794.603516	-3.045924
-7258.878723	6556.728333	793.412109	-20.111935
-7258.878723	6556.728333	792.220703	235.768555
-7258.878723	6556.728333	791.028320	152.310532
-7258.878723	6556.728333	789.836914	56.604374
-7258.878723	6556.728333	788.644531	29.755583
-7258.878723	6556.728333	787.452148	111.025780
-7258.878723	6556.728333	786.258789	214.381927
-7258.878723	6556.728333	785.066406	47.567162
-7258.878723	6556.728333	783.873047	126.359383
-7258.878723	6556.728333	782.679688	21.022133
-7258.878723	6556.728333	781.485352	35.997967
-7258.878723	6556.728333	780.291992	65.695000
-7258.878723	6556.728333	779.097656	-29.722601
-7258.878723	6556.728333	777.903320	90.745476
-7258.878723	6556.728333	776.708008	-9.523135
-7258.878723	6556.728333	775.512695	5.486506
-7258.878723	6556.728333	774.318359	69.517349
-7258.878723	6556.728333	773.122070	-3.701989
-7258.878723	6556.728333	771.926758	50.520252
-7258.878723	6556.728333	770.730469	31.240868
-7258.878723	6556.728333	769.534180	48.712551
-7258.878723	6556.728333	768.337891	171.473602
-7258.878723	6556.728333	767.141602	149.750320
-7258.878723	6556.728333	765.944336	323.854431
-7258.878723	6556.728333	764.747070	260.521484
-7258.878723	6556.728333	763.549805	358.695068
-7258.878723	6556.728333	762.351563	195.104385
-7258.878723	6556.728333	761.154297	315.269653
-7258.878723	6556.728333	759.956055	296.023590
-7258.878723	6556.728333	758.757813	345.236511
-7258.878723	6556.728333	757.558594	533.746521
-7258.878723	6556.728333	756.359375	289.674408
-7258.878723	6556.728333	755.160156	480.566711
-7258.878723	6556.728333	753.960938	400.261536
-7258.878723	6556.728333	752.761719	322.433868
-7258.878723	6556.728333	751.561523	120.127350
-7258.878723	6556.728333	750.361328	257.205444
-7258.878723	6556.728333	749.160156	316.135101
-7258.878723	6556.728333	747.959961	138.359863
-7258.878723	6556.728333	746.758789	141.183609
-7258.878723	6556.728333	745.557617	70.837486
-7258.878723	6556.728333	744.356445	137.074081
-7258.878723	6556.728333	743.154297	-13.690910
-7258.878723	6556.728333	741.952148	15.976270
-7258.878723	6556.728333	740.750000	-44.535545
-7258.878723	6556.728333	739.547852	167.854858
-7258.878723	6556.728333	738.344727	-26.638512
-7258.878723	6556.728333	737.142578	222.186676
-7258.878723	6556.728333	735.939453	-81.810562
-7258.878723	6556.728333	734.735352	-49.736034
-7258.878723	6556.728333	733.532227	72.372345
-7258.878723	6556.728333	732.328125	145.762268
-7258.878723	6556.728333	731.124023	17.190710
-7258.878723	6556.728333	729.918945	51.639740
-7258.878723	6556.728333	728.714844	134.703308
-7258.878723	6556.728333	727.509766	84.007454
-7258.878723	6556.728333	726.303711	237.520096
-7258.878723	6556.728333	725.098633	123.625748
-7258.878723	6556.728333	723.892578	123.976776
-7258.878723	6556.728333	722.686523	160.761368
-7258.878723	6556.728333	721.480469	10.507505
-7258.878723	6556.728333	720.274414	64.285133
-7258.878723	6556.728333	719.067383	93.758385
-7258.878723	6556.728333	717.860352	69.812218
-7258.878723	6556.728333	716.653320	-41.494617
-7258.878723	6556.728333	715.445313	99.568855
-7258.878723	6556.728333	714.238281	56.206108
-7258.878723	6556.728333	713.030273	39.532776
-7258.878723	6556.728333	711.821289	-95.950539
-7258.878723	6556.728333	710.613281	-35.028599
-7258.878723	6556.728333	709.404297	79.181755
-7258.878723	6556.728333	708.195313	30.980114
-7258.878723	6556.728333	706.986328	-7.521087
-7258.878723	6556.728333	705.776367	-92.035751
-7258.878723	6556.728333	704.566406	34.159069
-7258.878723	6556.728333	703.356445	34.388222
-7258.878723	6556.728333	702.146484	90.280746
-7258.878723	6556.728333	700.935547	-18.430035
-7258.878723	6556.728333	699.724609	25.329456
-7258.878723	6556.728333	698.513672	-71.252655
-7258.878723	6556.728333	697.302734	37.775440
-7258.878723	6556.728333	696.090820	170.927765
-7258.878723	6556.728333	694.878906	175.876587
-7258.878723	6556.728333	693.666992	105.878891
-7258.878723	6556.728333	692.455078	-53.518311
-7258.878723	6556.728333	691.242188	91.565186
-7258.878723	6556.728333	690.029297	60.235279
-7258.878723	6556.728333	688.816406	200.371521
-7258.878723	6556.728333	687.602539	159.344315
-7258.878723	6556.728333	686.389648	108.657928
-7258.878723	6556.728333	685.175781	147.279556
-7258.878723	6556.728333	683.960938	96.588203
-7258.878723	6556.728333	682.747070	79.672737
-7258.878723	6556.728333	681.532227	55.513439
-7258.878723	6556.728333	680.317383	137.451691
-7258.878723	6556.728333	679.102539	156.650757
-7258.878723	6556.728333	677.886719	-19.424862
-7258.878723	6556.728333	676.670898	33.503311
-7258.878723	6556.728333	675.455078	40.608780
-7258.878723	6556.728333	674.239258	122.369255
-7258.878723	6556.728333	673.022461	112.555855
-7258.878723	6556.728333	671.805664	-92.319016
-7258.878723	6556.728333	670.588867	169.916702
-7258.878723	6556.728333	669.372070	237.058136
-7258.878723	6556.728333	668.154297	251.210770
-7258.878723	6556.728333	666.936523	209.998474
-7258.878723	6556.728333	665.718750	281.835968
-7258.878723	6556.728333	664.500977	149.202927
-7258.878723	6556.728333	663.282227	103.163841
-7258.878723	6556.728333	662.063477	59.525204
-7258.878723	6556.728333	660.844727	124.033340
-7258.878723	6556.728333	659.625000	22.694036
-7258.878723	6556.728333	658.405273	79.930115
-7258.878723	6556.728333	657.185547	79.472748
-7258.878723	6556.728333	655.965820	57.378326
-7258.878723	6556.728333	654.745117	42.472878
-7258.878723	6556.728333	653.525391	70.752457
-7258.878723	6556.728333	652.303711	122.997910
-7258.878723	6556.728333	651.083008	91.215973
-7258.878723	6556.728333	649.861328	25.840652
-7258.878723	6556.728333	648.640625	154.727066
-7258.878723	6556.728333	647.417969	144.464890
-7258.878723	6556.728333	646.196289	150.958145
-7258.878723	6556.728333	644.973633	-5.558078
-7258.878723	6556.728333	643.750977	-75.769051
-7258.878723	6556.728333	642.528320	-83.687675
-7258.878723	6556.728333	641.305664	44.899708
-7258.878723	6556.728333	640.082031	106.353600
-7258.878723	6556.728333	638.858398	-21.393482
-7258.878723	6556.728333	637.634766	186.010315
-7258.878723	6556.728333	636.410156	98.930336
-7258.878723	6556.728333	635.185547	-9.676418
-7258.878723	6556.728333	633.960938	187.939880
-7258.878723	6556.728333	632.736328	-78.552467
-7258.878723	6556.728333	631.510742	-43.665161
-7258.878723	6556.728333	630.285156	67.680511
-7258.878723	6556.728333	629.059570	47.487820
-7258.878723	6556.728333	627.833984	3.376253
-7258.878723	6556.728333	626.607422	66.769104
-7258.878723	6556.728333	625.380859	137.270599
-7258.878723	6556.728333	624.154297	124.125229
-7258.878723	6556.728333	622.927734	36.937393
-7258.878723	6556.728333	621.700195	66.728439
-7258.878723	6556.728333	620.472656	32.036324
-7258.878723	6556.728333	619.245117	152.427826
-7258.878723	6556.728333	618.016602	136.756805
-7258.878723	6556.728333	616.788086	49.507065
-7258.878723	6556.728333	615.559570	26.648281
-7258.878723	6556.728333	614.331055	1.383500
-7258.878723	6556.728333	613.101563	11.853588
-7258.878723	6556.728333	611.872070	100.931190
-7258.878723	6556.728333	610.642578	118.460487
-7258.878723	6556.728333	609.413086	128.804245
-7258.878723	6556.728333	608.182617	5.743868
-7258.878723	6556.728333	606.952148	99.383095
-7258.878723	6556.728333	605.721680	131.055389
-7258.878723	6556.728333	604.491211	22.257837
-7258.878723	6556.728333	603.259766	-172.188690
-7258.878723	6556.728333	602.028320	-21.619778
-7258.878723	6556.728333	600.796875	36.089588
-7258.878723	6556.728333	599.564453	48.560051
-7258.878723	6556.728333	598.332031	-45.996029
-7258.878723	6556.728333	597.099609	40.111324
-7258.878723	6556.728333	595.867188	-28.325367
-7258.878723	6556.728333	594.633789	36.294453
-7258.878723	6556.728333	593.400391	5.834154
-7258.878723	6556.728333	592.166992	56.104839
-7258.878723	6556.728333	590.933594	73.079727
-7258.878723	6556.728333	589.699219	-23.936111
-7258.878723	6556.728333	588.464844	-106.701241
-7258.878723	6556.728333	587.230469	175.979263
-7258.878723	6556.728333	585.995117	43.322525
-7258.878723	6556.728333	584.760742	88.588432
-7258.878723	6556.728333	583.525391	126.690628
-7258.878723	6556.728333	582.289063	-17.819084
-7258.878723	6556.728333	581.053711	-20.071266
-7258.878723	6556.728333	579.817383	25.046812
-7258.878723	6556.728333	578.581055	-3.338388
-7258.878723	6556.728333	577.343750	96.182037
-7258.878723	6556.728333	576.107422	-43.585228
-7258.878723	6556.728333	574.870117	44.000687
-7258.878723	6556.728333	573.631836	-41.303753
-7258.878723	6556.728333	572.394531	-86.364563
-7258.878723	6556.728333	571.156250	-17.847124
-7258.878723	6556.728333	569.917969	-39.293705
-7258.878723	6556.728333	568.679688	-44.203110
-7258.878723	6556.728333	567.440430	-94.072334
-7258.878723	6556.728333	566.202148	-87.204605
-7258.878723	6556.728333	564.961914	-94.550858
-7258.878723	6556.728333	563.722656	-120.830589
-7258.878723	6556.728333	562.482422	-17.167957
-7258.878723	6556.728333	561.243164	46.260471
-7258.878723	6556.728333	560.001953	-69.867569
-7258.878723	6556.728333	558.761719	-138.747360
-7258.878723	6556.728333	557.520508	-49.446556
-7258.878723	6556.728333	556.279297	-130.157501
-7258.878723	6556.728333	555.038086	13.325676
-7258.878723	6556.728333	553.795898	-20.230524
-7258.878723	6556.728333	552.554688	-75.029167
-7258.878723	6556.728333	551.311523	-63.796238
-7258.878723	6556.728333	550.069336	-62.025848
-7258.878723	6556.728333	548.826172	-41.422642
-7258.878723	6556.728333	547.583984	125.268997
-7258.878723	6556.728333	546.339844	51.519630
-7258.878723	6556.728333	545.096680	-97.609894
-7258.878723	6556.728333	543.852539	-77.116348
-7258.878723	6556.728333	542.608398	13.988400
-7258.878723	6556.728333	541.364258	-78.605850
-7258.878723	6556.728333	540.119141	-227.675232
-7258.878723	6556.728333	538.875000	-211.973099
-7258.878723	6556.728333	537.628906	-52.779270
-7258.878723	6556.728333	536.383789	-70.098869
-7258.878723	6556.728333	535.137695	-61.563183
-7258.878723	6556.728333	533.892578	-69.511856
-7258.878723	6556.728333	532.645508	-112.740517
-7258.878723	6556.728333	531.399414	3.847004
-7258.878723	6556.728333	530.152344	2.875143
-7258.878723	6556.728333	528.905273	-38.054451
-7258.878723	6556.728333	527.658203	-170.588379
-7258.878723	6556.728333	526.410156	-180.975571
-7258.878723	6556.728333	525.163086	-41.121372
-7258.878723	6556.728333	523.914063	112.737366
-7258.878723	6556.728333	522.666016	52.956905
-7258.878723	6556.728333	521.416992	42.455414
-7258.878723	6556.728333	520.167969	-24.358217
-7258.878723	6556.728333	518.918945	12.030050
-7258.878723	6556.728333	517.669922	10.869602
-7258.878723	6556.728333	516.419922	-55.945553
-7258.878723	6556.728333	515.169922	-57.124649
-7258.878723	6556.728333	513.919922	-53.633152
-7258.878723	6556.728333	512.668945	95.089890
-7258.878723	6556.728333	511.417969	9.511550
-7258.878723	6556.728333	510.166992	10.597981
-7258.878723	6556.728333	508.916016	-37.496666
-7258.878723	6556.728333	507.664063	-29.408287
-7258.878723	6556.728333	506.412109	-77.502800
-7258.878723	6556.728333	505.160156	54.566803
-7258.878723	6556.728333	503.907227	22.821791
-7258.878723	6556.728333	502.655273	47.205379
-7258.878723	6556.728333	501.402344	-17.286098
-7258.878723	6556.728333	500.148438	32.784618
-7258.878723	6556.728333	498.895508	36.076591
-7258.878723	6556.728333	497.641602	15.988406
-7258.878723	6556.728333	496.387695	84.671249
-7258.878723	6556.728333	495.132813	64.556908
-7258.878723	6556.728333	493.878906	270.951935
-7258.878723	6556.728333	492.624023	-38.716881
-7258.878723	6556.728333	491.368164	-77.499664
-7258.878723	6556.728333	490.113281	-32.265156
-7258.878723	6556.728333	488.857422	-31.390854
-7258.878723	6556.728333	487.601563	-7.201689
-7258.878723	6556.728333	486.344727	86.931717
-7258.878723	6556.728333	485.088867	176.350113
-7258.878723	6556.728333	483.832031	41.928768
-7258.878723	6556.728333	482.575195	17.095657
-7258.878723	6556.728333	481.317383	76.147530
-7258.878723	6556.728333	480.059570	2.374132
-7258.878723	6556.728333	478.801758	-1.503810
-7258.878723	6556.728333	477.543945	118.027855
-7258.878723	6556.728333	476.285156	53.574348
-7258.878723	6556.728333	475.027344	107.847939
-7258.878723	6556.728333	473.767578	20.131590
-7258.878723	6556.728333	472.508789	-165.276321
-7258.878723	6556.728333	471.249023	-27.282623
-7258.878723	6556.728333	469.989258	8.312920
-7258.878723	6556.728333	468.729492	-88.650536
-7258.878723	6556.728333	467.469727	-25.184443
-7258.878723	6556.728333	466.208984	-17.536903
-7258.878723	6556.728333	464.948242	80.716843
-7258.878723	6556.728333	463.686523	41.851082
-7258.878723	6556.728333	462.425781	5.312304
-7258.878723	6556.728333	461.164063	161.512100
-7258.878723	6556.728333	459.901367	106.362602
-7258.878723	6556.728333	458.639648	-95.006645
-7258.878723	6556.728333	457.376953	-168.670563
-7258.878723	6556.728333	456.114258	-7.986338
-7258.878723	6556.728333	454.851563	-21.358379
-7258.878723	6556.728333	453.587891	-67.209114
-7258.878723	6556.728333	452.324219	19.103676
-7258.878723	6556.728333	451.060547	8.000141
-7258.878723	6556.728333	449.796875	82.634262
-7258.878723	6556.728333	448.532227	45.994984
-7258.878723	6556.728333	447.267578	-18.448471
-7258.878723	6556.728333	446.002930	76.925491
-7258.878723	6556.728333	444.737305	188.443985
-7258.878723	6556.728333	443.471680	144.778748
-7258.878723	6556.728333	442.206055	36.298763
-7258.878723	6556.728333	440.940430	38.916401
-7258.878723	6556.728333	439.673828	101.658173
-7258.878723	6556.728333	438.407227	118.082344
-7258.878723	6556.728333	437.140625	213.097198
-7258.878723	6556.728333	435.873047	0.529763
-7258.878723	6556.728333	434.605469	72.347824
-7258.878723	6556.728333	433.337891	53.966793
-7258.878723	6556.728333	432.070313	194.988495
-7258.878723	6556.728333	430.801758	128.001770
-7258.878723	6556.728333	429.533203	93.337982
-7258.878723	6556.728333	428.264648	102.519638
-7258.878723	6556.728333	426.996094	-63.799957
-7258.878723	6556.728333	425.726563	74.573997
-7258.878723	6556.728333	424.457031	201.301285
-7258.878723	6556.728333	423.186523	60.299114
-7258.878723	6556.728333	421.916992	6.956680
-7258.878723	6556.728333	420.646484	48.130932
-7258.878723	6556.728333	419.375977	121.506828
-7258.878723	6556.728333	418.104492	141.772018
-7258.878723	6556.728333	416.833008	95.131882
-7258.878723	6556.728333	415.561523	106.047432
-7258.878723	6556.728333	414.290039	-25.933933
-7258.878723	6556.728333	413.017578	83.893364
-7258.878723	6556.728333	411.746094	131.428238
-7258.878723	6556.728333	410.472656	36.131016
-7258.878723	6556.728333	409.200195	23.651451
-7258.878723	6556.728333	407.926758	15.692070
-7258.878723	6556.728333	406.653320	76.664307
-7258.878723	6556.728333	405.379883	29.411598
-7258.878723	6556.728333	404.105469	94.760826
-7258.878723	6556.728333	402.831055	5.940620
-7258.878723	6556.728333	401.556641	112.434181
-7258.878723	6556.728333	400.282227	62.500950
-7258.878723	6556.728333	399.006836	-95.514999
-7258.878723	6556.728333	397.731445	81.795883
-7258.878723	6556.728333	396.456055	212.973877
-7258.878723	6556.728333	395.179688	146.499039
-7258.878723	6556.728333	393.903320	70.736343
-7258.878723	6556.728333	392.626953	206.017578
-7258.878723	6556.728333	391.350586	40.502060
-7258.878723	6556.728333	390.073242	40.081394
-7258.878723	6556.728333	388.795898	53.266804
-7258.878723	6556.728333	387.518555	162.595993
-7258.878723	6556.728333	386.240234	37.860123
-7258.878723	6556.728333	384.961914	11.565835
-7258.878723	6556.728333	383.683594	-35.522137
-7258.878723	6556.728333	382.405273	93.639572
-7258.878723	6556.728333	381.125977	158.410660
-7258.878723	6556.728333	379.846680	64.934296
-7258.878723	6556.728333	378.567383	-83.659798
-7258.878723	6556.728333	377.287109	51.442589
-7258.878723	6556.728333	376.006836	-44.887981
-7258.878723	6556.728333	374.726563	41.643147
-7258.878723	6556.728333	373.446289	109.597488
-7258.878723	6556.728333	372.165039	-154.364120
-7258.878723	6556.728333	370.883789	-164.649597
-7258.878723	6556.728333	369.602539	64.850281
-7258.878723	6556.728333	368.320313	-163.156097
-7258.878723	6556.728333	367.039063	-30.287254
-7258.878723	6556.728333	365.755859	111.359428
-7258.878723	6556.728333	364.473633	69.917511
-7258.878723	6556.728333	363.190430	-19.779945
-7258.878723	6556.728333	361.907227	-130.307571
-7258.878723	6556.728333	360.624023	-37.962601
-7258.878723	6556.728333	359.340820	-0.771007
-7258.878723	6556.728333	358.056641	95.367226
-7258.878723	6556.728333	356.772461	51.948685
-7258.878723	6556.728333	355.487305	-42.009743
-7258.878723	6556.728333	354.202148	-22.305931
-7258.878723	6556.728333	352.916992	-28.086857
-7258.878723	6556.728333	351.631836	-4.647725
-7258.878723	6556.728333	350.346680	25.193510
-7258.878723	6556.728333	349.060547	2.176327
-7258.878723	6556.728333	347.774414	133.601044
-7258.878723	6556.728333	346.487305	-131.736572
-7258.878723	6556.728333	345.200195	80.668404
-7258.878723	6556.728333	343.913086	-92.189064
-7258.878723	6556.728333	342.625977	-172.174698
-7258.878723	6556.728333	341.338867	-16.025639
-7258.878723	6556.728333	340.050781	107.660721
-7258.878723	6556.728333	338.762695	-144.505051
-7258.878723	6556.728333	337.473633	87.158867
-7258.878723	6556.728333	336.184570	-66.037659
-7258.878723	6556.728333	334.895508	-158.405792
-7258.878723	6556.728333	333.606445	-142.285828
-7258.878723	6556.728333	332.317383	-72.287994
-7258.878723	6556.728333	331.027344	-16.616976
-7258.878723	6556.728333	329.736328	-150.130371
-7258.878723	6556.728333	328.446289	-91.290398
-7258.878723	6556.728333	327.155273	12.191728
-7258.878723	6556.728333	325.864258	-139.257736
-7258.878723	6556.728333	324.573242	-107.621986
-7258.878723	6556.728333	323.281250	127.354904
-7258.878723	6556.728333	321.989258	-155.612869
-7258.878723	6556.728333	320.697266	166.090775
-7258.878723	6556.728333	319.405273	24.397921
-7258.878723	6556.728333	318.112305	128.914749
-7258.878723	6556.728333	316.819336	92.026955
-7258.878723	6556.728333	315.526367	106.355156
-7258.878723	6556.728333	314.232422	-0.306484
-7258.878723	6556.728333	312.938477	111.765137
-7258.878723	6556.728333	311.644531	111.885986
-7258.878723	6556.728333	310.349609	-74.610481
-7258.878723	6556.728333	309.054688	152.043365
-7258.878723	6556.728333	307.759766	17.836311
-7258.878723	6556.728333	306.464844	185.693604
-7258.878723	6556.728333	305.168945	185.004959
-7258.878723	6556.728333	303.873047	2.313878
-7258.878723	6556.728333	302.577148	164.372620
-7258.878723	6556.728333	301.281250	225.735168
-7258.878723	6556.728333	299.984375	353.598450
