#X		#Y		#Wave		#Intensity
20384.983723	-1256.484667	1999.980469	-75.290817
20384.983723	-1256.484667	1999.016602	-136.617493
20384.983723	-1256.484667	1998.052734	-88.630692
20384.983723	-1256.484667	1997.087891	-56.084656
20384.983723	-1256.484667	1996.123047	-63.739784
20384.983723	-1256.484667	1995.158203	-133.851868
20384.983723	-1256.484667	1994.193359	-92.996361
20384.983723	-1256.484667	1993.228516	133.068329
20384.983723	-1256.484667	1992.262695	-30.134026
20384.983723	-1256.484667	1991.297852	53.789814
20384.983723	-1256.484667	1990.332031	38.237823
20384.983723	-1256.484667	1989.366211	-2.491335
20384.983723	-1256.484667	1988.399414	15.750067
20384.983723	-1256.484667	1987.433594	-15.899171
20384.983723	-1256.484667	1986.466797	115.292130
20384.983723	-1256.484667	1985.500977	117.473572
20384.983723	-1256.484667	1984.534180	10.511844
20384.983723	-1256.484667	1983.567383	54.005264
20384.983723	-1256.484667	1982.599609	82.310455
20384.983723	-1256.484667	1981.632813	176.983139
20384.983723	-1256.484667	1980.665039	95.906593
20384.983723	-1256.484667	1979.697266	-20.027569
20384.983723	-1256.484667	1978.729492	221.848557
20384.983723	-1256.484667	1977.761719	246.080536
20384.983723	-1256.484667	1976.792969	146.601639
20384.983723	-1256.484667	1975.825195	222.125946
20384.983723	-1256.484667	1974.856445	77.752342
20384.983723	-1256.484667	1973.887695	81.215485
20384.983723	-1256.484667	1972.918945	69.641701
20384.983723	-1256.484667	1971.949219	52.913040
20384.983723	-1256.484667	1970.980469	-5.939771
20384.983723	-1256.484667	1970.010742	78.006721
20384.983723	-1256.484667	1969.041016	43.412979
20384.983723	-1256.484667	1968.071289	171.292847
20384.983723	-1256.484667	1967.101563	74.729286
20384.983723	-1256.484667	1966.130859	24.832287
20384.983723	-1256.484667	1965.161133	43.758549
20384.983723	-1256.484667	1964.190430	0.955330
20384.983723	-1256.484667	1963.219727	9.724511
20384.983723	-1256.484667	1962.249023	-89.961395
20384.983723	-1256.484667	1961.277344	149.894531
20384.983723	-1256.484667	1960.306641	121.322449
20384.983723	-1256.484667	1959.334961	139.383423
20384.983723	-1256.484667	1958.363281	76.152496
20384.983723	-1256.484667	1957.391602	103.836533
20384.983723	-1256.484667	1956.419922	-50.546265
20384.983723	-1256.484667	1955.447266	11.372292
20384.983723	-1256.484667	1954.474609	48.602478
20384.983723	-1256.484667	1953.501953	215.985199
20384.983723	-1256.484667	1952.529297	-24.637842
20384.983723	-1256.484667	1951.556641	-211.196609
20384.983723	-1256.484667	1950.583984	164.705933
20384.983723	-1256.484667	1949.610352	59.091751
20384.983723	-1256.484667	1948.636719	-14.619268
20384.983723	-1256.484667	1947.663086	0.020171
20384.983723	-1256.484667	1946.689453	-14.841617
20384.983723	-1256.484667	1945.715820	-17.467607
20384.983723	-1256.484667	1944.741211	11.760854
20384.983723	-1256.484667	1943.767578	63.029755
20384.983723	-1256.484667	1942.792969	146.130234
20384.983723	-1256.484667	1941.818359	167.875916
20384.983723	-1256.484667	1940.842773	25.333981
20384.983723	-1256.484667	1939.868164	-38.727940
20384.983723	-1256.484667	1938.892578	63.860462
20384.983723	-1256.484667	1937.916992	-41.864056
20384.983723	-1256.484667	1936.941406	48.426022
20384.983723	-1256.484667	1935.965820	45.606911
20384.983723	-1256.484667	1934.990234	57.484379
20384.983723	-1256.484667	1934.013672	54.665699
20384.983723	-1256.484667	1933.037109	-21.583515
20384.983723	-1256.484667	1932.060547	-56.186378
20384.983723	-1256.484667	1931.083984	-54.059296
20384.983723	-1256.484667	1930.107422	-20.112940
20384.983723	-1256.484667	1929.129883	35.846359
20384.983723	-1256.484667	1928.153320	-40.253326
20384.983723	-1256.484667	1927.175781	106.201355
20384.983723	-1256.484667	1926.198242	140.168457
20384.983723	-1256.484667	1925.219727	95.925308
20384.983723	-1256.484667	1924.242188	24.849535
20384.983723	-1256.484667	1923.263672	-16.856855
20384.983723	-1256.484667	1922.285156	188.216812
20384.983723	-1256.484667	1921.306641	-12.201457
20384.983723	-1256.484667	1920.328125	-70.875923
20384.983723	-1256.484667	1919.349609	-127.052399
20384.983723	-1256.484667	1918.370117	161.014725
20384.983723	-1256.484667	1917.391602	58.516384
20384.983723	-1256.484667	1916.412109	-31.710823
20384.983723	-1256.484667	1915.431641	109.902481
20384.983723	-1256.484667	1914.452148	-7.053853
20384.983723	-1256.484667	1913.472656	285.792389
20384.983723	-1256.484667	1912.492188	37.251965
20384.983723	-1256.484667	1911.511719	69.203896
20384.983723	-1256.484667	1910.531250	-144.995865
20384.983723	-1256.484667	1909.550781	-56.885948
20384.983723	-1256.484667	1908.569336	92.140175
20384.983723	-1256.484667	1907.588867	-104.761421
20384.983723	-1256.484667	1906.607422	-194.384918
20384.983723	-1256.484667	1905.625977	54.556187
20384.983723	-1256.484667	1904.644531	18.587341
20384.983723	-1256.484667	1903.662109	48.396030
20384.983723	-1256.484667	1902.680664	85.542809
20384.983723	-1256.484667	1901.698242	15.647676
20384.983723	-1256.484667	1900.715820	-39.579582
20384.983723	-1256.484667	1899.733398	29.309999
20384.983723	-1256.484667	1898.750000	219.811447
20384.983723	-1256.484667	1897.767578	40.697437
20384.983723	-1256.484667	1896.784180	-140.742905
20384.983723	-1256.484667	1895.800781	-134.916504
20384.983723	-1256.484667	1894.817383	-61.006531
20384.983723	-1256.484667	1893.833984	-142.584824
20384.983723	-1256.484667	1892.850586	-146.356125
20384.983723	-1256.484667	1891.866211	22.354216
20384.983723	-1256.484667	1890.881836	25.912245
20384.983723	-1256.484667	1889.897461	12.511534
20384.983723	-1256.484667	1888.913086	118.098541
20384.983723	-1256.484667	1887.927734	-118.526123
20384.983723	-1256.484667	1886.943359	-102.664459
20384.983723	-1256.484667	1885.958008	-72.221283
20384.983723	-1256.484667	1884.972656	-29.626942
20384.983723	-1256.484667	1883.987305	42.085335
20384.983723	-1256.484667	1883.001953	21.664513
20384.983723	-1256.484667	1882.015625	-32.662056
20384.983723	-1256.484667	1881.029297	206.341003
20384.983723	-1256.484667	1880.042969	-138.742462
20384.983723	-1256.484667	1879.056641	-217.150925
20384.983723	-1256.484667	1878.070313	-2.389501
20384.983723	-1256.484667	1877.083984	81.529861
20384.983723	-1256.484667	1876.096680	58.890160
20384.983723	-1256.484667	1875.109375	-70.245445
20384.983723	-1256.484667	1874.122070	-242.883133
20384.983723	-1256.484667	1873.134766	-139.536926
20384.983723	-1256.484667	1872.146484	-12.016591
20384.983723	-1256.484667	1871.159180	-61.129463
20384.983723	-1256.484667	1870.170898	-20.715460
20384.983723	-1256.484667	1869.182617	-45.598408
20384.983723	-1256.484667	1868.194336	-130.905716
20384.983723	-1256.484667	1867.205078	35.241318
20384.983723	-1256.484667	1866.216797	-33.108463
20384.983723	-1256.484667	1865.227539	-53.096664
20384.983723	-1256.484667	1864.238281	-10.251372
20384.983723	-1256.484667	1863.249023	-22.976435
20384.983723	-1256.484667	1862.259766	34.348713
20384.983723	-1256.484667	1861.269531	-65.306473
20384.983723	-1256.484667	1860.279297	71.676315
20384.983723	-1256.484667	1859.290039	92.747414
20384.983723	-1256.484667	1858.298828	58.293804
20384.983723	-1256.484667	1857.308594	79.350189
20384.983723	-1256.484667	1856.318359	143.818604
20384.983723	-1256.484667	1855.327148	32.176270
20384.983723	-1256.484667	1854.335938	-64.963440
20384.983723	-1256.484667	1853.344727	71.801208
20384.983723	-1256.484667	1852.353516	25.292845
20384.983723	-1256.484667	1851.362305	-52.542847
20384.983723	-1256.484667	1850.370117	151.573029
20384.983723	-1256.484667	1849.377930	-8.207056
20384.983723	-1256.484667	1848.385742	77.755913
20384.983723	-1256.484667	1847.393555	175.709366
20384.983723	-1256.484667	1846.401367	76.155624
20384.983723	-1256.484667	1845.408203	-16.165569
20384.983723	-1256.484667	1844.415039	-9.787223
20384.983723	-1256.484667	1843.421875	-58.789055
20384.983723	-1256.484667	1842.428711	12.507042
20384.983723	-1256.484667	1841.435547	148.700073
20384.983723	-1256.484667	1840.441406	99.605843
20384.983723	-1256.484667	1839.448242	91.381927
20384.983723	-1256.484667	1838.454102	208.148819
20384.983723	-1256.484667	1837.459961	281.566071
20384.983723	-1256.484667	1836.464844	102.558792
20384.983723	-1256.484667	1835.470703	211.937164
20384.983723	-1256.484667	1834.475586	80.980591
20384.983723	-1256.484667	1833.480469	238.278519
20384.983723	-1256.484667	1832.485352	23.225899
20384.983723	-1256.484667	1831.490234	31.515568
20384.983723	-1256.484667	1830.495117	130.982941
20384.983723	-1256.484667	1829.499023	227.960098
20384.983723	-1256.484667	1828.502930	132.868759
20384.983723	-1256.484667	1827.506836	44.960358
20384.983723	-1256.484667	1826.510742	170.534241
20384.983723	-1256.484667	1825.513672	180.876450
20384.983723	-1256.484667	1824.517578	148.001373
20384.983723	-1256.484667	1823.520508	74.319412
20384.983723	-1256.484667	1822.523438	-44.936829
20384.983723	-1256.484667	1821.526367	39.504711
20384.983723	-1256.484667	1820.529297	85.515709
20384.983723	-1256.484667	1819.531250	200.917099
20384.983723	-1256.484667	1818.533203	47.941792
20384.983723	-1256.484667	1817.535156	191.915588
20384.983723	-1256.484667	1816.537109	271.121368
20384.983723	-1256.484667	1815.539063	19.870375
20384.983723	-1256.484667	1814.540039	0.804566
20384.983723	-1256.484667	1813.541992	185.087265
20384.983723	-1256.484667	1812.542969	129.967590
20384.983723	-1256.484667	1811.543945	101.108658
20384.983723	-1256.484667	1810.543945	160.671799
20384.983723	-1256.484667	1809.544922	0.152977
20384.983723	-1256.484667	1808.544922	83.468781
20384.983723	-1256.484667	1807.544922	85.404755
20384.983723	-1256.484667	1806.544922	44.243958
20384.983723	-1256.484667	1805.544922	191.780212
20384.983723	-1256.484667	1804.544922	-95.607689
20384.983723	-1256.484667	1803.543945	-34.255863
20384.983723	-1256.484667	1802.542969	-8.831431
20384.983723	-1256.484667	1801.541992	147.815964
20384.983723	-1256.484667	1800.541016	51.282959
20384.983723	-1256.484667	1799.539063	93.119919
20384.983723	-1256.484667	1798.538086	27.479984
20384.983723	-1256.484667	1797.536133	23.799747
20384.983723	-1256.484667	1796.534180	-89.693741
20384.983723	-1256.484667	1795.532227	175.959579
20384.983723	-1256.484667	1794.529297	262.582184
20384.983723	-1256.484667	1793.527344	148.833054
20384.983723	-1256.484667	1792.524414	218.557220
20384.983723	-1256.484667	1791.521484	-57.382946
20384.983723	-1256.484667	1790.518555	138.442429
20384.983723	-1256.484667	1789.514648	295.977570
20384.983723	-1256.484667	1788.511719	250.916672
20384.983723	-1256.484667	1787.507813	34.316833
20384.983723	-1256.484667	1786.503906	67.686501
20384.983723	-1256.484667	1785.500000	36.674416
20384.983723	-1256.484667	1784.496094	22.234049
20384.983723	-1256.484667	1783.491211	233.738892
20384.983723	-1256.484667	1782.486328	195.266205
20384.983723	-1256.484667	1781.481445	206.657211
20384.983723	-1256.484667	1780.476563	15.801006
20384.983723	-1256.484667	1779.471680	122.121880
20384.983723	-1256.484667	1778.465820	71.395309
20384.983723	-1256.484667	1777.460938	160.819748
20384.983723	-1256.484667	1776.455078	50.488598
20384.983723	-1256.484667	1775.449219	215.691864
20384.983723	-1256.484667	1774.442383	14.907842
20384.983723	-1256.484667	1773.436523	1.722593
20384.983723	-1256.484667	1772.429688	69.160469
20384.983723	-1256.484667	1771.422852	141.213135
20384.983723	-1256.484667	1770.416016	1.881245
20384.983723	-1256.484667	1769.409180	-123.266121
20384.983723	-1256.484667	1768.402344	228.436783
20384.983723	-1256.484667	1767.394531	-10.798861
20384.983723	-1256.484667	1766.386719	32.190132
20384.983723	-1256.484667	1765.378906	179.392838
20384.983723	-1256.484667	1764.371094	193.659668
20384.983723	-1256.484667	1763.362305	259.952484
20384.983723	-1256.484667	1762.354492	82.012169
20384.983723	-1256.484667	1761.345703	100.691170
20384.983723	-1256.484667	1760.336914	256.659302
20384.983723	-1256.484667	1759.328125	185.069839
20384.983723	-1256.484667	1758.318359	158.383286
20384.983723	-1256.484667	1757.308594	-3.364993
20384.983723	-1256.484667	1756.299805	109.452667
20384.983723	-1256.484667	1755.290039	200.806808
20384.983723	-1256.484667	1754.279297	24.603441
20384.983723	-1256.484667	1753.269531	101.522026
20384.983723	-1256.484667	1752.258789	90.766922
20384.983723	-1256.484667	1751.249023	226.549301
20384.983723	-1256.484667	1750.238281	-18.538177
20384.983723	-1256.484667	1749.226563	150.068848
20384.983723	-1256.484667	1748.215820	27.780462
20384.983723	-1256.484667	1747.204102	160.646805
20384.983723	-1256.484667	1746.193359	83.077415
20384.983723	-1256.484667	1745.181641	175.503952
20384.983723	-1256.484667	1744.168945	142.595352
20384.983723	-1256.484667	1743.157227	93.072380
20384.983723	-1256.484667	1742.144531	166.218689
20384.983723	-1256.484667	1741.132813	14.990829
20384.983723	-1256.484667	1740.120117	-53.696072
20384.983723	-1256.484667	1739.106445	82.810463
20384.983723	-1256.484667	1738.093750	193.219604
20384.983723	-1256.484667	1737.080078	-83.363625
20384.983723	-1256.484667	1736.067383	-27.419064
20384.983723	-1256.484667	1735.053711	-65.926018
20384.983723	-1256.484667	1734.040039	93.494583
20384.983723	-1256.484667	1733.025391	-114.941864
20384.983723	-1256.484667	1732.011719	-54.753422
20384.983723	-1256.484667	1730.997070	26.498878
20384.983723	-1256.484667	1729.982422	197.129150
20384.983723	-1256.484667	1728.967773	132.079422
20384.983723	-1256.484667	1727.952148	123.451454
20384.983723	-1256.484667	1726.937500	46.464573
20384.983723	-1256.484667	1725.921875	18.823498
20384.983723	-1256.484667	1724.906250	280.550934
20384.983723	-1256.484667	1723.890625	3.270635
20384.983723	-1256.484667	1722.875000	-24.645508
20384.983723	-1256.484667	1721.858398	-22.088369
20384.983723	-1256.484667	1720.841797	128.516937
20384.983723	-1256.484667	1719.825195	41.510101
20384.983723	-1256.484667	1718.808594	-78.469368
20384.983723	-1256.484667	1717.791992	-50.437214
20384.983723	-1256.484667	1716.774414	71.465370
20384.983723	-1256.484667	1715.756836	-175.608078
20384.983723	-1256.484667	1714.739258	56.479103
20384.983723	-1256.484667	1713.721680	-23.947941
20384.983723	-1256.484667	1712.704102	-36.344315
20384.983723	-1256.484667	1711.685547	-217.859344
20384.983723	-1256.484667	1710.667969	-23.856571
20384.983723	-1256.484667	1709.649414	139.463943
20384.983723	-1256.484667	1708.630859	30.484947
20384.983723	-1256.484667	1707.611328	5.890872
20384.983723	-1256.484667	1706.592773	-82.086418
20384.983723	-1256.484667	1705.573242	-88.061592
20384.983723	-1256.484667	1704.553711	-63.641747
20384.983723	-1256.484667	1703.534180	-215.104111
20384.983723	-1256.484667	1702.513672	120.827271
20384.983723	-1256.484667	1701.494141	37.173134
20384.983723	-1256.484667	1700.473633	126.802567
20384.983723	-1256.484667	1699.453125	-266.146973
20384.983723	-1256.484667	1698.432617	-200.064896
20384.983723	-1256.484667	1697.412109	18.092916
20384.983723	-1256.484667	1696.390625	18.389214
20384.983723	-1256.484667	1695.369141	-11.811635
20384.983723	-1256.484667	1694.347656	49.179104
20384.983723	-1256.484667	1693.326172	248.099976
20384.983723	-1256.484667	1692.304688	187.253036
20384.983723	-1256.484667	1691.282227	154.406830
20384.983723	-1256.484667	1690.260742	254.788773
20384.983723	-1256.484667	1689.238281	151.681717
20384.983723	-1256.484667	1688.214844	207.456924
20384.983723	-1256.484667	1687.192383	94.923271
20384.983723	-1256.484667	1686.168945	155.234406
20384.983723	-1256.484667	1685.146484	430.370300
20384.983723	-1256.484667	1684.123047	362.030365
20384.983723	-1256.484667	1683.099609	319.341492
20384.983723	-1256.484667	1682.075195	645.436157
20384.983723	-1256.484667	1681.051758	401.874908
20384.983723	-1256.484667	1680.027344	690.381165
20384.983723	-1256.484667	1679.002930	624.094727
20384.983723	-1256.484667	1677.978516	597.437073
20384.983723	-1256.484667	1676.953125	640.688843
20384.983723	-1256.484667	1675.928711	716.536011
20384.983723	-1256.484667	1674.903320	971.798401
20384.983723	-1256.484667	1673.877930	690.824097
20384.983723	-1256.484667	1672.852539	766.463257
20384.983723	-1256.484667	1671.826172	1235.772827
20384.983723	-1256.484667	1670.800781	938.474304
20384.983723	-1256.484667	1669.774414	813.582520
20384.983723	-1256.484667	1668.748047	847.044434
20384.983723	-1256.484667	1667.721680	1218.036377
20384.983723	-1256.484667	1666.694336	990.616272
20384.983723	-1256.484667	1665.667969	1082.097656
20384.983723	-1256.484667	1664.640625	1082.749878
20384.983723	-1256.484667	1663.613281	1025.212769
20384.983723	-1256.484667	1662.585938	1051.399658
20384.983723	-1256.484667	1661.557617	728.714294
20384.983723	-1256.484667	1660.530273	768.843506
20384.983723	-1256.484667	1659.501953	1108.781128
20384.983723	-1256.484667	1658.473633	846.623047
20384.983723	-1256.484667	1657.444336	877.307617
20384.983723	-1256.484667	1656.416016	1000.903992
20384.983723	-1256.484667	1655.386719	1073.316040
20384.983723	-1256.484667	1654.358398	964.560913
20384.983723	-1256.484667	1653.328125	981.177795
20384.983723	-1256.484667	1652.298828	923.506714
20384.983723	-1256.484667	1651.269531	1070.088867
20384.983723	-1256.484667	1650.239258	1007.740662
20384.983723	-1256.484667	1649.208984	1070.690796
20384.983723	-1256.484667	1648.178711	1031.545410
20384.983723	-1256.484667	1647.148438	957.622620
20384.983723	-1256.484667	1646.117188	1157.313965
20384.983723	-1256.484667	1645.086914	1305.940552
20384.983723	-1256.484667	1644.055664	1565.746094
20384.983723	-1256.484667	1643.024414	1382.835327
20384.983723	-1256.484667	1641.992188	1573.002319
20384.983723	-1256.484667	1640.960938	1529.154907
20384.983723	-1256.484667	1639.928711	1809.553711
20384.983723	-1256.484667	1638.896484	1691.573608
20384.983723	-1256.484667	1637.864258	1948.695923
20384.983723	-1256.484667	1636.832031	1761.313843
20384.983723	-1256.484667	1635.798828	1842.447144
20384.983723	-1256.484667	1634.766602	1918.952637
20384.983723	-1256.484667	1633.733398	2044.006226
20384.983723	-1256.484667	1632.699219	2208.329102
20384.983723	-1256.484667	1631.666016	1905.514648
20384.983723	-1256.484667	1630.632813	2169.270752
20384.983723	-1256.484667	1629.598633	2143.989014
20384.983723	-1256.484667	1628.564453	2257.404297
20384.983723	-1256.484667	1627.530273	2165.155029
20384.983723	-1256.484667	1626.495117	2555.777832
20384.983723	-1256.484667	1625.460938	2562.879395
20384.983723	-1256.484667	1624.425781	2706.238037
20384.983723	-1256.484667	1623.390625	2738.749512
20384.983723	-1256.484667	1622.355469	2565.833984
20384.983723	-1256.484667	1621.319336	2836.127930
20384.983723	-1256.484667	1620.284180	2921.770752
20384.983723	-1256.484667	1619.248047	3021.242676
20384.983723	-1256.484667	1618.211914	2986.934814
20384.983723	-1256.484667	1617.174805	2991.868408
20384.983723	-1256.484667	1616.138672	2929.994141
20384.983723	-1256.484667	1615.101563	3319.999512
20384.983723	-1256.484667	1614.065430	2930.896484
20384.983723	-1256.484667	1613.027344	3097.305420
20384.983723	-1256.484667	1611.990234	3328.225098
20384.983723	-1256.484667	1610.953125	3374.829346
20384.983723	-1256.484667	1609.915039	3223.393799
20384.983723	-1256.484667	1608.876953	3357.587402
20384.983723	-1256.484667	1607.838867	3392.794434
20384.983723	-1256.484667	1606.800781	3533.919922
20384.983723	-1256.484667	1605.761719	3817.707520
20384.983723	-1256.484667	1604.723633	3489.461670
20384.983723	-1256.484667	1603.684570	3414.422852
20384.983723	-1256.484667	1602.644531	3585.546143
20384.983723	-1256.484667	1601.605469	3331.292969
20384.983723	-1256.484667	1600.566406	3488.718262
20384.983723	-1256.484667	1599.526367	3430.076172
20384.983723	-1256.484667	1598.486328	3376.121338
20384.983723	-1256.484667	1597.446289	3425.651855
20384.983723	-1256.484667	1596.405273	3330.500244
20384.983723	-1256.484667	1595.365234	3336.529541
20384.983723	-1256.484667	1594.324219	3425.283447
20384.983723	-1256.484667	1593.283203	3573.770508
20384.983723	-1256.484667	1592.242188	3389.451172
20384.983723	-1256.484667	1591.200195	3657.366699
20384.983723	-1256.484667	1590.159180	3386.075928
20384.983723	-1256.484667	1589.117188	3443.003418
20384.983723	-1256.484667	1588.075195	3461.002441
20384.983723	-1256.484667	1587.032227	3474.481201
20384.983723	-1256.484667	1585.990234	3813.616943
20384.983723	-1256.484667	1584.947266	3494.822998
20384.983723	-1256.484667	1583.904297	3946.285156
20384.983723	-1256.484667	1582.861328	3662.143311
20384.983723	-1256.484667	1581.818359	3692.059082
20384.983723	-1256.484667	1580.775391	3632.729248
20384.983723	-1256.484667	1579.731445	3749.834229
20384.983723	-1256.484667	1578.687500	3567.063477
20384.983723	-1256.484667	1577.643555	3565.299316
20384.983723	-1256.484667	1576.598633	3783.333984
20384.983723	-1256.484667	1575.554688	3694.777832
20384.983723	-1256.484667	1574.509766	3569.744141
20384.983723	-1256.484667	1573.464844	3696.468506
20384.983723	-1256.484667	1572.419922	3585.414551
20384.983723	-1256.484667	1571.374023	3467.639404
20384.983723	-1256.484667	1570.329102	3482.617432
20384.983723	-1256.484667	1569.283203	3410.835693
20384.983723	-1256.484667	1568.237305	3540.281006
20384.983723	-1256.484667	1567.191406	3306.532715
20384.983723	-1256.484667	1566.144531	3568.642090
20384.983723	-1256.484667	1565.098633	3065.731201
20384.983723	-1256.484667	1564.051758	3047.174561
20384.983723	-1256.484667	1563.004883	3197.669434
20384.983723	-1256.484667	1561.957031	3056.070313
20384.983723	-1256.484667	1560.910156	2825.664063
20384.983723	-1256.484667	1559.862305	2657.056885
20384.983723	-1256.484667	1558.814453	2714.458984
20384.983723	-1256.484667	1557.766602	2546.186279
20384.983723	-1256.484667	1556.718750	2202.534180
20384.983723	-1256.484667	1555.669922	2392.575928
20384.983723	-1256.484667	1554.621094	2256.740967
20384.983723	-1256.484667	1553.573242	2105.146484
20384.983723	-1256.484667	1552.523438	2377.488770
20384.983723	-1256.484667	1551.474609	2212.511963
20384.983723	-1256.484667	1550.424805	2254.967285
20384.983723	-1256.484667	1549.375000	2051.623535
20384.983723	-1256.484667	1548.325195	2087.530273
20384.983723	-1256.484667	1547.275391	1782.144653
20384.983723	-1256.484667	1546.225586	2014.066162
20384.983723	-1256.484667	1545.174805	1813.735962
20384.983723	-1256.484667	1544.124023	1834.272583
20384.983723	-1256.484667	1543.073242	2093.741455
20384.983723	-1256.484667	1542.022461	2232.734131
20384.983723	-1256.484667	1540.970703	1908.028320
20384.983723	-1256.484667	1539.919922	1810.897705
20384.983723	-1256.484667	1538.868164	1863.924072
20384.983723	-1256.484667	1537.815430	1905.704224
20384.983723	-1256.484667	1536.763672	1672.756226
20384.983723	-1256.484667	1535.710938	1721.660645
20384.983723	-1256.484667	1534.659180	1754.805054
20384.983723	-1256.484667	1533.606445	1161.483276
20384.983723	-1256.484667	1532.552734	1433.334351
20384.983723	-1256.484667	1531.500000	985.846252
20384.983723	-1256.484667	1530.446289	1021.956604
20384.983723	-1256.484667	1529.393555	1307.742554
20384.983723	-1256.484667	1528.338867	1092.318237
20384.983723	-1256.484667	1527.285156	1099.361816
20384.983723	-1256.484667	1526.231445	1160.965942
20384.983723	-1256.484667	1525.176758	1034.557617
20384.983723	-1256.484667	1524.122070	987.672119
20384.983723	-1256.484667	1523.067383	993.072937
20384.983723	-1256.484667	1522.012695	1148.140503
20384.983723	-1256.484667	1520.957031	970.356995
20384.983723	-1256.484667	1519.901367	1132.468262
20384.983723	-1256.484667	1518.845703	966.393677
20384.983723	-1256.484667	1517.790039	1026.897461
20384.983723	-1256.484667	1516.734375	800.123840
20384.983723	-1256.484667	1515.677734	772.706848
20384.983723	-1256.484667	1514.621094	659.497009
20384.983723	-1256.484667	1513.564453	582.682312
20384.983723	-1256.484667	1512.507813	827.163513
20384.983723	-1256.484667	1511.450195	667.012024
20384.983723	-1256.484667	1510.393555	550.039673
20384.983723	-1256.484667	1509.335938	679.607544
20384.983723	-1256.484667	1508.278320	551.702820
20384.983723	-1256.484667	1507.219727	424.008667
20384.983723	-1256.484667	1506.162109	558.534912
20384.983723	-1256.484667	1505.103516	609.615479
20384.983723	-1256.484667	1504.044922	536.667419
20384.983723	-1256.484667	1502.986328	669.325928
20384.983723	-1256.484667	1501.926758	441.001343
20384.983723	-1256.484667	1500.868164	578.472473
20384.983723	-1256.484667	1499.808594	544.601013
20384.983723	-1256.484667	1498.749023	510.911591
20384.983723	-1256.484667	1497.688477	441.319183
20384.983723	-1256.484667	1496.628906	369.671509
20384.983723	-1256.484667	1495.568359	343.301208
20384.983723	-1256.484667	1494.507813	389.228363
20384.983723	-1256.484667	1493.447266	322.644501
20384.983723	-1256.484667	1492.386719	389.170868
20384.983723	-1256.484667	1491.325195	190.062119
20384.983723	-1256.484667	1490.263672	-74.102844
20384.983723	-1256.484667	1489.202148	67.268860
20384.983723	-1256.484667	1488.140625	350.568909
20384.983723	-1256.484667	1487.079102	42.029766
20384.983723	-1256.484667	1486.016602	372.814026
20384.983723	-1256.484667	1484.954102	384.185303
20384.983723	-1256.484667	1483.891602	379.979523
20384.983723	-1256.484667	1482.829102	389.436920
20384.983723	-1256.484667	1481.765625	259.661072
20384.983723	-1256.484667	1480.702148	190.794785
20384.983723	-1256.484667	1479.638672	470.477631
20384.983723	-1256.484667	1478.575195	282.824768
20384.983723	-1256.484667	1477.511719	99.983612
20384.983723	-1256.484667	1476.447266	234.039886
20384.983723	-1256.484667	1475.382813	264.876709
20384.983723	-1256.484667	1474.318359	192.607239
20384.983723	-1256.484667	1473.253906	239.490112
20384.983723	-1256.484667	1472.189453	358.329865
20384.983723	-1256.484667	1471.124023	405.466858
20384.983723	-1256.484667	1470.058594	425.982574
20384.983723	-1256.484667	1468.993164	410.611145
20384.983723	-1256.484667	1467.927734	539.014465
20384.983723	-1256.484667	1466.861328	719.011108
20384.983723	-1256.484667	1465.794922	603.587952
20384.983723	-1256.484667	1464.728516	870.964539
20384.983723	-1256.484667	1463.662109	950.339722
20384.983723	-1256.484667	1462.594727	699.411560
20384.983723	-1256.484667	1461.528320	763.064636
20384.983723	-1256.484667	1460.460938	639.340759
20384.983723	-1256.484667	1459.393555	771.014954
20384.983723	-1256.484667	1458.326172	924.816345
20384.983723	-1256.484667	1457.257813	981.091125
20384.983723	-1256.484667	1456.189453	1009.250488
20384.983723	-1256.484667	1455.121094	1056.577271
20384.983723	-1256.484667	1454.052734	954.845459
20384.983723	-1256.484667	1452.984375	977.392517
20384.983723	-1256.484667	1451.915039	879.983215
20384.983723	-1256.484667	1450.845703	994.945984
20384.983723	-1256.484667	1449.776367	887.642578
20384.983723	-1256.484667	1448.707031	964.310852
20384.983723	-1256.484667	1447.636719	811.071533
20384.983723	-1256.484667	1446.567383	627.503052
20384.983723	-1256.484667	1445.497070	843.378845
20384.983723	-1256.484667	1444.425781	783.147095
20384.983723	-1256.484667	1443.355469	823.958313
20384.983723	-1256.484667	1442.285156	704.478577
20384.983723	-1256.484667	1441.213867	773.678101
20384.983723	-1256.484667	1440.142578	688.238098
20384.983723	-1256.484667	1439.070313	716.554871
20384.983723	-1256.484667	1437.999023	717.665161
20384.983723	-1256.484667	1436.926758	567.422852
20384.983723	-1256.484667	1435.854492	716.955872
20384.983723	-1256.484667	1434.782227	677.716553
20384.983723	-1256.484667	1433.709961	738.772644
20384.983723	-1256.484667	1432.636719	583.983154
20384.983723	-1256.484667	1431.563477	881.999695
20384.983723	-1256.484667	1430.490234	675.266846
20384.983723	-1256.484667	1429.416992	516.606201
20384.983723	-1256.484667	1428.343750	641.376404
20384.983723	-1256.484667	1427.269531	690.808105
20384.983723	-1256.484667	1426.195313	441.978058
20384.983723	-1256.484667	1425.121094	392.383453
20384.983723	-1256.484667	1424.046875	442.093811
20384.983723	-1256.484667	1422.971680	411.381470
20384.983723	-1256.484667	1421.896484	526.434753
20384.983723	-1256.484667	1420.821289	684.974426
20384.983723	-1256.484667	1419.746094	633.388367
20384.983723	-1256.484667	1418.669922	429.665222
20384.983723	-1256.484667	1417.594727	499.122223
20384.983723	-1256.484667	1416.518555	683.026611
20384.983723	-1256.484667	1415.442383	477.589233
20384.983723	-1256.484667	1414.365234	621.128296
20384.983723	-1256.484667	1413.289063	210.158157
20384.983723	-1256.484667	1412.211914	240.427567
20384.983723	-1256.484667	1411.134766	96.554993
20384.983723	-1256.484667	1410.057617	143.699661
20384.983723	-1256.484667	1408.979492	329.578796
20384.983723	-1256.484667	1407.902344	249.952515
20384.983723	-1256.484667	1406.824219	351.304169
20384.983723	-1256.484667	1405.746094	554.506409
20384.983723	-1256.484667	1404.666992	515.751587
20384.983723	-1256.484667	1403.588867	392.423737
20384.983723	-1256.484667	1402.509766	364.701477
20384.983723	-1256.484667	1401.430664	478.942322
20384.983723	-1256.484667	1400.351563	829.271179
20384.983723	-1256.484667	1399.271484	807.137817
20384.983723	-1256.484667	1398.192383	661.894714
20384.983723	-1256.484667	1397.112305	552.771484
20384.983723	-1256.484667	1396.031250	690.296814
20384.983723	-1256.484667	1394.951172	691.540161
20384.983723	-1256.484667	1393.871094	544.821533
20384.983723	-1256.484667	1392.790039	661.371582
20384.983723	-1256.484667	1391.708984	625.700989
20384.983723	-1256.484667	1390.626953	892.952576
20384.983723	-1256.484667	1389.545898	866.582458
20384.983723	-1256.484667	1388.463867	808.164795
20384.983723	-1256.484667	1387.381836	694.641418
20384.983723	-1256.484667	1386.299805	533.944702
20384.983723	-1256.484667	1385.217773	409.295197
20384.983723	-1256.484667	1384.134766	751.895081
20384.983723	-1256.484667	1383.051758	803.415161
20384.983723	-1256.484667	1381.968750	762.558350
20384.983723	-1256.484667	1380.885742	788.907471
20384.983723	-1256.484667	1379.802734	456.858826
20384.983723	-1256.484667	1378.718750	800.257629
20384.983723	-1256.484667	1377.634766	852.711609
20384.983723	-1256.484667	1376.550781	958.688293
20384.983723	-1256.484667	1375.465820	703.298767
20384.983723	-1256.484667	1374.381836	975.760742
20384.983723	-1256.484667	1373.296875	873.336792
20384.983723	-1256.484667	1372.211914	783.879150
20384.983723	-1256.484667	1371.126953	946.889526
20384.983723	-1256.484667	1370.041016	799.395630
20384.983723	-1256.484667	1368.955078	957.080383
20384.983723	-1256.484667	1367.869141	866.335144
20384.983723	-1256.484667	1366.783203	1074.035645
20384.983723	-1256.484667	1365.697266	1049.044800
20384.983723	-1256.484667	1364.610352	982.328369
20384.983723	-1256.484667	1363.523438	1178.366577
20384.983723	-1256.484667	1362.436523	1093.082886
20384.983723	-1256.484667	1361.349609	1185.997681
20384.983723	-1256.484667	1360.261719	1360.206665
20384.983723	-1256.484667	1359.174805	1250.155273
20384.983723	-1256.484667	1358.086914	1159.194458
20384.983723	-1256.484667	1356.998047	1317.274292
20384.983723	-1256.484667	1355.910156	1424.147583
20384.983723	-1256.484667	1354.821289	1477.053223
20384.983723	-1256.484667	1353.732422	1536.030640
20384.983723	-1256.484667	1352.643555	1336.690552
20384.983723	-1256.484667	1351.554688	1451.564087
20384.983723	-1256.484667	1350.464844	1559.254517
20384.983723	-1256.484667	1349.375000	1390.931396
20384.983723	-1256.484667	1348.285156	1424.904053
20384.983723	-1256.484667	1347.195313	1469.511108
20384.983723	-1256.484667	1346.105469	1568.064453
20384.983723	-1256.484667	1345.014648	1425.937500
20384.983723	-1256.484667	1343.923828	1561.720215
20384.983723	-1256.484667	1342.833008	1673.548218
20384.983723	-1256.484667	1341.741211	1403.583740
20384.983723	-1256.484667	1340.650391	1590.978638
20384.983723	-1256.484667	1339.558594	1341.157837
20384.983723	-1256.484667	1338.466797	1449.206055
20384.983723	-1256.484667	1337.374023	1447.389526
20384.983723	-1256.484667	1336.282227	1195.983643
20384.983723	-1256.484667	1335.189453	1624.540649
20384.983723	-1256.484667	1334.096680	1417.832642
20384.983723	-1256.484667	1333.003906	1332.293823
20384.983723	-1256.484667	1331.910156	1332.193726
20384.983723	-1256.484667	1330.817383	1319.488647
20384.983723	-1256.484667	1329.723633	1160.169800
20384.983723	-1256.484667	1328.629883	1202.983765
20384.983723	-1256.484667	1327.535156	821.541870
20384.983723	-1256.484667	1326.441406	1110.598022
20384.983723	-1256.484667	1325.346680	1259.004150
20384.983723	-1256.484667	1324.251953	1268.925537
20384.983723	-1256.484667	1323.156250	1006.920959
20384.983723	-1256.484667	1322.061523	1059.167847
20384.983723	-1256.484667	1320.965820	1154.267456
20384.983723	-1256.484667	1319.870117	982.205261
20384.983723	-1256.484667	1318.774414	1049.224121
20384.983723	-1256.484667	1317.678711	1169.432983
20384.983723	-1256.484667	1316.582031	1194.198608
20384.983723	-1256.484667	1315.485352	980.260010
20384.983723	-1256.484667	1314.388672	1138.939209
20384.983723	-1256.484667	1313.291016	1347.042480
20384.983723	-1256.484667	1312.194336	1121.410522
20384.983723	-1256.484667	1311.096680	1147.203735
20384.983723	-1256.484667	1309.999023	1247.755249
20384.983723	-1256.484667	1308.901367	1441.554688
20384.983723	-1256.484667	1307.802734	1390.263062
20384.983723	-1256.484667	1306.705078	1328.707031
20384.983723	-1256.484667	1305.606445	1362.732178
20384.983723	-1256.484667	1304.506836	1384.332397
20384.983723	-1256.484667	1303.408203	1253.430786
20384.983723	-1256.484667	1302.308594	1225.611572
20384.983723	-1256.484667	1301.208984	1297.704224
20384.983723	-1256.484667	1300.109375	1349.185913
20384.983723	-1256.484667	1299.009766	1376.701050
20384.983723	-1256.484667	1297.909180	1457.753418
20384.983723	-1256.484667	1296.808594	1250.138428
20384.983723	-1256.484667	1295.708008	1440.047119
20384.983723	-1256.484667	1294.607422	1245.995728
20384.983723	-1256.484667	1293.506836	1201.872803
20384.983723	-1256.484667	1292.405273	1188.642334
20384.983723	-1256.484667	1291.303711	1103.162842
20384.983723	-1256.484667	1290.202148	965.438110
20384.983723	-1256.484667	1289.099609	920.441895
20384.983723	-1256.484667	1287.998047	822.237671
20384.983723	-1256.484667	1286.895508	895.328796
20384.983723	-1256.484667	1285.792969	766.277100
20384.983723	-1256.484667	1284.689453	867.400269
20384.983723	-1256.484667	1283.586914	847.912964
20384.983723	-1256.484667	1282.483398	833.228821
20384.983723	-1256.484667	1281.379883	870.999634
20384.983723	-1256.484667	1280.276367	854.521057
20384.983723	-1256.484667	1279.171875	1010.756104
20384.983723	-1256.484667	1278.067383	985.852661
20384.983723	-1256.484667	1276.962891	922.355408
20384.983723	-1256.484667	1275.858398	911.976074
20384.983723	-1256.484667	1274.753906	939.402893
20384.983723	-1256.484667	1273.648438	778.174194
20384.983723	-1256.484667	1272.542969	758.351868
20384.983723	-1256.484667	1271.437500	606.102722
20384.983723	-1256.484667	1270.331055	521.362488
20384.983723	-1256.484667	1269.225586	589.374451
20384.983723	-1256.484667	1268.119141	437.414551
20384.983723	-1256.484667	1267.012695	410.168762
20384.983723	-1256.484667	1265.906250	193.761948
20384.983723	-1256.484667	1264.798828	201.503830
20384.983723	-1256.484667	1263.691406	279.051178
20384.983723	-1256.484667	1262.583984	281.790619
20384.983723	-1256.484667	1261.476563	102.168312
20384.983723	-1256.484667	1260.368164	162.750748
20384.983723	-1256.484667	1259.260742	298.327454
20384.983723	-1256.484667	1258.152344	70.316658
20384.983723	-1256.484667	1257.043945	61.866547
20384.983723	-1256.484667	1255.934570	46.846287
20384.983723	-1256.484667	1254.825195	-19.754122
20384.983723	-1256.484667	1253.716797	95.006577
20384.983723	-1256.484667	1252.606445	192.533844
20384.983723	-1256.484667	1251.497070	41.729733
20384.983723	-1256.484667	1250.387695	28.956591
20384.983723	-1256.484667	1249.277344	201.111816
20384.983723	-1256.484667	1248.166992	100.230530
20384.983723	-1256.484667	1247.055664	105.427856
20384.983723	-1256.484667	1245.945313	37.064278
20384.983723	-1256.484667	1244.833984	69.702103
20384.983723	-1256.484667	1243.722656	95.225212
20384.983723	-1256.484667	1242.611328	-4.469888
20384.983723	-1256.484667	1241.499023	-13.311147
20384.983723	-1256.484667	1240.387695	-95.215065
20384.983723	-1256.484667	1239.275391	100.735847
20384.983723	-1256.484667	1238.162109	-65.299278
20384.983723	-1256.484667	1237.049805	-82.549210
20384.983723	-1256.484667	1235.936523	81.720749
20384.983723	-1256.484667	1234.823242	96.198524
20384.983723	-1256.484667	1233.709961	33.610771
20384.983723	-1256.484667	1232.596680	-47.229912
20384.983723	-1256.484667	1231.482422	-2.548603
20384.983723	-1256.484667	1230.369141	-131.488586
20384.983723	-1256.484667	1229.253906	59.217918
20384.983723	-1256.484667	1228.139648	-66.192696
20384.983723	-1256.484667	1227.025391	-136.958206
20384.983723	-1256.484667	1225.910156	-17.765778
20384.983723	-1256.484667	1224.794922	22.200897
20384.983723	-1256.484667	1223.679688	-105.980858
20384.983723	-1256.484667	1222.563477	-200.247330
20384.983723	-1256.484667	1221.447266	2.969904
20384.983723	-1256.484667	1220.331055	-167.377792
20384.983723	-1256.484667	1219.214844	-64.532372
20384.983723	-1256.484667	1218.098633	11.348182
20384.983723	-1256.484667	1216.981445	22.921137
20384.983723	-1256.484667	1215.864258	52.926098
20384.983723	-1256.484667	1214.747070	-32.220661
20384.983723	-1256.484667	1213.629883	66.504562
20384.983723	-1256.484667	1212.511719	-15.495029
20384.983723	-1256.484667	1211.393555	-69.625099
20384.983723	-1256.484667	1210.275391	32.310928
20384.983723	-1256.484667	1209.157227	-19.992285
20384.983723	-1256.484667	1208.038086	-1.347543
20384.983723	-1256.484667	1206.918945	171.691299
20384.983723	-1256.484667	1205.799805	138.052338
20384.983723	-1256.484667	1204.680664	91.523003
20384.983723	-1256.484667	1203.560547	44.180965
20384.983723	-1256.484667	1202.441406	36.624889
20384.983723	-1256.484667	1201.321289	29.901278
20384.983723	-1256.484667	1200.200195	86.347260
20384.983723	-1256.484667	1199.080078	149.401733
20384.983723	-1256.484667	1197.958984	-112.367630
20384.983723	-1256.484667	1196.837891	116.010330
20384.983723	-1256.484667	1195.716797	-72.666107
20384.983723	-1256.484667	1194.594727	7.657871
20384.983723	-1256.484667	1193.473633	-94.546951
20384.983723	-1256.484667	1192.351563	-148.106018
20384.983723	-1256.484667	1191.229492	-46.483383
20384.983723	-1256.484667	1190.106445	18.510336
20384.983723	-1256.484667	1188.984375	19.254665
20384.983723	-1256.484667	1187.861328	-135.400528
20384.983723	-1256.484667	1186.738281	-94.152374
20384.983723	-1256.484667	1185.614258	-8.299040
20384.983723	-1256.484667	1184.491211	5.473163
20384.983723	-1256.484667	1183.367188	-4.068400
20384.983723	-1256.484667	1182.243164	48.334511
20384.983723	-1256.484667	1181.119141	72.516457
20384.983723	-1256.484667	1179.994141	65.898735
20384.983723	-1256.484667	1178.869141	21.849194
20384.983723	-1256.484667	1177.744141	177.506134
20384.983723	-1256.484667	1176.619141	111.045944
20384.983723	-1256.484667	1175.493164	312.624084
20384.983723	-1256.484667	1174.368164	175.566269
20384.983723	-1256.484667	1173.242188	278.121185
20384.983723	-1256.484667	1172.115234	186.674042
20384.983723	-1256.484667	1170.989258	184.009995
20384.983723	-1256.484667	1169.862305	259.092194
20384.983723	-1256.484667	1168.735352	281.024536
20384.983723	-1256.484667	1167.608398	303.440521
20384.983723	-1256.484667	1166.481445	294.306732
20384.983723	-1256.484667	1165.353516	285.190155
20384.983723	-1256.484667	1164.225586	-31.582294
20384.983723	-1256.484667	1163.097656	-125.989395
20384.983723	-1256.484667	1161.968750	-56.141041
20384.983723	-1256.484667	1160.840820	33.594955
20384.983723	-1256.484667	1159.711914	-65.863350
20384.983723	-1256.484667	1158.583008	-202.018768
20384.983723	-1256.484667	1157.453125	-77.288071
20384.983723	-1256.484667	1156.324219	-72.147858
20384.983723	-1256.484667	1155.194336	-91.347572
20384.983723	-1256.484667	1154.064453	-15.702209
20384.983723	-1256.484667	1152.933594	-107.148315
20384.983723	-1256.484667	1151.803711	-50.751720
20384.983723	-1256.484667	1150.672852	74.170219
20384.983723	-1256.484667	1149.541992	-22.538963
20384.983723	-1256.484667	1148.411133	34.367725
20384.983723	-1256.484667	1147.279297	33.205364
20384.983723	-1256.484667	1146.147461	63.350960
20384.983723	-1256.484667	1145.015625	-137.382080
20384.983723	-1256.484667	1143.883789	-74.777977
20384.983723	-1256.484667	1142.750977	-39.018970
20384.983723	-1256.484667	1141.619141	-42.001518
20384.983723	-1256.484667	1140.486328	-154.833267
20384.983723	-1256.484667	1139.352539	-74.566185
20384.983723	-1256.484667	1138.219727	23.964262
20384.983723	-1256.484667	1137.085938	7.475227
20384.983723	-1256.484667	1135.952148	-129.136017
20384.983723	-1256.484667	1134.818359	-36.180965
20384.983723	-1256.484667	1133.683594	-106.186104
20384.983723	-1256.484667	1132.549805	-62.395283
20384.983723	-1256.484667	1131.415039	-50.613518
20384.983723	-1256.484667	1130.279297	70.295769
20384.983723	-1256.484667	1129.144531	80.883110
20384.983723	-1256.484667	1128.008789	288.416351
20384.983723	-1256.484667	1126.873047	161.518021
20384.983723	-1256.484667	1125.737305	84.975327
20384.983723	-1256.484667	1124.601563	67.097961
20384.983723	-1256.484667	1123.464844	-38.324715
20384.983723	-1256.484667	1122.328125	155.998123
20384.983723	-1256.484667	1121.191406	82.843956
20384.983723	-1256.484667	1120.054688	87.949272
20384.983723	-1256.484667	1118.916992	150.661774
20384.983723	-1256.484667	1117.779297	117.824356
20384.983723	-1256.484667	1116.641602	-7.685840
20384.983723	-1256.484667	1115.503906	162.197784
20384.983723	-1256.484667	1114.365234	170.145905
20384.983723	-1256.484667	1113.226563	103.732231
20384.983723	-1256.484667	1112.087891	213.266541
20384.983723	-1256.484667	1110.949219	144.095749
20384.983723	-1256.484667	1109.809570	283.283844
20384.983723	-1256.484667	1108.669922	178.792511
20384.983723	-1256.484667	1107.530273	200.846649
20384.983723	-1256.484667	1106.390625	135.295120
20384.983723	-1256.484667	1105.250000	118.975105
20384.983723	-1256.484667	1104.109375	169.183609
20384.983723	-1256.484667	1102.968750	38.572266
20384.983723	-1256.484667	1101.828125	59.940182
20384.983723	-1256.484667	1100.686523	136.447556
20384.983723	-1256.484667	1099.544922	93.802803
20384.983723	-1256.484667	1098.403320	178.278687
20384.983723	-1256.484667	1097.261719	164.571823
20384.983723	-1256.484667	1096.120117	130.639557
20384.983723	-1256.484667	1094.977539	22.654478
20384.983723	-1256.484667	1093.834961	139.571472
20384.983723	-1256.484667	1092.691406	317.009277
20384.983723	-1256.484667	1091.548828	394.943298
20384.983723	-1256.484667	1090.405273	470.025665
20384.983723	-1256.484667	1089.261719	227.411774
20384.983723	-1256.484667	1088.118164	265.640076
20384.983723	-1256.484667	1086.973633	208.575119
20384.983723	-1256.484667	1085.829102	152.857864
20384.983723	-1256.484667	1084.684570	274.072693
20384.983723	-1256.484667	1083.540039	75.878166
20384.983723	-1256.484667	1082.395508	131.328430
20384.983723	-1256.484667	1081.250000	172.020157
20384.983723	-1256.484667	1080.104492	170.341721
20384.983723	-1256.484667	1078.958984	107.783775
20384.983723	-1256.484667	1077.812500	-1.721214
20384.983723	-1256.484667	1076.666016	181.400879
20384.983723	-1256.484667	1075.519531	-28.047766
20384.983723	-1256.484667	1074.373047	-51.976852
20384.983723	-1256.484667	1073.226563	99.508598
20384.983723	-1256.484667	1072.079102	74.175705
20384.983723	-1256.484667	1070.931641	218.020828
20384.983723	-1256.484667	1069.784180	83.667465
20384.983723	-1256.484667	1068.635742	173.833771
20384.983723	-1256.484667	1067.487305	141.693024
20384.983723	-1256.484667	1066.338867	116.635353
20384.983723	-1256.484667	1065.190430	15.713006
20384.983723	-1256.484667	1064.041992	193.857117
20384.983723	-1256.484667	1062.892578	142.579529
20384.983723	-1256.484667	1061.743164	236.959091
20384.983723	-1256.484667	1060.593750	249.389893
20384.983723	-1256.484667	1059.443359	229.700958
20384.983723	-1256.484667	1058.292969	217.791672
20384.983723	-1256.484667	1057.142578	205.011185
20384.983723	-1256.484667	1055.992188	191.304337
20384.983723	-1256.484667	1054.841797	303.686310
20384.983723	-1256.484667	1053.690430	-16.936016
20384.983723	-1256.484667	1052.539063	46.461090
20384.983723	-1256.484667	1051.387695	134.319550
20384.983723	-1256.484667	1050.235352	206.813705
20384.983723	-1256.484667	1049.083984	191.823959
20384.983723	-1256.484667	1047.931641	70.617340
20384.983723	-1256.484667	1046.778320	-77.555756
20384.983723	-1256.484667	1045.625977	172.072113
20384.983723	-1256.484667	1044.472656	215.371201
20384.983723	-1256.484667	1043.319336	30.343189
20384.983723	-1256.484667	1042.166016	112.091187
20384.983723	-1256.484667	1041.012695	203.979980
20384.983723	-1256.484667	1039.858398	242.353424
20384.983723	-1256.484667	1038.704102	213.540543
20384.983723	-1256.484667	1037.549805	206.395416
20384.983723	-1256.484667	1036.394531	72.516624
20384.983723	-1256.484667	1035.239258	147.382782
20384.983723	-1256.484667	1034.083984	226.246399
20384.983723	-1256.484667	1032.928711	132.939102
20384.983723	-1256.484667	1031.773438	65.592300
20384.983723	-1256.484667	1030.617188	248.459625
20384.983723	-1256.484667	1029.460938	192.378326
20384.983723	-1256.484667	1028.304688	255.368500
20384.983723	-1256.484667	1027.147461	153.673874
20384.983723	-1256.484667	1025.991211	141.871170
20384.983723	-1256.484667	1024.833984	349.889587
20384.983723	-1256.484667	1023.675781	44.948341
20384.983723	-1256.484667	1022.518555	21.980822
20384.983723	-1256.484667	1021.360352	103.325188
20384.983723	-1256.484667	1020.202148	115.662804
20384.983723	-1256.484667	1019.043945	108.214943
20384.983723	-1256.484667	1017.884766	130.261139
20384.983723	-1256.484667	1016.726563	31.048668
20384.983723	-1256.484667	1015.567383	74.225845
20384.983723	-1256.484667	1014.407227	-36.013527
20384.983723	-1256.484667	1013.248047	134.308548
20384.983723	-1256.484667	1012.087891	11.588172
20384.983723	-1256.484667	1010.927734	-3.033002
20384.983723	-1256.484667	1009.767578	-129.084686
20384.983723	-1256.484667	1008.606445	-124.579651
20384.983723	-1256.484667	1007.446289	48.082535
20384.983723	-1256.484667	1006.285156	185.283936
20384.983723	-1256.484667	1005.123047	16.406849
20384.983723	-1256.484667	1003.961914	76.682770
20384.983723	-1256.484667	1002.799805	78.198624
20384.983723	-1256.484667	1001.637695	65.599266
20384.983723	-1256.484667	1000.475586	97.502441
20384.983723	-1256.484667	999.312500	40.469315
20384.983723	-1256.484667	998.149414	136.781540
20384.983723	-1256.484667	996.986328	65.290276
20384.983723	-1256.484667	995.823242	168.848587
20384.983723	-1256.484667	994.659180	-47.770580
20384.983723	-1256.484667	993.496094	153.831848
20384.983723	-1256.484667	992.332031	114.898430
20384.983723	-1256.484667	991.166992	-14.169972
20384.983723	-1256.484667	990.002930	85.900864
20384.983723	-1256.484667	988.837891	-111.401558
20384.983723	-1256.484667	987.672852	27.531851
20384.983723	-1256.484667	986.506836	-167.341629
20384.983723	-1256.484667	985.341797	44.033714
20384.983723	-1256.484667	984.175781	-146.393921
20384.983723	-1256.484667	983.009766	-71.440147
20384.983723	-1256.484667	981.843750	24.745138
20384.983723	-1256.484667	980.676758	-14.232479
20384.983723	-1256.484667	979.509766	71.871986
20384.983723	-1256.484667	978.342773	-143.016647
20384.983723	-1256.484667	977.175781	-90.263603
20384.983723	-1256.484667	976.007813	-146.124741
20384.983723	-1256.484667	974.839844	127.621559
20384.983723	-1256.484667	973.671875	-20.136999
20384.983723	-1256.484667	972.503906	-162.000519
20384.983723	-1256.484667	971.334961	-61.572159
20384.983723	-1256.484667	970.166016	140.877136
20384.983723	-1256.484667	968.997070	59.807312
20384.983723	-1256.484667	967.828125	-30.756775
20384.983723	-1256.484667	966.658203	40.369244
20384.983723	-1256.484667	965.488281	-120.292564
20384.983723	-1256.484667	964.318359	47.218704
20384.983723	-1256.484667	963.148438	11.368819
20384.983723	-1256.484667	961.977539	-1.456297
20384.983723	-1256.484667	960.806641	-47.501602
20384.983723	-1256.484667	959.635742	-218.772034
20384.983723	-1256.484667	958.463867	-60.141514
20384.983723	-1256.484667	957.292969	-36.489388
20384.983723	-1256.484667	956.121094	-77.537567
20384.983723	-1256.484667	954.948242	33.166931
20384.983723	-1256.484667	953.776367	-34.155533
20384.983723	-1256.484667	952.603516	-162.558044
20384.983723	-1256.484667	951.430664	-209.976883
20384.983723	-1256.484667	950.257813	215.854965
20384.983723	-1256.484667	949.084961	160.027710
20384.983723	-1256.484667	947.911133	55.860577
20384.983723	-1256.484667	946.737305	161.853897
20384.983723	-1256.484667	945.563477	-43.063278
20384.983723	-1256.484667	944.388672	74.207054
20384.983723	-1256.484667	943.213867	64.091988
20384.983723	-1256.484667	942.039063	-11.012149
20384.983723	-1256.484667	940.864258	-71.829140
20384.983723	-1256.484667	939.688477	43.359535
20384.983723	-1256.484667	938.513672	134.391724
20384.983723	-1256.484667	937.337891	208.384781
20384.983723	-1256.484667	936.161133	58.479576
20384.983723	-1256.484667	934.985352	40.993053
20384.983723	-1256.484667	933.808594	317.194794
20384.983723	-1256.484667	932.631836	71.059807
20384.983723	-1256.484667	931.454102	60.640942
20384.983723	-1256.484667	930.277344	105.698555
20384.983723	-1256.484667	929.099609	328.755035
20384.983723	-1256.484667	927.921875	111.330353
20384.983723	-1256.484667	926.743164	358.400116
20384.983723	-1256.484667	925.565430	280.613434
20384.983723	-1256.484667	924.386719	347.125366
20384.983723	-1256.484667	923.208008	218.796738
20384.983723	-1256.484667	922.028320	304.523010
20384.983723	-1256.484667	920.849609	313.260986
20384.983723	-1256.484667	919.669922	316.487823
20384.983723	-1256.484667	919.474609	195.113251
20384.983723	-1256.484667	918.309570	237.447937
20384.983723	-1256.484667	917.143555	77.920639
20384.983723	-1256.484667	915.977539	33.759357
20384.983723	-1256.484667	914.810547	136.120209
20384.983723	-1256.484667	913.644531	103.952209
20384.983723	-1256.484667	912.477539	134.211914
20384.983723	-1256.484667	911.310547	286.867584
20384.983723	-1256.484667	910.143555	158.666397
20384.983723	-1256.484667	908.975586	145.681427
20384.983723	-1256.484667	907.807617	281.424835
20384.983723	-1256.484667	906.639648	-50.587132
20384.983723	-1256.484667	905.471680	22.776009
20384.983723	-1256.484667	904.303711	-23.771273
20384.983723	-1256.484667	903.134766	37.556877
20384.983723	-1256.484667	901.965820	144.383484
20384.983723	-1256.484667	900.796875	-12.398307
20384.983723	-1256.484667	899.626953	-37.370838
20384.983723	-1256.484667	898.457031	38.248093
20384.983723	-1256.484667	897.287109	-77.732849
20384.983723	-1256.484667	896.117188	100.789421
20384.983723	-1256.484667	894.947266	-5.599586
20384.983723	-1256.484667	893.776367	81.884880
20384.983723	-1256.484667	892.605469	85.586555
20384.983723	-1256.484667	891.434570	60.573349
20384.983723	-1256.484667	890.262695	100.137291
20384.983723	-1256.484667	889.091797	271.184601
20384.983723	-1256.484667	887.919922	30.972672
20384.983723	-1256.484667	886.748047	70.493652
20384.983723	-1256.484667	885.575195	-112.242210
20384.983723	-1256.484667	884.403320	-51.222214
20384.983723	-1256.484667	883.230469	21.710339
20384.983723	-1256.484667	882.057617	-77.343010
20384.983723	-1256.484667	880.883789	52.854984
20384.983723	-1256.484667	879.710938	1.563143
20384.983723	-1256.484667	878.537109	12.339927
20384.983723	-1256.484667	877.362305	190.140839
20384.983723	-1256.484667	876.188477	67.257423
20384.983723	-1256.484667	875.013672	123.310593
20384.983723	-1256.484667	873.839844	17.167126
20384.983723	-1256.484667	872.664063	104.187523
20384.983723	-1256.484667	871.489258	9.995007
20384.983723	-1256.484667	870.313477	130.329529
20384.983723	-1256.484667	869.138672	117.167259
20384.983723	-1256.484667	867.962891	115.914635
20384.983723	-1256.484667	866.786133	38.437710
20384.983723	-1256.484667	865.610352	-79.502136
20384.983723	-1256.484667	864.433594	143.059555
20384.983723	-1256.484667	863.256836	-22.477335
20384.983723	-1256.484667	862.079102	30.993843
20384.983723	-1256.484667	860.902344	-79.745964
20384.983723	-1256.484667	859.724609	290.086914
20384.983723	-1256.484667	858.546875	72.292809
20384.983723	-1256.484667	857.368164	49.568607
20384.983723	-1256.484667	856.190430	-1.687995
20384.983723	-1256.484667	855.011719	177.630814
20384.983723	-1256.484667	853.833008	81.196442
20384.983723	-1256.484667	852.654297	220.011154
20384.983723	-1256.484667	851.474609	102.208290
20384.983723	-1256.484667	850.294922	22.441706
20384.983723	-1256.484667	849.115234	89.915298
20384.983723	-1256.484667	847.935547	-84.799858
20384.983723	-1256.484667	846.754883	6.380710
20384.983723	-1256.484667	845.575195	23.945631
20384.983723	-1256.484667	844.393555	-131.701431
20384.983723	-1256.484667	843.212891	-28.744875
20384.983723	-1256.484667	842.032227	17.238615
20384.983723	-1256.484667	840.850586	-105.155357
20384.983723	-1256.484667	839.668945	135.188507
20384.983723	-1256.484667	838.486328	-6.165437
20384.983723	-1256.484667	837.304688	-38.475525
20384.983723	-1256.484667	836.122070	50.041424
20384.983723	-1256.484667	834.939453	-86.514389
20384.983723	-1256.484667	833.756836	-97.516273
20384.983723	-1256.484667	832.573242	-25.658775
20384.983723	-1256.484667	831.389648	27.216436
20384.983723	-1256.484667	830.206055	125.020706
20384.983723	-1256.484667	829.022461	52.402195
20384.983723	-1256.484667	827.838867	-164.512436
20384.983723	-1256.484667	826.654297	-26.567234
20384.983723	-1256.484667	825.469727	-89.699524
20384.983723	-1256.484667	824.284180	-117.357399
20384.983723	-1256.484667	823.099609	-22.106998
20384.983723	-1256.484667	821.914063	-23.807133
20384.983723	-1256.484667	820.728516	64.261658
20384.983723	-1256.484667	819.542969	43.609329
20384.983723	-1256.484667	818.356445	-158.912018
20384.983723	-1256.484667	817.169922	-92.177139
20384.983723	-1256.484667	815.983398	-105.758110
20384.983723	-1256.484667	814.796875	-142.957504
20384.983723	-1256.484667	813.609375	10.989799
20384.983723	-1256.484667	812.422852	-85.243324
20384.983723	-1256.484667	811.235352	56.792107
20384.983723	-1256.484667	810.046875	73.753914
20384.983723	-1256.484667	808.859375	144.917145
20384.983723	-1256.484667	807.670898	76.942078
20384.983723	-1256.484667	806.482422	-49.951157
20384.983723	-1256.484667	805.293945	122.455856
20384.983723	-1256.484667	804.104492	-72.761887
20384.983723	-1256.484667	802.915039	-98.327072
20384.983723	-1256.484667	801.725586	-81.515930
20384.983723	-1256.484667	800.536133	-12.936712
20384.983723	-1256.484667	799.345703	20.280918
20384.983723	-1256.484667	798.155273	15.803007
20384.983723	-1256.484667	796.964844	253.665833
20384.983723	-1256.484667	795.774414	70.295792
20384.983723	-1256.484667	794.583008	-9.531576
20384.983723	-1256.484667	793.392578	-61.134495
20384.983723	-1256.484667	792.200195	70.645767
20384.983723	-1256.484667	791.008789	96.564827
20384.983723	-1256.484667	789.816406	73.094864
20384.983723	-1256.484667	788.625000	-98.422012
20384.983723	-1256.484667	787.432617	42.541950
20384.983723	-1256.484667	786.239258	-77.280746
20384.983723	-1256.484667	785.046875	-9.230469
20384.983723	-1256.484667	783.853516	-63.316216
20384.983723	-1256.484667	782.660156	-117.409264
20384.983723	-1256.484667	781.465820	13.881395
20384.983723	-1256.484667	780.272461	23.082779
20384.983723	-1256.484667	779.078125	107.313622
20384.983723	-1256.484667	777.883789	-99.332886
20384.983723	-1256.484667	776.688477	-83.170921
20384.983723	-1256.484667	775.494141	-17.818748
20384.983723	-1256.484667	774.298828	-83.777954
20384.983723	-1256.484667	773.103516	35.379719
20384.983723	-1256.484667	771.907227	63.085121
20384.983723	-1256.484667	770.711914	95.429680
20384.983723	-1256.484667	769.515625	8.294412
20384.983723	-1256.484667	768.318359	-32.011017
20384.983723	-1256.484667	767.122070	49.390640
20384.983723	-1256.484667	765.924805	39.449093
20384.983723	-1256.484667	764.727539	-138.995560
20384.983723	-1256.484667	763.530273	26.491940
20384.983723	-1256.484667	762.333008	81.945946
20384.983723	-1256.484667	761.134766	-66.102814
20384.983723	-1256.484667	759.936523	43.048183
20384.983723	-1256.484667	758.738281	23.556864
20384.983723	-1256.484667	757.540039	141.918549
20384.983723	-1256.484667	756.340820	70.938271
20384.983723	-1256.484667	755.141602	-28.082190
20384.983723	-1256.484667	753.942383	209.215790
20384.983723	-1256.484667	752.742188	175.513641
20384.983723	-1256.484667	751.541992	323.881317
20384.983723	-1256.484667	750.341797	56.686230
20384.983723	-1256.484667	749.141602	204.939392
20384.983723	-1256.484667	747.941406	271.433014
20384.983723	-1256.484667	746.740234	270.215118
20384.983723	-1256.484667	745.539063	275.953979
20384.983723	-1256.484667	744.337891	209.370102
20384.983723	-1256.484667	743.135742	135.780411
20384.983723	-1256.484667	741.933594	325.544739
20384.983723	-1256.484667	740.731445	317.125244
20384.983723	-1256.484667	739.529297	322.646332
20384.983723	-1256.484667	738.326172	300.173309
20384.983723	-1256.484667	737.124023	126.302406
20384.983723	-1256.484667	735.919922	115.438545
20384.983723	-1256.484667	734.716797	-30.471468
20384.983723	-1256.484667	733.513672	100.580116
20384.983723	-1256.484667	732.309570	122.177109
20384.983723	-1256.484667	731.105469	257.709961
20384.983723	-1256.484667	729.900391	-4.566165
20384.983723	-1256.484667	728.696289	-180.739136
20384.983723	-1256.484667	727.491211	-112.775604
20384.983723	-1256.484667	726.286133	-16.990988
20384.983723	-1256.484667	725.080078	90.329216
20384.983723	-1256.484667	723.874023	4.722699
20384.983723	-1256.484667	722.668945	46.866928
20384.983723	-1256.484667	721.461914	142.364441
20384.983723	-1256.484667	720.255859	19.520308
20384.983723	-1256.484667	719.048828	-45.280991
20384.983723	-1256.484667	717.841797	87.180580
20384.983723	-1256.484667	716.634766	29.266329
20384.983723	-1256.484667	715.427734	-49.547207
20384.983723	-1256.484667	714.219727	-102.857742
20384.983723	-1256.484667	713.011719	-177.060303
20384.983723	-1256.484667	711.803711	-142.306229
20384.983723	-1256.484667	710.594727	-128.473114
20384.983723	-1256.484667	709.385742	61.442108
20384.983723	-1256.484667	708.176758	72.821815
20384.983723	-1256.484667	706.967773	47.087936
20384.983723	-1256.484667	705.758789	155.653625
20384.983723	-1256.484667	704.548828	67.304291
20384.983723	-1256.484667	703.338867	-7.160893
20384.983723	-1256.484667	702.127930	-130.246124
20384.983723	-1256.484667	700.917969	-47.365074
20384.983723	-1256.484667	699.707031	70.141716
20384.983723	-1256.484667	698.496094	189.868530
20384.983723	-1256.484667	697.285156	36.607525
20384.983723	-1256.484667	696.073242	42.907116
20384.983723	-1256.484667	694.861328	76.901283
20384.983723	-1256.484667	693.649414	249.511612
20384.983723	-1256.484667	692.436523	308.779602
20384.983723	-1256.484667	691.224609	157.750290
20384.983723	-1256.484667	690.011719	147.635361
20384.983723	-1256.484667	688.798828	107.462608
20384.983723	-1256.484667	687.584961	305.068390
20384.983723	-1256.484667	686.372070	225.555145
20384.983723	-1256.484667	685.158203	524.513306
20384.983723	-1256.484667	683.943359	419.522156
20384.983723	-1256.484667	682.729492	499.081848
20384.983723	-1256.484667	681.514648	368.688873
20384.983723	-1256.484667	680.299805	201.415787
20384.983723	-1256.484667	679.084961	310.819580
20384.983723	-1256.484667	677.869141	316.416138
20384.983723	-1256.484667	676.653320	324.275177
20384.983723	-1256.484667	675.437500	297.533356
20384.983723	-1256.484667	674.221680	351.384399
20384.983723	-1256.484667	673.004883	299.237732
20384.983723	-1256.484667	671.789063	136.557480
20384.983723	-1256.484667	670.571289	192.594421
20384.983723	-1256.484667	669.354492	246.271072
20384.983723	-1256.484667	668.136719	99.698189
20384.983723	-1256.484667	666.919922	220.014557
20384.983723	-1256.484667	665.701172	174.637619
20384.983723	-1256.484667	664.483398	239.626022
20384.983723	-1256.484667	663.264648	313.746643
20384.983723	-1256.484667	662.045898	75.193718
20384.983723	-1256.484667	660.827148	241.174362
20384.983723	-1256.484667	659.608398	278.385406
20384.983723	-1256.484667	658.388672	297.169250
20384.983723	-1256.484667	657.168945	263.089874
20384.983723	-1256.484667	655.949219	116.482384
20384.983723	-1256.484667	654.728516	192.584625
20384.983723	-1256.484667	653.507813	91.894318
20384.983723	-1256.484667	652.287109	259.698761
20384.983723	-1256.484667	651.066406	526.055237
20384.983723	-1256.484667	649.844727	448.207428
20384.983723	-1256.484667	648.623047	505.666870
20384.983723	-1256.484667	647.401367	494.292664
20384.983723	-1256.484667	646.179688	636.479126
20384.983723	-1256.484667	644.957031	427.933655
20384.983723	-1256.484667	643.734375	393.590912
20384.983723	-1256.484667	642.511719	356.947693
20384.983723	-1256.484667	641.289063	308.845612
20384.983723	-1256.484667	640.065430	281.347565
20384.983723	-1256.484667	638.841797	226.367310
20384.983723	-1256.484667	637.618164	121.033516
20384.983723	-1256.484667	636.393555	173.622528
20384.983723	-1256.484667	635.168945	331.414337
20384.983723	-1256.484667	633.944336	136.854599
20384.983723	-1256.484667	632.719727	157.333817
20384.983723	-1256.484667	631.494141	205.222549
20384.983723	-1256.484667	630.269531	58.769093
20384.983723	-1256.484667	629.042969	-5.364389
20384.983723	-1256.484667	627.817383	67.618759
20384.983723	-1256.484667	626.590820	12.621369
20384.983723	-1256.484667	625.365234	90.112572
20384.983723	-1256.484667	624.137695	247.478592
20384.983723	-1256.484667	622.911133	39.478149
20384.983723	-1256.484667	621.683594	-26.925898
20384.983723	-1256.484667	620.456055	43.616539
20384.983723	-1256.484667	619.228516	-34.184101
20384.983723	-1256.484667	618.000977	-38.962090
20384.983723	-1256.484667	616.772461	38.357761
20384.983723	-1256.484667	615.543945	-21.170319
20384.983723	-1256.484667	614.314453	151.849197
20384.983723	-1256.484667	613.085938	124.224968
20384.983723	-1256.484667	611.856445	272.069336
20384.983723	-1256.484667	610.626953	12.046390
20384.983723	-1256.484667	609.397461	-31.479021
20384.983723	-1256.484667	608.166992	50.262672
20384.983723	-1256.484667	606.936523	145.633392
20384.983723	-1256.484667	605.706055	133.980377
20384.983723	-1256.484667	604.474609	54.060562
20384.983723	-1256.484667	603.244141	-100.903297
20384.983723	-1256.484667	602.012695	-1.013639
20384.983723	-1256.484667	600.780273	39.705250
20384.983723	-1256.484667	599.548828	80.418488
20384.983723	-1256.484667	598.316406	77.927986
20384.983723	-1256.484667	597.083984	11.807590
20384.983723	-1256.484667	595.851563	68.439240
20384.983723	-1256.484667	594.618164	63.715233
20384.983723	-1256.484667	593.384766	-143.152451
20384.983723	-1256.484667	592.151367	-59.231052
20384.983723	-1256.484667	590.917969	-13.926704
20384.983723	-1256.484667	589.683594	56.343864
20384.983723	-1256.484667	588.449219	-79.923706
20384.983723	-1256.484667	587.214844	3.985061
20384.983723	-1256.484667	585.979492	67.459648
20384.983723	-1256.484667	584.745117	-2.884939
20384.983723	-1256.484667	583.509766	-179.755219
20384.983723	-1256.484667	582.273438	-154.754501
20384.983723	-1256.484667	581.038086	115.059708
20384.983723	-1256.484667	579.801758	-61.647388
20384.983723	-1256.484667	578.565430	97.066940
20384.983723	-1256.484667	577.329102	94.915199
20384.983723	-1256.484667	576.091797	142.615646
20384.983723	-1256.484667	574.854492	88.437592
20384.983723	-1256.484667	573.617188	29.787373
20384.983723	-1256.484667	572.378906	-108.019539
20384.983723	-1256.484667	571.141602	-37.557171
20384.983723	-1256.484667	569.903320	41.958672
20384.983723	-1256.484667	568.664063	80.762505
20384.983723	-1256.484667	567.425781	58.534008
20384.983723	-1256.484667	566.186523	-15.647072
20384.983723	-1256.484667	564.947266	-40.028797
20384.983723	-1256.484667	563.708008	-98.257156
20384.983723	-1256.484667	562.467773	6.254990
20384.983723	-1256.484667	561.227539	81.399567
20384.983723	-1256.484667	559.987305	93.320580
20384.983723	-1256.484667	558.747070	23.996029
20384.983723	-1256.484667	557.505859	-94.919006
20384.983723	-1256.484667	556.264648	-55.748623
20384.983723	-1256.484667	555.023438	30.839119
20384.983723	-1256.484667	553.781250	-20.179340
20384.983723	-1256.484667	552.539063	25.861479
20384.983723	-1256.484667	551.296875	-74.645020
20384.983723	-1256.484667	550.054688	9.816119
20384.983723	-1256.484667	548.811523	40.194565
20384.983723	-1256.484667	547.569336	18.781324
20384.983723	-1256.484667	546.325195	-61.152740
20384.983723	-1256.484667	545.082031	-50.891705
20384.983723	-1256.484667	543.837891	63.017296
20384.983723	-1256.484667	542.593750	14.814422
20384.983723	-1256.484667	541.349609	-1.795611
20384.983723	-1256.484667	540.105469	242.740524
20384.983723	-1256.484667	538.860352	165.446854
20384.983723	-1256.484667	537.615234	256.974365
20384.983723	-1256.484667	536.369141	323.779724
20384.983723	-1256.484667	535.124023	282.674713
20384.983723	-1256.484667	533.877930	185.439362
20384.983723	-1256.484667	532.631836	171.475296
20384.983723	-1256.484667	531.384766	85.663071
20384.983723	-1256.484667	530.138672	-13.532741
20384.983723	-1256.484667	528.891602	159.184708
20384.983723	-1256.484667	527.643555	138.744492
20384.983723	-1256.484667	526.396484	35.294888
20384.983723	-1256.484667	525.148438	125.014229
20384.983723	-1256.484667	523.900391	133.957336
20384.983723	-1256.484667	522.652344	-164.462158
20384.983723	-1256.484667	521.403320	-49.892963
20384.983723	-1256.484667	520.154297	-83.347443
20384.983723	-1256.484667	518.905273	-11.327643
20384.983723	-1256.484667	517.656250	-6.536843
20384.983723	-1256.484667	516.406250	-37.550995
20384.983723	-1256.484667	515.156250	-99.865303
20384.983723	-1256.484667	513.906250	-61.264252
20384.983723	-1256.484667	512.655273	-87.581635
20384.983723	-1256.484667	511.404297	-51.117184
20384.983723	-1256.484667	510.153320	16.740442
20384.983723	-1256.484667	508.902344	-18.349646
20384.983723	-1256.484667	507.650391	9.304093
20384.983723	-1256.484667	506.398438	-180.051636
20384.983723	-1256.484667	505.146484	-78.429771
20384.983723	-1256.484667	503.893555	-12.581725
20384.983723	-1256.484667	502.641602	-31.683447
20384.983723	-1256.484667	501.388672	36.474419
20384.983723	-1256.484667	500.134766	133.717148
20384.983723	-1256.484667	498.881836	81.238403
20384.983723	-1256.484667	497.627930	-94.052704
20384.983723	-1256.484667	496.374023	-59.235126
20384.983723	-1256.484667	495.119141	-31.081980
20384.983723	-1256.484667	493.865234	17.202805
20384.983723	-1256.484667	492.610352	-41.641129
20384.983723	-1256.484667	491.355469	-218.705902
20384.983723	-1256.484667	490.099609	84.111137
20384.983723	-1256.484667	488.843750	67.812340
20384.983723	-1256.484667	487.587891	64.942711
20384.983723	-1256.484667	486.332031	59.883102
20384.983723	-1256.484667	485.075195	115.061127
20384.983723	-1256.484667	483.818359	20.902929
20384.983723	-1256.484667	482.561523	89.502449
20384.983723	-1256.484667	481.304688	-84.758881
20384.983723	-1256.484667	480.046875	-62.887348
20384.983723	-1256.484667	478.789063	114.898140
20384.983723	-1256.484667	477.531250	163.483109
20384.983723	-1256.484667	476.272461	49.558239
20384.983723	-1256.484667	475.013672	104.851028
20384.983723	-1256.484667	473.754883	162.358459
20384.983723	-1256.484667	472.496094	39.648705
20384.983723	-1256.484667	471.236328	46.006271
20384.983723	-1256.484667	469.976563	328.110748
20384.983723	-1256.484667	468.716797	218.797058
20384.983723	-1256.484667	467.456055	127.311218
20384.983723	-1256.484667	466.196289	318.090607
20384.983723	-1256.484667	464.935547	197.719543
20384.983723	-1256.484667	463.673828	279.531891
20384.983723	-1256.484667	462.413086	365.729279
20384.983723	-1256.484667	461.151367	358.611420
20384.983723	-1256.484667	459.889648	280.429626
20384.983723	-1256.484667	458.626953	299.906891
20384.983723	-1256.484667	457.364258	414.754242
20384.983723	-1256.484667	456.101563	407.492249
20384.983723	-1256.484667	454.838867	402.404999
20384.983723	-1256.484667	453.575195	266.434448
20384.983723	-1256.484667	452.312500	369.905579
20384.983723	-1256.484667	451.047852	504.302673
20384.983723	-1256.484667	449.784180	481.229034
20384.983723	-1256.484667	448.519531	340.664673
20384.983723	-1256.484667	447.254883	169.067734
20384.983723	-1256.484667	445.990234	267.646942
20384.983723	-1256.484667	444.725586	532.152893
20384.983723	-1256.484667	443.459961	504.236633
20384.983723	-1256.484667	442.194336	469.587372
20384.983723	-1256.484667	440.927734	503.434784
20384.983723	-1256.484667	439.662109	377.864197
20384.983723	-1256.484667	438.395508	504.362823
20384.983723	-1256.484667	437.127930	338.780396
20384.983723	-1256.484667	435.861328	577.706238
20384.983723	-1256.484667	434.593750	619.657532
20384.983723	-1256.484667	433.326172	391.828644
20384.983723	-1256.484667	432.058594	382.660614
20384.983723	-1256.484667	430.790039	234.158066
20384.983723	-1256.484667	429.521484	412.384155
20384.983723	-1256.484667	428.252930	566.050842
20384.983723	-1256.484667	426.984375	450.138397
20384.983723	-1256.484667	425.714844	545.934143
20384.983723	-1256.484667	424.445313	619.401306
20384.983723	-1256.484667	423.174805	617.598877
20384.983723	-1256.484667	421.905273	591.296692
20384.983723	-1256.484667	420.634766	774.233887
20384.983723	-1256.484667	419.364258	454.181183
20384.983723	-1256.484667	418.092773	535.143066
20384.983723	-1256.484667	416.822266	640.027649
20384.983723	-1256.484667	415.550781	645.427063
20384.983723	-1256.484667	414.278320	505.135956
20384.983723	-1256.484667	413.006836	542.969299
20384.983723	-1256.484667	411.734375	677.329468
20384.983723	-1256.484667	410.461914	525.123779
20384.983723	-1256.484667	409.188477	678.533875
20384.983723	-1256.484667	407.916016	653.288818
20384.983723	-1256.484667	406.642578	634.267395
20384.983723	-1256.484667	405.368164	546.675354
20384.983723	-1256.484667	404.094727	581.854065
20384.983723	-1256.484667	402.820313	515.462891
20384.983723	-1256.484667	401.545898	543.174622
20384.983723	-1256.484667	400.270508	656.116089
20384.983723	-1256.484667	398.996094	605.973877
20384.983723	-1256.484667	397.720703	630.045044
20384.983723	-1256.484667	396.444336	596.505859
20384.983723	-1256.484667	395.168945	476.849884
20384.983723	-1256.484667	393.892578	593.774292
20384.983723	-1256.484667	392.616211	591.594971
20384.983723	-1256.484667	391.339844	645.902039
20384.983723	-1256.484667	390.062500	611.850891
20384.983723	-1256.484667	388.785156	568.446045
20384.983723	-1256.484667	387.507813	452.087250
20384.983723	-1256.484667	386.229492	729.730225
20384.983723	-1256.484667	384.951172	541.957031
20384.983723	-1256.484667	383.672852	390.847046
20384.983723	-1256.484667	382.394531	504.195221
20384.983723	-1256.484667	381.115234	715.336609
20384.983723	-1256.484667	379.835938	426.380249
20384.983723	-1256.484667	378.556641	541.828003
20384.983723	-1256.484667	377.277344	547.013428
20384.983723	-1256.484667	375.997070	527.318726
20384.983723	-1256.484667	374.716797	395.238373
20384.983723	-1256.484667	373.435547	522.669189
20384.983723	-1256.484667	372.155273	485.184082
20384.983723	-1256.484667	370.874023	346.242737
20384.983723	-1256.484667	369.591797	416.296509
20384.983723	-1256.484667	368.310547	393.622345
20384.983723	-1256.484667	367.028320	319.735229
20384.983723	-1256.484667	365.746094	347.581665
20384.983723	-1256.484667	364.463867	365.682861
20384.983723	-1256.484667	363.180664	107.595688
20384.983723	-1256.484667	361.897461	494.784241
20384.983723	-1256.484667	360.614258	195.371994
20384.983723	-1256.484667	359.330078	263.756866
20384.983723	-1256.484667	358.045898	221.898148
20384.983723	-1256.484667	356.761719	318.503998
20384.983723	-1256.484667	355.477539	174.001785
20384.983723	-1256.484667	354.192383	146.060593
20384.983723	-1256.484667	352.907227	297.818146
20384.983723	-1256.484667	351.622070	197.616531
20384.983723	-1256.484667	350.336914	185.496689
20384.983723	-1256.484667	349.050781	296.192261
20384.983723	-1256.484667	347.764648	4.745276
20384.983723	-1256.484667	346.477539	71.280907
20384.983723	-1256.484667	345.191406	44.968525
20384.983723	-1256.484667	343.904297	167.358765
20384.983723	-1256.484667	342.616211	246.829178
20384.983723	-1256.484667	341.329102	135.512192
20384.983723	-1256.484667	340.041016	161.858551
20384.983723	-1256.484667	338.752930	117.020714
20384.983723	-1256.484667	337.463867	74.889771
20384.983723	-1256.484667	336.175781	65.941513
20384.983723	-1256.484667	334.886719	29.186375
20384.983723	-1256.484667	333.596680	42.818207
20384.983723	-1256.484667	332.307617	93.827599
20384.983723	-1256.484667	331.017578	51.751820
20384.983723	-1256.484667	329.727539	-61.624752
20384.983723	-1256.484667	328.436523	-27.095816
20384.983723	-1256.484667	327.146484	-139.857361
20384.983723	-1256.484667	325.855469	255.336365
20384.983723	-1256.484667	324.563477	105.961006
20384.983723	-1256.484667	323.272461	-181.971161
20384.983723	-1256.484667	321.980469	-10.036537
20384.983723	-1256.484667	320.688477	-117.797211
20384.983723	-1256.484667	319.395508	-136.700180
20384.983723	-1256.484667	318.103516	65.463615
20384.983723	-1256.484667	316.810547	133.067596
20384.983723	-1256.484667	315.516602	-87.640862
20384.983723	-1256.484667	314.223633	-137.276505
20384.983723	-1256.484667	312.929688	-7.474951
20384.983723	-1256.484667	311.635742	-235.163147
20384.983723	-1256.484667	310.340820	-17.321064
20384.983723	-1256.484667	309.045898	-163.438797
20384.983723	-1256.484667	307.750977	8.088893
20384.983723	-1256.484667	306.456055	-0.426339
20384.983723	-1256.484667	305.160156	96.421745
20384.983723	-1256.484667	303.865234	58.718025
20384.983723	-1256.484667	302.568359	178.025284
20384.983723	-1256.484667	301.272461	145.441605
20384.983723	-1256.484667	299.975586	306.500366
20384.983723	-1256.484667	298.678711	354.400665
