#X		#Y		#Wave		#Intensity
12365.894947	-1217.591000	1999.980469	-43.720802
12365.894947	-1217.591000	1999.016602	36.780540
12365.894947	-1217.591000	1998.052734	86.884026
12365.894947	-1217.591000	1997.087891	-26.843210
12365.894947	-1217.591000	1996.123047	-44.149250
12365.894947	-1217.591000	1995.158203	168.691345
12365.894947	-1217.591000	1994.193359	-54.687988
12365.894947	-1217.591000	1993.228516	-75.152023
12365.894947	-1217.591000	1992.262695	-83.446243
12365.894947	-1217.591000	1991.297852	150.641418
12365.894947	-1217.591000	1990.332031	-73.418869
12365.894947	-1217.591000	1989.366211	58.732628
12365.894947	-1217.591000	1988.399414	-27.065086
12365.894947	-1217.591000	1987.433594	-46.222084
12365.894947	-1217.591000	1986.466797	194.126083
12365.894947	-1217.591000	1985.500977	337.789398
12365.894947	-1217.591000	1984.534180	16.473152
12365.894947	-1217.591000	1983.567383	93.067451
12365.894947	-1217.591000	1982.599609	28.624231
12365.894947	-1217.591000	1981.632813	97.490257
12365.894947	-1217.591000	1980.665039	232.891403
12365.894947	-1217.591000	1979.697266	192.754929
12365.894947	-1217.591000	1978.729492	113.000717
12365.894947	-1217.591000	1977.761719	176.357086
12365.894947	-1217.591000	1976.792969	-120.822960
12365.894947	-1217.591000	1975.825195	428.538452
12365.894947	-1217.591000	1974.856445	363.166779
12365.894947	-1217.591000	1973.887695	-10.666050
12365.894947	-1217.591000	1972.918945	47.213821
12365.894947	-1217.591000	1971.949219	45.793026
12365.894947	-1217.591000	1970.980469	73.884041
12365.894947	-1217.591000	1970.010742	18.064333
12365.894947	-1217.591000	1969.041016	16.419018
12365.894947	-1217.591000	1968.071289	46.741463
12365.894947	-1217.591000	1967.101563	224.823914
12365.894947	-1217.591000	1966.130859	-89.914589
12365.894947	-1217.591000	1965.161133	-128.733765
12365.894947	-1217.591000	1964.190430	29.407164
12365.894947	-1217.591000	1963.219727	175.131058
12365.894947	-1217.591000	1962.249023	-82.952087
12365.894947	-1217.591000	1961.277344	-60.412327
12365.894947	-1217.591000	1960.306641	-37.915737
12365.894947	-1217.591000	1959.334961	90.323517
12365.894947	-1217.591000	1958.363281	144.688705
12365.894947	-1217.591000	1957.391602	277.702393
12365.894947	-1217.591000	1956.419922	-130.313263
12365.894947	-1217.591000	1955.447266	-117.814827
12365.894947	-1217.591000	1954.474609	364.127502
12365.894947	-1217.591000	1953.501953	216.750717
12365.894947	-1217.591000	1952.529297	130.839493
12365.894947	-1217.591000	1951.556641	310.256592
12365.894947	-1217.591000	1950.583984	371.702515
12365.894947	-1217.591000	1949.610352	-80.125748
12365.894947	-1217.591000	1948.636719	-18.652338
12365.894947	-1217.591000	1947.663086	202.352280
12365.894947	-1217.591000	1946.689453	87.031593
12365.894947	-1217.591000	1945.715820	-6.163328
12365.894947	-1217.591000	1944.741211	-1.192219
12365.894947	-1217.591000	1943.767578	-67.352211
12365.894947	-1217.591000	1942.792969	87.235168
12365.894947	-1217.591000	1941.818359	212.344376
12365.894947	-1217.591000	1940.842773	-64.646751
12365.894947	-1217.591000	1939.868164	-106.217339
12365.894947	-1217.591000	1938.892578	-157.570251
12365.894947	-1217.591000	1937.916992	16.523687
12365.894947	-1217.591000	1936.941406	136.669083
12365.894947	-1217.591000	1935.965820	180.854233
12365.894947	-1217.591000	1934.990234	-81.067383
12365.894947	-1217.591000	1934.013672	73.341217
12365.894947	-1217.591000	1933.037109	124.893738
12365.894947	-1217.591000	1932.060547	-173.543869
12365.894947	-1217.591000	1931.083984	108.085693
12365.894947	-1217.591000	1930.107422	171.884552
12365.894947	-1217.591000	1929.129883	-84.766212
12365.894947	-1217.591000	1928.153320	123.370789
12365.894947	-1217.591000	1927.175781	18.461391
12365.894947	-1217.591000	1926.198242	-74.167618
12365.894947	-1217.591000	1925.219727	-24.979090
12365.894947	-1217.591000	1924.242188	124.409477
12365.894947	-1217.591000	1923.263672	85.618904
12365.894947	-1217.591000	1922.285156	68.848717
12365.894947	-1217.591000	1921.306641	-243.433289
12365.894947	-1217.591000	1920.328125	-1.247630
12365.894947	-1217.591000	1919.349609	65.076508
12365.894947	-1217.591000	1918.370117	-171.302872
12365.894947	-1217.591000	1917.391602	109.840775
12365.894947	-1217.591000	1916.412109	-21.494854
12365.894947	-1217.591000	1915.431641	-74.696686
12365.894947	-1217.591000	1914.452148	55.088482
12365.894947	-1217.591000	1913.472656	33.636631
12365.894947	-1217.591000	1912.492188	-56.068233
12365.894947	-1217.591000	1911.511719	-155.473862
12365.894947	-1217.591000	1910.531250	25.478825
12365.894947	-1217.591000	1909.550781	-54.377731
12365.894947	-1217.591000	1908.569336	184.992142
12365.894947	-1217.591000	1907.588867	-28.818663
12365.894947	-1217.591000	1906.607422	-169.470718
12365.894947	-1217.591000	1905.625977	-122.549805
12365.894947	-1217.591000	1904.644531	89.925743
12365.894947	-1217.591000	1903.662109	24.825468
12365.894947	-1217.591000	1902.680664	25.476288
12365.894947	-1217.591000	1901.698242	142.933426
12365.894947	-1217.591000	1900.715820	94.919441
12365.894947	-1217.591000	1899.733398	71.256653
12365.894947	-1217.591000	1898.750000	-54.538059
12365.894947	-1217.591000	1897.767578	36.130516
12365.894947	-1217.591000	1896.784180	63.558762
12365.894947	-1217.591000	1895.800781	90.980736
12365.894947	-1217.591000	1894.817383	188.870972
12365.894947	-1217.591000	1893.833984	-55.862461
12365.894947	-1217.591000	1892.850586	447.706116
12365.894947	-1217.591000	1891.866211	98.574821
12365.894947	-1217.591000	1890.881836	-34.305592
12365.894947	-1217.591000	1889.897461	-111.296692
12365.894947	-1217.591000	1888.913086	219.546616
12365.894947	-1217.591000	1887.927734	142.524155
12365.894947	-1217.591000	1886.943359	60.675137
12365.894947	-1217.591000	1885.958008	223.878723
12365.894947	-1217.591000	1884.972656	-88.407684
12365.894947	-1217.591000	1883.987305	132.947433
12365.894947	-1217.591000	1883.001953	46.270882
12365.894947	-1217.591000	1882.015625	-59.784161
12365.894947	-1217.591000	1881.029297	-68.861877
12365.894947	-1217.591000	1880.042969	-0.404082
12365.894947	-1217.591000	1879.056641	7.438434
12365.894947	-1217.591000	1878.070313	49.174034
12365.894947	-1217.591000	1877.083984	86.029823
12365.894947	-1217.591000	1876.096680	287.510376
12365.894947	-1217.591000	1875.109375	-99.427917
12365.894947	-1217.591000	1874.122070	-16.644890
12365.894947	-1217.591000	1873.134766	-100.909592
12365.894947	-1217.591000	1872.146484	301.188690
12365.894947	-1217.591000	1871.159180	11.202046
12365.894947	-1217.591000	1870.170898	-196.469543
12365.894947	-1217.591000	1869.182617	-36.505379
12365.894947	-1217.591000	1868.194336	-14.454782
12365.894947	-1217.591000	1867.205078	82.489227
12365.894947	-1217.591000	1866.216797	-67.167847
12365.894947	-1217.591000	1865.227539	-59.735378
12365.894947	-1217.591000	1864.238281	-173.150314
12365.894947	-1217.591000	1863.249023	44.378777
12365.894947	-1217.591000	1862.259766	83.061325
12365.894947	-1217.591000	1861.269531	39.580048
12365.894947	-1217.591000	1860.279297	58.839909
12365.894947	-1217.591000	1859.290039	145.637650
12365.894947	-1217.591000	1858.298828	203.384567
12365.894947	-1217.591000	1857.308594	58.379208
12365.894947	-1217.591000	1856.318359	188.396973
12365.894947	-1217.591000	1855.327148	-38.668774
12365.894947	-1217.591000	1854.335938	-7.667666
12365.894947	-1217.591000	1853.344727	-78.001617
12365.894947	-1217.591000	1852.353516	128.858124
12365.894947	-1217.591000	1851.362305	48.767475
12365.894947	-1217.591000	1850.370117	183.107819
12365.894947	-1217.591000	1849.377930	-85.016098
12365.894947	-1217.591000	1848.385742	56.398113
12365.894947	-1217.591000	1847.393555	60.416344
12365.894947	-1217.591000	1846.401367	40.286133
12365.894947	-1217.591000	1845.408203	65.830963
12365.894947	-1217.591000	1844.415039	9.457661
12365.894947	-1217.591000	1843.421875	330.865906
12365.894947	-1217.591000	1842.428711	98.671463
12365.894947	-1217.591000	1841.435547	-49.311733
12365.894947	-1217.591000	1840.441406	194.728775
12365.894947	-1217.591000	1839.448242	3.343391
12365.894947	-1217.591000	1838.454102	-43.796696
12365.894947	-1217.591000	1837.459961	-9.268501
12365.894947	-1217.591000	1836.464844	152.537994
12365.894947	-1217.591000	1835.470703	146.000000
12365.894947	-1217.591000	1834.475586	185.020584
12365.894947	-1217.591000	1833.480469	211.929291
12365.894947	-1217.591000	1832.485352	-37.443207
12365.894947	-1217.591000	1831.490234	-37.092388
12365.894947	-1217.591000	1830.495117	289.660095
12365.894947	-1217.591000	1829.499023	308.961823
12365.894947	-1217.591000	1828.502930	179.374298
12365.894947	-1217.591000	1827.506836	388.047607
12365.894947	-1217.591000	1826.510742	308.679657
12365.894947	-1217.591000	1825.513672	214.846466
12365.894947	-1217.591000	1824.517578	72.996628
12365.894947	-1217.591000	1823.520508	101.317520
12365.894947	-1217.591000	1822.523438	64.804855
12365.894947	-1217.591000	1821.526367	13.823645
12365.894947	-1217.591000	1820.529297	-54.015991
12365.894947	-1217.591000	1819.531250	148.772583
12365.894947	-1217.591000	1818.533203	-55.816406
12365.894947	-1217.591000	1817.535156	268.816467
12365.894947	-1217.591000	1816.537109	202.936646
12365.894947	-1217.591000	1815.539063	160.910248
12365.894947	-1217.591000	1814.540039	18.255665
12365.894947	-1217.591000	1813.541992	131.601624
12365.894947	-1217.591000	1812.542969	46.200825
12365.894947	-1217.591000	1811.543945	120.987793
12365.894947	-1217.591000	1810.543945	37.773556
12365.894947	-1217.591000	1809.544922	-179.425537
12365.894947	-1217.591000	1808.544922	-217.364380
12365.894947	-1217.591000	1807.544922	91.184998
12365.894947	-1217.591000	1806.544922	-154.945358
12365.894947	-1217.591000	1805.544922	-37.918484
12365.894947	-1217.591000	1804.544922	-188.618103
12365.894947	-1217.591000	1803.543945	-98.156723
12365.894947	-1217.591000	1802.542969	16.026360
12365.894947	-1217.591000	1801.541992	63.188080
12365.894947	-1217.591000	1800.541016	76.786591
12365.894947	-1217.591000	1799.539063	-12.384733
12365.894947	-1217.591000	1798.538086	41.533054
12365.894947	-1217.591000	1797.536133	73.819809
12365.894947	-1217.591000	1796.534180	8.165946
12365.894947	-1217.591000	1795.532227	-55.209545
12365.894947	-1217.591000	1794.529297	234.192245
12365.894947	-1217.591000	1793.527344	184.838058
12365.894947	-1217.591000	1792.524414	-83.924065
12365.894947	-1217.591000	1791.521484	-83.431297
12365.894947	-1217.591000	1790.518555	14.613577
12365.894947	-1217.591000	1789.514648	-1.869174
12365.894947	-1217.591000	1788.511719	-111.357758
12365.894947	-1217.591000	1787.507813	-111.413452
12365.894947	-1217.591000	1786.503906	193.136063
12365.894947	-1217.591000	1785.500000	-54.810314
12365.894947	-1217.591000	1784.496094	211.258636
12365.894947	-1217.591000	1783.491211	-65.439606
12365.894947	-1217.591000	1782.486328	95.563789
12365.894947	-1217.591000	1781.481445	51.810375
12365.894947	-1217.591000	1780.476563	-46.763725
12365.894947	-1217.591000	1779.471680	68.548126
12365.894947	-1217.591000	1778.465820	114.721642
12365.894947	-1217.591000	1777.460938	-29.391119
12365.894947	-1217.591000	1776.455078	-35.779858
12365.894947	-1217.591000	1775.449219	64.606384
12365.894947	-1217.591000	1774.442383	-72.743431
12365.894947	-1217.591000	1773.436523	-193.546432
12365.894947	-1217.591000	1772.429688	-288.342102
12365.894947	-1217.591000	1771.422852	-50.879658
12365.894947	-1217.591000	1770.416016	119.887611
12365.894947	-1217.591000	1769.409180	-188.929138
12365.894947	-1217.591000	1768.402344	36.082069
12365.894947	-1217.591000	1767.394531	99.534393
12365.894947	-1217.591000	1766.386719	84.550522
12365.894947	-1217.591000	1765.378906	-32.543446
12365.894947	-1217.591000	1764.371094	-88.095215
12365.894947	-1217.591000	1763.362305	-184.081909
12365.894947	-1217.591000	1762.354492	407.130219
12365.894947	-1217.591000	1761.345703	9.860277
12365.894947	-1217.591000	1760.336914	145.640121
12365.894947	-1217.591000	1759.328125	-95.389572
12365.894947	-1217.591000	1758.318359	-57.046333
12365.894947	-1217.591000	1757.308594	87.686516
12365.894947	-1217.591000	1756.299805	213.293015
12365.894947	-1217.591000	1755.290039	109.108391
12365.894947	-1217.591000	1754.279297	217.774979
12365.894947	-1217.591000	1753.269531	127.532677
12365.894947	-1217.591000	1752.258789	176.725739
12365.894947	-1217.591000	1751.249023	60.215733
12365.894947	-1217.591000	1750.238281	125.664764
12365.894947	-1217.591000	1749.226563	-90.407745
12365.894947	-1217.591000	1748.215820	140.210266
12365.894947	-1217.591000	1747.204102	-52.438976
12365.894947	-1217.591000	1746.193359	-119.916275
12365.894947	-1217.591000	1745.181641	-0.906451
12365.894947	-1217.591000	1744.168945	-219.850906
12365.894947	-1217.591000	1743.157227	-79.901382
12365.894947	-1217.591000	1742.144531	-88.907486
12365.894947	-1217.591000	1741.132813	135.653442
12365.894947	-1217.591000	1740.120117	-225.328461
12365.894947	-1217.591000	1739.106445	74.363739
12365.894947	-1217.591000	1738.093750	211.030869
12365.894947	-1217.591000	1737.080078	135.202988
12365.894947	-1217.591000	1736.067383	28.622915
12365.894947	-1217.591000	1735.053711	325.113190
12365.894947	-1217.591000	1734.040039	76.795639
12365.894947	-1217.591000	1733.025391	104.176132
12365.894947	-1217.591000	1732.011719	-83.015068
12365.894947	-1217.591000	1730.997070	101.959656
12365.894947	-1217.591000	1729.982422	-26.564398
12365.894947	-1217.591000	1728.967773	198.091217
12365.894947	-1217.591000	1727.952148	-119.068115
12365.894947	-1217.591000	1726.937500	60.517319
12365.894947	-1217.591000	1725.921875	30.392611
12365.894947	-1217.591000	1724.906250	113.104706
12365.894947	-1217.591000	1723.890625	-164.337753
12365.894947	-1217.591000	1722.875000	92.191055
12365.894947	-1217.591000	1721.858398	92.106071
12365.894947	-1217.591000	1720.841797	37.802460
12365.894947	-1217.591000	1719.825195	-120.056770
12365.894947	-1217.591000	1718.808594	-245.076172
12365.894947	-1217.591000	1717.791992	-217.416916
12365.894947	-1217.591000	1716.774414	-51.283703
12365.894947	-1217.591000	1715.756836	84.117767
12365.894947	-1217.591000	1714.739258	278.061920
12365.894947	-1217.591000	1713.721680	27.963810
12365.894947	-1217.591000	1712.704102	97.154572
12365.894947	-1217.591000	1711.685547	161.477875
12365.894947	-1217.591000	1710.667969	373.538483
12365.894947	-1217.591000	1709.649414	463.352661
12365.894947	-1217.591000	1708.630859	346.553589
12365.894947	-1217.591000	1707.611328	27.929796
12365.894947	-1217.591000	1706.592773	82.219856
12365.894947	-1217.591000	1705.573242	75.388489
12365.894947	-1217.591000	1704.553711	373.202087
12365.894947	-1217.591000	1703.534180	309.831787
12365.894947	-1217.591000	1702.513672	131.520844
12365.894947	-1217.591000	1701.494141	126.567482
12365.894947	-1217.591000	1700.473633	252.664032
12365.894947	-1217.591000	1699.453125	111.602867
12365.894947	-1217.591000	1698.432617	209.332535
12365.894947	-1217.591000	1697.412109	339.692200
12365.894947	-1217.591000	1696.390625	348.155121
12365.894947	-1217.591000	1695.369141	410.336426
12365.894947	-1217.591000	1694.347656	516.842896
12365.894947	-1217.591000	1693.326172	562.382935
12365.894947	-1217.591000	1692.304688	568.039917
12365.894947	-1217.591000	1691.282227	395.849243
12365.894947	-1217.591000	1690.260742	543.955139
12365.894947	-1217.591000	1689.238281	567.993286
12365.894947	-1217.591000	1688.214844	596.574341
12365.894947	-1217.591000	1687.192383	650.776611
12365.894947	-1217.591000	1686.168945	725.866211
12365.894947	-1217.591000	1685.146484	599.980530
12365.894947	-1217.591000	1684.123047	784.627502
12365.894947	-1217.591000	1683.099609	644.564209
12365.894947	-1217.591000	1682.075195	544.128113
12365.894947	-1217.591000	1681.051758	700.406433
12365.894947	-1217.591000	1680.027344	1143.537476
12365.894947	-1217.591000	1679.002930	1038.141846
12365.894947	-1217.591000	1677.978516	881.383301
12365.894947	-1217.591000	1676.953125	997.446655
12365.894947	-1217.591000	1675.928711	915.212769
12365.894947	-1217.591000	1674.903320	1203.583252
12365.894947	-1217.591000	1673.877930	1216.725708
12365.894947	-1217.591000	1672.852539	1364.950562
12365.894947	-1217.591000	1671.826172	1263.717651
12365.894947	-1217.591000	1670.800781	1237.020142
12365.894947	-1217.591000	1669.774414	1312.713745
12365.894947	-1217.591000	1668.748047	1467.484497
12365.894947	-1217.591000	1667.721680	1249.622925
12365.894947	-1217.591000	1666.694336	1145.815552
12365.894947	-1217.591000	1665.667969	1460.909180
12365.894947	-1217.591000	1664.640625	1149.888550
12365.894947	-1217.591000	1663.613281	1325.132813
12365.894947	-1217.591000	1662.585938	1430.473877
12365.894947	-1217.591000	1661.557617	1114.787476
12365.894947	-1217.591000	1660.530273	1417.639771
12365.894947	-1217.591000	1659.501953	1385.561646
12365.894947	-1217.591000	1658.473633	1497.538452
12365.894947	-1217.591000	1657.444336	1407.238525
12365.894947	-1217.591000	1656.416016	1591.085938
12365.894947	-1217.591000	1655.386719	1470.511841
12365.894947	-1217.591000	1654.358398	1261.717529
12365.894947	-1217.591000	1653.328125	1749.464722
12365.894947	-1217.591000	1652.298828	1652.012939
12365.894947	-1217.591000	1651.269531	1958.403687
12365.894947	-1217.591000	1650.239258	1897.973389
12365.894947	-1217.591000	1649.208984	1932.652954
12365.894947	-1217.591000	1648.178711	2111.100342
12365.894947	-1217.591000	1647.148438	2470.338867
12365.894947	-1217.591000	1646.117188	2481.575928
12365.894947	-1217.591000	1645.086914	2418.620850
12365.894947	-1217.591000	1644.055664	2557.285400
12365.894947	-1217.591000	1643.024414	2575.369385
12365.894947	-1217.591000	1641.992188	2442.796875
12365.894947	-1217.591000	1640.960938	2806.002930
12365.894947	-1217.591000	1639.928711	2664.132568
12365.894947	-1217.591000	1638.896484	3008.565918
12365.894947	-1217.591000	1637.864258	2825.002441
12365.894947	-1217.591000	1636.832031	3088.227051
12365.894947	-1217.591000	1635.798828	2930.122803
12365.894947	-1217.591000	1634.766602	2966.450928
12365.894947	-1217.591000	1633.733398	3065.192139
12365.894947	-1217.591000	1632.699219	3304.946045
12365.894947	-1217.591000	1631.666016	3186.202393
12365.894947	-1217.591000	1630.632813	2993.517578
12365.894947	-1217.591000	1629.598633	3166.101563
12365.894947	-1217.591000	1628.564453	3521.193604
12365.894947	-1217.591000	1627.530273	3487.965820
12365.894947	-1217.591000	1626.495117	3394.664551
12365.894947	-1217.591000	1625.460938	3871.933594
12365.894947	-1217.591000	1624.425781	3656.214844
12365.894947	-1217.591000	1623.390625	3562.959229
12365.894947	-1217.591000	1622.355469	4201.508789
12365.894947	-1217.591000	1621.319336	4018.173584
12365.894947	-1217.591000	1620.284180	4238.760254
12365.894947	-1217.591000	1619.248047	4030.145996
12365.894947	-1217.591000	1618.211914	4582.803223
12365.894947	-1217.591000	1617.174805	3903.766113
12365.894947	-1217.591000	1616.138672	4403.249512
12365.894947	-1217.591000	1615.101563	4220.184570
12365.894947	-1217.591000	1614.065430	4304.601074
12365.894947	-1217.591000	1613.027344	4501.876465
12365.894947	-1217.591000	1611.990234	4844.273438
12365.894947	-1217.591000	1610.953125	4801.896973
12365.894947	-1217.591000	1609.915039	4775.667480
12365.894947	-1217.591000	1608.876953	5288.281250
12365.894947	-1217.591000	1607.838867	5317.291016
12365.894947	-1217.591000	1606.800781	5088.546387
12365.894947	-1217.591000	1605.761719	5329.353027
12365.894947	-1217.591000	1604.723633	5809.413574
12365.894947	-1217.591000	1603.684570	5606.117676
12365.894947	-1217.591000	1602.644531	6122.780762
12365.894947	-1217.591000	1601.605469	6216.225586
12365.894947	-1217.591000	1600.566406	6367.157227
12365.894947	-1217.591000	1599.526367	6159.494141
12365.894947	-1217.591000	1598.486328	6177.177246
12365.894947	-1217.591000	1597.446289	5944.470703
12365.894947	-1217.591000	1596.405273	6405.634277
12365.894947	-1217.591000	1595.365234	6078.927246
12365.894947	-1217.591000	1594.324219	5621.501953
12365.894947	-1217.591000	1593.283203	5556.905273
12365.894947	-1217.591000	1592.242188	5478.629395
12365.894947	-1217.591000	1591.200195	5841.053223
12365.894947	-1217.591000	1590.159180	5379.713867
12365.894947	-1217.591000	1589.117188	5338.411621
12365.894947	-1217.591000	1588.075195	5366.005859
12365.894947	-1217.591000	1587.032227	5205.605957
12365.894947	-1217.591000	1585.990234	5315.907227
12365.894947	-1217.591000	1584.947266	5153.444336
12365.894947	-1217.591000	1583.904297	5039.256836
12365.894947	-1217.591000	1582.861328	4954.984863
12365.894947	-1217.591000	1581.818359	5060.973633
12365.894947	-1217.591000	1580.775391	4853.219238
12365.894947	-1217.591000	1579.731445	4874.613281
12365.894947	-1217.591000	1578.687500	5184.570313
12365.894947	-1217.591000	1577.643555	4970.295410
12365.894947	-1217.591000	1576.598633	4795.086914
12365.894947	-1217.591000	1575.554688	4807.695313
12365.894947	-1217.591000	1574.509766	4749.455566
12365.894947	-1217.591000	1573.464844	4400.852539
12365.894947	-1217.591000	1572.419922	4665.362305
12365.894947	-1217.591000	1571.374023	4637.191406
12365.894947	-1217.591000	1570.329102	4362.275391
12365.894947	-1217.591000	1569.283203	4112.694336
12365.894947	-1217.591000	1568.237305	4551.121582
12365.894947	-1217.591000	1567.191406	4694.771973
12365.894947	-1217.591000	1566.144531	4562.075195
12365.894947	-1217.591000	1565.098633	4794.957520
12365.894947	-1217.591000	1564.051758	4742.437988
12365.894947	-1217.591000	1563.004883	4986.821777
12365.894947	-1217.591000	1561.957031	4808.968750
12365.894947	-1217.591000	1560.910156	5160.732910
12365.894947	-1217.591000	1559.862305	5124.611328
12365.894947	-1217.591000	1558.814453	4938.081543
12365.894947	-1217.591000	1557.766602	4754.030273
12365.894947	-1217.591000	1556.718750	5055.844727
12365.894947	-1217.591000	1555.669922	4687.425781
12365.894947	-1217.591000	1554.621094	4531.251465
12365.894947	-1217.591000	1553.573242	4502.900879
12365.894947	-1217.591000	1552.523438	4265.050781
12365.894947	-1217.591000	1551.474609	3959.113281
12365.894947	-1217.591000	1550.424805	3730.845215
12365.894947	-1217.591000	1549.375000	3482.315674
12365.894947	-1217.591000	1548.325195	3213.532227
12365.894947	-1217.591000	1547.275391	3090.668213
12365.894947	-1217.591000	1546.225586	2979.375488
12365.894947	-1217.591000	1545.174805	2834.123291
12365.894947	-1217.591000	1544.124023	2993.892578
12365.894947	-1217.591000	1543.073242	2828.520752
12365.894947	-1217.591000	1542.022461	2804.343262
12365.894947	-1217.591000	1540.970703	2557.515381
12365.894947	-1217.591000	1539.919922	2338.230713
12365.894947	-1217.591000	1538.868164	2616.847412
12365.894947	-1217.591000	1537.815430	2845.508301
12365.894947	-1217.591000	1536.763672	2567.682617
12365.894947	-1217.591000	1535.710938	2574.003662
12365.894947	-1217.591000	1534.659180	2793.946045
12365.894947	-1217.591000	1533.606445	2993.514404
12365.894947	-1217.591000	1532.552734	2768.692627
12365.894947	-1217.591000	1531.500000	2564.564453
12365.894947	-1217.591000	1530.446289	3079.916504
12365.894947	-1217.591000	1529.393555	2985.026367
12365.894947	-1217.591000	1528.338867	3135.257568
12365.894947	-1217.591000	1527.285156	2852.507080
12365.894947	-1217.591000	1526.231445	3300.052734
12365.894947	-1217.591000	1525.176758	3110.642334
12365.894947	-1217.591000	1524.122070	3032.524902
12365.894947	-1217.591000	1523.067383	3120.016357
12365.894947	-1217.591000	1522.012695	2885.970947
12365.894947	-1217.591000	1520.957031	3125.541504
12365.894947	-1217.591000	1519.901367	2891.927246
12365.894947	-1217.591000	1518.845703	2792.158936
12365.894947	-1217.591000	1517.790039	2864.641846
12365.894947	-1217.591000	1516.734375	2237.982422
12365.894947	-1217.591000	1515.677734	2301.845459
12365.894947	-1217.591000	1514.621094	2010.703491
12365.894947	-1217.591000	1513.564453	2117.930420
12365.894947	-1217.591000	1512.507813	2132.587646
12365.894947	-1217.591000	1511.450195	1971.065430
12365.894947	-1217.591000	1510.393555	1552.123535
12365.894947	-1217.591000	1509.335938	1782.133423
12365.894947	-1217.591000	1508.278320	1729.804321
12365.894947	-1217.591000	1507.219727	1693.488037
12365.894947	-1217.591000	1506.162109	1564.788696
12365.894947	-1217.591000	1505.103516	1090.820923
12365.894947	-1217.591000	1504.044922	653.359985
12365.894947	-1217.591000	1502.986328	748.986633
12365.894947	-1217.591000	1501.926758	585.225464
12365.894947	-1217.591000	1500.868164	724.092407
12365.894947	-1217.591000	1499.808594	594.635986
12365.894947	-1217.591000	1498.749023	395.512878
12365.894947	-1217.591000	1497.688477	595.797180
12365.894947	-1217.591000	1496.628906	563.993530
12365.894947	-1217.591000	1495.568359	654.118652
12365.894947	-1217.591000	1494.507813	320.717041
12365.894947	-1217.591000	1493.447266	-57.413654
12365.894947	-1217.591000	1492.386719	51.414673
12365.894947	-1217.591000	1491.325195	295.536896
12365.894947	-1217.591000	1490.263672	478.969452
12365.894947	-1217.591000	1489.202148	54.642605
12365.894947	-1217.591000	1488.140625	260.974915
12365.894947	-1217.591000	1487.079102	-72.700989
12365.894947	-1217.591000	1486.016602	19.227991
12365.894947	-1217.591000	1484.954102	142.826035
12365.894947	-1217.591000	1483.891602	113.640511
12365.894947	-1217.591000	1482.829102	50.949303
12365.894947	-1217.591000	1481.765625	-60.965790
12365.894947	-1217.591000	1480.702148	231.987823
12365.894947	-1217.591000	1479.638672	203.660217
12365.894947	-1217.591000	1478.575195	117.184631
12365.894947	-1217.591000	1477.511719	307.145477
12365.894947	-1217.591000	1476.447266	333.419220
12365.894947	-1217.591000	1475.382813	72.466553
12365.894947	-1217.591000	1474.318359	161.936218
12365.894947	-1217.591000	1473.253906	330.297363
12365.894947	-1217.591000	1472.189453	662.183105
12365.894947	-1217.591000	1471.124023	588.537292
12365.894947	-1217.591000	1470.058594	519.426819
12365.894947	-1217.591000	1468.993164	475.156738
12365.894947	-1217.591000	1467.927734	507.545624
12365.894947	-1217.591000	1466.861328	280.233337
12365.894947	-1217.591000	1465.794922	405.268433
12365.894947	-1217.591000	1464.728516	565.528076
12365.894947	-1217.591000	1463.662109	560.567078
12365.894947	-1217.591000	1462.594727	499.858124
12365.894947	-1217.591000	1461.528320	294.423431
12365.894947	-1217.591000	1460.460938	382.493439
12365.894947	-1217.591000	1459.393555	380.753998
12365.894947	-1217.591000	1458.326172	390.324341
12365.894947	-1217.591000	1457.257813	786.896851
12365.894947	-1217.591000	1456.189453	526.848022
12365.894947	-1217.591000	1455.121094	772.142883
12365.894947	-1217.591000	1454.052734	760.703186
12365.894947	-1217.591000	1452.984375	662.572021
12365.894947	-1217.591000	1451.915039	471.825470
12365.894947	-1217.591000	1450.845703	729.213989
12365.894947	-1217.591000	1449.776367	826.870300
12365.894947	-1217.591000	1448.707031	1089.454590
12365.894947	-1217.591000	1447.636719	744.067139
12365.894947	-1217.591000	1446.567383	614.743530
12365.894947	-1217.591000	1445.497070	793.989441
12365.894947	-1217.591000	1444.425781	1120.379517
12365.894947	-1217.591000	1443.355469	1090.405273
12365.894947	-1217.591000	1442.285156	990.790222
12365.894947	-1217.591000	1441.213867	1350.026489
12365.894947	-1217.591000	1440.142578	1050.825317
12365.894947	-1217.591000	1439.070313	973.600891
12365.894947	-1217.591000	1437.999023	1055.936279
12365.894947	-1217.591000	1436.926758	1025.306885
12365.894947	-1217.591000	1435.854492	612.723816
12365.894947	-1217.591000	1434.782227	482.190674
12365.894947	-1217.591000	1433.709961	490.283295
12365.894947	-1217.591000	1432.636719	558.161316
12365.894947	-1217.591000	1431.563477	76.063301
12365.894947	-1217.591000	1430.490234	-111.546227
12365.894947	-1217.591000	1429.416992	-74.009438
12365.894947	-1217.591000	1428.343750	-97.328674
12365.894947	-1217.591000	1427.269531	147.254272
12365.894947	-1217.591000	1426.195313	-273.234070
12365.894947	-1217.591000	1425.121094	22.940277
12365.894947	-1217.591000	1424.046875	-101.980972
12365.894947	-1217.591000	1422.971680	-58.557228
12365.894947	-1217.591000	1421.896484	-17.178839
12365.894947	-1217.591000	1420.821289	-158.902939
12365.894947	-1217.591000	1419.746094	-154.503479
12365.894947	-1217.591000	1418.669922	-100.693443
12365.894947	-1217.591000	1417.594727	-43.927189
12365.894947	-1217.591000	1416.518555	74.442299
12365.894947	-1217.591000	1415.442383	266.882751
12365.894947	-1217.591000	1414.365234	554.549072
12365.894947	-1217.591000	1413.289063	338.633759
12365.894947	-1217.591000	1412.211914	560.793091
12365.894947	-1217.591000	1411.134766	389.497864
12365.894947	-1217.591000	1410.057617	737.432983
12365.894947	-1217.591000	1408.979492	698.734741
12365.894947	-1217.591000	1407.902344	744.296631
12365.894947	-1217.591000	1406.824219	823.431213
12365.894947	-1217.591000	1405.746094	1143.651123
12365.894947	-1217.591000	1404.666992	839.296570
12365.894947	-1217.591000	1403.588867	649.472290
12365.894947	-1217.591000	1402.509766	991.277527
12365.894947	-1217.591000	1401.430664	1242.723999
12365.894947	-1217.591000	1400.351563	1094.428223
12365.894947	-1217.591000	1399.271484	1331.762451
12365.894947	-1217.591000	1398.192383	1193.290283
12365.894947	-1217.591000	1397.112305	1304.792603
12365.894947	-1217.591000	1396.031250	1285.243652
12365.894947	-1217.591000	1394.951172	1433.303589
12365.894947	-1217.591000	1393.871094	1401.585327
12365.894947	-1217.591000	1392.790039	1425.428955
12365.894947	-1217.591000	1391.708984	1294.434204
12365.894947	-1217.591000	1390.626953	1328.441772
12365.894947	-1217.591000	1389.545898	1249.090210
12365.894947	-1217.591000	1388.463867	1014.452209
12365.894947	-1217.591000	1387.381836	1169.966675
12365.894947	-1217.591000	1386.299805	1398.628662
12365.894947	-1217.591000	1385.217773	1259.859131
12365.894947	-1217.591000	1384.134766	1226.528809
12365.894947	-1217.591000	1383.051758	1126.337524
12365.894947	-1217.591000	1381.968750	1115.465942
12365.894947	-1217.591000	1380.885742	859.483276
12365.894947	-1217.591000	1379.802734	877.347412
12365.894947	-1217.591000	1378.718750	1074.740601
12365.894947	-1217.591000	1377.634766	1161.955322
12365.894947	-1217.591000	1376.550781	1275.055054
12365.894947	-1217.591000	1375.465820	1368.737915
12365.894947	-1217.591000	1374.381836	1478.190308
12365.894947	-1217.591000	1373.296875	1218.247559
12365.894947	-1217.591000	1372.211914	1442.054565
12365.894947	-1217.591000	1371.126953	1368.870239
12365.894947	-1217.591000	1370.041016	1342.647339
12365.894947	-1217.591000	1368.955078	1277.317627
12365.894947	-1217.591000	1367.869141	1018.819519
12365.894947	-1217.591000	1366.783203	1437.829468
12365.894947	-1217.591000	1365.697266	1447.510254
12365.894947	-1217.591000	1364.610352	1332.458130
12365.894947	-1217.591000	1363.523438	1292.934204
12365.894947	-1217.591000	1362.436523	1135.054321
12365.894947	-1217.591000	1361.349609	1360.569214
12365.894947	-1217.591000	1360.261719	1436.692871
12365.894947	-1217.591000	1359.174805	1384.978027
12365.894947	-1217.591000	1358.086914	1490.912598
12365.894947	-1217.591000	1356.998047	1476.281006
12365.894947	-1217.591000	1355.910156	1388.922119
12365.894947	-1217.591000	1354.821289	1866.459473
12365.894947	-1217.591000	1353.732422	1467.416382
12365.894947	-1217.591000	1352.643555	1504.568726
12365.894947	-1217.591000	1351.554688	1517.838989
12365.894947	-1217.591000	1350.464844	1231.426880
12365.894947	-1217.591000	1349.375000	1395.089355
12365.894947	-1217.591000	1348.285156	1392.445923
12365.894947	-1217.591000	1347.195313	960.350891
12365.894947	-1217.591000	1346.105469	1367.517578
12365.894947	-1217.591000	1345.014648	1367.367065
12365.894947	-1217.591000	1343.923828	1332.255127
12365.894947	-1217.591000	1342.833008	1162.564941
12365.894947	-1217.591000	1341.741211	1025.354736
12365.894947	-1217.591000	1340.650391	1117.748291
12365.894947	-1217.591000	1339.558594	1026.416138
12365.894947	-1217.591000	1338.466797	850.566711
12365.894947	-1217.591000	1337.374023	827.286011
12365.894947	-1217.591000	1336.282227	633.218201
12365.894947	-1217.591000	1335.189453	585.411682
12365.894947	-1217.591000	1334.096680	540.613647
12365.894947	-1217.591000	1333.003906	390.310699
12365.894947	-1217.591000	1331.910156	215.296600
12365.894947	-1217.591000	1330.817383	387.380035
12365.894947	-1217.591000	1329.723633	108.450684
12365.894947	-1217.591000	1328.629883	396.241180
12365.894947	-1217.591000	1327.535156	208.447968
12365.894947	-1217.591000	1326.441406	366.882690
12365.894947	-1217.591000	1325.346680	299.685974
12365.894947	-1217.591000	1324.251953	201.609436
12365.894947	-1217.591000	1323.156250	410.808960
12365.894947	-1217.591000	1322.061523	684.692932
12365.894947	-1217.591000	1320.965820	319.363708
12365.894947	-1217.591000	1319.870117	572.275696
12365.894947	-1217.591000	1318.774414	551.466309
12365.894947	-1217.591000	1317.678711	593.158569
12365.894947	-1217.591000	1316.582031	576.206299
12365.894947	-1217.591000	1315.485352	593.196106
12365.894947	-1217.591000	1314.388672	750.878357
12365.894947	-1217.591000	1313.291016	771.421570
12365.894947	-1217.591000	1312.194336	874.161804
12365.894947	-1217.591000	1311.096680	759.283386
12365.894947	-1217.591000	1309.999023	912.276794
12365.894947	-1217.591000	1308.901367	836.056458
12365.894947	-1217.591000	1307.802734	942.136963
12365.894947	-1217.591000	1306.705078	551.396362
12365.894947	-1217.591000	1305.606445	712.059021
12365.894947	-1217.591000	1304.506836	519.168579
12365.894947	-1217.591000	1303.408203	848.043945
12365.894947	-1217.591000	1302.308594	510.437225
12365.894947	-1217.591000	1301.208984	609.627258
12365.894947	-1217.591000	1300.109375	694.651428
12365.894947	-1217.591000	1299.009766	346.047119
12365.894947	-1217.591000	1297.909180	670.700867
12365.894947	-1217.591000	1296.808594	773.129333
12365.894947	-1217.591000	1295.708008	627.918762
12365.894947	-1217.591000	1294.607422	677.917053
12365.894947	-1217.591000	1293.506836	637.798401
12365.894947	-1217.591000	1292.405273	659.435974
12365.894947	-1217.591000	1291.303711	646.764038
12365.894947	-1217.591000	1290.202148	660.454712
12365.894947	-1217.591000	1289.099609	486.496674
12365.894947	-1217.591000	1287.998047	717.179199
12365.894947	-1217.591000	1286.895508	652.127808
12365.894947	-1217.591000	1285.792969	394.207977
12365.894947	-1217.591000	1284.689453	292.098053
12365.894947	-1217.591000	1283.586914	279.838776
12365.894947	-1217.591000	1282.483398	528.005371
12365.894947	-1217.591000	1281.379883	632.277466
12365.894947	-1217.591000	1280.276367	578.048035
12365.894947	-1217.591000	1279.171875	487.644104
12365.894947	-1217.591000	1278.067383	684.794006
12365.894947	-1217.591000	1276.962891	676.667969
12365.894947	-1217.591000	1275.858398	758.117798
12365.894947	-1217.591000	1274.753906	826.614563
12365.894947	-1217.591000	1273.648438	511.475891
12365.894947	-1217.591000	1272.542969	613.449280
12365.894947	-1217.591000	1271.437500	659.718689
12365.894947	-1217.591000	1270.331055	506.217072
12365.894947	-1217.591000	1269.225586	484.089203
12365.894947	-1217.591000	1268.119141	525.403931
12365.894947	-1217.591000	1267.012695	308.531586
12365.894947	-1217.591000	1265.906250	339.038971
12365.894947	-1217.591000	1264.798828	41.519417
12365.894947	-1217.591000	1263.691406	42.841206
12365.894947	-1217.591000	1262.583984	80.028114
12365.894947	-1217.591000	1261.476563	192.871475
12365.894947	-1217.591000	1260.368164	30.474598
12365.894947	-1217.591000	1259.260742	138.690521
12365.894947	-1217.591000	1258.152344	455.901306
12365.894947	-1217.591000	1257.043945	273.426239
12365.894947	-1217.591000	1255.934570	290.378479
12365.894947	-1217.591000	1254.825195	377.780365
12365.894947	-1217.591000	1253.716797	83.859230
12365.894947	-1217.591000	1252.606445	49.448200
12365.894947	-1217.591000	1251.497070	99.326187
12365.894947	-1217.591000	1250.387695	91.065430
12365.894947	-1217.591000	1249.277344	44.070278
12365.894947	-1217.591000	1248.166992	-10.039392
12365.894947	-1217.591000	1247.055664	-1.439266
12365.894947	-1217.591000	1245.945313	49.328667
12365.894947	-1217.591000	1244.833984	171.494705
12365.894947	-1217.591000	1243.722656	177.797806
12365.894947	-1217.591000	1242.611328	201.894638
12365.894947	-1217.591000	1241.499023	113.250221
12365.894947	-1217.591000	1240.387695	-52.974419
12365.894947	-1217.591000	1239.275391	94.095695
12365.894947	-1217.591000	1238.162109	38.253986
12365.894947	-1217.591000	1237.049805	189.165359
12365.894947	-1217.591000	1235.936523	-4.467035
12365.894947	-1217.591000	1234.823242	-15.404262
12365.894947	-1217.591000	1233.709961	-165.608765
12365.894947	-1217.591000	1232.596680	-234.007813
12365.894947	-1217.591000	1231.482422	-265.273010
12365.894947	-1217.591000	1230.369141	-162.120316
12365.894947	-1217.591000	1229.253906	-79.206093
12365.894947	-1217.591000	1228.139648	-34.162052
12365.894947	-1217.591000	1227.025391	-87.323845
12365.894947	-1217.591000	1225.910156	-25.200974
12365.894947	-1217.591000	1224.794922	178.010025
12365.894947	-1217.591000	1223.679688	170.805756
12365.894947	-1217.591000	1222.563477	135.209900
12365.894947	-1217.591000	1221.447266	31.836540
12365.894947	-1217.591000	1220.331055	-38.366543
12365.894947	-1217.591000	1219.214844	87.359016
12365.894947	-1217.591000	1218.098633	82.421982
12365.894947	-1217.591000	1216.981445	61.769821
12365.894947	-1217.591000	1215.864258	104.053818
12365.894947	-1217.591000	1214.747070	95.243301
12365.894947	-1217.591000	1213.629883	76.926750
12365.894947	-1217.591000	1212.511719	219.030090
12365.894947	-1217.591000	1211.393555	106.394196
12365.894947	-1217.591000	1210.275391	252.504028
12365.894947	-1217.591000	1209.157227	425.157104
12365.894947	-1217.591000	1208.038086	340.681641
12365.894947	-1217.591000	1206.918945	361.895172
12365.894947	-1217.591000	1205.799805	377.132324
12365.894947	-1217.591000	1204.680664	506.925018
12365.894947	-1217.591000	1203.560547	379.382599
12365.894947	-1217.591000	1202.441406	608.210266
12365.894947	-1217.591000	1201.321289	512.499023
12365.894947	-1217.591000	1200.200195	547.315979
12365.894947	-1217.591000	1199.080078	708.247314
12365.894947	-1217.591000	1197.958984	692.063599
12365.894947	-1217.591000	1196.837891	755.729248
12365.894947	-1217.591000	1195.716797	763.123901
12365.894947	-1217.591000	1194.594727	771.292297
12365.894947	-1217.591000	1193.473633	759.918762
12365.894947	-1217.591000	1192.351563	690.507935
12365.894947	-1217.591000	1191.229492	753.012634
12365.894947	-1217.591000	1190.106445	711.223633
12365.894947	-1217.591000	1188.984375	603.446777
12365.894947	-1217.591000	1187.861328	751.936218
12365.894947	-1217.591000	1186.738281	832.600342
12365.894947	-1217.591000	1185.614258	809.739380
12365.894947	-1217.591000	1184.491211	610.462280
12365.894947	-1217.591000	1183.367188	588.771057
12365.894947	-1217.591000	1182.243164	747.375000
12365.894947	-1217.591000	1181.119141	660.212463
12365.894947	-1217.591000	1179.994141	691.640137
12365.894947	-1217.591000	1178.869141	678.890930
12365.894947	-1217.591000	1177.744141	691.713867
12365.894947	-1217.591000	1176.619141	773.484802
12365.894947	-1217.591000	1175.493164	690.804382
12365.894947	-1217.591000	1174.368164	710.087402
12365.894947	-1217.591000	1173.242188	773.799866
12365.894947	-1217.591000	1172.115234	786.983459
12365.894947	-1217.591000	1170.989258	817.979248
12365.894947	-1217.591000	1169.862305	975.090698
12365.894947	-1217.591000	1168.735352	803.668457
12365.894947	-1217.591000	1167.608398	962.680481
12365.894947	-1217.591000	1166.481445	1021.903076
12365.894947	-1217.591000	1165.353516	902.206055
12365.894947	-1217.591000	1164.225586	1104.702148
12365.894947	-1217.591000	1163.097656	1104.288818
12365.894947	-1217.591000	1161.968750	1067.958740
12365.894947	-1217.591000	1160.840820	860.819763
12365.894947	-1217.591000	1159.711914	1028.840332
12365.894947	-1217.591000	1158.583008	798.723511
12365.894947	-1217.591000	1157.453125	762.467407
12365.894947	-1217.591000	1156.324219	595.989075
12365.894947	-1217.591000	1155.194336	617.647156
12365.894947	-1217.591000	1154.064453	262.996521
12365.894947	-1217.591000	1152.933594	378.230408
12365.894947	-1217.591000	1151.803711	263.623993
12365.894947	-1217.591000	1150.672852	146.121185
12365.894947	-1217.591000	1149.541992	103.960815
12365.894947	-1217.591000	1148.411133	171.362885
12365.894947	-1217.591000	1147.279297	168.750870
12365.894947	-1217.591000	1146.147461	328.176300
12365.894947	-1217.591000	1145.015625	61.240105
12365.894947	-1217.591000	1143.883789	111.265831
12365.894947	-1217.591000	1142.750977	44.786068
12365.894947	-1217.591000	1141.619141	-5.797594
12365.894947	-1217.591000	1140.486328	131.938019
12365.894947	-1217.591000	1139.352539	60.886604
12365.894947	-1217.591000	1138.219727	242.696365
12365.894947	-1217.591000	1137.085938	199.952133
12365.894947	-1217.591000	1135.952148	272.409424
12365.894947	-1217.591000	1134.818359	288.454437
12365.894947	-1217.591000	1133.683594	265.609406
12365.894947	-1217.591000	1132.549805	265.439484
12365.894947	-1217.591000	1131.415039	382.362671
12365.894947	-1217.591000	1130.279297	542.669312
12365.894947	-1217.591000	1129.144531	497.684753
12365.894947	-1217.591000	1128.008789	517.512207
12365.894947	-1217.591000	1126.873047	423.808319
12365.894947	-1217.591000	1125.737305	447.017975
12365.894947	-1217.591000	1124.601563	334.421967
12365.894947	-1217.591000	1123.464844	232.680603
12365.894947	-1217.591000	1122.328125	219.435333
12365.894947	-1217.591000	1121.191406	193.510010
12365.894947	-1217.591000	1120.054688	74.056572
12365.894947	-1217.591000	1118.916992	76.162766
12365.894947	-1217.591000	1117.779297	64.335670
12365.894947	-1217.591000	1116.641602	-17.245365
12365.894947	-1217.591000	1115.503906	35.417393
12365.894947	-1217.591000	1114.365234	72.046127
12365.894947	-1217.591000	1113.226563	93.083885
12365.894947	-1217.591000	1112.087891	-51.412975
12365.894947	-1217.591000	1110.949219	120.953712
12365.894947	-1217.591000	1109.809570	81.108955
12365.894947	-1217.591000	1108.669922	216.711044
12365.894947	-1217.591000	1107.530273	175.216797
12365.894947	-1217.591000	1106.390625	-10.188471
12365.894947	-1217.591000	1105.250000	57.408222
12365.894947	-1217.591000	1104.109375	37.524960
12365.894947	-1217.591000	1102.968750	-44.731010
12365.894947	-1217.591000	1101.828125	-138.461411
12365.894947	-1217.591000	1100.686523	-4.577818
12365.894947	-1217.591000	1099.544922	242.039856
12365.894947	-1217.591000	1098.403320	83.071159
12365.894947	-1217.591000	1097.261719	216.654648
12365.894947	-1217.591000	1096.120117	163.303909
12365.894947	-1217.591000	1094.977539	90.847214
12365.894947	-1217.591000	1093.834961	84.991081
12365.894947	-1217.591000	1092.691406	-83.473465
12365.894947	-1217.591000	1091.548828	-103.484192
12365.894947	-1217.591000	1090.405273	-121.175880
12365.894947	-1217.591000	1089.261719	-6.967559
12365.894947	-1217.591000	1088.118164	-15.872910
12365.894947	-1217.591000	1086.973633	80.213127
12365.894947	-1217.591000	1085.829102	-64.470940
12365.894947	-1217.591000	1084.684570	-44.488556
12365.894947	-1217.591000	1083.540039	-287.052582
12365.894947	-1217.591000	1082.395508	-143.559448
12365.894947	-1217.591000	1081.250000	-374.225800
12365.894947	-1217.591000	1080.104492	-307.045013
12365.894947	-1217.591000	1078.958984	-205.882248
12365.894947	-1217.591000	1077.812500	-141.478775
12365.894947	-1217.591000	1076.666016	-151.398956
12365.894947	-1217.591000	1075.519531	-296.815552
12365.894947	-1217.591000	1074.373047	-55.730343
12365.894947	-1217.591000	1073.226563	-306.246735
12365.894947	-1217.591000	1072.079102	50.768581
12365.894947	-1217.591000	1070.931641	-196.341003
12365.894947	-1217.591000	1069.784180	43.299694
12365.894947	-1217.591000	1068.635742	44.543453
12365.894947	-1217.591000	1067.487305	-135.229889
12365.894947	-1217.591000	1066.338867	-230.011337
12365.894947	-1217.591000	1065.190430	-239.666885
12365.894947	-1217.591000	1064.041992	20.935528
12365.894947	-1217.591000	1062.892578	-75.334122
12365.894947	-1217.591000	1061.743164	-12.399206
12365.894947	-1217.591000	1060.593750	-51.853214
12365.894947	-1217.591000	1059.443359	-4.612556
12365.894947	-1217.591000	1058.292969	178.676071
12365.894947	-1217.591000	1057.142578	-35.685272
12365.894947	-1217.591000	1055.992188	-69.219734
12365.894947	-1217.591000	1054.841797	152.813232
12365.894947	-1217.591000	1053.690430	-16.876211
12365.894947	-1217.591000	1052.539063	4.907522
12365.894947	-1217.591000	1051.387695	256.813202
12365.894947	-1217.591000	1050.235352	137.185547
12365.894947	-1217.591000	1049.083984	190.881042
12365.894947	-1217.591000	1047.931641	130.769333
12365.894947	-1217.591000	1046.778320	-200.678787
12365.894947	-1217.591000	1045.625977	124.629128
12365.894947	-1217.591000	1044.472656	-2.095042
12365.894947	-1217.591000	1043.319336	48.042355
12365.894947	-1217.591000	1042.166016	165.852280
12365.894947	-1217.591000	1041.012695	107.516792
12365.894947	-1217.591000	1039.858398	130.870102
12365.894947	-1217.591000	1038.704102	96.217377
12365.894947	-1217.591000	1037.549805	80.522919
12365.894947	-1217.591000	1036.394531	61.725220
12365.894947	-1217.591000	1035.239258	91.548653
12365.894947	-1217.591000	1034.083984	215.822800
12365.894947	-1217.591000	1032.928711	99.137985
12365.894947	-1217.591000	1031.773438	-66.289490
12365.894947	-1217.591000	1030.617188	-58.868198
12365.894947	-1217.591000	1029.460938	12.064193
12365.894947	-1217.591000	1028.304688	212.612686
12365.894947	-1217.591000	1027.147461	59.564785
12365.894947	-1217.591000	1025.991211	-0.575875
12365.894947	-1217.591000	1024.833984	76.054161
12365.894947	-1217.591000	1023.675781	-34.123917
12365.894947	-1217.591000	1022.518555	-22.507307
12365.894947	-1217.591000	1021.360352	-81.350220
12365.894947	-1217.591000	1020.202148	-95.062836
12365.894947	-1217.591000	1019.043945	-70.317459
12365.894947	-1217.591000	1017.884766	-77.741241
12365.894947	-1217.591000	1016.726563	135.031158
12365.894947	-1217.591000	1015.567383	124.502571
12365.894947	-1217.591000	1014.407227	204.449738
12365.894947	-1217.591000	1013.248047	31.346870
12365.894947	-1217.591000	1012.087891	1.105554
12365.894947	-1217.591000	1010.927734	-123.036270
12365.894947	-1217.591000	1009.767578	-99.908081
12365.894947	-1217.591000	1008.606445	176.621201
12365.894947	-1217.591000	1007.446289	36.270691
12365.894947	-1217.591000	1006.285156	-26.706938
12365.894947	-1217.591000	1005.123047	-23.460691
12365.894947	-1217.591000	1003.961914	129.248535
12365.894947	-1217.591000	1002.799805	86.198380
12365.894947	-1217.591000	1001.637695	268.076630
12365.894947	-1217.591000	1000.475586	380.969849
12365.894947	-1217.591000	999.312500	74.302536
12365.894947	-1217.591000	998.149414	366.154297
12365.894947	-1217.591000	996.986328	128.463257
12365.894947	-1217.591000	995.823242	-75.769905
12365.894947	-1217.591000	994.659180	-40.412960
12365.894947	-1217.591000	993.496094	142.802780
12365.894947	-1217.591000	992.332031	-179.782745
12365.894947	-1217.591000	991.166992	-67.633957
12365.894947	-1217.591000	990.002930	-170.792267
12365.894947	-1217.591000	988.837891	-125.752129
12365.894947	-1217.591000	987.672852	186.171173
12365.894947	-1217.591000	986.506836	281.563538
12365.894947	-1217.591000	985.341797	-48.670635
12365.894947	-1217.591000	984.175781	190.013718
12365.894947	-1217.591000	983.009766	264.724457
12365.894947	-1217.591000	981.843750	4.244479
12365.894947	-1217.591000	980.676758	41.105663
12365.894947	-1217.591000	979.509766	-1.698205
12365.894947	-1217.591000	978.342773	58.111877
12365.894947	-1217.591000	977.175781	-20.181177
12365.894947	-1217.591000	976.007813	101.395676
12365.894947	-1217.591000	974.839844	48.420452
12365.894947	-1217.591000	973.671875	-18.372765
12365.894947	-1217.591000	972.503906	-55.485245
12365.894947	-1217.591000	971.334961	-9.949047
12365.894947	-1217.591000	970.166016	103.257431
12365.894947	-1217.591000	968.997070	242.578232
12365.894947	-1217.591000	967.828125	21.791382
12365.894947	-1217.591000	966.658203	222.137054
12365.894947	-1217.591000	965.488281	176.477921
12365.894947	-1217.591000	964.318359	385.300964
12365.894947	-1217.591000	963.148438	350.660553
12365.894947	-1217.591000	961.977539	191.127777
12365.894947	-1217.591000	960.806641	39.007801
12365.894947	-1217.591000	959.635742	165.550369
12365.894947	-1217.591000	958.463867	266.252075
12365.894947	-1217.591000	957.292969	305.683197
12365.894947	-1217.591000	956.121094	49.076477
12365.894947	-1217.591000	954.948242	104.873848
12365.894947	-1217.591000	953.776367	270.176086
12365.894947	-1217.591000	952.603516	204.895386
12365.894947	-1217.591000	951.430664	297.643982
12365.894947	-1217.591000	950.257813	366.415710
12365.894947	-1217.591000	949.084961	37.346001
12365.894947	-1217.591000	947.911133	68.317734
12365.894947	-1217.591000	946.737305	305.153320
12365.894947	-1217.591000	945.563477	285.638580
12365.894947	-1217.591000	944.388672	132.490234
12365.894947	-1217.591000	943.213867	117.819893
12365.894947	-1217.591000	942.039063	167.613525
12365.894947	-1217.591000	940.864258	13.998712
12365.894947	-1217.591000	939.688477	215.955688
12365.894947	-1217.591000	938.513672	105.029732
12365.894947	-1217.591000	937.337891	117.263626
12365.894947	-1217.591000	936.161133	59.805325
12365.894947	-1217.591000	934.985352	205.246216
12365.894947	-1217.591000	933.808594	113.084915
12365.894947	-1217.591000	932.631836	-19.353775
12365.894947	-1217.591000	931.454102	190.398346
12365.894947	-1217.591000	930.277344	49.922241
12365.894947	-1217.591000	929.099609	141.835297
12365.894947	-1217.591000	927.921875	255.041580
12365.894947	-1217.591000	926.743164	157.255219
12365.894947	-1217.591000	925.565430	227.663849
12365.894947	-1217.591000	924.386719	241.935379
12365.894947	-1217.591000	923.208008	138.699554
12365.894947	-1217.591000	922.028320	179.601974
12365.894947	-1217.591000	920.849609	-6.371593
12365.894947	-1217.591000	919.669922	0.100727
12365.894947	-1217.591000	919.474609	-33.829338
12365.894947	-1217.591000	918.309570	54.898159
12365.894947	-1217.591000	917.143555	132.890884
12365.894947	-1217.591000	915.977539	176.152756
12365.894947	-1217.591000	914.810547	59.419975
12365.894947	-1217.591000	913.644531	86.615150
12365.894947	-1217.591000	912.477539	71.133919
12365.894947	-1217.591000	911.310547	258.096527
12365.894947	-1217.591000	910.143555	119.991707
12365.894947	-1217.591000	908.975586	139.032974
12365.894947	-1217.591000	907.807617	-116.204285
12365.894947	-1217.591000	906.639648	134.399521
12365.894947	-1217.591000	905.471680	118.727615
12365.894947	-1217.591000	904.303711	174.872208
12365.894947	-1217.591000	903.134766	257.570068
12365.894947	-1217.591000	901.965820	-167.818130
12365.894947	-1217.591000	900.796875	55.791981
12365.894947	-1217.591000	899.626953	149.008148
12365.894947	-1217.591000	898.457031	-92.773743
12365.894947	-1217.591000	897.287109	170.461319
12365.894947	-1217.591000	896.117188	-4.860521
12365.894947	-1217.591000	894.947266	5.816745
12365.894947	-1217.591000	893.776367	101.457146
12365.894947	-1217.591000	892.605469	223.583603
12365.894947	-1217.591000	891.434570	40.316547
12365.894947	-1217.591000	890.262695	72.103317
12365.894947	-1217.591000	889.091797	411.688843
12365.894947	-1217.591000	887.919922	101.056267
12365.894947	-1217.591000	886.748047	233.531357
12365.894947	-1217.591000	885.575195	145.795639
12365.894947	-1217.591000	884.403320	81.929199
12365.894947	-1217.591000	883.230469	118.808502
12365.894947	-1217.591000	882.057617	280.223236
12365.894947	-1217.591000	880.883789	-11.607130
12365.894947	-1217.591000	879.710938	-88.739059
12365.894947	-1217.591000	878.537109	40.755436
12365.894947	-1217.591000	877.362305	175.473190
12365.894947	-1217.591000	876.188477	47.966187
12365.894947	-1217.591000	875.013672	100.507988
12365.894947	-1217.591000	873.839844	36.539318
12365.894947	-1217.591000	872.664063	308.653320
12365.894947	-1217.591000	871.489258	321.347046
12365.894947	-1217.591000	870.313477	183.240509
12365.894947	-1217.591000	869.138672	84.830223
12365.894947	-1217.591000	867.962891	2.304466
12365.894947	-1217.591000	866.786133	-48.486118
12365.894947	-1217.591000	865.610352	35.507839
12365.894947	-1217.591000	864.433594	235.714676
12365.894947	-1217.591000	863.256836	28.960405
12365.894947	-1217.591000	862.079102	1.883950
12365.894947	-1217.591000	860.902344	96.267235
12365.894947	-1217.591000	859.724609	127.225883
12365.894947	-1217.591000	858.546875	81.593765
12365.894947	-1217.591000	857.368164	-66.968834
12365.894947	-1217.591000	856.190430	-115.230644
12365.894947	-1217.591000	855.011719	-129.196350
12365.894947	-1217.591000	853.833008	4.523585
12365.894947	-1217.591000	852.654297	16.859852
12365.894947	-1217.591000	851.474609	163.631760
12365.894947	-1217.591000	850.294922	33.544334
12365.894947	-1217.591000	849.115234	-141.317490
12365.894947	-1217.591000	847.935547	258.270844
12365.894947	-1217.591000	846.754883	201.935181
12365.894947	-1217.591000	845.575195	45.509621
12365.894947	-1217.591000	844.393555	257.785706
12365.894947	-1217.591000	843.212891	11.854570
12365.894947	-1217.591000	842.032227	18.687651
12365.894947	-1217.591000	840.850586	343.923340
12365.894947	-1217.591000	839.668945	-83.490105
12365.894947	-1217.591000	838.486328	-108.276649
12365.894947	-1217.591000	837.304688	-14.732847
12365.894947	-1217.591000	836.122070	-155.271454
12365.894947	-1217.591000	834.939453	279.955292
12365.894947	-1217.591000	833.756836	233.984314
12365.894947	-1217.591000	832.573242	-43.241531
12365.894947	-1217.591000	831.389648	236.607956
12365.894947	-1217.591000	830.206055	98.660522
12365.894947	-1217.591000	829.022461	-139.052795
12365.894947	-1217.591000	827.838867	-245.411087
12365.894947	-1217.591000	826.654297	-76.111351
12365.894947	-1217.591000	825.469727	22.227476
12365.894947	-1217.591000	824.284180	-68.431488
12365.894947	-1217.591000	823.099609	-30.531820
12365.894947	-1217.591000	821.914063	80.769897
12365.894947	-1217.591000	820.728516	-9.929402
12365.894947	-1217.591000	819.542969	-53.426868
12365.894947	-1217.591000	818.356445	-340.717560
12365.894947	-1217.591000	817.169922	-376.322662
12365.894947	-1217.591000	815.983398	122.590523
12365.894947	-1217.591000	814.796875	-133.211685
12365.894947	-1217.591000	813.609375	-195.117096
12365.894947	-1217.591000	812.422852	-52.776890
12365.894947	-1217.591000	811.235352	-133.062057
12365.894947	-1217.591000	810.046875	-111.257217
12365.894947	-1217.591000	808.859375	109.395760
12365.894947	-1217.591000	807.670898	97.061821
12365.894947	-1217.591000	806.482422	-43.481220
12365.894947	-1217.591000	805.293945	6.924459
12365.894947	-1217.591000	804.104492	-345.408020
12365.894947	-1217.591000	802.915039	-166.924438
12365.894947	-1217.591000	801.725586	-32.982609
12365.894947	-1217.591000	800.536133	-45.472580
12365.894947	-1217.591000	799.345703	-63.215168
12365.894947	-1217.591000	798.155273	-54.865047
12365.894947	-1217.591000	796.964844	120.588097
12365.894947	-1217.591000	795.774414	-166.226273
12365.894947	-1217.591000	794.583008	-37.883034
12365.894947	-1217.591000	793.392578	-14.033585
12365.894947	-1217.591000	792.200195	-183.324631
12365.894947	-1217.591000	791.008789	-151.702164
12365.894947	-1217.591000	789.816406	-49.702385
12365.894947	-1217.591000	788.625000	-140.767487
12365.894947	-1217.591000	787.432617	211.406998
12365.894947	-1217.591000	786.239258	-25.727364
12365.894947	-1217.591000	785.046875	-197.651627
12365.894947	-1217.591000	783.853516	-189.752930
12365.894947	-1217.591000	782.660156	26.509678
12365.894947	-1217.591000	781.465820	-77.721313
12365.894947	-1217.591000	780.272461	-51.752888
12365.894947	-1217.591000	779.078125	-83.113113
12365.894947	-1217.591000	777.883789	20.848471
12365.894947	-1217.591000	776.688477	-13.203344
12365.894947	-1217.591000	775.494141	-16.066483
12365.894947	-1217.591000	774.298828	204.742401
12365.894947	-1217.591000	773.103516	-40.129025
12365.894947	-1217.591000	771.907227	245.508270
12365.894947	-1217.591000	770.711914	52.630108
12365.894947	-1217.591000	769.515625	0.140400
12365.894947	-1217.591000	768.318359	108.741631
12365.894947	-1217.591000	767.122070	-24.376289
12365.894947	-1217.591000	765.924805	104.865120
12365.894947	-1217.591000	764.727539	96.361847
12365.894947	-1217.591000	763.530273	-135.487244
12365.894947	-1217.591000	762.333008	177.856400
12365.894947	-1217.591000	761.134766	132.853867
12365.894947	-1217.591000	759.936523	108.575150
12365.894947	-1217.591000	758.738281	369.629059
12365.894947	-1217.591000	757.540039	96.202599
12365.894947	-1217.591000	756.340820	27.701988
12365.894947	-1217.591000	755.141602	176.961060
12365.894947	-1217.591000	753.942383	263.891357
12365.894947	-1217.591000	752.742188	280.756470
12365.894947	-1217.591000	751.541992	74.725281
12365.894947	-1217.591000	750.341797	-92.419533
12365.894947	-1217.591000	749.141602	224.776581
12365.894947	-1217.591000	747.941406	357.930298
12365.894947	-1217.591000	746.740234	188.068619
12365.894947	-1217.591000	745.539063	113.986656
12365.894947	-1217.591000	744.337891	210.673157
12365.894947	-1217.591000	743.135742	102.862968
12365.894947	-1217.591000	741.933594	191.629730
12365.894947	-1217.591000	740.731445	107.021736
12365.894947	-1217.591000	739.529297	164.598083
12365.894947	-1217.591000	738.326172	43.714527
12365.894947	-1217.591000	737.124023	328.598450
12365.894947	-1217.591000	735.919922	99.072899
12365.894947	-1217.591000	734.716797	16.839268
12365.894947	-1217.591000	733.513672	19.812868
12365.894947	-1217.591000	732.309570	195.743774
12365.894947	-1217.591000	731.105469	185.638702
12365.894947	-1217.591000	729.900391	172.889252
12365.894947	-1217.591000	728.696289	136.851486
12365.894947	-1217.591000	727.491211	283.960327
12365.894947	-1217.591000	726.286133	49.138802
12365.894947	-1217.591000	725.080078	203.805603
12365.894947	-1217.591000	723.874023	90.159248
12365.894947	-1217.591000	722.668945	193.051773
12365.894947	-1217.591000	721.461914	300.987000
12365.894947	-1217.591000	720.255859	207.798218
12365.894947	-1217.591000	719.048828	-83.813713
12365.894947	-1217.591000	717.841797	333.015045
12365.894947	-1217.591000	716.634766	146.949188
12365.894947	-1217.591000	715.427734	120.531372
12365.894947	-1217.591000	714.219727	106.924019
12365.894947	-1217.591000	713.011719	82.954178
12365.894947	-1217.591000	711.803711	84.654747
12365.894947	-1217.591000	710.594727	-24.347120
12365.894947	-1217.591000	709.385742	249.878357
12365.894947	-1217.591000	708.176758	-95.850723
12365.894947	-1217.591000	706.967773	100.992722
12365.894947	-1217.591000	705.758789	79.181908
12365.894947	-1217.591000	704.548828	247.485367
12365.894947	-1217.591000	703.338867	115.013885
12365.894947	-1217.591000	702.127930	275.381622
12365.894947	-1217.591000	700.917969	209.586243
12365.894947	-1217.591000	699.707031	143.742889
12365.894947	-1217.591000	698.496094	106.090599
12365.894947	-1217.591000	697.285156	50.410496
12365.894947	-1217.591000	696.073242	84.495216
12365.894947	-1217.591000	694.861328	167.237335
12365.894947	-1217.591000	693.649414	283.214905
12365.894947	-1217.591000	692.436523	63.098362
12365.894947	-1217.591000	691.224609	214.792679
12365.894947	-1217.591000	690.011719	297.128052
12365.894947	-1217.591000	688.798828	281.957367
12365.894947	-1217.591000	687.584961	481.962646
12365.894947	-1217.591000	686.372070	469.166626
12365.894947	-1217.591000	685.158203	779.032837
12365.894947	-1217.591000	683.943359	637.979126
12365.894947	-1217.591000	682.729492	786.224976
12365.894947	-1217.591000	681.514648	678.350769
12365.894947	-1217.591000	680.299805	800.776489
12365.894947	-1217.591000	679.084961	938.425964
12365.894947	-1217.591000	677.869141	482.442932
12365.894947	-1217.591000	676.653320	717.136108
12365.894947	-1217.591000	675.437500	591.102417
12365.894947	-1217.591000	674.221680	656.787415
12365.894947	-1217.591000	673.004883	517.885254
12365.894947	-1217.591000	671.789063	557.850159
12365.894947	-1217.591000	670.571289	638.596985
12365.894947	-1217.591000	669.354492	519.993713
12365.894947	-1217.591000	668.136719	506.069855
12365.894947	-1217.591000	666.919922	785.711731
12365.894947	-1217.591000	665.701172	707.766357
12365.894947	-1217.591000	664.483398	571.079895
12365.894947	-1217.591000	663.264648	753.338867
12365.894947	-1217.591000	662.045898	761.966248
12365.894947	-1217.591000	660.827148	597.074829
12365.894947	-1217.591000	659.608398	766.242371
12365.894947	-1217.591000	658.388672	698.154846
12365.894947	-1217.591000	657.168945	963.944641
12365.894947	-1217.591000	655.949219	559.302734
12365.894947	-1217.591000	654.728516	651.605530
12365.894947	-1217.591000	653.507813	639.355774
12365.894947	-1217.591000	652.287109	779.853943
12365.894947	-1217.591000	651.066406	474.616394
12365.894947	-1217.591000	649.844727	887.348450
12365.894947	-1217.591000	648.623047	905.325623
12365.894947	-1217.591000	647.401367	895.236206
12365.894947	-1217.591000	646.179688	956.322266
12365.894947	-1217.591000	644.957031	765.495117
12365.894947	-1217.591000	643.734375	480.589142
12365.894947	-1217.591000	642.511719	653.400208
12365.894947	-1217.591000	641.289063	805.739746
12365.894947	-1217.591000	640.065430	680.928223
12365.894947	-1217.591000	638.841797	375.701752
12365.894947	-1217.591000	637.618164	548.140442
12365.894947	-1217.591000	636.393555	593.450378
12365.894947	-1217.591000	635.168945	831.672546
12365.894947	-1217.591000	633.944336	417.268127
12365.894947	-1217.591000	632.719727	297.420776
12365.894947	-1217.591000	631.494141	314.602203
12365.894947	-1217.591000	630.269531	587.982849
12365.894947	-1217.591000	629.042969	369.077942
12365.894947	-1217.591000	627.817383	378.469421
12365.894947	-1217.591000	626.590820	547.542786
12365.894947	-1217.591000	625.365234	305.825348
12365.894947	-1217.591000	624.137695	459.536102
12365.894947	-1217.591000	622.911133	405.356201
12365.894947	-1217.591000	621.683594	214.344803
12365.894947	-1217.591000	620.456055	170.279099
12365.894947	-1217.591000	619.228516	22.364656
12365.894947	-1217.591000	618.000977	312.474030
12365.894947	-1217.591000	616.772461	311.321991
12365.894947	-1217.591000	615.543945	383.523895
12365.894947	-1217.591000	614.314453	319.024994
12365.894947	-1217.591000	613.085938	181.164063
12365.894947	-1217.591000	611.856445	136.901352
12365.894947	-1217.591000	610.626953	282.269440
12365.894947	-1217.591000	609.397461	232.888168
12365.894947	-1217.591000	608.166992	132.944992
12365.894947	-1217.591000	606.936523	255.390579
12365.894947	-1217.591000	605.706055	72.062630
12365.894947	-1217.591000	604.474609	126.219925
12365.894947	-1217.591000	603.244141	314.181274
12365.894947	-1217.591000	602.012695	12.225225
12365.894947	-1217.591000	600.780273	-128.071213
12365.894947	-1217.591000	599.548828	47.149990
12365.894947	-1217.591000	598.316406	-77.983009
12365.894947	-1217.591000	597.083984	225.780594
12365.894947	-1217.591000	595.851563	-156.615845
12365.894947	-1217.591000	594.618164	-92.539375
12365.894947	-1217.591000	593.384766	44.616379
12365.894947	-1217.591000	592.151367	-55.219810
12365.894947	-1217.591000	590.917969	-64.294930
12365.894947	-1217.591000	589.683594	-111.162453
12365.894947	-1217.591000	588.449219	-54.731541
12365.894947	-1217.591000	587.214844	49.529202
12365.894947	-1217.591000	585.979492	-2.357443
12365.894947	-1217.591000	584.745117	6.206080
12365.894947	-1217.591000	583.509766	140.611893
12365.894947	-1217.591000	582.273438	-104.982513
12365.894947	-1217.591000	581.038086	-13.348742
12365.894947	-1217.591000	579.801758	-165.710754
12365.894947	-1217.591000	578.565430	-169.625092
12365.894947	-1217.591000	577.329102	-105.634438
12365.894947	-1217.591000	576.091797	-29.083912
12365.894947	-1217.591000	574.854492	-80.701950
12365.894947	-1217.591000	573.617188	-267.943298
12365.894947	-1217.591000	572.378906	-218.953735
12365.894947	-1217.591000	571.141602	-87.071510
12365.894947	-1217.591000	569.903320	-43.093342
12365.894947	-1217.591000	568.664063	108.844513
12365.894947	-1217.591000	567.425781	-7.785814
12365.894947	-1217.591000	566.186523	-44.030819
12365.894947	-1217.591000	564.947266	52.748096
12365.894947	-1217.591000	563.708008	116.928268
12365.894947	-1217.591000	562.467773	-24.501940
12365.894947	-1217.591000	561.227539	-90.604225
12365.894947	-1217.591000	559.987305	104.062225
12365.894947	-1217.591000	558.747070	118.267349
12365.894947	-1217.591000	557.505859	87.423523
12365.894947	-1217.591000	556.264648	204.448349
12365.894947	-1217.591000	555.023438	206.284607
12365.894947	-1217.591000	553.781250	-82.270439
12365.894947	-1217.591000	552.539063	12.384272
12365.894947	-1217.591000	551.296875	239.720764
12365.894947	-1217.591000	550.054688	31.633921
12365.894947	-1217.591000	548.811523	138.931992
12365.894947	-1217.591000	547.569336	123.706558
12365.894947	-1217.591000	546.325195	211.089874
12365.894947	-1217.591000	545.082031	38.507927
12365.894947	-1217.591000	543.837891	26.057585
12365.894947	-1217.591000	542.593750	151.150803
12365.894947	-1217.591000	541.349609	-198.443665
12365.894947	-1217.591000	540.105469	34.242195
12365.894947	-1217.591000	538.860352	64.625404
12365.894947	-1217.591000	537.615234	212.448578
12365.894947	-1217.591000	536.369141	208.023392
12365.894947	-1217.591000	535.124023	61.439758
12365.894947	-1217.591000	533.877930	-74.998383
12365.894947	-1217.591000	532.631836	-36.635796
12365.894947	-1217.591000	531.384766	14.286663
12365.894947	-1217.591000	530.138672	65.299484
12365.894947	-1217.591000	528.891602	121.385841
12365.894947	-1217.591000	527.643555	-69.213943
12365.894947	-1217.591000	526.396484	-92.641907
12365.894947	-1217.591000	525.148438	-66.112740
12365.894947	-1217.591000	523.900391	112.478058
12365.894947	-1217.591000	522.652344	66.966049
12365.894947	-1217.591000	521.403320	-13.266242
12365.894947	-1217.591000	520.154297	-165.534698
12365.894947	-1217.591000	518.905273	-185.699249
12365.894947	-1217.591000	517.656250	-78.821075
12365.894947	-1217.591000	516.406250	-26.594669
12365.894947	-1217.591000	515.156250	15.789400
12365.894947	-1217.591000	513.906250	43.364456
12365.894947	-1217.591000	512.655273	16.361881
12365.894947	-1217.591000	511.404297	141.131561
12365.894947	-1217.591000	510.153320	59.711460
12365.894947	-1217.591000	508.902344	127.539833
12365.894947	-1217.591000	507.650391	68.783691
12365.894947	-1217.591000	506.398438	-81.702988
12365.894947	-1217.591000	505.146484	85.841003
12365.894947	-1217.591000	503.893555	-136.304993
12365.894947	-1217.591000	502.641602	239.940125
12365.894947	-1217.591000	501.388672	253.869904
12365.894947	-1217.591000	500.134766	344.839172
12365.894947	-1217.591000	498.881836	-67.609016
12365.894947	-1217.591000	497.627930	147.658966
12365.894947	-1217.591000	496.374023	216.692627
12365.894947	-1217.591000	495.119141	285.833710
12365.894947	-1217.591000	493.865234	233.648254
12365.894947	-1217.591000	492.610352	337.717529
12365.894947	-1217.591000	491.355469	649.960144
12365.894947	-1217.591000	490.099609	749.211914
12365.894947	-1217.591000	488.843750	558.849792
12365.894947	-1217.591000	487.587891	618.735840
12365.894947	-1217.591000	486.332031	611.900757
12365.894947	-1217.591000	485.075195	845.225891
12365.894947	-1217.591000	483.818359	690.163513
12365.894947	-1217.591000	482.561523	609.497681
12365.894947	-1217.591000	481.304688	259.442017
12365.894947	-1217.591000	480.046875	545.061218
12365.894947	-1217.591000	478.789063	526.639404
12365.894947	-1217.591000	477.531250	411.960785
12365.894947	-1217.591000	476.272461	569.232361
12365.894947	-1217.591000	475.013672	689.493225
12365.894947	-1217.591000	473.754883	607.291626
12365.894947	-1217.591000	472.496094	438.807556
12365.894947	-1217.591000	471.236328	453.178101
12365.894947	-1217.591000	469.976563	667.555298
12365.894947	-1217.591000	468.716797	492.053040
12365.894947	-1217.591000	467.456055	437.601776
12365.894947	-1217.591000	466.196289	661.970215
12365.894947	-1217.591000	464.935547	612.596741
12365.894947	-1217.591000	463.673828	661.937134
12365.894947	-1217.591000	462.413086	548.635864
12365.894947	-1217.591000	461.151367	948.039063
12365.894947	-1217.591000	459.889648	768.317688
12365.894947	-1217.591000	458.626953	697.111511
12365.894947	-1217.591000	457.364258	628.440552
12365.894947	-1217.591000	456.101563	567.219482
12365.894947	-1217.591000	454.838867	680.835632
12365.894947	-1217.591000	453.575195	747.661011
12365.894947	-1217.591000	452.312500	856.298279
12365.894947	-1217.591000	451.047852	770.547424
12365.894947	-1217.591000	449.784180	856.996704
12365.894947	-1217.591000	448.519531	731.917175
12365.894947	-1217.591000	447.254883	1044.487061
12365.894947	-1217.591000	445.990234	1007.851074
12365.894947	-1217.591000	444.725586	1214.477417
12365.894947	-1217.591000	443.459961	841.125061
12365.894947	-1217.591000	442.194336	831.416992
12365.894947	-1217.591000	440.927734	1005.830933
12365.894947	-1217.591000	439.662109	993.471069
12365.894947	-1217.591000	438.395508	1093.940674
12365.894947	-1217.591000	437.127930	885.017090
12365.894947	-1217.591000	435.861328	1228.148438
12365.894947	-1217.591000	434.593750	1038.645264
12365.894947	-1217.591000	433.326172	750.963928
12365.894947	-1217.591000	432.058594	885.009216
12365.894947	-1217.591000	430.790039	1065.396973
12365.894947	-1217.591000	429.521484	892.550232
12365.894947	-1217.591000	428.252930	1043.039307
12365.894947	-1217.591000	426.984375	1161.382202
12365.894947	-1217.591000	425.714844	1220.638306
12365.894947	-1217.591000	424.445313	1127.768433
12365.894947	-1217.591000	423.174805	1252.566895
12365.894947	-1217.591000	421.905273	1205.655640
12365.894947	-1217.591000	420.634766	1217.181641
12365.894947	-1217.591000	419.364258	1191.659058
12365.894947	-1217.591000	418.092773	1324.796875
12365.894947	-1217.591000	416.822266	1305.856445
12365.894947	-1217.591000	415.550781	1342.761475
12365.894947	-1217.591000	414.278320	1496.570313
12365.894947	-1217.591000	413.006836	1278.348022
12365.894947	-1217.591000	411.734375	1477.613037
12365.894947	-1217.591000	410.461914	1405.107910
12365.894947	-1217.591000	409.188477	1429.813965
12365.894947	-1217.591000	407.916016	1534.555420
12365.894947	-1217.591000	406.642578	1572.753418
12365.894947	-1217.591000	405.368164	1400.403442
12365.894947	-1217.591000	404.094727	1608.220825
12365.894947	-1217.591000	402.820313	1644.490967
12365.894947	-1217.591000	401.545898	1555.650513
12365.894947	-1217.591000	400.270508	1641.726929
12365.894947	-1217.591000	398.996094	1585.602051
12365.894947	-1217.591000	397.720703	1692.052734
12365.894947	-1217.591000	396.444336	1578.281738
12365.894947	-1217.591000	395.168945	1646.483276
12365.894947	-1217.591000	393.892578	1545.668579
12365.894947	-1217.591000	392.616211	1502.443359
12365.894947	-1217.591000	391.339844	1470.465088
12365.894947	-1217.591000	390.062500	1449.679199
12365.894947	-1217.591000	388.785156	1413.275146
12365.894947	-1217.591000	387.507813	1555.913208
12365.894947	-1217.591000	386.229492	1500.296753
12365.894947	-1217.591000	384.951172	1385.180786
12365.894947	-1217.591000	383.672852	1324.870605
12365.894947	-1217.591000	382.394531	1365.483887
12365.894947	-1217.591000	381.115234	1339.159668
12365.894947	-1217.591000	379.835938	1134.111694
12365.894947	-1217.591000	378.556641	1294.710449
12365.894947	-1217.591000	377.277344	1422.253296
12365.894947	-1217.591000	375.997070	1210.658081
12365.894947	-1217.591000	374.716797	1213.773926
12365.894947	-1217.591000	373.435547	1200.746582
12365.894947	-1217.591000	372.155273	1450.718628
12365.894947	-1217.591000	370.874023	1101.924683
12365.894947	-1217.591000	369.591797	1110.624512
12365.894947	-1217.591000	368.310547	972.045776
12365.894947	-1217.591000	367.028320	1273.055542
12365.894947	-1217.591000	365.746094	1327.173340
12365.894947	-1217.591000	364.463867	1420.540649
12365.894947	-1217.591000	363.180664	1317.954712
12365.894947	-1217.591000	361.897461	1174.589722
12365.894947	-1217.591000	360.614258	1472.488647
12365.894947	-1217.591000	359.330078	896.125488
12365.894947	-1217.591000	358.045898	1000.614563
12365.894947	-1217.591000	356.761719	749.288757
12365.894947	-1217.591000	355.477539	1062.065552
12365.894947	-1217.591000	354.192383	924.536316
12365.894947	-1217.591000	352.907227	845.026611
12365.894947	-1217.591000	351.622070	975.813904
12365.894947	-1217.591000	350.336914	1053.094238
12365.894947	-1217.591000	349.050781	1069.520264
12365.894947	-1217.591000	347.764648	732.619507
12365.894947	-1217.591000	346.477539	755.414246
12365.894947	-1217.591000	345.191406	884.008728
12365.894947	-1217.591000	343.904297	671.233032
12365.894947	-1217.591000	342.616211	945.612488
12365.894947	-1217.591000	341.329102	477.840424
12365.894947	-1217.591000	340.041016	620.061829
12365.894947	-1217.591000	338.752930	983.277161
12365.894947	-1217.591000	337.463867	737.093323
12365.894947	-1217.591000	336.175781	694.980835
12365.894947	-1217.591000	334.886719	622.596008
12365.894947	-1217.591000	333.596680	662.128845
12365.894947	-1217.591000	332.307617	777.412292
12365.894947	-1217.591000	331.017578	454.713379
12365.894947	-1217.591000	329.727539	405.212433
12365.894947	-1217.591000	328.436523	322.543701
12365.894947	-1217.591000	327.146484	209.224899
12365.894947	-1217.591000	325.855469	267.265991
12365.894947	-1217.591000	324.563477	332.711060
12365.894947	-1217.591000	323.272461	128.820053
12365.894947	-1217.591000	321.980469	276.371582
12365.894947	-1217.591000	320.688477	14.773168
12365.894947	-1217.591000	319.395508	-6.420519
12365.894947	-1217.591000	318.103516	210.348083
12365.894947	-1217.591000	316.810547	75.427315
12365.894947	-1217.591000	315.516602	-165.872025
12365.894947	-1217.591000	314.223633	46.682491
12365.894947	-1217.591000	312.929688	46.754333
12365.894947	-1217.591000	311.635742	117.982544
12365.894947	-1217.591000	310.340820	-23.397957
12365.894947	-1217.591000	309.045898	-134.697754
12365.894947	-1217.591000	307.750977	-158.448059
12365.894947	-1217.591000	306.456055	-78.049622
12365.894947	-1217.591000	305.160156	-138.668823
12365.894947	-1217.591000	303.865234	-13.713001
12365.894947	-1217.591000	302.568359	320.011169
12365.894947	-1217.591000	301.272461	56.909306
12365.894947	-1217.591000	299.975586	191.932236
12365.894947	-1217.591000	298.678711	228.610886
