#X		#Y		#Wave		#Intensity
31180.228085	1110.332333	1999.980469	5.065778
31180.228085	1110.332333	1999.016602	-61.109127
31180.228085	1110.332333	1998.052734	-84.009056
31180.228085	1110.332333	1997.087891	-114.560837
31180.228085	1110.332333	1996.123047	-70.988289
31180.228085	1110.332333	1995.158203	-235.729019
31180.228085	1110.332333	1994.193359	-125.695374
31180.228085	1110.332333	1993.228516	33.627857
31180.228085	1110.332333	1992.262695	301.640259
31180.228085	1110.332333	1991.297852	32.212624
31180.228085	1110.332333	1990.332031	114.150047
31180.228085	1110.332333	1989.366211	282.490906
31180.228085	1110.332333	1988.399414	74.563293
31180.228085	1110.332333	1987.433594	217.795441
31180.228085	1110.332333	1986.466797	4.703487
31180.228085	1110.332333	1985.500977	286.071533
31180.228085	1110.332333	1984.534180	233.455841
31180.228085	1110.332333	1983.567383	158.480957
31180.228085	1110.332333	1982.599609	33.986988
31180.228085	1110.332333	1981.632813	154.024200
31180.228085	1110.332333	1980.665039	155.328995
31180.228085	1110.332333	1979.697266	131.824738
31180.228085	1110.332333	1978.729492	56.368462
31180.228085	1110.332333	1977.761719	82.069000
31180.228085	1110.332333	1976.792969	36.081497
31180.228085	1110.332333	1975.825195	-372.779572
31180.228085	1110.332333	1974.856445	-88.182053
31180.228085	1110.332333	1973.887695	63.006264
31180.228085	1110.332333	1972.918945	-35.067291
31180.228085	1110.332333	1971.949219	204.696777
31180.228085	1110.332333	1970.980469	86.773308
31180.228085	1110.332333	1970.010742	60.047787
31180.228085	1110.332333	1969.041016	92.433533
31180.228085	1110.332333	1968.071289	82.860489
31180.228085	1110.332333	1967.101563	-42.559860
31180.228085	1110.332333	1966.130859	85.755371
31180.228085	1110.332333	1965.161133	216.447021
31180.228085	1110.332333	1964.190430	110.651283
31180.228085	1110.332333	1963.219727	-229.037231
31180.228085	1110.332333	1962.249023	98.470924
31180.228085	1110.332333	1961.277344	64.039238
31180.228085	1110.332333	1960.306641	93.575897
31180.228085	1110.332333	1959.334961	-63.896969
31180.228085	1110.332333	1958.363281	337.044952
31180.228085	1110.332333	1957.391602	-12.271076
31180.228085	1110.332333	1956.419922	78.669563
31180.228085	1110.332333	1955.447266	245.778488
31180.228085	1110.332333	1954.474609	316.960205
31180.228085	1110.332333	1953.501953	103.043465
31180.228085	1110.332333	1952.529297	211.079681
31180.228085	1110.332333	1951.556641	90.614250
31180.228085	1110.332333	1950.583984	43.883911
31180.228085	1110.332333	1949.610352	191.174759
31180.228085	1110.332333	1948.636719	-74.054611
31180.228085	1110.332333	1947.663086	83.043602
31180.228085	1110.332333	1946.689453	213.100296
31180.228085	1110.332333	1945.715820	-113.292747
31180.228085	1110.332333	1944.741211	-125.513870
31180.228085	1110.332333	1943.767578	-46.949436
31180.228085	1110.332333	1942.792969	-127.807281
31180.228085	1110.332333	1941.818359	46.397850
31180.228085	1110.332333	1940.842773	-14.788775
31180.228085	1110.332333	1939.868164	78.494019
31180.228085	1110.332333	1938.892578	176.669128
31180.228085	1110.332333	1937.916992	353.240936
31180.228085	1110.332333	1936.941406	93.722328
31180.228085	1110.332333	1935.965820	-126.479317
31180.228085	1110.332333	1934.990234	106.465164
31180.228085	1110.332333	1934.013672	-27.901228
31180.228085	1110.332333	1933.037109	182.972229
31180.228085	1110.332333	1932.060547	291.008209
31180.228085	1110.332333	1931.083984	-202.925293
31180.228085	1110.332333	1930.107422	12.859845
31180.228085	1110.332333	1929.129883	-89.390396
31180.228085	1110.332333	1928.153320	23.650293
31180.228085	1110.332333	1927.175781	126.904747
31180.228085	1110.332333	1926.198242	-43.649311
31180.228085	1110.332333	1925.219727	-140.775787
31180.228085	1110.332333	1924.242188	11.442831
31180.228085	1110.332333	1923.263672	97.673599
31180.228085	1110.332333	1922.285156	215.667267
31180.228085	1110.332333	1921.306641	-140.177612
31180.228085	1110.332333	1920.328125	36.502254
31180.228085	1110.332333	1919.349609	-77.386879
31180.228085	1110.332333	1918.370117	-213.163773
31180.228085	1110.332333	1917.391602	-282.954834
31180.228085	1110.332333	1916.412109	71.909073
31180.228085	1110.332333	1915.431641	-134.454987
31180.228085	1110.332333	1914.452148	-84.582039
31180.228085	1110.332333	1913.472656	145.783188
31180.228085	1110.332333	1912.492188	105.442963
31180.228085	1110.332333	1911.511719	-105.499512
31180.228085	1110.332333	1910.531250	22.480650
31180.228085	1110.332333	1909.550781	238.177826
31180.228085	1110.332333	1908.569336	-184.537445
31180.228085	1110.332333	1907.588867	36.060684
31180.228085	1110.332333	1906.607422	-1.563495
31180.228085	1110.332333	1905.625977	65.573593
31180.228085	1110.332333	1904.644531	-86.405800
31180.228085	1110.332333	1903.662109	-92.242485
31180.228085	1110.332333	1902.680664	35.814156
31180.228085	1110.332333	1901.698242	-288.747986
31180.228085	1110.332333	1900.715820	287.009308
31180.228085	1110.332333	1899.733398	200.956192
31180.228085	1110.332333	1898.750000	-86.888496
31180.228085	1110.332333	1897.767578	121.428505
31180.228085	1110.332333	1896.784180	-30.102875
31180.228085	1110.332333	1895.800781	-18.702929
31180.228085	1110.332333	1894.817383	-7.283000
31180.228085	1110.332333	1893.833984	-34.723217
31180.228085	1110.332333	1892.850586	285.252502
31180.228085	1110.332333	1891.866211	-125.940552
31180.228085	1110.332333	1890.881836	201.254364
31180.228085	1110.332333	1889.897461	169.015579
31180.228085	1110.332333	1888.913086	10.578059
31180.228085	1110.332333	1887.927734	-38.570740
31180.228085	1110.332333	1886.943359	-12.468627
31180.228085	1110.332333	1885.958008	25.766973
31180.228085	1110.332333	1884.972656	97.954254
31180.228085	1110.332333	1883.987305	116.771378
31180.228085	1110.332333	1883.001953	276.218750
31180.228085	1110.332333	1882.015625	-5.601066
31180.228085	1110.332333	1881.029297	192.600723
31180.228085	1110.332333	1880.042969	-6.700981
31180.228085	1110.332333	1879.056641	-2.402349
31180.228085	1110.332333	1878.070313	123.012512
31180.228085	1110.332333	1877.083984	-34.995193
31180.228085	1110.332333	1876.096680	124.272682
31180.228085	1110.332333	1875.109375	-84.530014
31180.228085	1110.332333	1874.122070	79.514870
31180.228085	1110.332333	1873.134766	-201.824905
31180.228085	1110.332333	1872.146484	-129.792694
31180.228085	1110.332333	1871.159180	-72.319305
31180.228085	1110.332333	1870.170898	-89.864342
31180.228085	1110.332333	1869.182617	127.161545
31180.228085	1110.332333	1868.194336	3.158832
31180.228085	1110.332333	1867.205078	-343.221497
31180.228085	1110.332333	1866.216797	-162.591751
31180.228085	1110.332333	1865.227539	-61.800499
31180.228085	1110.332333	1864.238281	-139.863831
31180.228085	1110.332333	1863.249023	-12.600099
31180.228085	1110.332333	1862.259766	162.889160
31180.228085	1110.332333	1861.269531	26.780100
31180.228085	1110.332333	1860.279297	122.457039
31180.228085	1110.332333	1859.290039	27.368895
31180.228085	1110.332333	1858.298828	93.971596
31180.228085	1110.332333	1857.308594	37.451733
31180.228085	1110.332333	1856.318359	386.202148
31180.228085	1110.332333	1855.327148	290.967041
31180.228085	1110.332333	1854.335938	72.730553
31180.228085	1110.332333	1853.344727	187.258224
31180.228085	1110.332333	1852.353516	-93.653107
31180.228085	1110.332333	1851.362305	290.699585
31180.228085	1110.332333	1850.370117	-43.250244
31180.228085	1110.332333	1849.377930	66.176994
31180.228085	1110.332333	1848.385742	252.586700
31180.228085	1110.332333	1847.393555	-42.812199
31180.228085	1110.332333	1846.401367	20.616926
31180.228085	1110.332333	1845.408203	209.145050
31180.228085	1110.332333	1844.415039	67.772415
31180.228085	1110.332333	1843.421875	-201.167084
31180.228085	1110.332333	1842.428711	386.502258
31180.228085	1110.332333	1841.435547	83.778397
31180.228085	1110.332333	1840.441406	165.928101
31180.228085	1110.332333	1839.448242	79.632439
31180.228085	1110.332333	1838.454102	-74.030182
31180.228085	1110.332333	1837.459961	67.956558
31180.228085	1110.332333	1836.464844	519.843445
31180.228085	1110.332333	1835.470703	413.988068
31180.228085	1110.332333	1834.475586	135.104858
31180.228085	1110.332333	1833.480469	264.581573
31180.228085	1110.332333	1832.485352	79.308838
31180.228085	1110.332333	1831.490234	314.210419
31180.228085	1110.332333	1830.495117	373.676971
31180.228085	1110.332333	1829.499023	373.013336
31180.228085	1110.332333	1828.502930	357.850006
31180.228085	1110.332333	1827.506836	436.165466
31180.228085	1110.332333	1826.510742	41.764427
31180.228085	1110.332333	1825.513672	270.994415
31180.228085	1110.332333	1824.517578	238.652557
31180.228085	1110.332333	1823.520508	381.228699
31180.228085	1110.332333	1822.523438	190.445740
31180.228085	1110.332333	1821.526367	191.346680
31180.228085	1110.332333	1820.529297	163.378906
31180.228085	1110.332333	1819.531250	159.256485
31180.228085	1110.332333	1818.533203	337.054382
31180.228085	1110.332333	1817.535156	40.489475
31180.228085	1110.332333	1816.537109	366.444733
31180.228085	1110.332333	1815.539063	294.762115
31180.228085	1110.332333	1814.540039	330.680542
31180.228085	1110.332333	1813.541992	234.841675
31180.228085	1110.332333	1812.542969	-23.788597
31180.228085	1110.332333	1811.543945	9.381230
31180.228085	1110.332333	1810.543945	44.788872
31180.228085	1110.332333	1809.544922	264.172760
31180.228085	1110.332333	1808.544922	-71.322510
31180.228085	1110.332333	1807.544922	307.863922
31180.228085	1110.332333	1806.544922	416.712830
31180.228085	1110.332333	1805.544922	195.638550
31180.228085	1110.332333	1804.544922	230.119965
31180.228085	1110.332333	1803.543945	135.455246
31180.228085	1110.332333	1802.542969	303.360321
31180.228085	1110.332333	1801.541992	77.099220
31180.228085	1110.332333	1800.541016	15.482923
31180.228085	1110.332333	1799.539063	-122.644020
31180.228085	1110.332333	1798.538086	209.215958
31180.228085	1110.332333	1797.536133	180.534668
31180.228085	1110.332333	1796.534180	325.833679
31180.228085	1110.332333	1795.532227	146.572479
31180.228085	1110.332333	1794.529297	136.505127
31180.228085	1110.332333	1793.527344	69.068344
31180.228085	1110.332333	1792.524414	-93.857361
31180.228085	1110.332333	1791.521484	269.769989
31180.228085	1110.332333	1790.518555	294.759613
31180.228085	1110.332333	1789.514648	169.485977
31180.228085	1110.332333	1788.511719	-82.137894
31180.228085	1110.332333	1787.507813	304.333405
31180.228085	1110.332333	1786.503906	304.792419
31180.228085	1110.332333	1785.500000	266.989868
31180.228085	1110.332333	1784.496094	283.762451
31180.228085	1110.332333	1783.491211	162.333389
31180.228085	1110.332333	1782.486328	26.496323
31180.228085	1110.332333	1781.481445	-149.906097
31180.228085	1110.332333	1780.476563	37.425812
31180.228085	1110.332333	1779.471680	-20.393787
31180.228085	1110.332333	1778.465820	140.316559
31180.228085	1110.332333	1777.460938	200.966049
31180.228085	1110.332333	1776.455078	282.783752
31180.228085	1110.332333	1775.449219	171.937775
31180.228085	1110.332333	1774.442383	117.944870
31180.228085	1110.332333	1773.436523	-73.956100
31180.228085	1110.332333	1772.429688	154.302460
31180.228085	1110.332333	1771.422852	168.617966
31180.228085	1110.332333	1770.416016	-128.207687
31180.228085	1110.332333	1769.409180	-57.276855
31180.228085	1110.332333	1768.402344	245.956543
31180.228085	1110.332333	1767.394531	437.371490
31180.228085	1110.332333	1766.386719	-47.442112
31180.228085	1110.332333	1765.378906	72.421249
31180.228085	1110.332333	1764.371094	263.167969
31180.228085	1110.332333	1763.362305	228.440018
31180.228085	1110.332333	1762.354492	233.826324
31180.228085	1110.332333	1761.345703	-42.976486
31180.228085	1110.332333	1760.336914	198.952835
31180.228085	1110.332333	1759.328125	-49.718285
31180.228085	1110.332333	1758.318359	227.225586
31180.228085	1110.332333	1757.308594	32.682907
31180.228085	1110.332333	1756.299805	-102.796692
31180.228085	1110.332333	1755.290039	201.789917
31180.228085	1110.332333	1754.279297	205.510147
31180.228085	1110.332333	1753.269531	223.233887
31180.228085	1110.332333	1752.258789	165.035477
31180.228085	1110.332333	1751.249023	-240.993637
31180.228085	1110.332333	1750.238281	-84.318909
31180.228085	1110.332333	1749.226563	-34.312252
31180.228085	1110.332333	1748.215820	-19.972765
31180.228085	1110.332333	1747.204102	-279.995483
31180.228085	1110.332333	1746.193359	-140.804474
31180.228085	1110.332333	1745.181641	-386.947052
31180.228085	1110.332333	1744.168945	56.445255
31180.228085	1110.332333	1743.157227	-102.687065
31180.228085	1110.332333	1742.144531	92.160316
31180.228085	1110.332333	1741.132813	60.129894
31180.228085	1110.332333	1740.120117	-75.956352
31180.228085	1110.332333	1739.106445	-103.673180
31180.228085	1110.332333	1738.093750	50.082157
31180.228085	1110.332333	1737.080078	24.288754
31180.228085	1110.332333	1736.067383	0.669333
31180.228085	1110.332333	1735.053711	-228.295792
31180.228085	1110.332333	1734.040039	-245.220596
31180.228085	1110.332333	1733.025391	-38.460190
31180.228085	1110.332333	1732.011719	-48.764790
31180.228085	1110.332333	1730.997070	16.098402
31180.228085	1110.332333	1729.982422	31.262383
31180.228085	1110.332333	1728.967773	8.528277
31180.228085	1110.332333	1727.952148	136.272598
31180.228085	1110.332333	1726.937500	54.255009
31180.228085	1110.332333	1725.921875	-326.889160
31180.228085	1110.332333	1724.906250	-192.717224
31180.228085	1110.332333	1723.890625	-119.980637
31180.228085	1110.332333	1722.875000	8.979339
31180.228085	1110.332333	1721.858398	102.383926
31180.228085	1110.332333	1720.841797	-25.497116
31180.228085	1110.332333	1719.825195	267.307526
31180.228085	1110.332333	1718.808594	84.966484
31180.228085	1110.332333	1717.791992	-31.703194
31180.228085	1110.332333	1716.774414	262.647858
31180.228085	1110.332333	1715.756836	140.858810
31180.228085	1110.332333	1714.739258	267.889465
31180.228085	1110.332333	1713.721680	192.709305
31180.228085	1110.332333	1712.704102	93.875801
31180.228085	1110.332333	1711.685547	309.419159
31180.228085	1110.332333	1710.667969	121.011833
31180.228085	1110.332333	1709.649414	99.060890
31180.228085	1110.332333	1708.630859	-77.923042
31180.228085	1110.332333	1707.611328	17.036905
31180.228085	1110.332333	1706.592773	334.581543
31180.228085	1110.332333	1705.573242	222.692764
31180.228085	1110.332333	1704.553711	-198.801544
31180.228085	1110.332333	1703.534180	169.556747
31180.228085	1110.332333	1702.513672	225.882385
31180.228085	1110.332333	1701.494141	324.189178
31180.228085	1110.332333	1700.473633	511.258240
31180.228085	1110.332333	1699.453125	402.963348
31180.228085	1110.332333	1698.432617	449.069427
31180.228085	1110.332333	1697.412109	410.683105
31180.228085	1110.332333	1696.390625	365.080475
31180.228085	1110.332333	1695.369141	169.528671
31180.228085	1110.332333	1694.347656	345.900146
31180.228085	1110.332333	1693.326172	531.377869
31180.228085	1110.332333	1692.304688	433.588135
31180.228085	1110.332333	1691.282227	267.816132
31180.228085	1110.332333	1690.260742	651.388245
31180.228085	1110.332333	1689.238281	539.041077
31180.228085	1110.332333	1688.214844	384.467102
31180.228085	1110.332333	1687.192383	496.181244
31180.228085	1110.332333	1686.168945	303.942688
31180.228085	1110.332333	1685.146484	354.552277
31180.228085	1110.332333	1684.123047	603.446350
31180.228085	1110.332333	1683.099609	742.333801
31180.228085	1110.332333	1682.075195	442.098267
31180.228085	1110.332333	1681.051758	585.295654
31180.228085	1110.332333	1680.027344	667.570190
31180.228085	1110.332333	1679.002930	572.336670
31180.228085	1110.332333	1677.978516	626.264709
31180.228085	1110.332333	1676.953125	465.420868
31180.228085	1110.332333	1675.928711	484.050201
31180.228085	1110.332333	1674.903320	483.838593
31180.228085	1110.332333	1673.877930	271.361786
31180.228085	1110.332333	1672.852539	599.463318
31180.228085	1110.332333	1671.826172	775.810791
31180.228085	1110.332333	1670.800781	586.236694
31180.228085	1110.332333	1669.774414	645.765442
31180.228085	1110.332333	1668.748047	523.493164
31180.228085	1110.332333	1667.721680	463.982269
31180.228085	1110.332333	1666.694336	543.983704
31180.228085	1110.332333	1665.667969	554.022888
31180.228085	1110.332333	1664.640625	442.894531
31180.228085	1110.332333	1663.613281	892.320435
31180.228085	1110.332333	1662.585938	908.820251
31180.228085	1110.332333	1661.557617	1104.208862
31180.228085	1110.332333	1660.530273	1027.393677
31180.228085	1110.332333	1659.501953	890.012329
31180.228085	1110.332333	1658.473633	1105.814453
31180.228085	1110.332333	1657.444336	1205.196899
31180.228085	1110.332333	1656.416016	1237.073608
31180.228085	1110.332333	1655.386719	1215.360962
31180.228085	1110.332333	1654.358398	1646.414795
31180.228085	1110.332333	1653.328125	1413.076172
31180.228085	1110.332333	1652.298828	1590.627686
31180.228085	1110.332333	1651.269531	1830.663086
31180.228085	1110.332333	1650.239258	1771.119385
31180.228085	1110.332333	1649.208984	1964.374512
31180.228085	1110.332333	1648.178711	2076.260742
31180.228085	1110.332333	1647.148438	2190.319336
31180.228085	1110.332333	1646.117188	2127.975586
31180.228085	1110.332333	1645.086914	2130.499512
31180.228085	1110.332333	1644.055664	2253.418701
31180.228085	1110.332333	1643.024414	2239.470459
31180.228085	1110.332333	1641.992188	1956.640747
31180.228085	1110.332333	1640.960938	2130.201904
31180.228085	1110.332333	1639.928711	2264.206543
31180.228085	1110.332333	1638.896484	2481.429688
31180.228085	1110.332333	1637.864258	2480.865967
31180.228085	1110.332333	1636.832031	2285.787598
31180.228085	1110.332333	1635.798828	2467.890625
31180.228085	1110.332333	1634.766602	2374.540039
31180.228085	1110.332333	1633.733398	2697.516357
31180.228085	1110.332333	1632.699219	2791.290527
31180.228085	1110.332333	1631.666016	2986.736084
31180.228085	1110.332333	1630.632813	2890.728760
31180.228085	1110.332333	1629.598633	2723.007324
31180.228085	1110.332333	1628.564453	2606.130859
31180.228085	1110.332333	1627.530273	2754.963379
31180.228085	1110.332333	1626.495117	3199.350830
31180.228085	1110.332333	1625.460938	2987.579834
31180.228085	1110.332333	1624.425781	3018.282959
31180.228085	1110.332333	1623.390625	3106.645020
31180.228085	1110.332333	1622.355469	3097.973145
31180.228085	1110.332333	1621.319336	3167.699219
31180.228085	1110.332333	1620.284180	2995.102051
31180.228085	1110.332333	1619.248047	3360.041260
31180.228085	1110.332333	1618.211914	3205.820313
31180.228085	1110.332333	1617.174805	3452.861328
31180.228085	1110.332333	1616.138672	3496.906250
31180.228085	1110.332333	1615.101563	3333.402344
31180.228085	1110.332333	1614.065430	3492.638428
31180.228085	1110.332333	1613.027344	3665.552734
31180.228085	1110.332333	1611.990234	3476.698975
31180.228085	1110.332333	1610.953125	3930.563232
31180.228085	1110.332333	1609.915039	3695.606934
31180.228085	1110.332333	1608.876953	3672.565674
31180.228085	1110.332333	1607.838867	4100.735352
31180.228085	1110.332333	1606.800781	4181.180664
31180.228085	1110.332333	1605.761719	4441.053223
31180.228085	1110.332333	1604.723633	4530.600098
31180.228085	1110.332333	1603.684570	4355.545898
31180.228085	1110.332333	1602.644531	4366.821777
31180.228085	1110.332333	1601.605469	4249.366211
31180.228085	1110.332333	1600.566406	4679.115234
31180.228085	1110.332333	1599.526367	4651.276855
31180.228085	1110.332333	1598.486328	4887.740234
31180.228085	1110.332333	1597.446289	4404.977539
31180.228085	1110.332333	1596.405273	4565.598633
31180.228085	1110.332333	1595.365234	4632.047852
31180.228085	1110.332333	1594.324219	4565.280762
31180.228085	1110.332333	1593.283203	4535.304688
31180.228085	1110.332333	1592.242188	4661.456055
31180.228085	1110.332333	1591.200195	4865.590820
31180.228085	1110.332333	1590.159180	4555.751953
31180.228085	1110.332333	1589.117188	4548.853516
31180.228085	1110.332333	1588.075195	4718.609375
31180.228085	1110.332333	1587.032227	4218.720215
31180.228085	1110.332333	1585.990234	4205.152832
31180.228085	1110.332333	1584.947266	4457.512695
31180.228085	1110.332333	1583.904297	4718.994629
31180.228085	1110.332333	1582.861328	4705.473633
31180.228085	1110.332333	1581.818359	4630.163086
31180.228085	1110.332333	1580.775391	4616.788086
31180.228085	1110.332333	1579.731445	4811.842773
31180.228085	1110.332333	1578.687500	4532.956055
31180.228085	1110.332333	1577.643555	4700.621094
31180.228085	1110.332333	1576.598633	4650.845703
31180.228085	1110.332333	1575.554688	4692.726074
31180.228085	1110.332333	1574.509766	4606.525391
31180.228085	1110.332333	1573.464844	4756.033691
31180.228085	1110.332333	1572.419922	4944.446289
31180.228085	1110.332333	1571.374023	4524.660645
31180.228085	1110.332333	1570.329102	4601.212891
31180.228085	1110.332333	1569.283203	4638.945801
31180.228085	1110.332333	1568.237305	4626.492188
31180.228085	1110.332333	1567.191406	4755.788086
31180.228085	1110.332333	1566.144531	4298.076660
31180.228085	1110.332333	1565.098633	4356.800293
31180.228085	1110.332333	1564.051758	4324.250000
31180.228085	1110.332333	1563.004883	4246.166016
31180.228085	1110.332333	1561.957031	4366.765625
31180.228085	1110.332333	1560.910156	3985.441650
31180.228085	1110.332333	1559.862305	3800.564697
31180.228085	1110.332333	1558.814453	3953.473145
31180.228085	1110.332333	1557.766602	4129.253906
31180.228085	1110.332333	1556.718750	3714.541748
31180.228085	1110.332333	1555.669922	3416.356689
31180.228085	1110.332333	1554.621094	3387.374268
31180.228085	1110.332333	1553.573242	3597.837646
31180.228085	1110.332333	1552.523438	3202.265625
31180.228085	1110.332333	1551.474609	3401.546875
31180.228085	1110.332333	1550.424805	3300.244385
31180.228085	1110.332333	1549.375000	3435.937012
31180.228085	1110.332333	1548.325195	3239.352051
31180.228085	1110.332333	1547.275391	3179.562012
31180.228085	1110.332333	1546.225586	3040.302490
31180.228085	1110.332333	1545.174805	3144.676025
31180.228085	1110.332333	1544.124023	2998.946533
31180.228085	1110.332333	1543.073242	3139.999023
31180.228085	1110.332333	1542.022461	3112.897217
31180.228085	1110.332333	1540.970703	3054.122803
31180.228085	1110.332333	1539.919922	3097.850098
31180.228085	1110.332333	1538.868164	3437.132813
31180.228085	1110.332333	1537.815430	3181.155762
31180.228085	1110.332333	1536.763672	3518.373047
31180.228085	1110.332333	1535.710938	3346.875000
31180.228085	1110.332333	1534.659180	3236.962158
31180.228085	1110.332333	1533.606445	3222.604736
31180.228085	1110.332333	1532.552734	3251.545898
31180.228085	1110.332333	1531.500000	3310.192383
31180.228085	1110.332333	1530.446289	2897.051025
31180.228085	1110.332333	1529.393555	2801.879395
31180.228085	1110.332333	1528.338867	2616.176025
31180.228085	1110.332333	1527.285156	2868.413818
31180.228085	1110.332333	1526.231445	2685.465820
31180.228085	1110.332333	1525.176758	2679.576416
31180.228085	1110.332333	1524.122070	2358.892578
31180.228085	1110.332333	1523.067383	1997.762329
31180.228085	1110.332333	1522.012695	2164.810791
31180.228085	1110.332333	1520.957031	1835.977173
31180.228085	1110.332333	1519.901367	1568.633789
31180.228085	1110.332333	1518.845703	1598.198853
31180.228085	1110.332333	1517.790039	1614.395264
31180.228085	1110.332333	1516.734375	1280.029785
31180.228085	1110.332333	1515.677734	1249.198486
31180.228085	1110.332333	1514.621094	1057.993652
31180.228085	1110.332333	1513.564453	948.520813
31180.228085	1110.332333	1512.507813	913.947937
31180.228085	1110.332333	1511.450195	854.735352
31180.228085	1110.332333	1510.393555	985.681763
31180.228085	1110.332333	1509.335938	911.141357
31180.228085	1110.332333	1508.278320	812.017273
31180.228085	1110.332333	1507.219727	482.735413
31180.228085	1110.332333	1506.162109	628.160950
31180.228085	1110.332333	1505.103516	706.015137
31180.228085	1110.332333	1504.044922	169.989075
31180.228085	1110.332333	1502.986328	415.447998
31180.228085	1110.332333	1501.926758	554.975159
31180.228085	1110.332333	1500.868164	322.421448
31180.228085	1110.332333	1499.808594	268.420563
31180.228085	1110.332333	1498.749023	228.236633
31180.228085	1110.332333	1497.688477	391.270233
31180.228085	1110.332333	1496.628906	31.456102
31180.228085	1110.332333	1495.568359	208.521683
31180.228085	1110.332333	1494.507813	-202.426285
31180.228085	1110.332333	1493.447266	-90.184959
31180.228085	1110.332333	1492.386719	26.790266
31180.228085	1110.332333	1491.325195	56.135799
31180.228085	1110.332333	1490.263672	22.695543
31180.228085	1110.332333	1489.202148	-48.728142
31180.228085	1110.332333	1488.140625	-173.864166
31180.228085	1110.332333	1487.079102	-309.923920
31180.228085	1110.332333	1486.016602	-81.138878
31180.228085	1110.332333	1484.954102	143.341187
31180.228085	1110.332333	1483.891602	-9.847464
31180.228085	1110.332333	1482.829102	-27.762018
31180.228085	1110.332333	1481.765625	177.187317
31180.228085	1110.332333	1480.702148	175.533234
31180.228085	1110.332333	1479.638672	-3.355717
31180.228085	1110.332333	1478.575195	-105.489937
31180.228085	1110.332333	1477.511719	136.424850
31180.228085	1110.332333	1476.447266	286.356659
31180.228085	1110.332333	1475.382813	122.321053
31180.228085	1110.332333	1474.318359	304.307526
31180.228085	1110.332333	1473.253906	196.918854
31180.228085	1110.332333	1472.189453	309.814392
31180.228085	1110.332333	1471.124023	672.035767
31180.228085	1110.332333	1470.058594	726.999268
31180.228085	1110.332333	1468.993164	562.377869
31180.228085	1110.332333	1467.927734	452.434418
31180.228085	1110.332333	1466.861328	627.067017
31180.228085	1110.332333	1465.794922	880.319580
31180.228085	1110.332333	1464.728516	954.656067
31180.228085	1110.332333	1463.662109	1056.477783
31180.228085	1110.332333	1462.594727	865.148743
31180.228085	1110.332333	1461.528320	790.893250
31180.228085	1110.332333	1460.460938	1097.131958
31180.228085	1110.332333	1459.393555	953.766418
31180.228085	1110.332333	1458.326172	954.512146
31180.228085	1110.332333	1457.257813	854.383057
31180.228085	1110.332333	1456.189453	758.974915
31180.228085	1110.332333	1455.121094	698.050171
31180.228085	1110.332333	1454.052734	569.279480
31180.228085	1110.332333	1452.984375	400.350983
31180.228085	1110.332333	1451.915039	753.029907
31180.228085	1110.332333	1450.845703	579.814636
31180.228085	1110.332333	1449.776367	712.901184
31180.228085	1110.332333	1448.707031	489.885773
31180.228085	1110.332333	1447.636719	401.729980
31180.228085	1110.332333	1446.567383	508.071167
31180.228085	1110.332333	1445.497070	658.617371
31180.228085	1110.332333	1444.425781	643.223450
31180.228085	1110.332333	1443.355469	413.050232
31180.228085	1110.332333	1442.285156	41.321526
31180.228085	1110.332333	1441.213867	496.506439
31180.228085	1110.332333	1440.142578	615.726990
31180.228085	1110.332333	1439.070313	510.325989
31180.228085	1110.332333	1437.999023	72.966789
31180.228085	1110.332333	1436.926758	335.332886
31180.228085	1110.332333	1435.854492	310.880920
31180.228085	1110.332333	1434.782227	336.599365
31180.228085	1110.332333	1433.709961	455.800903
31180.228085	1110.332333	1432.636719	149.601456
31180.228085	1110.332333	1431.563477	30.678949
31180.228085	1110.332333	1430.490234	-167.433319
31180.228085	1110.332333	1429.416992	106.499100
31180.228085	1110.332333	1428.343750	133.935211
31180.228085	1110.332333	1427.269531	-92.829941
31180.228085	1110.332333	1426.195313	116.813507
31180.228085	1110.332333	1425.121094	-99.952873
31180.228085	1110.332333	1424.046875	14.863025
31180.228085	1110.332333	1422.971680	143.883560
31180.228085	1110.332333	1421.896484	61.715244
31180.228085	1110.332333	1420.821289	-45.606918
31180.228085	1110.332333	1419.746094	366.582886
31180.228085	1110.332333	1418.669922	92.964760
31180.228085	1110.332333	1417.594727	344.453491
31180.228085	1110.332333	1416.518555	475.806213
31180.228085	1110.332333	1415.442383	196.092331
31180.228085	1110.332333	1414.365234	314.518463
31180.228085	1110.332333	1413.289063	227.633438
31180.228085	1110.332333	1412.211914	199.890244
31180.228085	1110.332333	1411.134766	50.171261
31180.228085	1110.332333	1410.057617	2.755361
31180.228085	1110.332333	1408.979492	-150.059586
31180.228085	1110.332333	1407.902344	-142.934982
31180.228085	1110.332333	1406.824219	-7.067305
31180.228085	1110.332333	1405.746094	46.488659
31180.228085	1110.332333	1404.666992	-123.139984
31180.228085	1110.332333	1403.588867	-93.416016
31180.228085	1110.332333	1402.509766	198.503525
31180.228085	1110.332333	1401.430664	-176.529297
31180.228085	1110.332333	1400.351563	73.551208
31180.228085	1110.332333	1399.271484	173.738770
31180.228085	1110.332333	1398.192383	-135.815384
31180.228085	1110.332333	1397.112305	127.205284
31180.228085	1110.332333	1396.031250	140.802826
31180.228085	1110.332333	1394.951172	77.177330
31180.228085	1110.332333	1393.871094	109.764404
31180.228085	1110.332333	1392.790039	208.366043
31180.228085	1110.332333	1391.708984	106.245392
31180.228085	1110.332333	1390.626953	42.775322
31180.228085	1110.332333	1389.545898	140.803177
31180.228085	1110.332333	1388.463867	223.704788
31180.228085	1110.332333	1387.381836	272.794739
31180.228085	1110.332333	1386.299805	241.997726
31180.228085	1110.332333	1385.217773	206.242325
31180.228085	1110.332333	1384.134766	207.326843
31180.228085	1110.332333	1383.051758	246.691513
31180.228085	1110.332333	1381.968750	327.995300
31180.228085	1110.332333	1380.885742	366.996765
31180.228085	1110.332333	1379.802734	927.774719
31180.228085	1110.332333	1378.718750	594.136658
31180.228085	1110.332333	1377.634766	850.827759
31180.228085	1110.332333	1376.550781	893.049866
31180.228085	1110.332333	1375.465820	1060.394409
31180.228085	1110.332333	1374.381836	964.276428
31180.228085	1110.332333	1373.296875	869.507141
31180.228085	1110.332333	1372.211914	892.593994
31180.228085	1110.332333	1371.126953	592.131226
31180.228085	1110.332333	1370.041016	665.684204
31180.228085	1110.332333	1368.955078	664.585510
31180.228085	1110.332333	1367.869141	298.577820
31180.228085	1110.332333	1366.783203	77.731827
31180.228085	1110.332333	1365.697266	473.600647
31180.228085	1110.332333	1364.610352	188.112167
31180.228085	1110.332333	1363.523438	-126.793083
31180.228085	1110.332333	1362.436523	-32.620651
31180.228085	1110.332333	1361.349609	82.409035
31180.228085	1110.332333	1360.261719	-136.937286
31180.228085	1110.332333	1359.174805	-67.168625
31180.228085	1110.332333	1358.086914	120.260155
31180.228085	1110.332333	1356.998047	8.832457
31180.228085	1110.332333	1355.910156	98.113777
31180.228085	1110.332333	1354.821289	-67.038689
31180.228085	1110.332333	1353.732422	-81.341309
31180.228085	1110.332333	1352.643555	119.991158
31180.228085	1110.332333	1351.554688	-181.732605
31180.228085	1110.332333	1350.464844	212.197617
31180.228085	1110.332333	1349.375000	-239.939529
31180.228085	1110.332333	1348.285156	80.844223
31180.228085	1110.332333	1347.195313	326.806671
31180.228085	1110.332333	1346.105469	375.086426
31180.228085	1110.332333	1345.014648	105.590218
31180.228085	1110.332333	1343.923828	252.782745
31180.228085	1110.332333	1342.833008	346.230347
31180.228085	1110.332333	1341.741211	700.982910
31180.228085	1110.332333	1340.650391	594.122131
31180.228085	1110.332333	1339.558594	560.533264
31180.228085	1110.332333	1338.466797	862.662170
31180.228085	1110.332333	1337.374023	699.247131
31180.228085	1110.332333	1336.282227	537.059326
31180.228085	1110.332333	1335.189453	759.970093
31180.228085	1110.332333	1334.096680	852.225098
31180.228085	1110.332333	1333.003906	712.283081
31180.228085	1110.332333	1331.910156	628.920410
31180.228085	1110.332333	1330.817383	532.101135
31180.228085	1110.332333	1329.723633	465.970367
31180.228085	1110.332333	1328.629883	577.674866
31180.228085	1110.332333	1327.535156	474.114807
31180.228085	1110.332333	1326.441406	605.869751
31180.228085	1110.332333	1325.346680	360.789429
31180.228085	1110.332333	1324.251953	555.011902
31180.228085	1110.332333	1323.156250	1008.641296
31180.228085	1110.332333	1322.061523	516.599121
31180.228085	1110.332333	1320.965820	825.385132
31180.228085	1110.332333	1319.870117	737.300537
31180.228085	1110.332333	1318.774414	570.575378
31180.228085	1110.332333	1317.678711	687.546936
31180.228085	1110.332333	1316.582031	572.254028
31180.228085	1110.332333	1315.485352	549.313293
31180.228085	1110.332333	1314.388672	868.335632
31180.228085	1110.332333	1313.291016	958.409058
31180.228085	1110.332333	1312.194336	590.387024
31180.228085	1110.332333	1311.096680	523.159363
31180.228085	1110.332333	1309.999023	669.568359
31180.228085	1110.332333	1308.901367	473.353638
31180.228085	1110.332333	1307.802734	392.650940
31180.228085	1110.332333	1306.705078	427.058014
31180.228085	1110.332333	1305.606445	214.649887
31180.228085	1110.332333	1304.506836	-81.682968
31180.228085	1110.332333	1303.408203	70.070160
31180.228085	1110.332333	1302.308594	210.373962
31180.228085	1110.332333	1301.208984	102.344688
31180.228085	1110.332333	1300.109375	4.192501
31180.228085	1110.332333	1299.009766	295.067047
31180.228085	1110.332333	1297.909180	376.314362
31180.228085	1110.332333	1296.808594	58.134003
31180.228085	1110.332333	1295.708008	-57.170139
31180.228085	1110.332333	1294.607422	38.725338
31180.228085	1110.332333	1293.506836	136.112579
31180.228085	1110.332333	1292.405273	-91.524948
31180.228085	1110.332333	1291.303711	-127.816635
31180.228085	1110.332333	1290.202148	-12.595366
31180.228085	1110.332333	1289.099609	-58.623405
31180.228085	1110.332333	1287.998047	-355.427490
31180.228085	1110.332333	1286.895508	-186.957001
31180.228085	1110.332333	1285.792969	-78.404503
31180.228085	1110.332333	1284.689453	-271.693939
31180.228085	1110.332333	1283.586914	-288.081573
31180.228085	1110.332333	1282.483398	105.646263
31180.228085	1110.332333	1281.379883	-94.162529
31180.228085	1110.332333	1280.276367	-40.407299
31180.228085	1110.332333	1279.171875	164.990509
31180.228085	1110.332333	1278.067383	-156.469238
31180.228085	1110.332333	1276.962891	-54.697651
31180.228085	1110.332333	1275.858398	94.335587
31180.228085	1110.332333	1274.753906	90.637321
31180.228085	1110.332333	1273.648438	281.913574
31180.228085	1110.332333	1272.542969	-29.875456
31180.228085	1110.332333	1271.437500	198.255630
31180.228085	1110.332333	1270.331055	78.268929
31180.228085	1110.332333	1269.225586	129.774506
31180.228085	1110.332333	1268.119141	507.801117
31180.228085	1110.332333	1267.012695	489.908173
31180.228085	1110.332333	1265.906250	223.379822
31180.228085	1110.332333	1264.798828	557.254700
31180.228085	1110.332333	1263.691406	416.697479
31180.228085	1110.332333	1262.583984	225.144577
31180.228085	1110.332333	1261.476563	385.227844
31180.228085	1110.332333	1260.368164	309.370972
31180.228085	1110.332333	1259.260742	441.020508
31180.228085	1110.332333	1258.152344	262.661652
31180.228085	1110.332333	1257.043945	375.237793
31180.228085	1110.332333	1255.934570	170.430740
31180.228085	1110.332333	1254.825195	-69.671715
31180.228085	1110.332333	1253.716797	-39.380333
31180.228085	1110.332333	1252.606445	-85.034332
31180.228085	1110.332333	1251.497070	-76.886345
31180.228085	1110.332333	1250.387695	-38.467419
31180.228085	1110.332333	1249.277344	-9.492027
31180.228085	1110.332333	1248.166992	-127.864799
31180.228085	1110.332333	1247.055664	-144.317703
31180.228085	1110.332333	1245.945313	49.260658
31180.228085	1110.332333	1244.833984	-4.379750
31180.228085	1110.332333	1243.722656	-155.051895
31180.228085	1110.332333	1242.611328	79.137749
31180.228085	1110.332333	1241.499023	90.383163
31180.228085	1110.332333	1240.387695	85.568916
31180.228085	1110.332333	1239.275391	-31.496162
31180.228085	1110.332333	1238.162109	127.411613
31180.228085	1110.332333	1237.049805	253.756821
31180.228085	1110.332333	1235.936523	279.399139
31180.228085	1110.332333	1234.823242	39.687607
31180.228085	1110.332333	1233.709961	7.601715
31180.228085	1110.332333	1232.596680	20.078033
31180.228085	1110.332333	1231.482422	-4.550698
31180.228085	1110.332333	1230.369141	196.812881
31180.228085	1110.332333	1229.253906	187.635635
31180.228085	1110.332333	1228.139648	171.177383
31180.228085	1110.332333	1227.025391	181.403717
31180.228085	1110.332333	1225.910156	144.434433
31180.228085	1110.332333	1224.794922	43.026821
31180.228085	1110.332333	1223.679688	74.121399
31180.228085	1110.332333	1222.563477	283.130920
31180.228085	1110.332333	1221.447266	69.560799
31180.228085	1110.332333	1220.331055	39.080059
31180.228085	1110.332333	1219.214844	199.131241
31180.228085	1110.332333	1218.098633	289.990845
31180.228085	1110.332333	1216.981445	73.198479
31180.228085	1110.332333	1215.864258	319.160095
31180.228085	1110.332333	1214.747070	5.806558
31180.228085	1110.332333	1213.629883	30.656569
31180.228085	1110.332333	1212.511719	-33.627312
31180.228085	1110.332333	1211.393555	-42.162392
31180.228085	1110.332333	1210.275391	77.075958
31180.228085	1110.332333	1209.157227	165.213943
31180.228085	1110.332333	1208.038086	-87.595802
31180.228085	1110.332333	1206.918945	-199.298492
31180.228085	1110.332333	1205.799805	-265.287384
31180.228085	1110.332333	1204.680664	-61.188221
31180.228085	1110.332333	1203.560547	-236.830948
31180.228085	1110.332333	1202.441406	-89.909264
31180.228085	1110.332333	1201.321289	-261.006317
31180.228085	1110.332333	1200.200195	-49.738186
31180.228085	1110.332333	1199.080078	-31.950462
31180.228085	1110.332333	1197.958984	152.429581
31180.228085	1110.332333	1196.837891	60.660545
31180.228085	1110.332333	1195.716797	-55.974949
31180.228085	1110.332333	1194.594727	77.177017
31180.228085	1110.332333	1193.473633	25.763882
31180.228085	1110.332333	1192.351563	-148.228271
31180.228085	1110.332333	1191.229492	105.235016
31180.228085	1110.332333	1190.106445	-187.587143
31180.228085	1110.332333	1188.984375	-190.538773
31180.228085	1110.332333	1187.861328	-169.829697
31180.228085	1110.332333	1186.738281	47.268272
31180.228085	1110.332333	1185.614258	-138.622757
31180.228085	1110.332333	1184.491211	-111.246384
31180.228085	1110.332333	1183.367188	45.516937
31180.228085	1110.332333	1182.243164	72.772827
31180.228085	1110.332333	1181.119141	-165.574768
31180.228085	1110.332333	1179.994141	45.255951
31180.228085	1110.332333	1178.869141	107.535049
31180.228085	1110.332333	1177.744141	32.516121
31180.228085	1110.332333	1176.619141	263.091461
31180.228085	1110.332333	1175.493164	104.989799
31180.228085	1110.332333	1174.368164	77.729393
31180.228085	1110.332333	1173.242188	152.320572
31180.228085	1110.332333	1172.115234	223.866302
31180.228085	1110.332333	1170.989258	163.016479
31180.228085	1110.332333	1169.862305	214.409683
31180.228085	1110.332333	1168.735352	146.024216
31180.228085	1110.332333	1167.608398	144.518127
31180.228085	1110.332333	1166.481445	150.580811
31180.228085	1110.332333	1165.353516	37.721279
31180.228085	1110.332333	1164.225586	88.471138
31180.228085	1110.332333	1163.097656	-180.484085
31180.228085	1110.332333	1161.968750	47.321304
31180.228085	1110.332333	1160.840820	-56.651642
31180.228085	1110.332333	1159.711914	-17.526297
31180.228085	1110.332333	1158.583008	111.634041
31180.228085	1110.332333	1157.453125	26.028969
31180.228085	1110.332333	1156.324219	12.200834
31180.228085	1110.332333	1155.194336	-59.199394
31180.228085	1110.332333	1154.064453	17.964867
31180.228085	1110.332333	1152.933594	-63.511578
31180.228085	1110.332333	1151.803711	-7.204253
31180.228085	1110.332333	1150.672852	175.882416
31180.228085	1110.332333	1149.541992	-93.399437
31180.228085	1110.332333	1148.411133	41.622318
31180.228085	1110.332333	1147.279297	99.689117
31180.228085	1110.332333	1146.147461	-62.791718
31180.228085	1110.332333	1145.015625	43.234871
31180.228085	1110.332333	1143.883789	215.730194
31180.228085	1110.332333	1142.750977	48.911682
31180.228085	1110.332333	1141.619141	202.068207
31180.228085	1110.332333	1140.486328	80.581390
31180.228085	1110.332333	1139.352539	211.884796
31180.228085	1110.332333	1138.219727	171.057449
31180.228085	1110.332333	1137.085938	301.040558
31180.228085	1110.332333	1135.952148	271.194336
31180.228085	1110.332333	1134.818359	295.134644
31180.228085	1110.332333	1133.683594	557.226135
31180.228085	1110.332333	1132.549805	592.256714
31180.228085	1110.332333	1131.415039	795.804749
31180.228085	1110.332333	1130.279297	803.276611
31180.228085	1110.332333	1129.144531	967.453491
31180.228085	1110.332333	1128.008789	914.875671
31180.228085	1110.332333	1126.873047	772.959534
31180.228085	1110.332333	1125.737305	928.965820
31180.228085	1110.332333	1124.601563	741.815125
31180.228085	1110.332333	1123.464844	942.466614
31180.228085	1110.332333	1122.328125	764.368774
31180.228085	1110.332333	1121.191406	518.401550
31180.228085	1110.332333	1120.054688	600.124329
31180.228085	1110.332333	1118.916992	763.956604
31180.228085	1110.332333	1117.779297	844.267700
31180.228085	1110.332333	1116.641602	755.736267
31180.228085	1110.332333	1115.503906	854.025635
31180.228085	1110.332333	1114.365234	626.974365
31180.228085	1110.332333	1113.226563	856.739746
31180.228085	1110.332333	1112.087891	658.938171
31180.228085	1110.332333	1110.949219	580.313049
31180.228085	1110.332333	1109.809570	826.663269
31180.228085	1110.332333	1108.669922	780.500610
31180.228085	1110.332333	1107.530273	939.916016
31180.228085	1110.332333	1106.390625	908.719543
31180.228085	1110.332333	1105.250000	939.807007
31180.228085	1110.332333	1104.109375	1175.665649
31180.228085	1110.332333	1102.968750	952.101501
31180.228085	1110.332333	1101.828125	963.666809
31180.228085	1110.332333	1100.686523	1067.926758
31180.228085	1110.332333	1099.544922	1059.660278
31180.228085	1110.332333	1098.403320	1080.025391
31180.228085	1110.332333	1097.261719	1168.023438
31180.228085	1110.332333	1096.120117	1236.296631
31180.228085	1110.332333	1094.977539	1297.973755
31180.228085	1110.332333	1093.834961	1279.649536
31180.228085	1110.332333	1092.691406	981.575439
31180.228085	1110.332333	1091.548828	1315.536499
31180.228085	1110.332333	1090.405273	978.547424
31180.228085	1110.332333	1089.261719	1285.549683
31180.228085	1110.332333	1088.118164	1213.375122
31180.228085	1110.332333	1086.973633	1271.840576
31180.228085	1110.332333	1085.829102	1453.939087
31180.228085	1110.332333	1084.684570	1385.971191
31180.228085	1110.332333	1083.540039	1626.243530
31180.228085	1110.332333	1082.395508	1335.904419
31180.228085	1110.332333	1081.250000	1325.119751
31180.228085	1110.332333	1080.104492	1417.514160
31180.228085	1110.332333	1078.958984	1321.390503
31180.228085	1110.332333	1077.812500	1089.337769
31180.228085	1110.332333	1076.666016	1310.887939
31180.228085	1110.332333	1075.519531	1210.578125
31180.228085	1110.332333	1074.373047	1477.843994
31180.228085	1110.332333	1073.226563	1223.607544
31180.228085	1110.332333	1072.079102	1280.425903
31180.228085	1110.332333	1070.931641	1469.390503
31180.228085	1110.332333	1069.784180	1250.202637
31180.228085	1110.332333	1068.635742	1483.737427
31180.228085	1110.332333	1067.487305	1403.389526
31180.228085	1110.332333	1066.338867	1552.583252
31180.228085	1110.332333	1065.190430	1511.399048
31180.228085	1110.332333	1064.041992	1654.186890
31180.228085	1110.332333	1062.892578	1428.457520
31180.228085	1110.332333	1061.743164	1662.272949
31180.228085	1110.332333	1060.593750	1728.106323
31180.228085	1110.332333	1059.443359	1523.887817
31180.228085	1110.332333	1058.292969	1358.404663
31180.228085	1110.332333	1057.142578	1407.407593
31180.228085	1110.332333	1055.992188	1379.061157
31180.228085	1110.332333	1054.841797	1218.432373
31180.228085	1110.332333	1053.690430	1251.612671
31180.228085	1110.332333	1052.539063	1350.351563
31180.228085	1110.332333	1051.387695	1165.547974
31180.228085	1110.332333	1050.235352	1083.001953
31180.228085	1110.332333	1049.083984	951.408691
31180.228085	1110.332333	1047.931641	909.605286
31180.228085	1110.332333	1046.778320	694.926025
31180.228085	1110.332333	1045.625977	1094.655396
31180.228085	1110.332333	1044.472656	1081.728882
31180.228085	1110.332333	1043.319336	1037.958252
31180.228085	1110.332333	1042.166016	1001.635559
31180.228085	1110.332333	1041.012695	867.585876
31180.228085	1110.332333	1039.858398	942.357544
31180.228085	1110.332333	1038.704102	1011.032776
31180.228085	1110.332333	1037.549805	799.479736
31180.228085	1110.332333	1036.394531	865.804871
31180.228085	1110.332333	1035.239258	1226.671021
31180.228085	1110.332333	1034.083984	1009.010986
31180.228085	1110.332333	1032.928711	992.152039
31180.228085	1110.332333	1031.773438	1011.087524
31180.228085	1110.332333	1030.617188	1159.723877
31180.228085	1110.332333	1029.460938	1114.308838
31180.228085	1110.332333	1028.304688	1147.879028
31180.228085	1110.332333	1027.147461	1382.771851
31180.228085	1110.332333	1025.991211	1538.497437
31180.228085	1110.332333	1024.833984	1344.112427
31180.228085	1110.332333	1023.675781	1314.818604
31180.228085	1110.332333	1022.518555	1061.342163
31180.228085	1110.332333	1021.360352	1183.646729
31180.228085	1110.332333	1020.202148	1069.132446
31180.228085	1110.332333	1019.043945	1165.419678
31180.228085	1110.332333	1017.884766	1100.333130
31180.228085	1110.332333	1016.726563	839.772522
31180.228085	1110.332333	1015.567383	876.934509
31180.228085	1110.332333	1014.407227	922.503540
31180.228085	1110.332333	1013.248047	900.624573
31180.228085	1110.332333	1012.087891	1054.600708
31180.228085	1110.332333	1010.927734	837.997559
31180.228085	1110.332333	1009.767578	964.451233
31180.228085	1110.332333	1008.606445	923.441650
31180.228085	1110.332333	1007.446289	865.070374
31180.228085	1110.332333	1006.285156	1009.979004
31180.228085	1110.332333	1005.123047	826.100220
31180.228085	1110.332333	1003.961914	877.130493
31180.228085	1110.332333	1002.799805	751.020935
31180.228085	1110.332333	1001.637695	788.557190
31180.228085	1110.332333	1000.475586	935.260559
31180.228085	1110.332333	999.312500	1031.541260
31180.228085	1110.332333	998.149414	873.507874
31180.228085	1110.332333	996.986328	902.806641
31180.228085	1110.332333	995.823242	658.103333
31180.228085	1110.332333	994.659180	1023.540222
31180.228085	1110.332333	993.496094	723.588074
31180.228085	1110.332333	992.332031	782.953247
31180.228085	1110.332333	991.166992	698.383301
31180.228085	1110.332333	990.002930	993.166260
31180.228085	1110.332333	988.837891	867.665955
31180.228085	1110.332333	987.672852	763.361328
31180.228085	1110.332333	986.506836	881.065796
31180.228085	1110.332333	985.341797	805.482422
31180.228085	1110.332333	984.175781	575.472168
31180.228085	1110.332333	983.009766	781.280273
31180.228085	1110.332333	981.843750	392.062897
31180.228085	1110.332333	980.676758	665.357361
31180.228085	1110.332333	979.509766	623.339050
31180.228085	1110.332333	978.342773	561.099731
31180.228085	1110.332333	977.175781	845.356262
31180.228085	1110.332333	976.007813	582.950134
31180.228085	1110.332333	974.839844	410.313171
31180.228085	1110.332333	973.671875	563.960938
31180.228085	1110.332333	972.503906	394.485413
31180.228085	1110.332333	971.334961	762.159302
31180.228085	1110.332333	970.166016	696.012451
31180.228085	1110.332333	968.997070	495.316559
31180.228085	1110.332333	967.828125	757.321594
31180.228085	1110.332333	966.658203	733.159424
31180.228085	1110.332333	965.488281	487.751007
31180.228085	1110.332333	964.318359	693.774109
31180.228085	1110.332333	963.148438	712.332458
31180.228085	1110.332333	961.977539	563.080872
31180.228085	1110.332333	960.806641	579.565735
31180.228085	1110.332333	959.635742	561.822327
31180.228085	1110.332333	958.463867	588.222107
31180.228085	1110.332333	957.292969	728.383850
31180.228085	1110.332333	956.121094	717.708435
31180.228085	1110.332333	954.948242	694.197632
31180.228085	1110.332333	953.776367	600.738525
31180.228085	1110.332333	952.603516	611.780090
31180.228085	1110.332333	951.430664	792.166443
31180.228085	1110.332333	950.257813	638.639893
31180.228085	1110.332333	949.084961	683.800232
31180.228085	1110.332333	947.911133	563.231018
31180.228085	1110.332333	946.737305	850.454285
31180.228085	1110.332333	945.563477	600.355103
31180.228085	1110.332333	944.388672	612.938538
31180.228085	1110.332333	943.213867	781.578552
31180.228085	1110.332333	942.039063	545.726501
31180.228085	1110.332333	940.864258	543.325928
31180.228085	1110.332333	939.688477	406.207855
31180.228085	1110.332333	938.513672	545.546509
31180.228085	1110.332333	937.337891	639.667908
31180.228085	1110.332333	936.161133	798.152039
31180.228085	1110.332333	934.985352	540.321960
31180.228085	1110.332333	933.808594	521.040405
31180.228085	1110.332333	932.631836	657.730713
31180.228085	1110.332333	931.454102	630.908997
31180.228085	1110.332333	930.277344	1085.043335
31180.228085	1110.332333	929.099609	574.341553
31180.228085	1110.332333	927.921875	720.489014
31180.228085	1110.332333	926.743164	801.482178
31180.228085	1110.332333	925.565430	887.267761
31180.228085	1110.332333	924.386719	725.311340
31180.228085	1110.332333	923.208008	765.311829
31180.228085	1110.332333	922.028320	531.246033
31180.228085	1110.332333	920.849609	763.381348
31180.228085	1110.332333	919.669922	763.464172
31180.228085	1110.332333	919.474609	620.620056
31180.228085	1110.332333	918.309570	468.250916
31180.228085	1110.332333	917.143555	584.857849
31180.228085	1110.332333	915.977539	583.737610
31180.228085	1110.332333	914.810547	606.585449
31180.228085	1110.332333	913.644531	578.993103
31180.228085	1110.332333	912.477539	664.153870
31180.228085	1110.332333	911.310547	634.100830
31180.228085	1110.332333	910.143555	438.538971
31180.228085	1110.332333	908.975586	470.837219
31180.228085	1110.332333	907.807617	452.751404
31180.228085	1110.332333	906.639648	468.207214
31180.228085	1110.332333	905.471680	356.622498
31180.228085	1110.332333	904.303711	355.282227
31180.228085	1110.332333	903.134766	169.469147
31180.228085	1110.332333	901.965820	213.638443
31180.228085	1110.332333	900.796875	92.555534
31180.228085	1110.332333	899.626953	230.065613
31180.228085	1110.332333	898.457031	343.576935
31180.228085	1110.332333	897.287109	-124.488884
31180.228085	1110.332333	896.117188	34.490967
31180.228085	1110.332333	894.947266	231.676361
31180.228085	1110.332333	893.776367	323.545227
31180.228085	1110.332333	892.605469	348.423706
31180.228085	1110.332333	891.434570	17.084908
31180.228085	1110.332333	890.262695	147.182495
31180.228085	1110.332333	889.091797	293.960876
31180.228085	1110.332333	887.919922	87.083061
31180.228085	1110.332333	886.748047	171.716980
31180.228085	1110.332333	885.575195	134.524017
31180.228085	1110.332333	884.403320	357.619537
31180.228085	1110.332333	883.230469	0.535730
31180.228085	1110.332333	882.057617	-17.471752
31180.228085	1110.332333	880.883789	-54.546227
31180.228085	1110.332333	879.710938	223.327896
31180.228085	1110.332333	878.537109	264.964050
31180.228085	1110.332333	877.362305	196.900803
31180.228085	1110.332333	876.188477	136.038315
31180.228085	1110.332333	875.013672	96.674477
31180.228085	1110.332333	873.839844	90.715187
31180.228085	1110.332333	872.664063	222.987549
31180.228085	1110.332333	871.489258	231.348663
31180.228085	1110.332333	870.313477	34.891392
31180.228085	1110.332333	869.138672	-42.388760
31180.228085	1110.332333	867.962891	-43.422333
31180.228085	1110.332333	866.786133	186.475510
31180.228085	1110.332333	865.610352	211.635986
31180.228085	1110.332333	864.433594	217.782928
31180.228085	1110.332333	863.256836	-2.037662
31180.228085	1110.332333	862.079102	146.925415
31180.228085	1110.332333	860.902344	119.893684
31180.228085	1110.332333	859.724609	66.757103
31180.228085	1110.332333	858.546875	49.332947
31180.228085	1110.332333	857.368164	127.016960
31180.228085	1110.332333	856.190430	157.186554
31180.228085	1110.332333	855.011719	54.354904
31180.228085	1110.332333	853.833008	-122.020348
31180.228085	1110.332333	852.654297	-13.332883
31180.228085	1110.332333	851.474609	17.008396
31180.228085	1110.332333	850.294922	213.531265
31180.228085	1110.332333	849.115234	-150.033035
31180.228085	1110.332333	847.935547	48.906052
31180.228085	1110.332333	846.754883	323.717010
31180.228085	1110.332333	845.575195	67.217758
31180.228085	1110.332333	844.393555	-179.643890
31180.228085	1110.332333	843.212891	2.732358
31180.228085	1110.332333	842.032227	-262.880798
31180.228085	1110.332333	840.850586	-89.942932
31180.228085	1110.332333	839.668945	-18.901529
31180.228085	1110.332333	838.486328	-4.686849
31180.228085	1110.332333	837.304688	64.041656
31180.228085	1110.332333	836.122070	-193.954025
31180.228085	1110.332333	834.939453	-177.190979
31180.228085	1110.332333	833.756836	-44.412014
31180.228085	1110.332333	832.573242	-349.392059
31180.228085	1110.332333	831.389648	-69.847633
31180.228085	1110.332333	830.206055	-336.746246
31180.228085	1110.332333	829.022461	-31.198042
31180.228085	1110.332333	827.838867	-234.052399
31180.228085	1110.332333	826.654297	-129.467987
31180.228085	1110.332333	825.469727	-114.681259
31180.228085	1110.332333	824.284180	84.458717
31180.228085	1110.332333	823.099609	321.367218
31180.228085	1110.332333	821.914063	-74.749763
31180.228085	1110.332333	820.728516	74.832962
31180.228085	1110.332333	819.542969	30.814571
31180.228085	1110.332333	818.356445	62.403675
31180.228085	1110.332333	817.169922	-7.442391
31180.228085	1110.332333	815.983398	106.830933
31180.228085	1110.332333	814.796875	-7.706201
31180.228085	1110.332333	813.609375	35.875553
31180.228085	1110.332333	812.422852	34.691525
31180.228085	1110.332333	811.235352	59.495117
31180.228085	1110.332333	810.046875	261.120148
31180.228085	1110.332333	808.859375	236.486267
31180.228085	1110.332333	807.670898	-0.125616
31180.228085	1110.332333	806.482422	-208.321365
31180.228085	1110.332333	805.293945	195.937637
31180.228085	1110.332333	804.104492	-313.491425
31180.228085	1110.332333	802.915039	5.980646
31180.228085	1110.332333	801.725586	-166.531448
31180.228085	1110.332333	800.536133	-40.075165
31180.228085	1110.332333	799.345703	135.784821
31180.228085	1110.332333	798.155273	88.166718
31180.228085	1110.332333	796.964844	127.628441
31180.228085	1110.332333	795.774414	-107.963531
31180.228085	1110.332333	794.583008	-268.188507
31180.228085	1110.332333	793.392578	222.702682
31180.228085	1110.332333	792.200195	-198.247055
31180.228085	1110.332333	791.008789	-116.247322
31180.228085	1110.332333	789.816406	-247.968628
31180.228085	1110.332333	788.625000	200.421738
31180.228085	1110.332333	787.432617	28.862707
31180.228085	1110.332333	786.239258	-43.996193
31180.228085	1110.332333	785.046875	-151.989548
31180.228085	1110.332333	783.853516	-83.923424
31180.228085	1110.332333	782.660156	-39.305565
31180.228085	1110.332333	781.465820	17.061111
31180.228085	1110.332333	780.272461	-36.771637
31180.228085	1110.332333	779.078125	29.019123
31180.228085	1110.332333	777.883789	144.036758
31180.228085	1110.332333	776.688477	106.724380
31180.228085	1110.332333	775.494141	-43.005238
31180.228085	1110.332333	774.298828	22.862314
31180.228085	1110.332333	773.103516	142.594223
31180.228085	1110.332333	771.907227	117.139458
31180.228085	1110.332333	770.711914	117.467072
31180.228085	1110.332333	769.515625	-1.539291
31180.228085	1110.332333	768.318359	22.267399
31180.228085	1110.332333	767.122070	67.137253
31180.228085	1110.332333	765.924805	-33.006050
31180.228085	1110.332333	764.727539	175.595520
31180.228085	1110.332333	763.530273	49.789036
31180.228085	1110.332333	762.333008	92.353157
31180.228085	1110.332333	761.134766	247.094147
31180.228085	1110.332333	759.936523	114.388016
31180.228085	1110.332333	758.738281	93.877625
31180.228085	1110.332333	757.540039	255.561249
31180.228085	1110.332333	756.340820	64.584908
31180.228085	1110.332333	755.141602	62.799084
31180.228085	1110.332333	753.942383	-60.356609
31180.228085	1110.332333	752.742188	47.574314
31180.228085	1110.332333	751.541992	337.446167
31180.228085	1110.332333	750.341797	72.020699
31180.228085	1110.332333	749.141602	-20.718586
31180.228085	1110.332333	747.941406	192.028122
31180.228085	1110.332333	746.740234	269.472076
31180.228085	1110.332333	745.539063	174.400040
31180.228085	1110.332333	744.337891	233.151825
31180.228085	1110.332333	743.135742	280.218842
31180.228085	1110.332333	741.933594	397.129059
31180.228085	1110.332333	740.731445	374.245636
31180.228085	1110.332333	739.529297	360.666077
31180.228085	1110.332333	738.326172	46.783043
31180.228085	1110.332333	737.124023	205.452393
31180.228085	1110.332333	735.919922	310.516235
31180.228085	1110.332333	734.716797	408.526581
31180.228085	1110.332333	733.513672	187.822266
31180.228085	1110.332333	732.309570	290.406036
31180.228085	1110.332333	731.105469	360.364410
31180.228085	1110.332333	729.900391	341.932465
31180.228085	1110.332333	728.696289	172.408676
31180.228085	1110.332333	727.491211	358.402130
31180.228085	1110.332333	726.286133	541.952515
31180.228085	1110.332333	725.080078	430.427429
31180.228085	1110.332333	723.874023	437.319855
31180.228085	1110.332333	722.668945	502.195038
31180.228085	1110.332333	721.461914	437.015778
31180.228085	1110.332333	720.255859	524.961060
31180.228085	1110.332333	719.048828	763.613892
31180.228085	1110.332333	717.841797	654.174255
31180.228085	1110.332333	716.634766	635.161377
31180.228085	1110.332333	715.427734	479.291473
31180.228085	1110.332333	714.219727	641.002075
31180.228085	1110.332333	713.011719	693.645752
31180.228085	1110.332333	711.803711	426.431030
31180.228085	1110.332333	710.594727	288.984558
31180.228085	1110.332333	709.385742	573.059448
31180.228085	1110.332333	708.176758	456.323151
31180.228085	1110.332333	706.967773	807.218628
31180.228085	1110.332333	705.758789	530.598816
31180.228085	1110.332333	704.548828	702.965149
31180.228085	1110.332333	703.338867	715.522095
31180.228085	1110.332333	702.127930	464.272827
31180.228085	1110.332333	700.917969	583.070862
31180.228085	1110.332333	699.707031	417.313507
31180.228085	1110.332333	698.496094	563.613831
31180.228085	1110.332333	697.285156	531.781799
31180.228085	1110.332333	696.073242	631.574158
31180.228085	1110.332333	694.861328	696.559265
31180.228085	1110.332333	693.649414	574.310852
31180.228085	1110.332333	692.436523	502.806000
31180.228085	1110.332333	691.224609	717.514771
31180.228085	1110.332333	690.011719	417.243347
31180.228085	1110.332333	688.798828	601.638672
31180.228085	1110.332333	687.584961	737.376709
31180.228085	1110.332333	686.372070	713.752502
31180.228085	1110.332333	685.158203	763.815674
31180.228085	1110.332333	683.943359	1173.456055
31180.228085	1110.332333	682.729492	925.731201
31180.228085	1110.332333	681.514648	1118.227051
31180.228085	1110.332333	680.299805	1027.050415
31180.228085	1110.332333	679.084961	1150.044678
31180.228085	1110.332333	677.869141	1242.896606
31180.228085	1110.332333	676.653320	1411.563110
31180.228085	1110.332333	675.437500	1257.653076
31180.228085	1110.332333	674.221680	1096.750366
31180.228085	1110.332333	673.004883	1304.017944
31180.228085	1110.332333	671.789063	981.786926
31180.228085	1110.332333	670.571289	1529.167847
31180.228085	1110.332333	669.354492	1004.295959
31180.228085	1110.332333	668.136719	1325.754761
31180.228085	1110.332333	666.919922	1373.312134
31180.228085	1110.332333	665.701172	1275.864136
31180.228085	1110.332333	664.483398	1196.674683
31180.228085	1110.332333	663.264648	820.941650
31180.228085	1110.332333	662.045898	1118.279785
31180.228085	1110.332333	660.827148	1125.929199
31180.228085	1110.332333	659.608398	1085.177002
31180.228085	1110.332333	658.388672	1182.005371
31180.228085	1110.332333	657.168945	968.748474
31180.228085	1110.332333	655.949219	1062.900391
31180.228085	1110.332333	654.728516	1351.841431
31180.228085	1110.332333	653.507813	1211.527344
31180.228085	1110.332333	652.287109	1190.335083
31180.228085	1110.332333	651.066406	1237.749634
31180.228085	1110.332333	649.844727	1411.025391
31180.228085	1110.332333	648.623047	1318.173584
31180.228085	1110.332333	647.401367	1362.649902
31180.228085	1110.332333	646.179688	1317.563843
31180.228085	1110.332333	644.957031	1519.657959
31180.228085	1110.332333	643.734375	1700.858521
31180.228085	1110.332333	642.511719	1391.827881
31180.228085	1110.332333	641.289063	1378.006226
31180.228085	1110.332333	640.065430	1304.475342
31180.228085	1110.332333	638.841797	1422.963013
31180.228085	1110.332333	637.618164	1344.462158
31180.228085	1110.332333	636.393555	1519.643921
31180.228085	1110.332333	635.168945	1529.904785
31180.228085	1110.332333	633.944336	1818.849121
31180.228085	1110.332333	632.719727	1798.901489
31180.228085	1110.332333	631.494141	1518.238770
31180.228085	1110.332333	630.269531	1541.338379
31180.228085	1110.332333	629.042969	1794.898071
31180.228085	1110.332333	627.817383	1500.058228
31180.228085	1110.332333	626.590820	1371.789917
31180.228085	1110.332333	625.365234	1291.296509
31180.228085	1110.332333	624.137695	1301.893433
31180.228085	1110.332333	622.911133	1353.338379
31180.228085	1110.332333	621.683594	1308.722290
31180.228085	1110.332333	620.456055	1211.442261
31180.228085	1110.332333	619.228516	1405.853394
31180.228085	1110.332333	618.000977	1595.398560
31180.228085	1110.332333	616.772461	1326.489502
31180.228085	1110.332333	615.543945	1428.916870
31180.228085	1110.332333	614.314453	1316.902710
31180.228085	1110.332333	613.085938	1038.435791
31180.228085	1110.332333	611.856445	1192.550293
31180.228085	1110.332333	610.626953	943.365723
31180.228085	1110.332333	609.397461	803.325623
31180.228085	1110.332333	608.166992	999.946472
31180.228085	1110.332333	606.936523	1275.897339
31180.228085	1110.332333	605.706055	884.942383
31180.228085	1110.332333	604.474609	659.953003
31180.228085	1110.332333	603.244141	991.972290
31180.228085	1110.332333	602.012695	821.168884
31180.228085	1110.332333	600.780273	1093.441162
31180.228085	1110.332333	599.548828	792.702698
31180.228085	1110.332333	598.316406	800.857483
31180.228085	1110.332333	597.083984	995.055115
31180.228085	1110.332333	595.851563	1166.236084
31180.228085	1110.332333	594.618164	817.140259
31180.228085	1110.332333	593.384766	719.957153
31180.228085	1110.332333	592.151367	717.920288
31180.228085	1110.332333	590.917969	763.316040
31180.228085	1110.332333	589.683594	817.536316
31180.228085	1110.332333	588.449219	715.013855
31180.228085	1110.332333	587.214844	696.222656
31180.228085	1110.332333	585.979492	820.046631
31180.228085	1110.332333	584.745117	800.814331
31180.228085	1110.332333	583.509766	359.842712
31180.228085	1110.332333	582.273438	503.406555
31180.228085	1110.332333	581.038086	1015.954712
31180.228085	1110.332333	579.801758	701.410889
31180.228085	1110.332333	578.565430	916.647217
31180.228085	1110.332333	577.329102	900.677429
31180.228085	1110.332333	576.091797	760.015686
31180.228085	1110.332333	574.854492	1119.312134
31180.228085	1110.332333	573.617188	1181.883545
31180.228085	1110.332333	572.378906	1020.290649
31180.228085	1110.332333	571.141602	783.964050
31180.228085	1110.332333	569.903320	610.839355
31180.228085	1110.332333	568.664063	555.131653
31180.228085	1110.332333	567.425781	786.293945
31180.228085	1110.332333	566.186523	730.206665
31180.228085	1110.332333	564.947266	1324.558838
31180.228085	1110.332333	563.708008	920.210938
31180.228085	1110.332333	562.467773	841.006348
31180.228085	1110.332333	561.227539	967.103699
31180.228085	1110.332333	559.987305	1016.238586
31180.228085	1110.332333	558.747070	839.529480
31180.228085	1110.332333	557.505859	940.220215
31180.228085	1110.332333	556.264648	952.741577
31180.228085	1110.332333	555.023438	768.905640
31180.228085	1110.332333	553.781250	681.932678
31180.228085	1110.332333	552.539063	748.132935
31180.228085	1110.332333	551.296875	591.045349
31180.228085	1110.332333	550.054688	535.281128
31180.228085	1110.332333	548.811523	700.156128
31180.228085	1110.332333	547.569336	835.565979
31180.228085	1110.332333	546.325195	662.262756
31180.228085	1110.332333	545.082031	732.066956
31180.228085	1110.332333	543.837891	387.553558
31180.228085	1110.332333	542.593750	688.918884
31180.228085	1110.332333	541.349609	744.807861
31180.228085	1110.332333	540.105469	931.029663
31180.228085	1110.332333	538.860352	536.839417
31180.228085	1110.332333	537.615234	524.947754
31180.228085	1110.332333	536.369141	757.975098
31180.228085	1110.332333	535.124023	552.577209
31180.228085	1110.332333	533.877930	526.921997
31180.228085	1110.332333	532.631836	719.107361
31180.228085	1110.332333	531.384766	363.093567
31180.228085	1110.332333	530.138672	290.113190
31180.228085	1110.332333	528.891602	565.062500
31180.228085	1110.332333	527.643555	671.473572
31180.228085	1110.332333	526.396484	697.013123
31180.228085	1110.332333	525.148438	338.819397
31180.228085	1110.332333	523.900391	537.026184
31180.228085	1110.332333	522.652344	421.136597
31180.228085	1110.332333	521.403320	45.157963
31180.228085	1110.332333	520.154297	222.999573
31180.228085	1110.332333	518.905273	234.891281
31180.228085	1110.332333	517.656250	-89.347191
31180.228085	1110.332333	516.406250	-43.841312
31180.228085	1110.332333	515.156250	-224.578049
31180.228085	1110.332333	513.906250	29.174482
31180.228085	1110.332333	512.655273	41.013569
31180.228085	1110.332333	511.404297	220.725739
31180.228085	1110.332333	510.153320	-9.144581
31180.228085	1110.332333	508.902344	63.138489
31180.228085	1110.332333	507.650391	-39.077660
31180.228085	1110.332333	506.398438	35.452454
31180.228085	1110.332333	505.146484	-15.226716
31180.228085	1110.332333	503.893555	144.267487
31180.228085	1110.332333	502.641602	-103.003510
31180.228085	1110.332333	501.388672	-46.250462
31180.228085	1110.332333	500.134766	39.559467
31180.228085	1110.332333	498.881836	-68.903267
31180.228085	1110.332333	497.627930	14.768009
31180.228085	1110.332333	496.374023	-207.382843
31180.228085	1110.332333	495.119141	46.048576
31180.228085	1110.332333	493.865234	-59.812851
31180.228085	1110.332333	492.610352	102.174301
31180.228085	1110.332333	491.355469	-92.716057
31180.228085	1110.332333	490.099609	-102.339195
31180.228085	1110.332333	488.843750	-223.337494
31180.228085	1110.332333	487.587891	72.674797
31180.228085	1110.332333	486.332031	-97.119736
31180.228085	1110.332333	485.075195	34.066311
31180.228085	1110.332333	483.818359	-6.218689
31180.228085	1110.332333	482.561523	-39.675240
31180.228085	1110.332333	481.304688	53.937466
31180.228085	1110.332333	480.046875	63.033867
31180.228085	1110.332333	478.789063	-188.154892
31180.228085	1110.332333	477.531250	-87.489891
31180.228085	1110.332333	476.272461	-200.318390
31180.228085	1110.332333	475.013672	67.420128
31180.228085	1110.332333	473.754883	-76.219795
31180.228085	1110.332333	472.496094	124.992012
31180.228085	1110.332333	471.236328	-51.631580
31180.228085	1110.332333	469.976563	-161.339752
31180.228085	1110.332333	468.716797	-30.855917
31180.228085	1110.332333	467.456055	50.857311
31180.228085	1110.332333	466.196289	88.308212
31180.228085	1110.332333	464.935547	-136.117142
31180.228085	1110.332333	463.673828	-33.927666
31180.228085	1110.332333	462.413086	121.684250
31180.228085	1110.332333	461.151367	130.940857
31180.228085	1110.332333	459.889648	107.103935
31180.228085	1110.332333	458.626953	110.071808
31180.228085	1110.332333	457.364258	155.365265
31180.228085	1110.332333	456.101563	-45.274487
31180.228085	1110.332333	454.838867	160.022461
31180.228085	1110.332333	453.575195	28.546579
31180.228085	1110.332333	452.312500	-7.389241
31180.228085	1110.332333	451.047852	18.888138
31180.228085	1110.332333	449.784180	145.025360
31180.228085	1110.332333	448.519531	-229.141647
31180.228085	1110.332333	447.254883	-131.410126
31180.228085	1110.332333	445.990234	26.230232
31180.228085	1110.332333	444.725586	91.053070
31180.228085	1110.332333	443.459961	425.935425
31180.228085	1110.332333	442.194336	508.702972
31180.228085	1110.332333	440.927734	441.228363
31180.228085	1110.332333	439.662109	522.107056
31180.228085	1110.332333	438.395508	110.182213
31180.228085	1110.332333	437.127930	328.444336
31180.228085	1110.332333	435.861328	12.090164
31180.228085	1110.332333	434.593750	95.858963
31180.228085	1110.332333	433.326172	164.291168
31180.228085	1110.332333	432.058594	318.960907
31180.228085	1110.332333	430.790039	456.037109
31180.228085	1110.332333	429.521484	443.111145
31180.228085	1110.332333	428.252930	395.015320
31180.228085	1110.332333	426.984375	629.450623
31180.228085	1110.332333	425.714844	343.349945
31180.228085	1110.332333	424.445313	432.366364
31180.228085	1110.332333	423.174805	199.539230
31180.228085	1110.332333	421.905273	493.725037
31180.228085	1110.332333	420.634766	333.872314
31180.228085	1110.332333	419.364258	370.244659
31180.228085	1110.332333	418.092773	408.847809
31180.228085	1110.332333	416.822266	236.058716
31180.228085	1110.332333	415.550781	378.225983
31180.228085	1110.332333	414.278320	438.882202
31180.228085	1110.332333	413.006836	352.056396
31180.228085	1110.332333	411.734375	58.399723
31180.228085	1110.332333	410.461914	24.428373
31180.228085	1110.332333	409.188477	-55.778877
31180.228085	1110.332333	407.916016	-270.154968
31180.228085	1110.332333	406.642578	71.690018
31180.228085	1110.332333	405.368164	-226.365433
31180.228085	1110.332333	404.094727	141.450607
31180.228085	1110.332333	402.820313	120.058220
31180.228085	1110.332333	401.545898	-22.313231
31180.228085	1110.332333	400.270508	105.293022
31180.228085	1110.332333	398.996094	177.738022
31180.228085	1110.332333	397.720703	155.501450
31180.228085	1110.332333	396.444336	124.208809
31180.228085	1110.332333	395.168945	349.361847
31180.228085	1110.332333	393.892578	378.832428
31180.228085	1110.332333	392.616211	383.801086
31180.228085	1110.332333	391.339844	335.749054
31180.228085	1110.332333	390.062500	524.054565
31180.228085	1110.332333	388.785156	413.727570
31180.228085	1110.332333	387.507813	311.724426
31180.228085	1110.332333	386.229492	224.563187
31180.228085	1110.332333	384.951172	169.729767
31180.228085	1110.332333	383.672852	208.487350
31180.228085	1110.332333	382.394531	185.283493
31180.228085	1110.332333	381.115234	27.863661
31180.228085	1110.332333	379.835938	9.852902
31180.228085	1110.332333	378.556641	21.716223
31180.228085	1110.332333	377.277344	183.706329
31180.228085	1110.332333	375.997070	93.232666
31180.228085	1110.332333	374.716797	144.024292
31180.228085	1110.332333	373.435547	416.804596
31180.228085	1110.332333	372.155273	340.959473
31180.228085	1110.332333	370.874023	513.179626
31180.228085	1110.332333	369.591797	227.587128
31180.228085	1110.332333	368.310547	198.712494
31180.228085	1110.332333	367.028320	57.228741
31180.228085	1110.332333	365.746094	252.931366
31180.228085	1110.332333	364.463867	193.996964
31180.228085	1110.332333	363.180664	107.466499
31180.228085	1110.332333	361.897461	307.506104
31180.228085	1110.332333	360.614258	423.025360
31180.228085	1110.332333	359.330078	11.261244
31180.228085	1110.332333	358.045898	330.619843
31180.228085	1110.332333	356.761719	253.518677
31180.228085	1110.332333	355.477539	148.474945
31180.228085	1110.332333	354.192383	13.214428
31180.228085	1110.332333	352.907227	124.384483
31180.228085	1110.332333	351.622070	-119.396393
31180.228085	1110.332333	350.336914	566.790955
31180.228085	1110.332333	349.050781	-49.318981
31180.228085	1110.332333	347.764648	42.108013
31180.228085	1110.332333	346.477539	159.335403
31180.228085	1110.332333	345.191406	49.968304
31180.228085	1110.332333	343.904297	172.934845
31180.228085	1110.332333	342.616211	136.529175
31180.228085	1110.332333	341.329102	60.443027
31180.228085	1110.332333	340.041016	-62.024227
31180.228085	1110.332333	338.752930	34.245117
31180.228085	1110.332333	337.463867	138.180008
31180.228085	1110.332333	336.175781	47.755142
31180.228085	1110.332333	334.886719	-352.248840
31180.228085	1110.332333	333.596680	-171.471298
31180.228085	1110.332333	332.307617	-18.137709
31180.228085	1110.332333	331.017578	-44.422768
31180.228085	1110.332333	329.727539	-122.236397
31180.228085	1110.332333	328.436523	-238.728760
31180.228085	1110.332333	327.146484	-85.846802
31180.228085	1110.332333	325.855469	-0.188585
31180.228085	1110.332333	324.563477	-380.782806
31180.228085	1110.332333	323.272461	-225.848007
31180.228085	1110.332333	321.980469	-153.696533
31180.228085	1110.332333	320.688477	-79.824623
31180.228085	1110.332333	319.395508	-117.132927
31180.228085	1110.332333	318.103516	81.020805
31180.228085	1110.332333	316.810547	102.719780
31180.228085	1110.332333	315.516602	-110.539032
31180.228085	1110.332333	314.223633	82.093002
31180.228085	1110.332333	312.929688	130.338333
31180.228085	1110.332333	311.635742	231.103149
31180.228085	1110.332333	310.340820	-37.715431
31180.228085	1110.332333	309.045898	-319.134125
31180.228085	1110.332333	307.750977	22.288986
31180.228085	1110.332333	306.456055	6.814397
31180.228085	1110.332333	305.160156	34.114872
31180.228085	1110.332333	303.865234	13.531502
31180.228085	1110.332333	302.568359	130.189789
31180.228085	1110.332333	301.272461	343.234467
31180.228085	1110.332333	299.975586	561.386658
31180.228085	1110.332333	298.678711	551.459167
