#X		#Y		#Wave		#Intensity
31421.834840	1096.481000	1999.980469	-191.055252
31421.834840	1096.481000	1999.016602	98.197044
31421.834840	1096.481000	1998.052734	7.163651
31421.834840	1096.481000	1997.087891	113.948921
31421.834840	1096.481000	1996.123047	-54.792904
31421.834840	1096.481000	1995.158203	-169.427094
31421.834840	1096.481000	1994.193359	-78.888489
31421.834840	1096.481000	1993.228516	80.527397
31421.834840	1096.481000	1992.262695	-109.612801
31421.834840	1096.481000	1991.297852	-82.261925
31421.834840	1096.481000	1990.332031	36.271778
31421.834840	1096.481000	1989.366211	-13.880547
31421.834840	1096.481000	1988.399414	200.346146
31421.834840	1096.481000	1987.433594	97.515778
31421.834840	1096.481000	1986.466797	-57.546200
31421.834840	1096.481000	1985.500977	-44.754414
31421.834840	1096.481000	1984.534180	160.545746
31421.834840	1096.481000	1983.567383	-17.655409
31421.834840	1096.481000	1982.599609	315.460602
31421.834840	1096.481000	1981.632813	302.244446
31421.834840	1096.481000	1980.665039	93.601295
31421.834840	1096.481000	1979.697266	195.965149
31421.834840	1096.481000	1978.729492	112.821106
31421.834840	1096.481000	1977.761719	268.942078
31421.834840	1096.481000	1976.792969	256.907288
31421.834840	1096.481000	1975.825195	-83.615166
31421.834840	1096.481000	1974.856445	234.608368
31421.834840	1096.481000	1973.887695	123.214432
31421.834840	1096.481000	1972.918945	107.848946
31421.834840	1096.481000	1971.949219	35.566528
31421.834840	1096.481000	1970.980469	81.465233
31421.834840	1096.481000	1970.010742	33.480648
31421.834840	1096.481000	1969.041016	229.349030
31421.834840	1096.481000	1968.071289	282.036652
31421.834840	1096.481000	1967.101563	-72.009010
31421.834840	1096.481000	1966.130859	83.854332
31421.834840	1096.481000	1965.161133	-134.873825
31421.834840	1096.481000	1964.190430	30.489872
31421.834840	1096.481000	1963.219727	33.152390
31421.834840	1096.481000	1962.249023	289.225372
31421.834840	1096.481000	1961.277344	-82.520561
31421.834840	1096.481000	1960.306641	55.109936
31421.834840	1096.481000	1959.334961	207.336121
31421.834840	1096.481000	1958.363281	78.975174
31421.834840	1096.481000	1957.391602	100.573479
31421.834840	1096.481000	1956.419922	217.957565
31421.834840	1096.481000	1955.447266	-33.560665
31421.834840	1096.481000	1954.474609	108.195190
31421.834840	1096.481000	1953.501953	247.352966
31421.834840	1096.481000	1952.529297	133.298126
31421.834840	1096.481000	1951.556641	68.339851
31421.834840	1096.481000	1950.583984	-104.740173
31421.834840	1096.481000	1949.610352	88.071747
31421.834840	1096.481000	1948.636719	59.774914
31421.834840	1096.481000	1947.663086	-37.308380
31421.834840	1096.481000	1946.689453	44.750469
31421.834840	1096.481000	1945.715820	-118.662064
31421.834840	1096.481000	1944.741211	115.385727
31421.834840	1096.481000	1943.767578	285.519379
31421.834840	1096.481000	1942.792969	112.198067
31421.834840	1096.481000	1941.818359	152.225327
31421.834840	1096.481000	1940.842773	-45.602577
31421.834840	1096.481000	1939.868164	94.859306
31421.834840	1096.481000	1938.892578	208.278351
31421.834840	1096.481000	1937.916992	255.469498
31421.834840	1096.481000	1936.941406	143.381622
31421.834840	1096.481000	1935.965820	-149.937881
31421.834840	1096.481000	1934.990234	-26.870398
31421.834840	1096.481000	1934.013672	247.929153
31421.834840	1096.481000	1933.037109	-118.746132
31421.834840	1096.481000	1932.060547	136.352859
31421.834840	1096.481000	1931.083984	85.465416
31421.834840	1096.481000	1930.107422	232.754532
31421.834840	1096.481000	1929.129883	196.520798
31421.834840	1096.481000	1928.153320	-186.989960
31421.834840	1096.481000	1927.175781	116.730659
31421.834840	1096.481000	1926.198242	-12.385184
31421.834840	1096.481000	1925.219727	-29.021648
31421.834840	1096.481000	1924.242188	-45.656857
31421.834840	1096.481000	1923.263672	11.013103
31421.834840	1096.481000	1922.285156	-37.383629
31421.834840	1096.481000	1921.306641	31.473354
31421.834840	1096.481000	1920.328125	92.979576
31421.834840	1096.481000	1919.349609	244.800018
31421.834840	1096.481000	1918.370117	-201.497131
31421.834840	1096.481000	1917.391602	-113.128822
31421.834840	1096.481000	1916.412109	-12.588556
31421.834840	1096.481000	1915.431641	319.692657
31421.834840	1096.481000	1914.452148	37.159752
31421.834840	1096.481000	1913.472656	49.833679
31421.834840	1096.481000	1912.492188	228.316437
31421.834840	1096.481000	1911.511719	-15.016638
31421.834840	1096.481000	1910.531250	4.990031
31421.834840	1096.481000	1909.550781	-28.617437
31421.834840	1096.481000	1908.569336	-171.847641
31421.834840	1096.481000	1907.588867	-76.284508
31421.834840	1096.481000	1906.607422	206.793747
31421.834840	1096.481000	1905.625977	-38.657825
31421.834840	1096.481000	1904.644531	190.758163
31421.834840	1096.481000	1903.662109	42.785801
31421.834840	1096.481000	1902.680664	-66.184586
31421.834840	1096.481000	1901.698242	2.527591
31421.834840	1096.481000	1900.715820	-179.368042
31421.834840	1096.481000	1899.733398	-8.487054
31421.834840	1096.481000	1898.750000	74.785538
31421.834840	1096.481000	1897.767578	-48.649506
31421.834840	1096.481000	1896.784180	229.094284
31421.834840	1096.481000	1895.800781	-224.876282
31421.834840	1096.481000	1894.817383	106.266403
31421.834840	1096.481000	1893.833984	182.170181
31421.834840	1096.481000	1892.850586	-113.627487
31421.834840	1096.481000	1891.866211	-15.846847
31421.834840	1096.481000	1890.881836	-20.093210
31421.834840	1096.481000	1889.897461	157.754761
31421.834840	1096.481000	1888.913086	-26.152332
31421.834840	1096.481000	1887.927734	122.505150
31421.834840	1096.481000	1886.943359	174.042542
31421.834840	1096.481000	1885.958008	-109.239037
31421.834840	1096.481000	1884.972656	51.468990
31421.834840	1096.481000	1883.987305	-234.117508
31421.834840	1096.481000	1883.001953	-155.896942
31421.834840	1096.481000	1882.015625	41.077072
31421.834840	1096.481000	1881.029297	27.098351
31421.834840	1096.481000	1880.042969	-25.657381
31421.834840	1096.481000	1879.056641	-148.666763
31421.834840	1096.481000	1878.070313	244.337708
31421.834840	1096.481000	1877.083984	-14.330643
31421.834840	1096.481000	1876.096680	303.410126
31421.834840	1096.481000	1875.109375	173.118408
31421.834840	1096.481000	1874.122070	-12.815365
31421.834840	1096.481000	1873.134766	-215.636520
31421.834840	1096.481000	1872.146484	-84.479065
31421.834840	1096.481000	1871.159180	-180.800232
31421.834840	1096.481000	1870.170898	228.425034
31421.834840	1096.481000	1869.182617	20.795164
31421.834840	1096.481000	1868.194336	180.741501
31421.834840	1096.481000	1867.205078	147.207977
31421.834840	1096.481000	1866.216797	70.155457
31421.834840	1096.481000	1865.227539	-108.389297
31421.834840	1096.481000	1864.238281	3.035426
31421.834840	1096.481000	1863.249023	-151.331436
31421.834840	1096.481000	1862.259766	170.120132
31421.834840	1096.481000	1861.269531	-20.503113
31421.834840	1096.481000	1860.279297	192.095612
31421.834840	1096.481000	1859.290039	394.924133
31421.834840	1096.481000	1858.298828	71.526817
31421.834840	1096.481000	1857.308594	-39.450993
31421.834840	1096.481000	1856.318359	32.921566
31421.834840	1096.481000	1855.327148	66.634804
31421.834840	1096.481000	1854.335938	-34.754566
31421.834840	1096.481000	1853.344727	167.650528
31421.834840	1096.481000	1852.353516	225.296967
31421.834840	1096.481000	1851.362305	109.340607
31421.834840	1096.481000	1850.370117	56.034233
31421.834840	1096.481000	1849.377930	135.210144
31421.834840	1096.481000	1848.385742	16.781034
31421.834840	1096.481000	1847.393555	192.168396
31421.834840	1096.481000	1846.401367	85.708771
31421.834840	1096.481000	1845.408203	24.976936
31421.834840	1096.481000	1844.415039	101.411896
31421.834840	1096.481000	1843.421875	194.608002
31421.834840	1096.481000	1842.428711	311.770966
31421.834840	1096.481000	1841.435547	173.829071
31421.834840	1096.481000	1840.441406	134.491684
31421.834840	1096.481000	1839.448242	160.035339
31421.834840	1096.481000	1838.454102	46.055710
31421.834840	1096.481000	1837.459961	-22.274393
31421.834840	1096.481000	1836.464844	164.115433
31421.834840	1096.481000	1835.470703	218.205414
31421.834840	1096.481000	1834.475586	-6.485434
31421.834840	1096.481000	1833.480469	321.307770
31421.834840	1096.481000	1832.485352	387.132599
31421.834840	1096.481000	1831.490234	354.411621
31421.834840	1096.481000	1830.495117	252.008804
31421.834840	1096.481000	1829.499023	147.166992
31421.834840	1096.481000	1828.502930	97.482513
31421.834840	1096.481000	1827.506836	237.285217
31421.834840	1096.481000	1826.510742	89.090508
31421.834840	1096.481000	1825.513672	228.679993
31421.834840	1096.481000	1824.517578	214.665497
31421.834840	1096.481000	1823.520508	255.713943
31421.834840	1096.481000	1822.523438	64.145844
31421.834840	1096.481000	1821.526367	224.867294
31421.834840	1096.481000	1820.529297	205.728714
31421.834840	1096.481000	1819.531250	181.715439
31421.834840	1096.481000	1818.533203	260.618073
31421.834840	1096.481000	1817.535156	-134.772491
31421.834840	1096.481000	1816.537109	30.174555
31421.834840	1096.481000	1815.539063	142.299927
31421.834840	1096.481000	1814.540039	122.647179
31421.834840	1096.481000	1813.541992	229.738342
31421.834840	1096.481000	1812.542969	238.595078
31421.834840	1096.481000	1811.543945	91.865166
31421.834840	1096.481000	1810.543945	107.721725
31421.834840	1096.481000	1809.544922	197.602661
31421.834840	1096.481000	1808.544922	-49.749401
31421.834840	1096.481000	1807.544922	51.874340
31421.834840	1096.481000	1806.544922	112.729813
31421.834840	1096.481000	1805.544922	10.980195
31421.834840	1096.481000	1804.544922	119.391235
31421.834840	1096.481000	1803.543945	160.775116
31421.834840	1096.481000	1802.542969	-98.854088
31421.834840	1096.481000	1801.541992	176.325073
31421.834840	1096.481000	1800.541016	-9.422569
31421.834840	1096.481000	1799.539063	265.415039
31421.834840	1096.481000	1798.538086	3.143449
31421.834840	1096.481000	1797.536133	96.336281
31421.834840	1096.481000	1796.534180	58.189972
31421.834840	1096.481000	1795.532227	39.026093
31421.834840	1096.481000	1794.529297	-1.708182
31421.834840	1096.481000	1793.527344	-121.207146
31421.834840	1096.481000	1792.524414	338.416351
31421.834840	1096.481000	1791.521484	30.402308
31421.834840	1096.481000	1790.518555	101.225739
31421.834840	1096.481000	1789.514648	102.818733
31421.834840	1096.481000	1788.511719	271.019409
31421.834840	1096.481000	1787.507813	98.513771
31421.834840	1096.481000	1786.503906	264.029755
31421.834840	1096.481000	1785.500000	262.739746
31421.834840	1096.481000	1784.496094	263.710632
31421.834840	1096.481000	1783.491211	36.128895
31421.834840	1096.481000	1782.486328	82.098000
31421.834840	1096.481000	1781.481445	-14.783796
31421.834840	1096.481000	1780.476563	147.463593
31421.834840	1096.481000	1779.471680	26.586880
31421.834840	1096.481000	1778.465820	-68.222115
31421.834840	1096.481000	1777.460938	-1.493619
31421.834840	1096.481000	1776.455078	65.082039
31421.834840	1096.481000	1775.449219	-163.096741
31421.834840	1096.481000	1774.442383	-56.387344
31421.834840	1096.481000	1773.436523	263.908569
31421.834840	1096.481000	1772.429688	-0.172669
31421.834840	1096.481000	1771.422852	63.339222
31421.834840	1096.481000	1770.416016	143.318100
31421.834840	1096.481000	1769.409180	116.350731
31421.834840	1096.481000	1768.402344	-91.056145
31421.834840	1096.481000	1767.394531	31.224752
31421.834840	1096.481000	1766.386719	167.563782
31421.834840	1096.481000	1765.378906	-92.287148
31421.834840	1096.481000	1764.371094	-51.062443
31421.834840	1096.481000	1763.362305	11.346247
31421.834840	1096.481000	1762.354492	111.533638
31421.834840	1096.481000	1761.345703	152.311096
31421.834840	1096.481000	1760.336914	88.707016
31421.834840	1096.481000	1759.328125	20.263504
31421.834840	1096.481000	1758.318359	-5.659636
31421.834840	1096.481000	1757.308594	18.022108
31421.834840	1096.481000	1756.299805	-133.600403
31421.834840	1096.481000	1755.290039	218.834656
31421.834840	1096.481000	1754.279297	197.113266
31421.834840	1096.481000	1753.269531	187.113678
31421.834840	1096.481000	1752.258789	117.845551
31421.834840	1096.481000	1751.249023	-29.557465
31421.834840	1096.481000	1750.238281	-84.820541
31421.834840	1096.481000	1749.226563	11.107056
31421.834840	1096.481000	1748.215820	-18.391224
31421.834840	1096.481000	1747.204102	6.341624
31421.834840	1096.481000	1746.193359	212.883896
31421.834840	1096.481000	1745.181641	211.329681
31421.834840	1096.481000	1744.168945	167.128235
31421.834840	1096.481000	1743.157227	-155.817154
31421.834840	1096.481000	1742.144531	-30.187445
31421.834840	1096.481000	1741.132813	-88.838654
31421.834840	1096.481000	1740.120117	-39.037109
31421.834840	1096.481000	1739.106445	-34.219173
31421.834840	1096.481000	1738.093750	189.888794
31421.834840	1096.481000	1737.080078	10.437832
31421.834840	1096.481000	1736.067383	10.175677
31421.834840	1096.481000	1735.053711	16.855494
31421.834840	1096.481000	1734.040039	129.495575
31421.834840	1096.481000	1733.025391	-45.582726
31421.834840	1096.481000	1732.011719	-159.432449
31421.834840	1096.481000	1730.997070	-37.766106
31421.834840	1096.481000	1729.982422	-132.975006
31421.834840	1096.481000	1728.967773	84.965927
31421.834840	1096.481000	1727.952148	-10.474924
31421.834840	1096.481000	1726.937500	-94.211746
31421.834840	1096.481000	1725.921875	-166.273422
31421.834840	1096.481000	1724.906250	-99.577042
31421.834840	1096.481000	1723.890625	94.036377
31421.834840	1096.481000	1722.875000	108.679939
31421.834840	1096.481000	1721.858398	90.263893
31421.834840	1096.481000	1720.841797	-215.139114
31421.834840	1096.481000	1719.825195	154.220795
31421.834840	1096.481000	1718.808594	-395.763916
31421.834840	1096.481000	1717.791992	-139.537628
31421.834840	1096.481000	1716.774414	271.552582
31421.834840	1096.481000	1715.756836	-1.261768
31421.834840	1096.481000	1714.739258	33.618843
31421.834840	1096.481000	1713.721680	-121.836838
31421.834840	1096.481000	1712.704102	-185.768478
31421.834840	1096.481000	1711.685547	-90.165062
31421.834840	1096.481000	1710.667969	21.741383
31421.834840	1096.481000	1709.649414	257.859497
31421.834840	1096.481000	1708.630859	-62.245445
31421.834840	1096.481000	1707.611328	60.989952
31421.834840	1096.481000	1706.592773	26.965336
31421.834840	1096.481000	1705.573242	128.837723
31421.834840	1096.481000	1704.553711	82.881744
31421.834840	1096.481000	1703.534180	6.377813
31421.834840	1096.481000	1702.513672	-86.609047
31421.834840	1096.481000	1701.494141	-1.574740
31421.834840	1096.481000	1700.473633	-17.407967
31421.834840	1096.481000	1699.453125	289.879303
31421.834840	1096.481000	1698.432617	20.919119
31421.834840	1096.481000	1697.412109	-60.732662
31421.834840	1096.481000	1696.390625	-69.892265
31421.834840	1096.481000	1695.369141	-137.643539
31421.834840	1096.481000	1694.347656	-74.424721
31421.834840	1096.481000	1693.326172	63.544735
31421.834840	1096.481000	1692.304688	598.996521
31421.834840	1096.481000	1691.282227	226.815323
31421.834840	1096.481000	1690.260742	81.501183
31421.834840	1096.481000	1689.238281	-45.152546
31421.834840	1096.481000	1688.214844	209.101334
31421.834840	1096.481000	1687.192383	166.437164
31421.834840	1096.481000	1686.168945	-25.820803
31421.834840	1096.481000	1685.146484	27.193464
31421.834840	1096.481000	1684.123047	-3.975332
31421.834840	1096.481000	1683.099609	18.500103
31421.834840	1096.481000	1682.075195	22.203142
31421.834840	1096.481000	1681.051758	149.553101
31421.834840	1096.481000	1680.027344	104.088379
31421.834840	1096.481000	1679.002930	114.568184
31421.834840	1096.481000	1677.978516	320.919708
31421.834840	1096.481000	1676.953125	256.577637
31421.834840	1096.481000	1675.928711	182.887711
31421.834840	1096.481000	1674.903320	230.376083
31421.834840	1096.481000	1673.877930	447.935089
31421.834840	1096.481000	1672.852539	283.169708
31421.834840	1096.481000	1671.826172	409.635529
31421.834840	1096.481000	1670.800781	375.278442
31421.834840	1096.481000	1669.774414	98.645576
31421.834840	1096.481000	1668.748047	217.924561
31421.834840	1096.481000	1667.721680	-7.457373
31421.834840	1096.481000	1666.694336	356.086456
31421.834840	1096.481000	1665.667969	521.641052
31421.834840	1096.481000	1664.640625	365.971924
31421.834840	1096.481000	1663.613281	282.434937
31421.834840	1096.481000	1662.585938	317.506165
31421.834840	1096.481000	1661.557617	805.963562
31421.834840	1096.481000	1660.530273	550.212769
31421.834840	1096.481000	1659.501953	494.413666
31421.834840	1096.481000	1658.473633	550.154602
31421.834840	1096.481000	1657.444336	540.758301
31421.834840	1096.481000	1656.416016	673.062378
31421.834840	1096.481000	1655.386719	668.222534
31421.834840	1096.481000	1654.358398	547.254272
31421.834840	1096.481000	1653.328125	481.991577
31421.834840	1096.481000	1652.298828	973.880859
31421.834840	1096.481000	1651.269531	634.649109
31421.834840	1096.481000	1650.239258	669.107300
31421.834840	1096.481000	1649.208984	831.131104
31421.834840	1096.481000	1648.178711	819.099121
31421.834840	1096.481000	1647.148438	923.007080
31421.834840	1096.481000	1646.117188	959.597412
31421.834840	1096.481000	1645.086914	1125.993408
31421.834840	1096.481000	1644.055664	1051.239014
31421.834840	1096.481000	1643.024414	1215.186646
31421.834840	1096.481000	1641.992188	1260.877808
31421.834840	1096.481000	1640.960938	1644.759766
31421.834840	1096.481000	1639.928711	1236.390259
31421.834840	1096.481000	1638.896484	1490.420532
31421.834840	1096.481000	1637.864258	1241.965576
31421.834840	1096.481000	1636.832031	1674.112793
31421.834840	1096.481000	1635.798828	1476.602783
31421.834840	1096.481000	1634.766602	1651.703369
31421.834840	1096.481000	1633.733398	1396.438965
31421.834840	1096.481000	1632.699219	1513.629639
31421.834840	1096.481000	1631.666016	1783.414063
31421.834840	1096.481000	1630.632813	1613.823975
31421.834840	1096.481000	1629.598633	1594.535522
31421.834840	1096.481000	1628.564453	1794.815186
31421.834840	1096.481000	1627.530273	1826.350098
31421.834840	1096.481000	1626.495117	1797.800903
31421.834840	1096.481000	1625.460938	2014.122437
31421.834840	1096.481000	1624.425781	1671.511597
31421.834840	1096.481000	1623.390625	1619.961182
31421.834840	1096.481000	1622.355469	1783.127075
31421.834840	1096.481000	1621.319336	1768.519531
31421.834840	1096.481000	1620.284180	1818.564209
31421.834840	1096.481000	1619.248047	1624.047607
31421.834840	1096.481000	1618.211914	2003.970581
31421.834840	1096.481000	1617.174805	2090.874756
31421.834840	1096.481000	1616.138672	1838.851196
31421.834840	1096.481000	1615.101563	1769.050171
31421.834840	1096.481000	1614.065430	1842.219360
31421.834840	1096.481000	1613.027344	2152.707275
31421.834840	1096.481000	1611.990234	1845.677856
31421.834840	1096.481000	1610.953125	1930.388062
31421.834840	1096.481000	1609.915039	2180.899170
31421.834840	1096.481000	1608.876953	1874.133423
31421.834840	1096.481000	1607.838867	2122.334473
31421.834840	1096.481000	1606.800781	1963.083862
31421.834840	1096.481000	1605.761719	1976.511597
31421.834840	1096.481000	1604.723633	1897.963989
31421.834840	1096.481000	1603.684570	2127.717041
31421.834840	1096.481000	1602.644531	2007.832886
31421.834840	1096.481000	1601.605469	2131.796143
31421.834840	1096.481000	1600.566406	2110.926514
31421.834840	1096.481000	1599.526367	2131.472900
31421.834840	1096.481000	1598.486328	2253.179688
31421.834840	1096.481000	1597.446289	2170.403564
31421.834840	1096.481000	1596.405273	2253.097412
31421.834840	1096.481000	1595.365234	2016.586548
31421.834840	1096.481000	1594.324219	1963.913940
31421.834840	1096.481000	1593.283203	2246.510498
31421.834840	1096.481000	1592.242188	2111.301514
31421.834840	1096.481000	1591.200195	2175.851318
31421.834840	1096.481000	1590.159180	2130.320801
31421.834840	1096.481000	1589.117188	2284.438721
31421.834840	1096.481000	1588.075195	2511.958008
31421.834840	1096.481000	1587.032227	2257.884766
31421.834840	1096.481000	1585.990234	2059.021973
31421.834840	1096.481000	1584.947266	1956.567261
31421.834840	1096.481000	1583.904297	2188.824707
31421.834840	1096.481000	1582.861328	2068.203369
31421.834840	1096.481000	1581.818359	2227.191162
31421.834840	1096.481000	1580.775391	2033.467041
31421.834840	1096.481000	1579.731445	2128.422363
31421.834840	1096.481000	1578.687500	1907.463623
31421.834840	1096.481000	1577.643555	2394.002197
31421.834840	1096.481000	1576.598633	2099.992188
31421.834840	1096.481000	1575.554688	2256.969238
31421.834840	1096.481000	1574.509766	2054.781006
31421.834840	1096.481000	1573.464844	2042.605469
31421.834840	1096.481000	1572.419922	2222.617432
31421.834840	1096.481000	1571.374023	2327.185547
31421.834840	1096.481000	1570.329102	1974.625488
31421.834840	1096.481000	1569.283203	1848.546143
31421.834840	1096.481000	1568.237305	2003.673096
31421.834840	1096.481000	1567.191406	2067.451172
31421.834840	1096.481000	1566.144531	2065.045898
31421.834840	1096.481000	1565.098633	1802.407227
31421.834840	1096.481000	1564.051758	2067.394531
31421.834840	1096.481000	1563.004883	2124.639160
31421.834840	1096.481000	1561.957031	1896.655273
31421.834840	1096.481000	1560.910156	1746.459961
31421.834840	1096.481000	1559.862305	1769.807739
31421.834840	1096.481000	1558.814453	1756.755981
31421.834840	1096.481000	1557.766602	1912.577026
31421.834840	1096.481000	1556.718750	1824.471313
31421.834840	1096.481000	1555.669922	1488.011597
31421.834840	1096.481000	1554.621094	1279.430298
31421.834840	1096.481000	1553.573242	1829.888916
31421.834840	1096.481000	1552.523438	1749.119873
31421.834840	1096.481000	1551.474609	1477.166382
31421.834840	1096.481000	1550.424805	1528.818115
31421.834840	1096.481000	1549.375000	1692.138794
31421.834840	1096.481000	1548.325195	1438.902954
31421.834840	1096.481000	1547.275391	1452.189575
31421.834840	1096.481000	1546.225586	1162.927490
31421.834840	1096.481000	1545.174805	1278.872314
31421.834840	1096.481000	1544.124023	1363.047852
31421.834840	1096.481000	1543.073242	1265.367188
31421.834840	1096.481000	1542.022461	1422.520752
31421.834840	1096.481000	1540.970703	1275.086792
31421.834840	1096.481000	1539.919922	1136.941040
31421.834840	1096.481000	1538.868164	1028.506714
31421.834840	1096.481000	1537.815430	1108.814209
31421.834840	1096.481000	1536.763672	932.535583
31421.834840	1096.481000	1535.710938	774.614014
31421.834840	1096.481000	1534.659180	1161.865601
31421.834840	1096.481000	1533.606445	929.304382
31421.834840	1096.481000	1532.552734	1014.730408
31421.834840	1096.481000	1531.500000	896.023193
31421.834840	1096.481000	1530.446289	675.385193
31421.834840	1096.481000	1529.393555	656.871155
31421.834840	1096.481000	1528.338867	697.450195
31421.834840	1096.481000	1527.285156	613.443848
31421.834840	1096.481000	1526.231445	436.654022
31421.834840	1096.481000	1525.176758	686.197815
31421.834840	1096.481000	1524.122070	468.940369
31421.834840	1096.481000	1523.067383	671.077637
31421.834840	1096.481000	1522.012695	542.536194
31421.834840	1096.481000	1520.957031	853.566223
31421.834840	1096.481000	1519.901367	489.811615
31421.834840	1096.481000	1518.845703	511.222260
31421.834840	1096.481000	1517.790039	625.574158
31421.834840	1096.481000	1516.734375	615.555420
31421.834840	1096.481000	1515.677734	567.211853
31421.834840	1096.481000	1514.621094	591.422913
31421.834840	1096.481000	1513.564453	493.636475
31421.834840	1096.481000	1512.507813	631.210510
31421.834840	1096.481000	1511.450195	601.568237
31421.834840	1096.481000	1510.393555	330.228119
31421.834840	1096.481000	1509.335938	185.696503
31421.834840	1096.481000	1508.278320	391.594086
31421.834840	1096.481000	1507.219727	308.395447
31421.834840	1096.481000	1506.162109	311.213531
31421.834840	1096.481000	1505.103516	296.110413
31421.834840	1096.481000	1504.044922	111.835068
31421.834840	1096.481000	1502.986328	56.450459
31421.834840	1096.481000	1501.926758	14.775540
31421.834840	1096.481000	1500.868164	180.863159
31421.834840	1096.481000	1499.808594	13.153724
31421.834840	1096.481000	1498.749023	105.047768
31421.834840	1096.481000	1497.688477	368.437073
31421.834840	1096.481000	1496.628906	-8.419734
31421.834840	1096.481000	1495.568359	-116.733459
31421.834840	1096.481000	1494.507813	-8.494835
31421.834840	1096.481000	1493.447266	-100.680138
31421.834840	1096.481000	1492.386719	-34.978535
31421.834840	1096.481000	1491.325195	-86.268959
31421.834840	1096.481000	1490.263672	-11.277142
31421.834840	1096.481000	1489.202148	104.370186
31421.834840	1096.481000	1488.140625	292.163483
31421.834840	1096.481000	1487.079102	227.975983
31421.834840	1096.481000	1486.016602	319.228302
31421.834840	1096.481000	1484.954102	68.654778
31421.834840	1096.481000	1483.891602	187.210663
31421.834840	1096.481000	1482.829102	231.675415
31421.834840	1096.481000	1481.765625	166.116623
31421.834840	1096.481000	1480.702148	76.031685
31421.834840	1096.481000	1479.638672	141.225388
31421.834840	1096.481000	1478.575195	-72.077560
31421.834840	1096.481000	1477.511719	47.361191
31421.834840	1096.481000	1476.447266	-6.028755
31421.834840	1096.481000	1475.382813	205.727692
31421.834840	1096.481000	1474.318359	345.661835
31421.834840	1096.481000	1473.253906	220.955307
31421.834840	1096.481000	1472.189453	112.260460
31421.834840	1096.481000	1471.124023	387.122833
31421.834840	1096.481000	1470.058594	431.088928
31421.834840	1096.481000	1468.993164	446.162659
31421.834840	1096.481000	1467.927734	432.449402
31421.834840	1096.481000	1466.861328	440.917114
31421.834840	1096.481000	1465.794922	646.932007
31421.834840	1096.481000	1464.728516	736.462708
31421.834840	1096.481000	1463.662109	620.169250
31421.834840	1096.481000	1462.594727	859.799438
31421.834840	1096.481000	1461.528320	927.017639
31421.834840	1096.481000	1460.460938	843.243530
31421.834840	1096.481000	1459.393555	677.781677
31421.834840	1096.481000	1458.326172	819.622192
31421.834840	1096.481000	1457.257813	948.226440
31421.834840	1096.481000	1456.189453	938.564575
31421.834840	1096.481000	1455.121094	924.995789
31421.834840	1096.481000	1454.052734	1045.633179
31421.834840	1096.481000	1452.984375	1086.829834
31421.834840	1096.481000	1451.915039	1246.547974
31421.834840	1096.481000	1450.845703	1136.049927
31421.834840	1096.481000	1449.776367	1158.510986
31421.834840	1096.481000	1448.707031	1197.347168
31421.834840	1096.481000	1447.636719	1065.563843
31421.834840	1096.481000	1446.567383	1046.895264
31421.834840	1096.481000	1445.497070	1107.225830
31421.834840	1096.481000	1444.425781	1375.300049
31421.834840	1096.481000	1443.355469	1249.532715
31421.834840	1096.481000	1442.285156	1036.210938
31421.834840	1096.481000	1441.213867	1258.374023
31421.834840	1096.481000	1440.142578	1035.472412
31421.834840	1096.481000	1439.070313	1132.399414
31421.834840	1096.481000	1437.999023	1045.556641
31421.834840	1096.481000	1436.926758	1168.832764
31421.834840	1096.481000	1435.854492	1188.413818
31421.834840	1096.481000	1434.782227	1067.863770
31421.834840	1096.481000	1433.709961	1025.775879
31421.834840	1096.481000	1432.636719	871.651672
31421.834840	1096.481000	1431.563477	1044.346313
31421.834840	1096.481000	1430.490234	898.449280
31421.834840	1096.481000	1429.416992	790.575073
31421.834840	1096.481000	1428.343750	593.311157
31421.834840	1096.481000	1427.269531	793.636292
31421.834840	1096.481000	1426.195313	696.442017
31421.834840	1096.481000	1425.121094	729.786316
31421.834840	1096.481000	1424.046875	358.069000
31421.834840	1096.481000	1422.971680	573.714722
31421.834840	1096.481000	1421.896484	786.401428
31421.834840	1096.481000	1420.821289	747.710571
31421.834840	1096.481000	1419.746094	638.168823
31421.834840	1096.481000	1418.669922	780.924011
31421.834840	1096.481000	1417.594727	669.403442
31421.834840	1096.481000	1416.518555	595.508850
31421.834840	1096.481000	1415.442383	845.661438
31421.834840	1096.481000	1414.365234	817.179443
31421.834840	1096.481000	1413.289063	882.571045
31421.834840	1096.481000	1412.211914	817.153137
31421.834840	1096.481000	1411.134766	718.494812
31421.834840	1096.481000	1410.057617	838.124634
31421.834840	1096.481000	1408.979492	668.484436
31421.834840	1096.481000	1407.902344	835.264709
31421.834840	1096.481000	1406.824219	979.246399
31421.834840	1096.481000	1405.746094	743.322144
31421.834840	1096.481000	1404.666992	904.984985
31421.834840	1096.481000	1403.588867	638.820862
31421.834840	1096.481000	1402.509766	837.885193
31421.834840	1096.481000	1401.430664	696.736023
31421.834840	1096.481000	1400.351563	778.976074
31421.834840	1096.481000	1399.271484	930.327576
31421.834840	1096.481000	1398.192383	864.796936
31421.834840	1096.481000	1397.112305	738.470032
31421.834840	1096.481000	1396.031250	857.326965
31421.834840	1096.481000	1394.951172	861.635010
31421.834840	1096.481000	1393.871094	888.833435
31421.834840	1096.481000	1392.790039	824.830627
31421.834840	1096.481000	1391.708984	439.365112
31421.834840	1096.481000	1390.626953	652.060425
31421.834840	1096.481000	1389.545898	693.422852
31421.834840	1096.481000	1388.463867	651.417236
31421.834840	1096.481000	1387.381836	699.736633
31421.834840	1096.481000	1386.299805	702.214111
31421.834840	1096.481000	1385.217773	817.952209
31421.834840	1096.481000	1384.134766	825.319336
31421.834840	1096.481000	1383.051758	841.845886
31421.834840	1096.481000	1381.968750	902.831787
31421.834840	1096.481000	1380.885742	678.283813
31421.834840	1096.481000	1379.802734	881.076050
31421.834840	1096.481000	1378.718750	893.712097
31421.834840	1096.481000	1377.634766	1191.661255
31421.834840	1096.481000	1376.550781	919.072998
31421.834840	1096.481000	1375.465820	857.601563
31421.834840	1096.481000	1374.381836	679.152344
31421.834840	1096.481000	1373.296875	863.062317
31421.834840	1096.481000	1372.211914	1051.470215
31421.834840	1096.481000	1371.126953	817.855408
31421.834840	1096.481000	1370.041016	850.163757
31421.834840	1096.481000	1368.955078	898.596069
31421.834840	1096.481000	1367.869141	645.674805
31421.834840	1096.481000	1366.783203	756.441895
31421.834840	1096.481000	1365.697266	676.499756
31421.834840	1096.481000	1364.610352	654.101379
31421.834840	1096.481000	1363.523438	811.333740
31421.834840	1096.481000	1362.436523	710.316956
31421.834840	1096.481000	1361.349609	668.223694
31421.834840	1096.481000	1360.261719	589.688171
31421.834840	1096.481000	1359.174805	632.015198
31421.834840	1096.481000	1358.086914	878.890198
31421.834840	1096.481000	1356.998047	675.558472
31421.834840	1096.481000	1355.910156	767.211060
31421.834840	1096.481000	1354.821289	937.977173
31421.834840	1096.481000	1353.732422	947.278931
31421.834840	1096.481000	1352.643555	1111.279297
31421.834840	1096.481000	1351.554688	1310.492920
31421.834840	1096.481000	1350.464844	921.968567
31421.834840	1096.481000	1349.375000	1142.522583
31421.834840	1096.481000	1348.285156	1165.269043
31421.834840	1096.481000	1347.195313	1212.148315
31421.834840	1096.481000	1346.105469	1053.356567
31421.834840	1096.481000	1345.014648	974.040710
31421.834840	1096.481000	1343.923828	1167.879883
31421.834840	1096.481000	1342.833008	1151.621094
31421.834840	1096.481000	1341.741211	1230.917358
31421.834840	1096.481000	1340.650391	1131.744385
31421.834840	1096.481000	1339.558594	863.636047
31421.834840	1096.481000	1338.466797	1082.817993
31421.834840	1096.481000	1337.374023	1161.250244
31421.834840	1096.481000	1336.282227	1041.050415
31421.834840	1096.481000	1335.189453	903.573364
31421.834840	1096.481000	1334.096680	1073.257202
31421.834840	1096.481000	1333.003906	1090.059814
31421.834840	1096.481000	1331.910156	1116.543091
31421.834840	1096.481000	1330.817383	1134.527100
31421.834840	1096.481000	1329.723633	952.566650
31421.834840	1096.481000	1328.629883	1134.595581
31421.834840	1096.481000	1327.535156	942.220947
31421.834840	1096.481000	1326.441406	870.174500
31421.834840	1096.481000	1325.346680	681.568054
31421.834840	1096.481000	1324.251953	699.716125
31421.834840	1096.481000	1323.156250	828.167480
31421.834840	1096.481000	1322.061523	777.729309
31421.834840	1096.481000	1320.965820	891.434143
31421.834840	1096.481000	1319.870117	831.006226
31421.834840	1096.481000	1318.774414	1040.057617
31421.834840	1096.481000	1317.678711	930.868591
31421.834840	1096.481000	1316.582031	767.212769
31421.834840	1096.481000	1315.485352	950.445190
31421.834840	1096.481000	1314.388672	979.558838
31421.834840	1096.481000	1313.291016	1164.063965
31421.834840	1096.481000	1312.194336	1077.462036
31421.834840	1096.481000	1311.096680	1007.587280
31421.834840	1096.481000	1309.999023	1212.562012
31421.834840	1096.481000	1308.901367	965.551025
31421.834840	1096.481000	1307.802734	1225.164429
31421.834840	1096.481000	1306.705078	1084.305786
31421.834840	1096.481000	1305.606445	896.446289
31421.834840	1096.481000	1304.506836	899.127991
31421.834840	1096.481000	1303.408203	988.990417
31421.834840	1096.481000	1302.308594	888.016846
31421.834840	1096.481000	1301.208984	1140.942505
31421.834840	1096.481000	1300.109375	999.604126
31421.834840	1096.481000	1299.009766	1052.768188
31421.834840	1096.481000	1297.909180	900.096008
31421.834840	1096.481000	1296.808594	1169.935913
31421.834840	1096.481000	1295.708008	1087.657715
31421.834840	1096.481000	1294.607422	919.115967
31421.834840	1096.481000	1293.506836	845.252808
31421.834840	1096.481000	1292.405273	997.546143
31421.834840	1096.481000	1291.303711	907.324585
31421.834840	1096.481000	1290.202148	876.292114
31421.834840	1096.481000	1289.099609	676.391602
31421.834840	1096.481000	1287.998047	643.771118
31421.834840	1096.481000	1286.895508	665.913330
31421.834840	1096.481000	1285.792969	525.806702
31421.834840	1096.481000	1284.689453	481.771210
31421.834840	1096.481000	1283.586914	617.982178
31421.834840	1096.481000	1282.483398	635.236755
31421.834840	1096.481000	1281.379883	496.777344
31421.834840	1096.481000	1280.276367	439.169342
31421.834840	1096.481000	1279.171875	423.097992
31421.834840	1096.481000	1278.067383	350.116211
31421.834840	1096.481000	1276.962891	545.552979
31421.834840	1096.481000	1275.858398	369.487335
31421.834840	1096.481000	1274.753906	434.791321
31421.834840	1096.481000	1273.648438	464.787079
31421.834840	1096.481000	1272.542969	452.189453
31421.834840	1096.481000	1271.437500	489.850952
31421.834840	1096.481000	1270.331055	240.201187
31421.834840	1096.481000	1269.225586	355.541962
31421.834840	1096.481000	1268.119141	180.223801
31421.834840	1096.481000	1267.012695	405.318939
31421.834840	1096.481000	1265.906250	210.986511
31421.834840	1096.481000	1264.798828	437.259766
31421.834840	1096.481000	1263.691406	252.666031
31421.834840	1096.481000	1262.583984	208.221878
31421.834840	1096.481000	1261.476563	336.520081
31421.834840	1096.481000	1260.368164	186.164200
31421.834840	1096.481000	1259.260742	7.813329
31421.834840	1096.481000	1258.152344	92.687340
31421.834840	1096.481000	1257.043945	67.436569
31421.834840	1096.481000	1255.934570	17.244740
31421.834840	1096.481000	1254.825195	-47.614777
31421.834840	1096.481000	1253.716797	-155.196732
31421.834840	1096.481000	1252.606445	40.423046
31421.834840	1096.481000	1251.497070	-109.101402
31421.834840	1096.481000	1250.387695	-127.549202
31421.834840	1096.481000	1249.277344	-244.236603
31421.834840	1096.481000	1248.166992	50.500416
31421.834840	1096.481000	1247.055664	-185.002029
31421.834840	1096.481000	1245.945313	11.001069
31421.834840	1096.481000	1244.833984	-61.762482
31421.834840	1096.481000	1243.722656	17.912399
31421.834840	1096.481000	1242.611328	-106.734932
31421.834840	1096.481000	1241.499023	-99.028511
31421.834840	1096.481000	1240.387695	-9.877552
31421.834840	1096.481000	1239.275391	22.316835
31421.834840	1096.481000	1238.162109	-79.145432
31421.834840	1096.481000	1237.049805	-40.825859
31421.834840	1096.481000	1235.936523	-115.498619
31421.834840	1096.481000	1234.823242	135.215286
31421.834840	1096.481000	1233.709961	-10.870494
31421.834840	1096.481000	1232.596680	-59.512646
31421.834840	1096.481000	1231.482422	100.667900
31421.834840	1096.481000	1230.369141	48.342243
31421.834840	1096.481000	1229.253906	1.405018
31421.834840	1096.481000	1228.139648	-66.157173
31421.834840	1096.481000	1227.025391	-34.715248
31421.834840	1096.481000	1225.910156	1.443812
31421.834840	1096.481000	1224.794922	-103.818398
31421.834840	1096.481000	1223.679688	-38.918633
31421.834840	1096.481000	1222.563477	-43.212276
31421.834840	1096.481000	1221.447266	93.883049
31421.834840	1096.481000	1220.331055	72.651772
31421.834840	1096.481000	1219.214844	86.725990
31421.834840	1096.481000	1218.098633	254.354980
31421.834840	1096.481000	1216.981445	338.079803
31421.834840	1096.481000	1215.864258	272.832581
31421.834840	1096.481000	1214.747070	412.555969
31421.834840	1096.481000	1213.629883	486.419250
31421.834840	1096.481000	1212.511719	643.604004
31421.834840	1096.481000	1211.393555	569.495544
31421.834840	1096.481000	1210.275391	681.714417
31421.834840	1096.481000	1209.157227	414.410309
31421.834840	1096.481000	1208.038086	667.973755
31421.834840	1096.481000	1206.918945	526.616455
31421.834840	1096.481000	1205.799805	625.704895
31421.834840	1096.481000	1204.680664	683.510071
31421.834840	1096.481000	1203.560547	499.082428
31421.834840	1096.481000	1202.441406	643.559265
31421.834840	1096.481000	1201.321289	646.419373
31421.834840	1096.481000	1200.200195	506.079956
31421.834840	1096.481000	1199.080078	166.078842
31421.834840	1096.481000	1197.958984	218.211044
31421.834840	1096.481000	1196.837891	167.530334
31421.834840	1096.481000	1195.716797	271.856506
31421.834840	1096.481000	1194.594727	105.683334
31421.834840	1096.481000	1193.473633	111.102654
31421.834840	1096.481000	1192.351563	109.645546
31421.834840	1096.481000	1191.229492	94.525177
31421.834840	1096.481000	1190.106445	69.476456
31421.834840	1096.481000	1188.984375	-11.580364
31421.834840	1096.481000	1187.861328	100.910950
31421.834840	1096.481000	1186.738281	97.283859
31421.834840	1096.481000	1185.614258	-71.253220
31421.834840	1096.481000	1184.491211	-15.249428
31421.834840	1096.481000	1183.367188	-23.985699
31421.834840	1096.481000	1182.243164	102.743660
31421.834840	1096.481000	1181.119141	25.074942
31421.834840	1096.481000	1179.994141	20.017216
31421.834840	1096.481000	1178.869141	-14.912165
31421.834840	1096.481000	1177.744141	13.265886
31421.834840	1096.481000	1176.619141	15.854680
31421.834840	1096.481000	1175.493164	37.383682
31421.834840	1096.481000	1174.368164	165.794708
31421.834840	1096.481000	1173.242188	11.551368
31421.834840	1096.481000	1172.115234	65.350426
31421.834840	1096.481000	1170.989258	-23.476368
31421.834840	1096.481000	1169.862305	81.965019
31421.834840	1096.481000	1168.735352	206.159164
31421.834840	1096.481000	1167.608398	37.934837
31421.834840	1096.481000	1166.481445	234.517303
31421.834840	1096.481000	1165.353516	147.104691
31421.834840	1096.481000	1164.225586	140.482544
31421.834840	1096.481000	1163.097656	204.055832
31421.834840	1096.481000	1161.968750	195.094864
31421.834840	1096.481000	1160.840820	248.297394
31421.834840	1096.481000	1159.711914	259.929871
31421.834840	1096.481000	1158.583008	182.763443
31421.834840	1096.481000	1157.453125	98.846581
31421.834840	1096.481000	1156.324219	144.986816
31421.834840	1096.481000	1155.194336	4.759817
31421.834840	1096.481000	1154.064453	-82.928268
31421.834840	1096.481000	1152.933594	9.887858
31421.834840	1096.481000	1151.803711	-161.925278
31421.834840	1096.481000	1150.672852	-304.212219
31421.834840	1096.481000	1149.541992	-176.932892
31421.834840	1096.481000	1148.411133	-109.322792
31421.834840	1096.481000	1147.279297	-224.026184
31421.834840	1096.481000	1146.147461	-85.123871
31421.834840	1096.481000	1145.015625	-278.699036
31421.834840	1096.481000	1143.883789	-276.757690
31421.834840	1096.481000	1142.750977	-63.748890
31421.834840	1096.481000	1141.619141	-150.165619
31421.834840	1096.481000	1140.486328	-144.047516
31421.834840	1096.481000	1139.352539	-91.891899
31421.834840	1096.481000	1138.219727	156.583954
31421.834840	1096.481000	1137.085938	67.995438
31421.834840	1096.481000	1135.952148	366.955566
31421.834840	1096.481000	1134.818359	83.860733
31421.834840	1096.481000	1133.683594	411.494934
31421.834840	1096.481000	1132.549805	245.987152
31421.834840	1096.481000	1131.415039	370.765778
31421.834840	1096.481000	1130.279297	554.986816
31421.834840	1096.481000	1129.144531	705.097961
31421.834840	1096.481000	1128.008789	493.776398
31421.834840	1096.481000	1126.873047	504.617920
31421.834840	1096.481000	1125.737305	244.834488
31421.834840	1096.481000	1124.601563	271.684814
31421.834840	1096.481000	1123.464844	150.996521
31421.834840	1096.481000	1122.328125	333.769012
31421.834840	1096.481000	1121.191406	373.439758
31421.834840	1096.481000	1120.054688	102.025421
31421.834840	1096.481000	1118.916992	52.314316
31421.834840	1096.481000	1117.779297	383.492615
31421.834840	1096.481000	1116.641602	112.477348
31421.834840	1096.481000	1115.503906	222.562454
31421.834840	1096.481000	1114.365234	145.120148
31421.834840	1096.481000	1113.226563	82.025276
31421.834840	1096.481000	1112.087891	79.581581
31421.834840	1096.481000	1110.949219	191.081116
31421.834840	1096.481000	1109.809570	265.808990
31421.834840	1096.481000	1108.669922	41.151012
31421.834840	1096.481000	1107.530273	264.323059
31421.834840	1096.481000	1106.390625	8.329144
31421.834840	1096.481000	1105.250000	289.478607
31421.834840	1096.481000	1104.109375	216.668198
31421.834840	1096.481000	1102.968750	232.281815
31421.834840	1096.481000	1101.828125	131.314667
31421.834840	1096.481000	1100.686523	189.607208
31421.834840	1096.481000	1099.544922	258.730225
31421.834840	1096.481000	1098.403320	89.095963
31421.834840	1096.481000	1097.261719	244.587341
31421.834840	1096.481000	1096.120117	378.003296
31421.834840	1096.481000	1094.977539	313.697754
31421.834840	1096.481000	1093.834961	140.969330
31421.834840	1096.481000	1092.691406	378.061493
31421.834840	1096.481000	1091.548828	78.103859
31421.834840	1096.481000	1090.405273	278.375214
31421.834840	1096.481000	1089.261719	403.388245
31421.834840	1096.481000	1088.118164	217.572754
31421.834840	1096.481000	1086.973633	278.090027
31421.834840	1096.481000	1085.829102	540.585693
31421.834840	1096.481000	1084.684570	430.617523
31421.834840	1096.481000	1083.540039	461.719879
31421.834840	1096.481000	1082.395508	617.514038
31421.834840	1096.481000	1081.250000	579.705994
31421.834840	1096.481000	1080.104492	690.437622
31421.834840	1096.481000	1078.958984	899.915283
31421.834840	1096.481000	1077.812500	643.211975
31421.834840	1096.481000	1076.666016	426.580139
31421.834840	1096.481000	1075.519531	398.999481
31421.834840	1096.481000	1074.373047	273.618652
31421.834840	1096.481000	1073.226563	424.503296
31421.834840	1096.481000	1072.079102	445.368805
31421.834840	1096.481000	1070.931641	296.437653
31421.834840	1096.481000	1069.784180	328.254913
31421.834840	1096.481000	1068.635742	527.309387
31421.834840	1096.481000	1067.487305	12.024767
31421.834840	1096.481000	1066.338867	612.527283
31421.834840	1096.481000	1065.190430	554.866943
31421.834840	1096.481000	1064.041992	801.813538
31421.834840	1096.481000	1062.892578	455.946442
31421.834840	1096.481000	1061.743164	495.346832
31421.834840	1096.481000	1060.593750	340.935791
31421.834840	1096.481000	1059.443359	545.623718
31421.834840	1096.481000	1058.292969	129.623657
31421.834840	1096.481000	1057.142578	418.799225
31421.834840	1096.481000	1055.992188	161.361572
31421.834840	1096.481000	1054.841797	388.038513
31421.834840	1096.481000	1053.690430	221.818237
31421.834840	1096.481000	1052.539063	384.974670
31421.834840	1096.481000	1051.387695	-162.365906
31421.834840	1096.481000	1050.235352	230.124420
31421.834840	1096.481000	1049.083984	92.589294
31421.834840	1096.481000	1047.931641	9.047645
31421.834840	1096.481000	1046.778320	112.082611
31421.834840	1096.481000	1045.625977	82.567566
31421.834840	1096.481000	1044.472656	199.632523
31421.834840	1096.481000	1043.319336	100.872025
31421.834840	1096.481000	1042.166016	35.379120
31421.834840	1096.481000	1041.012695	47.097431
31421.834840	1096.481000	1039.858398	-103.117104
31421.834840	1096.481000	1038.704102	214.755035
31421.834840	1096.481000	1037.549805	417.132080
31421.834840	1096.481000	1036.394531	-131.028564
31421.834840	1096.481000	1035.239258	142.380615
31421.834840	1096.481000	1034.083984	82.801285
31421.834840	1096.481000	1032.928711	60.055012
31421.834840	1096.481000	1031.773438	166.831512
31421.834840	1096.481000	1030.617188	287.701263
31421.834840	1096.481000	1029.460938	175.018097
31421.834840	1096.481000	1028.304688	419.458038
31421.834840	1096.481000	1027.147461	372.193024
31421.834840	1096.481000	1025.991211	179.601624
31421.834840	1096.481000	1024.833984	284.630920
31421.834840	1096.481000	1023.675781	49.232285
31421.834840	1096.481000	1022.518555	112.286377
31421.834840	1096.481000	1021.360352	-20.510860
31421.834840	1096.481000	1020.202148	1.638977
31421.834840	1096.481000	1019.043945	108.131653
31421.834840	1096.481000	1017.884766	12.985523
31421.834840	1096.481000	1016.726563	-96.906670
31421.834840	1096.481000	1015.567383	-43.284889
31421.834840	1096.481000	1014.407227	32.892033
31421.834840	1096.481000	1013.248047	92.490677
31421.834840	1096.481000	1012.087891	-10.016234
31421.834840	1096.481000	1010.927734	-141.560516
31421.834840	1096.481000	1009.767578	-148.278625
31421.834840	1096.481000	1008.606445	87.621902
31421.834840	1096.481000	1007.446289	-63.476402
31421.834840	1096.481000	1006.285156	162.848068
31421.834840	1096.481000	1005.123047	88.972397
31421.834840	1096.481000	1003.961914	49.628895
31421.834840	1096.481000	1002.799805	-91.584259
31421.834840	1096.481000	1001.637695	45.586903
31421.834840	1096.481000	1000.475586	96.371124
31421.834840	1096.481000	999.312500	275.497131
31421.834840	1096.481000	998.149414	47.730736
31421.834840	1096.481000	996.986328	383.469574
31421.834840	1096.481000	995.823242	256.717804
31421.834840	1096.481000	994.659180	166.771378
31421.834840	1096.481000	993.496094	339.112152
31421.834840	1096.481000	992.332031	329.169800
31421.834840	1096.481000	991.166992	239.266632
31421.834840	1096.481000	990.002930	467.620056
31421.834840	1096.481000	988.837891	277.481781
31421.834840	1096.481000	987.672852	302.641266
31421.834840	1096.481000	986.506836	357.046570
31421.834840	1096.481000	985.341797	235.737595
31421.834840	1096.481000	984.175781	294.827118
31421.834840	1096.481000	983.009766	338.456207
31421.834840	1096.481000	981.843750	338.480560
31421.834840	1096.481000	980.676758	381.940887
31421.834840	1096.481000	979.509766	132.947098
31421.834840	1096.481000	978.342773	-24.460604
31421.834840	1096.481000	977.175781	-84.175629
31421.834840	1096.481000	976.007813	274.782074
31421.834840	1096.481000	974.839844	-119.445244
31421.834840	1096.481000	973.671875	108.885712
31421.834840	1096.481000	972.503906	16.880539
31421.834840	1096.481000	971.334961	31.685179
31421.834840	1096.481000	970.166016	145.232986
31421.834840	1096.481000	968.997070	265.156891
31421.834840	1096.481000	967.828125	111.304649
31421.834840	1096.481000	966.658203	93.598442
31421.834840	1096.481000	965.488281	222.292023
31421.834840	1096.481000	964.318359	202.930420
31421.834840	1096.481000	963.148438	-172.729462
31421.834840	1096.481000	961.977539	377.195374
31421.834840	1096.481000	960.806641	274.650177
31421.834840	1096.481000	959.635742	-112.199936
31421.834840	1096.481000	958.463867	47.955647
31421.834840	1096.481000	957.292969	-123.596931
31421.834840	1096.481000	956.121094	104.214653
31421.834840	1096.481000	954.948242	86.233147
31421.834840	1096.481000	953.776367	-11.261029
31421.834840	1096.481000	952.603516	32.511299
31421.834840	1096.481000	951.430664	74.438904
31421.834840	1096.481000	950.257813	-40.156895
31421.834840	1096.481000	949.084961	-127.048546
31421.834840	1096.481000	947.911133	-145.213791
31421.834840	1096.481000	946.737305	26.552618
31421.834840	1096.481000	945.563477	8.995808
31421.834840	1096.481000	944.388672	170.125229
31421.834840	1096.481000	943.213867	120.246803
31421.834840	1096.481000	942.039063	-108.330910
31421.834840	1096.481000	940.864258	28.292465
31421.834840	1096.481000	939.688477	-29.067106
31421.834840	1096.481000	938.513672	3.581365
31421.834840	1096.481000	937.337891	116.247742
31421.834840	1096.481000	936.161133	13.183842
31421.834840	1096.481000	934.985352	48.552670
31421.834840	1096.481000	933.808594	291.603180
31421.834840	1096.481000	932.631836	302.857239
31421.834840	1096.481000	931.454102	351.401123
31421.834840	1096.481000	930.277344	466.441986
31421.834840	1096.481000	929.099609	690.632751
31421.834840	1096.481000	927.921875	470.100952
31421.834840	1096.481000	926.743164	164.457092
31421.834840	1096.481000	925.565430	93.085220
31421.834840	1096.481000	924.386719	317.130310
31421.834840	1096.481000	923.208008	125.977699
31421.834840	1096.481000	922.028320	131.732895
31421.834840	1096.481000	920.849609	78.945206
31421.834840	1096.481000	919.669922	87.358955
31421.834840	1096.481000	919.474609	274.855530
31421.834840	1096.481000	918.309570	123.532921
31421.834840	1096.481000	917.143555	-3.829076
31421.834840	1096.481000	915.977539	147.876694
31421.834840	1096.481000	914.810547	249.012375
31421.834840	1096.481000	913.644531	-136.068710
31421.834840	1096.481000	912.477539	-64.193932
31421.834840	1096.481000	911.310547	-40.176914
31421.834840	1096.481000	910.143555	-125.050087
31421.834840	1096.481000	908.975586	-42.691711
31421.834840	1096.481000	907.807617	-8.167326
31421.834840	1096.481000	906.639648	-331.877533
31421.834840	1096.481000	905.471680	-268.192657
31421.834840	1096.481000	904.303711	-175.392197
31421.834840	1096.481000	903.134766	-281.528442
31421.834840	1096.481000	901.965820	-178.217575
31421.834840	1096.481000	900.796875	-64.380753
31421.834840	1096.481000	899.626953	-125.518585
31421.834840	1096.481000	898.457031	-191.964005
31421.834840	1096.481000	897.287109	125.679207
31421.834840	1096.481000	896.117188	-54.739582
31421.834840	1096.481000	894.947266	156.761780
31421.834840	1096.481000	893.776367	217.251831
31421.834840	1096.481000	892.605469	79.174126
31421.834840	1096.481000	891.434570	41.672905
31421.834840	1096.481000	890.262695	144.380081
31421.834840	1096.481000	889.091797	35.389343
31421.834840	1096.481000	887.919922	-49.785255
31421.834840	1096.481000	886.748047	-23.910971
31421.834840	1096.481000	885.575195	-143.472260
31421.834840	1096.481000	884.403320	96.417763
31421.834840	1096.481000	883.230469	-150.032791
31421.834840	1096.481000	882.057617	113.466553
31421.834840	1096.481000	880.883789	28.165550
31421.834840	1096.481000	879.710938	130.353683
31421.834840	1096.481000	878.537109	-311.435028
31421.834840	1096.481000	877.362305	-27.144453
31421.834840	1096.481000	876.188477	40.568851
31421.834840	1096.481000	875.013672	39.613628
31421.834840	1096.481000	873.839844	183.708405
31421.834840	1096.481000	872.664063	-81.111404
31421.834840	1096.481000	871.489258	-32.061638
31421.834840	1096.481000	870.313477	-4.160588
31421.834840	1096.481000	869.138672	-189.833023
31421.834840	1096.481000	867.962891	-11.777073
31421.834840	1096.481000	866.786133	0.169839
31421.834840	1096.481000	865.610352	143.780426
31421.834840	1096.481000	864.433594	-131.483521
31421.834840	1096.481000	863.256836	-140.718750
31421.834840	1096.481000	862.079102	-23.619513
31421.834840	1096.481000	860.902344	32.841099
31421.834840	1096.481000	859.724609	-142.348114
31421.834840	1096.481000	858.546875	-54.399975
31421.834840	1096.481000	857.368164	-24.403425
31421.834840	1096.481000	856.190430	-18.141808
31421.834840	1096.481000	855.011719	56.441700
31421.834840	1096.481000	853.833008	-92.514977
31421.834840	1096.481000	852.654297	97.605904
31421.834840	1096.481000	851.474609	-54.019234
31421.834840	1096.481000	850.294922	-111.048241
31421.834840	1096.481000	849.115234	86.695206
31421.834840	1096.481000	847.935547	334.205780
31421.834840	1096.481000	846.754883	24.916578
31421.834840	1096.481000	845.575195	167.227615
31421.834840	1096.481000	844.393555	-191.867722
31421.834840	1096.481000	843.212891	-31.302189
31421.834840	1096.481000	842.032227	-30.892746
31421.834840	1096.481000	840.850586	-64.631340
31421.834840	1096.481000	839.668945	-90.543617
31421.834840	1096.481000	838.486328	-200.397018
31421.834840	1096.481000	837.304688	-181.816299
31421.834840	1096.481000	836.122070	59.479527
31421.834840	1096.481000	834.939453	-53.124870
31421.834840	1096.481000	833.756836	-100.244202
31421.834840	1096.481000	832.573242	-8.577786
31421.834840	1096.481000	831.389648	-21.755451
31421.834840	1096.481000	830.206055	25.233086
31421.834840	1096.481000	829.022461	242.288727
31421.834840	1096.481000	827.838867	320.489136
31421.834840	1096.481000	826.654297	-69.759773
31421.834840	1096.481000	825.469727	-7.338567
31421.834840	1096.481000	824.284180	130.848984
31421.834840	1096.481000	823.099609	242.764252
31421.834840	1096.481000	821.914063	205.556183
31421.834840	1096.481000	820.728516	89.884438
31421.834840	1096.481000	819.542969	162.356003
31421.834840	1096.481000	818.356445	182.482849
31421.834840	1096.481000	817.169922	48.416050
31421.834840	1096.481000	815.983398	110.217636
31421.834840	1096.481000	814.796875	331.208466
31421.834840	1096.481000	813.609375	424.125885
31421.834840	1096.481000	812.422852	287.249603
31421.834840	1096.481000	811.235352	134.709091
31421.834840	1096.481000	810.046875	57.828915
31421.834840	1096.481000	808.859375	262.623505
31421.834840	1096.481000	807.670898	229.947571
31421.834840	1096.481000	806.482422	147.677277
31421.834840	1096.481000	805.293945	349.518219
31421.834840	1096.481000	804.104492	76.861694
31421.834840	1096.481000	802.915039	200.324234
31421.834840	1096.481000	801.725586	242.903488
31421.834840	1096.481000	800.536133	40.553135
31421.834840	1096.481000	799.345703	59.571423
31421.834840	1096.481000	798.155273	135.790039
31421.834840	1096.481000	796.964844	60.925354
31421.834840	1096.481000	795.774414	116.146912
31421.834840	1096.481000	794.583008	121.836716
31421.834840	1096.481000	793.392578	49.404324
31421.834840	1096.481000	792.200195	-56.878635
31421.834840	1096.481000	791.008789	13.631466
31421.834840	1096.481000	789.816406	58.040546
31421.834840	1096.481000	788.625000	107.552620
31421.834840	1096.481000	787.432617	167.366150
31421.834840	1096.481000	786.239258	34.812622
31421.834840	1096.481000	785.046875	143.820084
31421.834840	1096.481000	783.853516	138.432343
31421.834840	1096.481000	782.660156	216.061035
31421.834840	1096.481000	781.465820	246.853180
31421.834840	1096.481000	780.272461	254.192444
31421.834840	1096.481000	779.078125	354.871155
31421.834840	1096.481000	777.883789	-89.403809
31421.834840	1096.481000	776.688477	55.244801
31421.834840	1096.481000	775.494141	194.565430
31421.834840	1096.481000	774.298828	323.378296
31421.834840	1096.481000	773.103516	239.490128
31421.834840	1096.481000	771.907227	155.557251
31421.834840	1096.481000	770.711914	203.729095
31421.834840	1096.481000	769.515625	207.759918
31421.834840	1096.481000	768.318359	-99.107529
31421.834840	1096.481000	767.122070	31.711130
31421.834840	1096.481000	765.924805	162.394623
31421.834840	1096.481000	764.727539	101.391838
31421.834840	1096.481000	763.530273	211.138123
31421.834840	1096.481000	762.333008	-25.962399
31421.834840	1096.481000	761.134766	114.643562
31421.834840	1096.481000	759.936523	167.169846
31421.834840	1096.481000	758.738281	263.550873
31421.834840	1096.481000	757.540039	207.275772
31421.834840	1096.481000	756.340820	96.660301
31421.834840	1096.481000	755.141602	53.196938
31421.834840	1096.481000	753.942383	-31.671047
31421.834840	1096.481000	752.742188	102.979355
31421.834840	1096.481000	751.541992	38.628162
31421.834840	1096.481000	750.341797	54.263603
31421.834840	1096.481000	749.141602	7.851460
31421.834840	1096.481000	747.941406	180.757904
31421.834840	1096.481000	746.740234	219.323669
31421.834840	1096.481000	745.539063	317.126801
31421.834840	1096.481000	744.337891	329.683960
31421.834840	1096.481000	743.135742	434.988953
31421.834840	1096.481000	741.933594	274.601624
31421.834840	1096.481000	740.731445	204.416534
31421.834840	1096.481000	739.529297	409.937653
31421.834840	1096.481000	738.326172	223.633240
31421.834840	1096.481000	737.124023	418.590454
31421.834840	1096.481000	735.919922	170.375793
31421.834840	1096.481000	734.716797	-52.068214
31421.834840	1096.481000	733.513672	96.227661
31421.834840	1096.481000	732.309570	236.655243
31421.834840	1096.481000	731.105469	286.866852
31421.834840	1096.481000	729.900391	344.691742
31421.834840	1096.481000	728.696289	168.323578
31421.834840	1096.481000	727.491211	323.709595
31421.834840	1096.481000	726.286133	270.672424
31421.834840	1096.481000	725.080078	310.119202
31421.834840	1096.481000	723.874023	300.631500
31421.834840	1096.481000	722.668945	183.139771
31421.834840	1096.481000	721.461914	507.504242
31421.834840	1096.481000	720.255859	641.574341
31421.834840	1096.481000	719.048828	528.969360
31421.834840	1096.481000	717.841797	136.467651
31421.834840	1096.481000	716.634766	216.377136
31421.834840	1096.481000	715.427734	375.730499
31421.834840	1096.481000	714.219727	103.860260
31421.834840	1096.481000	713.011719	147.564529
31421.834840	1096.481000	711.803711	-155.083939
31421.834840	1096.481000	710.594727	-42.269363
31421.834840	1096.481000	709.385742	201.171860
31421.834840	1096.481000	708.176758	-180.998978
31421.834840	1096.481000	706.967773	57.085842
31421.834840	1096.481000	705.758789	49.025543
31421.834840	1096.481000	704.548828	89.559532
31421.834840	1096.481000	703.338867	-225.991928
31421.834840	1096.481000	702.127930	3.907379
31421.834840	1096.481000	700.917969	74.916397
31421.834840	1096.481000	699.707031	61.354935
31421.834840	1096.481000	698.496094	11.900028
31421.834840	1096.481000	697.285156	28.909824
31421.834840	1096.481000	696.073242	-184.370682
31421.834840	1096.481000	694.861328	-57.509304
31421.834840	1096.481000	693.649414	0.192967
31421.834840	1096.481000	692.436523	19.453693
31421.834840	1096.481000	691.224609	225.206360
31421.834840	1096.481000	690.011719	85.851067
31421.834840	1096.481000	688.798828	-94.388596
31421.834840	1096.481000	687.584961	297.494843
31421.834840	1096.481000	686.372070	214.188293
31421.834840	1096.481000	685.158203	248.284927
31421.834840	1096.481000	683.943359	-67.391235
31421.834840	1096.481000	682.729492	129.946716
31421.834840	1096.481000	681.514648	658.819458
31421.834840	1096.481000	680.299805	536.933472
31421.834840	1096.481000	679.084961	346.177490
31421.834840	1096.481000	677.869141	402.768768
31421.834840	1096.481000	676.653320	451.629852
31421.834840	1096.481000	675.437500	469.827240
31421.834840	1096.481000	674.221680	518.537903
31421.834840	1096.481000	673.004883	460.167450
31421.834840	1096.481000	671.789063	396.675690
31421.834840	1096.481000	670.571289	447.745789
31421.834840	1096.481000	669.354492	226.319092
31421.834840	1096.481000	668.136719	218.753387
31421.834840	1096.481000	666.919922	577.620239
31421.834840	1096.481000	665.701172	460.470612
31421.834840	1096.481000	664.483398	473.064728
31421.834840	1096.481000	663.264648	388.955536
31421.834840	1096.481000	662.045898	477.749939
31421.834840	1096.481000	660.827148	174.950256
31421.834840	1096.481000	659.608398	164.538406
31421.834840	1096.481000	658.388672	156.625870
31421.834840	1096.481000	657.168945	222.357880
31421.834840	1096.481000	655.949219	270.243713
31421.834840	1096.481000	654.728516	259.657562
31421.834840	1096.481000	653.507813	284.587585
31421.834840	1096.481000	652.287109	532.864380
31421.834840	1096.481000	651.066406	440.913391
31421.834840	1096.481000	649.844727	529.125366
31421.834840	1096.481000	648.623047	543.701538
31421.834840	1096.481000	647.401367	918.410095
31421.834840	1096.481000	646.179688	1041.886597
31421.834840	1096.481000	644.957031	1271.765747
31421.834840	1096.481000	643.734375	1136.516724
31421.834840	1096.481000	642.511719	940.481934
31421.834840	1096.481000	641.289063	701.439575
31421.834840	1096.481000	640.065430	923.512756
31421.834840	1096.481000	638.841797	562.970459
31421.834840	1096.481000	637.618164	519.080078
31421.834840	1096.481000	636.393555	581.517639
31421.834840	1096.481000	635.168945	616.076599
31421.834840	1096.481000	633.944336	293.814331
31421.834840	1096.481000	632.719727	416.954468
31421.834840	1096.481000	631.494141	502.092010
31421.834840	1096.481000	630.269531	539.146057
31421.834840	1096.481000	629.042969	351.152832
31421.834840	1096.481000	627.817383	350.302612
31421.834840	1096.481000	626.590820	281.214294
31421.834840	1096.481000	625.365234	68.141975
31421.834840	1096.481000	624.137695	251.771469
31421.834840	1096.481000	622.911133	253.489273
31421.834840	1096.481000	621.683594	118.854874
31421.834840	1096.481000	620.456055	219.078842
31421.834840	1096.481000	619.228516	170.355606
31421.834840	1096.481000	618.000977	23.253603
31421.834840	1096.481000	616.772461	47.791981
31421.834840	1096.481000	615.543945	62.251640
31421.834840	1096.481000	614.314453	106.986763
31421.834840	1096.481000	613.085938	96.263008
31421.834840	1096.481000	611.856445	83.046486
31421.834840	1096.481000	610.626953	49.702042
31421.834840	1096.481000	609.397461	-44.069973
31421.834840	1096.481000	608.166992	-74.791168
31421.834840	1096.481000	606.936523	17.953058
31421.834840	1096.481000	605.706055	-156.228714
31421.834840	1096.481000	604.474609	-28.184134
31421.834840	1096.481000	603.244141	94.818863
31421.834840	1096.481000	602.012695	-26.297024
31421.834840	1096.481000	600.780273	184.798615
31421.834840	1096.481000	599.548828	3.441156
31421.834840	1096.481000	598.316406	-47.013836
31421.834840	1096.481000	597.083984	40.899761
31421.834840	1096.481000	595.851563	-122.557091
31421.834840	1096.481000	594.618164	-24.500235
31421.834840	1096.481000	593.384766	-167.655075
31421.834840	1096.481000	592.151367	38.520580
31421.834840	1096.481000	590.917969	-290.328491
31421.834840	1096.481000	589.683594	-192.066986
31421.834840	1096.481000	588.449219	-83.735909
31421.834840	1096.481000	587.214844	-183.720825
31421.834840	1096.481000	585.979492	-32.631336
31421.834840	1096.481000	584.745117	-27.053236
31421.834840	1096.481000	583.509766	-161.880676
31421.834840	1096.481000	582.273438	-33.233421
31421.834840	1096.481000	581.038086	-92.614655
31421.834840	1096.481000	579.801758	-44.090042
31421.834840	1096.481000	578.565430	-105.781281
31421.834840	1096.481000	577.329102	35.618408
31421.834840	1096.481000	576.091797	-30.895609
31421.834840	1096.481000	574.854492	5.408242
31421.834840	1096.481000	573.617188	-156.043182
31421.834840	1096.481000	572.378906	-76.974075
31421.834840	1096.481000	571.141602	-5.344977
31421.834840	1096.481000	569.903320	23.807848
31421.834840	1096.481000	568.664063	125.611610
31421.834840	1096.481000	567.425781	119.911842
31421.834840	1096.481000	566.186523	-153.293106
31421.834840	1096.481000	564.947266	-168.716797
31421.834840	1096.481000	563.708008	93.476631
31421.834840	1096.481000	562.467773	75.731468
31421.834840	1096.481000	561.227539	-59.340015
31421.834840	1096.481000	559.987305	133.053024
31421.834840	1096.481000	558.747070	45.723854
31421.834840	1096.481000	557.505859	-73.913231
31421.834840	1096.481000	556.264648	93.754494
31421.834840	1096.481000	555.023438	-8.119959
31421.834840	1096.481000	553.781250	57.388634
31421.834840	1096.481000	552.539063	75.587906
31421.834840	1096.481000	551.296875	198.685440
31421.834840	1096.481000	550.054688	57.485432
31421.834840	1096.481000	548.811523	-8.714571
31421.834840	1096.481000	547.569336	162.089432
31421.834840	1096.481000	546.325195	168.448547
31421.834840	1096.481000	545.082031	80.247879
31421.834840	1096.481000	543.837891	-45.148087
31421.834840	1096.481000	542.593750	-75.696594
31421.834840	1096.481000	541.349609	105.592720
31421.834840	1096.481000	540.105469	-4.365014
31421.834840	1096.481000	538.860352	89.990891
31421.834840	1096.481000	537.615234	-91.802391
31421.834840	1096.481000	536.369141	65.028824
31421.834840	1096.481000	535.124023	139.845123
31421.834840	1096.481000	533.877930	5.854085
31421.834840	1096.481000	532.631836	-105.551376
31421.834840	1096.481000	531.384766	-164.550522
31421.834840	1096.481000	530.138672	37.610535
31421.834840	1096.481000	528.891602	321.842194
31421.834840	1096.481000	527.643555	9.819942
31421.834840	1096.481000	526.396484	199.846558
31421.834840	1096.481000	525.148438	265.771332
31421.834840	1096.481000	523.900391	274.713379
31421.834840	1096.481000	522.652344	95.141388
31421.834840	1096.481000	521.403320	92.012169
31421.834840	1096.481000	520.154297	27.002726
31421.834840	1096.481000	518.905273	140.789536
31421.834840	1096.481000	517.656250	-112.398270
31421.834840	1096.481000	516.406250	209.971344
31421.834840	1096.481000	515.156250	-30.422564
31421.834840	1096.481000	513.906250	232.603882
31421.834840	1096.481000	512.655273	71.909920
31421.834840	1096.481000	511.404297	159.192444
31421.834840	1096.481000	510.153320	266.402588
31421.834840	1096.481000	508.902344	131.013824
31421.834840	1096.481000	507.650391	283.047455
31421.834840	1096.481000	506.398438	91.069557
31421.834840	1096.481000	505.146484	327.480957
31421.834840	1096.481000	503.893555	380.830292
31421.834840	1096.481000	502.641602	275.965485
31421.834840	1096.481000	501.388672	327.106384
31421.834840	1096.481000	500.134766	388.257080
31421.834840	1096.481000	498.881836	365.453949
31421.834840	1096.481000	497.627930	308.192383
31421.834840	1096.481000	496.374023	535.272766
31421.834840	1096.481000	495.119141	320.135071
31421.834840	1096.481000	493.865234	433.739044
31421.834840	1096.481000	492.610352	258.475677
31421.834840	1096.481000	491.355469	436.483276
31421.834840	1096.481000	490.099609	530.602844
31421.834840	1096.481000	488.843750	563.093140
31421.834840	1096.481000	487.587891	543.860657
31421.834840	1096.481000	486.332031	435.928925
31421.834840	1096.481000	485.075195	611.787903
31421.834840	1096.481000	483.818359	578.066467
31421.834840	1096.481000	482.561523	786.056091
31421.834840	1096.481000	481.304688	841.223816
31421.834840	1096.481000	480.046875	918.633423
31421.834840	1096.481000	478.789063	875.362793
31421.834840	1096.481000	477.531250	925.785583
31421.834840	1096.481000	476.272461	1067.379150
31421.834840	1096.481000	475.013672	1019.385742
31421.834840	1096.481000	473.754883	1357.945801
31421.834840	1096.481000	472.496094	1246.026001
31421.834840	1096.481000	471.236328	1097.295288
31421.834840	1096.481000	469.976563	946.204651
31421.834840	1096.481000	468.716797	851.777588
31421.834840	1096.481000	467.456055	1027.907959
31421.834840	1096.481000	466.196289	1090.883423
31421.834840	1096.481000	464.935547	1303.778320
31421.834840	1096.481000	463.673828	1209.413208
31421.834840	1096.481000	462.413086	948.008423
31421.834840	1096.481000	461.151367	1263.943237
31421.834840	1096.481000	459.889648	1326.770264
31421.834840	1096.481000	458.626953	1357.622437
31421.834840	1096.481000	457.364258	1255.863281
31421.834840	1096.481000	456.101563	1360.248047
31421.834840	1096.481000	454.838867	1543.043091
31421.834840	1096.481000	453.575195	1330.735962
31421.834840	1096.481000	452.312500	1155.221924
31421.834840	1096.481000	451.047852	1190.579712
31421.834840	1096.481000	449.784180	1353.293945
31421.834840	1096.481000	448.519531	1390.823120
31421.834840	1096.481000	447.254883	1256.675049
31421.834840	1096.481000	445.990234	1281.692261
31421.834840	1096.481000	444.725586	1311.446533
31421.834840	1096.481000	443.459961	1196.540894
31421.834840	1096.481000	442.194336	1174.545654
31421.834840	1096.481000	440.927734	1257.630249
31421.834840	1096.481000	439.662109	1269.497437
31421.834840	1096.481000	438.395508	1388.802002
31421.834840	1096.481000	437.127930	1498.039917
31421.834840	1096.481000	435.861328	1628.988892
31421.834840	1096.481000	434.593750	1295.032104
31421.834840	1096.481000	433.326172	1227.408447
31421.834840	1096.481000	432.058594	1484.588989
31421.834840	1096.481000	430.790039	1526.308960
31421.834840	1096.481000	429.521484	1494.387451
31421.834840	1096.481000	428.252930	1540.294556
31421.834840	1096.481000	426.984375	1668.843750
31421.834840	1096.481000	425.714844	1855.551392
31421.834840	1096.481000	424.445313	1687.834595
31421.834840	1096.481000	423.174805	1688.159424
31421.834840	1096.481000	421.905273	1746.598511
31421.834840	1096.481000	420.634766	1760.640991
31421.834840	1096.481000	419.364258	1769.317261
31421.834840	1096.481000	418.092773	1872.578613
31421.834840	1096.481000	416.822266	2048.404053
31421.834840	1096.481000	415.550781	1850.702026
31421.834840	1096.481000	414.278320	1974.162109
31421.834840	1096.481000	413.006836	1943.494873
31421.834840	1096.481000	411.734375	1644.296021
31421.834840	1096.481000	410.461914	1602.709229
31421.834840	1096.481000	409.188477	1575.077881
31421.834840	1096.481000	407.916016	1734.194336
31421.834840	1096.481000	406.642578	1836.546021
31421.834840	1096.481000	405.368164	1782.387451
31421.834840	1096.481000	404.094727	1613.158203
31421.834840	1096.481000	402.820313	1727.735840
31421.834840	1096.481000	401.545898	1746.609253
31421.834840	1096.481000	400.270508	1742.729126
31421.834840	1096.481000	398.996094	1796.301270
31421.834840	1096.481000	397.720703	1771.167725
31421.834840	1096.481000	396.444336	1834.970825
31421.834840	1096.481000	395.168945	1730.188477
31421.834840	1096.481000	393.892578	1932.820313
31421.834840	1096.481000	392.616211	1867.264648
31421.834840	1096.481000	391.339844	1769.105225
31421.834840	1096.481000	390.062500	1791.196411
31421.834840	1096.481000	388.785156	1855.800293
31421.834840	1096.481000	387.507813	1836.720337
31421.834840	1096.481000	386.229492	1741.233765
31421.834840	1096.481000	384.951172	1700.295532
31421.834840	1096.481000	383.672852	1905.334839
31421.834840	1096.481000	382.394531	1578.196045
31421.834840	1096.481000	381.115234	1952.480713
31421.834840	1096.481000	379.835938	1930.322632
31421.834840	1096.481000	378.556641	1821.952515
31421.834840	1096.481000	377.277344	1537.790771
31421.834840	1096.481000	375.997070	1840.470947
31421.834840	1096.481000	374.716797	1480.673584
31421.834840	1096.481000	373.435547	1743.700684
31421.834840	1096.481000	372.155273	1712.232910
31421.834840	1096.481000	370.874023	1596.794189
31421.834840	1096.481000	369.591797	1910.062866
31421.834840	1096.481000	368.310547	1554.119385
31421.834840	1096.481000	367.028320	1592.860962
31421.834840	1096.481000	365.746094	1639.344116
31421.834840	1096.481000	364.463867	1828.819336
31421.834840	1096.481000	363.180664	1600.673096
31421.834840	1096.481000	361.897461	1650.716797
31421.834840	1096.481000	360.614258	1416.116821
31421.834840	1096.481000	359.330078	1498.063965
31421.834840	1096.481000	358.045898	1739.456177
31421.834840	1096.481000	356.761719	1505.512817
31421.834840	1096.481000	355.477539	1664.981812
31421.834840	1096.481000	354.192383	1549.386475
31421.834840	1096.481000	352.907227	1322.871216
31421.834840	1096.481000	351.622070	1303.690430
31421.834840	1096.481000	350.336914	1284.353516
31421.834840	1096.481000	349.050781	1317.759399
31421.834840	1096.481000	347.764648	1196.660889
31421.834840	1096.481000	346.477539	952.347778
31421.834840	1096.481000	345.191406	1208.704590
31421.834840	1096.481000	343.904297	1047.854248
31421.834840	1096.481000	342.616211	1182.537231
31421.834840	1096.481000	341.329102	1001.324829
31421.834840	1096.481000	340.041016	1023.949036
31421.834840	1096.481000	338.752930	1009.707947
31421.834840	1096.481000	337.463867	816.573853
31421.834840	1096.481000	336.175781	810.246338
31421.834840	1096.481000	334.886719	778.808716
31421.834840	1096.481000	333.596680	532.314026
31421.834840	1096.481000	332.307617	618.888550
31421.834840	1096.481000	331.017578	480.678497
31421.834840	1096.481000	329.727539	434.899200
31421.834840	1096.481000	328.436523	474.109039
31421.834840	1096.481000	327.146484	480.717926
31421.834840	1096.481000	325.855469	255.231522
31421.834840	1096.481000	324.563477	282.482941
31421.834840	1096.481000	323.272461	284.107819
31421.834840	1096.481000	321.980469	29.531288
31421.834840	1096.481000	320.688477	75.346825
31421.834840	1096.481000	319.395508	49.492126
31421.834840	1096.481000	318.103516	122.363190
31421.834840	1096.481000	316.810547	-123.472397
31421.834840	1096.481000	315.516602	26.161219
31421.834840	1096.481000	314.223633	-125.978035
31421.834840	1096.481000	312.929688	363.640594
31421.834840	1096.481000	311.635742	-61.891548
31421.834840	1096.481000	310.340820	-238.673721
31421.834840	1096.481000	309.045898	-63.911163
31421.834840	1096.481000	307.750977	-107.488998
31421.834840	1096.481000	306.456055	235.946487
31421.834840	1096.481000	305.160156	-19.639946
31421.834840	1096.481000	303.865234	126.002098
31421.834840	1096.481000	302.568359	71.867004
31421.834840	1096.481000	301.272461	136.401062
31421.834840	1096.481000	299.975586	211.524994
31421.834840	1096.481000	298.678711	196.930069
