#X		#Y		#Wave		#Intensity
31176.612926	1133.101833	1999.980469	-42.513111
31176.612926	1133.101833	1999.016602	111.325653
31176.612926	1133.101833	1998.052734	-193.097214
31176.612926	1133.101833	1997.087891	12.657910
31176.612926	1133.101833	1996.123047	-198.335144
31176.612926	1133.101833	1995.158203	56.057289
31176.612926	1133.101833	1994.193359	161.355301
31176.612926	1133.101833	1993.228516	107.751495
31176.612926	1133.101833	1992.262695	256.823669
31176.612926	1133.101833	1991.297852	-15.332619
31176.612926	1133.101833	1990.332031	197.358231
31176.612926	1133.101833	1989.366211	-70.403214
31176.612926	1133.101833	1988.399414	-46.446938
31176.612926	1133.101833	1987.433594	-134.117126
31176.612926	1133.101833	1986.466797	-21.725733
31176.612926	1133.101833	1985.500977	100.229416
31176.612926	1133.101833	1984.534180	192.206146
31176.612926	1133.101833	1983.567383	133.115295
31176.612926	1133.101833	1982.599609	36.730099
31176.612926	1133.101833	1981.632813	1.911261
31176.612926	1133.101833	1980.665039	-60.295635
31176.612926	1133.101833	1979.697266	67.481239
31176.612926	1133.101833	1978.729492	-158.122238
31176.612926	1133.101833	1977.761719	-67.815147
31176.612926	1133.101833	1976.792969	93.854637
31176.612926	1133.101833	1975.825195	-23.604563
31176.612926	1133.101833	1974.856445	-69.631523
31176.612926	1133.101833	1973.887695	135.841736
31176.612926	1133.101833	1972.918945	151.149887
31176.612926	1133.101833	1971.949219	72.590805
31176.612926	1133.101833	1970.980469	-70.187004
31176.612926	1133.101833	1970.010742	67.999054
31176.612926	1133.101833	1969.041016	-20.754034
31176.612926	1133.101833	1968.071289	30.879549
31176.612926	1133.101833	1967.101563	67.601379
31176.612926	1133.101833	1966.130859	118.987648
31176.612926	1133.101833	1965.161133	170.260330
31176.612926	1133.101833	1964.190430	63.822083
31176.612926	1133.101833	1963.219727	-141.141708
31176.612926	1133.101833	1962.249023	30.522676
31176.612926	1133.101833	1961.277344	-19.453659
31176.612926	1133.101833	1960.306641	48.641365
31176.612926	1133.101833	1959.334961	84.666756
31176.612926	1133.101833	1958.363281	-12.202416
31176.612926	1133.101833	1957.391602	75.367371
31176.612926	1133.101833	1956.419922	128.437958
31176.612926	1133.101833	1955.447266	-125.852699
31176.612926	1133.101833	1954.474609	128.716904
31176.612926	1133.101833	1953.501953	68.603645
31176.612926	1133.101833	1952.529297	-18.538525
31176.612926	1133.101833	1951.556641	31.902218
31176.612926	1133.101833	1950.583984	131.432068
31176.612926	1133.101833	1949.610352	-103.059135
31176.612926	1133.101833	1948.636719	-72.306740
31176.612926	1133.101833	1947.663086	68.896187
31176.612926	1133.101833	1946.689453	109.421455
31176.612926	1133.101833	1945.715820	27.242308
31176.612926	1133.101833	1944.741211	202.706848
31176.612926	1133.101833	1943.767578	145.089767
31176.612926	1133.101833	1942.792969	173.342468
31176.612926	1133.101833	1941.818359	39.768661
31176.612926	1133.101833	1940.842773	122.001183
31176.612926	1133.101833	1939.868164	47.355064
31176.612926	1133.101833	1938.892578	230.080185
31176.612926	1133.101833	1937.916992	-3.769330
31176.612926	1133.101833	1936.941406	90.763947
31176.612926	1133.101833	1935.965820	212.235947
31176.612926	1133.101833	1934.990234	-97.295547
31176.612926	1133.101833	1934.013672	-2.696386
31176.612926	1133.101833	1933.037109	35.603428
31176.612926	1133.101833	1932.060547	15.191612
31176.612926	1133.101833	1931.083984	-19.853989
31176.612926	1133.101833	1930.107422	-3.464430
31176.612926	1133.101833	1929.129883	34.976551
31176.612926	1133.101833	1928.153320	17.201700
31176.612926	1133.101833	1927.175781	45.938023
31176.612926	1133.101833	1926.198242	20.929308
31176.612926	1133.101833	1925.219727	-40.685913
31176.612926	1133.101833	1924.242188	27.296015
31176.612926	1133.101833	1923.263672	-80.618584
31176.612926	1133.101833	1922.285156	36.307667
31176.612926	1133.101833	1921.306641	1.811800
31176.612926	1133.101833	1920.328125	-203.555740
31176.612926	1133.101833	1919.349609	-130.457520
31176.612926	1133.101833	1918.370117	-13.392888
31176.612926	1133.101833	1917.391602	52.432224
31176.612926	1133.101833	1916.412109	-91.566483
31176.612926	1133.101833	1915.431641	47.549870
31176.612926	1133.101833	1914.452148	57.392200
31176.612926	1133.101833	1913.472656	-83.919029
31176.612926	1133.101833	1912.492188	33.344215
31176.612926	1133.101833	1911.511719	38.476437
31176.612926	1133.101833	1910.531250	-148.893570
31176.612926	1133.101833	1909.550781	26.973248
31176.612926	1133.101833	1908.569336	144.353745
31176.612926	1133.101833	1907.588867	-164.565308
31176.612926	1133.101833	1906.607422	-0.804257
31176.612926	1133.101833	1905.625977	-22.122074
31176.612926	1133.101833	1904.644531	-70.157921
31176.612926	1133.101833	1903.662109	-193.583206
31176.612926	1133.101833	1902.680664	-224.424896
31176.612926	1133.101833	1901.698242	-116.500931
31176.612926	1133.101833	1900.715820	49.824696
31176.612926	1133.101833	1899.733398	96.950645
31176.612926	1133.101833	1898.750000	15.215254
31176.612926	1133.101833	1897.767578	-0.788097
31176.612926	1133.101833	1896.784180	-177.186646
31176.612926	1133.101833	1895.800781	139.944153
31176.612926	1133.101833	1894.817383	51.167797
31176.612926	1133.101833	1893.833984	71.807465
31176.612926	1133.101833	1892.850586	-62.987499
31176.612926	1133.101833	1891.866211	-102.963692
31176.612926	1133.101833	1890.881836	-142.881561
31176.612926	1133.101833	1889.897461	135.311432
31176.612926	1133.101833	1888.913086	51.753723
31176.612926	1133.101833	1887.927734	72.627464
31176.612926	1133.101833	1886.943359	-44.780090
31176.612926	1133.101833	1885.958008	-38.375893
31176.612926	1133.101833	1884.972656	-51.343697
31176.612926	1133.101833	1883.987305	-42.445610
31176.612926	1133.101833	1883.001953	-40.791420
31176.612926	1133.101833	1882.015625	-53.650131
31176.612926	1133.101833	1881.029297	-107.678398
31176.612926	1133.101833	1880.042969	-4.139415
31176.612926	1133.101833	1879.056641	72.735832
31176.612926	1133.101833	1878.070313	62.400906
31176.612926	1133.101833	1877.083984	-165.884995
31176.612926	1133.101833	1876.096680	-11.458213
31176.612926	1133.101833	1875.109375	-123.386864
31176.612926	1133.101833	1874.122070	-36.763351
31176.612926	1133.101833	1873.134766	-97.783630
31176.612926	1133.101833	1872.146484	-8.741094
31176.612926	1133.101833	1871.159180	-23.746216
31176.612926	1133.101833	1870.170898	26.576763
31176.612926	1133.101833	1869.182617	-60.953743
31176.612926	1133.101833	1868.194336	1.469175
31176.612926	1133.101833	1867.205078	8.275747
31176.612926	1133.101833	1866.216797	70.676605
31176.612926	1133.101833	1865.227539	-2.265927
31176.612926	1133.101833	1864.238281	26.297712
31176.612926	1133.101833	1863.249023	-27.279718
31176.612926	1133.101833	1862.259766	3.694378
31176.612926	1133.101833	1861.269531	-131.960159
31176.612926	1133.101833	1860.279297	123.544655
31176.612926	1133.101833	1859.290039	84.460701
31176.612926	1133.101833	1858.298828	105.720642
31176.612926	1133.101833	1857.308594	18.381453
31176.612926	1133.101833	1856.318359	-39.987061
31176.612926	1133.101833	1855.327148	92.204399
31176.612926	1133.101833	1854.335938	-50.585266
31176.612926	1133.101833	1853.344727	-193.337311
31176.612926	1133.101833	1852.353516	-131.149216
31176.612926	1133.101833	1851.362305	220.219467
31176.612926	1133.101833	1850.370117	-33.409664
31176.612926	1133.101833	1849.377930	62.380402
31176.612926	1133.101833	1848.385742	148.474625
31176.612926	1133.101833	1847.393555	53.880039
31176.612926	1133.101833	1846.401367	53.202320
31176.612926	1133.101833	1845.408203	122.311806
31176.612926	1133.101833	1844.415039	-63.781597
31176.612926	1133.101833	1843.421875	-38.060085
31176.612926	1133.101833	1842.428711	93.485359
31176.612926	1133.101833	1841.435547	208.103989
31176.612926	1133.101833	1840.441406	264.916992
31176.612926	1133.101833	1839.448242	28.285252
31176.612926	1133.101833	1838.454102	109.069992
31176.612926	1133.101833	1837.459961	158.529465
31176.612926	1133.101833	1836.464844	224.748566
31176.612926	1133.101833	1835.470703	-4.668242
31176.612926	1133.101833	1834.475586	56.655548
31176.612926	1133.101833	1833.480469	129.914932
31176.612926	1133.101833	1832.485352	80.612198
31176.612926	1133.101833	1831.490234	305.004517
31176.612926	1133.101833	1830.495117	-27.703661
31176.612926	1133.101833	1829.499023	129.304718
31176.612926	1133.101833	1828.502930	-4.179338
31176.612926	1133.101833	1827.506836	59.071133
31176.612926	1133.101833	1826.510742	261.370026
31176.612926	1133.101833	1825.513672	202.100571
31176.612926	1133.101833	1824.517578	173.961365
31176.612926	1133.101833	1823.520508	208.101288
31176.612926	1133.101833	1822.523438	397.969025
31176.612926	1133.101833	1821.526367	125.148056
31176.612926	1133.101833	1820.529297	233.347900
31176.612926	1133.101833	1819.531250	-68.233086
31176.612926	1133.101833	1818.533203	157.183243
31176.612926	1133.101833	1817.535156	257.907990
31176.612926	1133.101833	1816.537109	188.517899
31176.612926	1133.101833	1815.539063	198.073135
31176.612926	1133.101833	1814.540039	298.496399
31176.612926	1133.101833	1813.541992	310.258545
31176.612926	1133.101833	1812.542969	97.033386
31176.612926	1133.101833	1811.543945	249.795044
31176.612926	1133.101833	1810.543945	160.855621
31176.612926	1133.101833	1809.544922	40.778469
31176.612926	1133.101833	1808.544922	264.924347
31176.612926	1133.101833	1807.544922	357.429901
31176.612926	1133.101833	1806.544922	304.029266
31176.612926	1133.101833	1805.544922	343.743744
31176.612926	1133.101833	1804.544922	213.734329
31176.612926	1133.101833	1803.543945	248.484543
31176.612926	1133.101833	1802.542969	266.408844
31176.612926	1133.101833	1801.541992	-57.194000
31176.612926	1133.101833	1800.541016	72.782364
31176.612926	1133.101833	1799.539063	150.101425
31176.612926	1133.101833	1798.538086	239.224274
31176.612926	1133.101833	1797.536133	65.774567
31176.612926	1133.101833	1796.534180	259.628418
31176.612926	1133.101833	1795.532227	252.977280
31176.612926	1133.101833	1794.529297	103.155571
31176.612926	1133.101833	1793.527344	31.959425
31176.612926	1133.101833	1792.524414	237.169846
31176.612926	1133.101833	1791.521484	125.247528
31176.612926	1133.101833	1790.518555	241.991486
31176.612926	1133.101833	1789.514648	-22.568016
31176.612926	1133.101833	1788.511719	363.074341
31176.612926	1133.101833	1787.507813	303.161530
31176.612926	1133.101833	1786.503906	266.967407
31176.612926	1133.101833	1785.500000	154.503922
31176.612926	1133.101833	1784.496094	272.821228
31176.612926	1133.101833	1783.491211	57.852413
31176.612926	1133.101833	1782.486328	142.605255
31176.612926	1133.101833	1781.481445	-112.921837
31176.612926	1133.101833	1780.476563	-83.095634
31176.612926	1133.101833	1779.471680	-34.374725
31176.612926	1133.101833	1778.465820	61.749760
31176.612926	1133.101833	1777.460938	131.580688
31176.612926	1133.101833	1776.455078	175.122574
31176.612926	1133.101833	1775.449219	213.778641
31176.612926	1133.101833	1774.442383	188.159927
31176.612926	1133.101833	1773.436523	214.684586
31176.612926	1133.101833	1772.429688	174.589691
31176.612926	1133.101833	1771.422852	10.938220
31176.612926	1133.101833	1770.416016	11.005219
31176.612926	1133.101833	1769.409180	319.460297
31176.612926	1133.101833	1768.402344	10.775828
31176.612926	1133.101833	1767.394531	-176.933884
31176.612926	1133.101833	1766.386719	199.791306
31176.612926	1133.101833	1765.378906	87.753914
31176.612926	1133.101833	1764.371094	94.181290
31176.612926	1133.101833	1763.362305	147.885620
31176.612926	1133.101833	1762.354492	305.730194
31176.612926	1133.101833	1761.345703	181.411789
31176.612926	1133.101833	1760.336914	277.340576
31176.612926	1133.101833	1759.328125	285.469635
31176.612926	1133.101833	1758.318359	340.828400
31176.612926	1133.101833	1757.308594	-70.401917
31176.612926	1133.101833	1756.299805	79.452446
31176.612926	1133.101833	1755.290039	72.907288
31176.612926	1133.101833	1754.279297	118.293358
31176.612926	1133.101833	1753.269531	-30.461218
31176.612926	1133.101833	1752.258789	17.043480
31176.612926	1133.101833	1751.249023	267.805450
31176.612926	1133.101833	1750.238281	111.632347
31176.612926	1133.101833	1749.226563	161.066010
31176.612926	1133.101833	1748.215820	174.908890
31176.612926	1133.101833	1747.204102	30.277634
31176.612926	1133.101833	1746.193359	-1.001356
31176.612926	1133.101833	1745.181641	104.614891
31176.612926	1133.101833	1744.168945	148.649734
31176.612926	1133.101833	1743.157227	-10.530575
31176.612926	1133.101833	1742.144531	184.364349
31176.612926	1133.101833	1741.132813	145.378983
31176.612926	1133.101833	1740.120117	99.196846
31176.612926	1133.101833	1739.106445	90.653931
31176.612926	1133.101833	1738.093750	131.543503
31176.612926	1133.101833	1737.080078	-117.835297
31176.612926	1133.101833	1736.067383	21.882572
31176.612926	1133.101833	1735.053711	-112.090111
31176.612926	1133.101833	1734.040039	178.193665
31176.612926	1133.101833	1733.025391	126.483727
31176.612926	1133.101833	1732.011719	51.117802
31176.612926	1133.101833	1730.997070	60.468971
31176.612926	1133.101833	1729.982422	-0.970287
31176.612926	1133.101833	1728.967773	191.849442
31176.612926	1133.101833	1727.952148	-88.822479
31176.612926	1133.101833	1726.937500	-28.132448
31176.612926	1133.101833	1725.921875	4.162699
31176.612926	1133.101833	1724.906250	1.028744
31176.612926	1133.101833	1723.890625	89.542549
31176.612926	1133.101833	1722.875000	-24.401632
31176.612926	1133.101833	1721.858398	-164.298111
31176.612926	1133.101833	1720.841797	-33.831005
31176.612926	1133.101833	1719.825195	-110.420441
31176.612926	1133.101833	1718.808594	29.163847
31176.612926	1133.101833	1717.791992	20.522274
31176.612926	1133.101833	1716.774414	124.548767
31176.612926	1133.101833	1715.756836	-58.186272
31176.612926	1133.101833	1714.739258	-83.590179
31176.612926	1133.101833	1713.721680	135.137711
31176.612926	1133.101833	1712.704102	67.227776
31176.612926	1133.101833	1711.685547	-33.639355
31176.612926	1133.101833	1710.667969	-111.092812
31176.612926	1133.101833	1709.649414	-87.730324
31176.612926	1133.101833	1708.630859	-92.635925
31176.612926	1133.101833	1707.611328	-229.012115
31176.612926	1133.101833	1706.592773	-37.095612
31176.612926	1133.101833	1705.573242	-65.775826
31176.612926	1133.101833	1704.553711	109.411476
31176.612926	1133.101833	1703.534180	-156.218201
31176.612926	1133.101833	1702.513672	-131.272049
31176.612926	1133.101833	1701.494141	76.331612
31176.612926	1133.101833	1700.473633	-147.278931
31176.612926	1133.101833	1699.453125	-120.298058
31176.612926	1133.101833	1698.432617	-273.726624
31176.612926	1133.101833	1697.412109	-108.791084
31176.612926	1133.101833	1696.390625	-7.224002
31176.612926	1133.101833	1695.369141	45.066746
31176.612926	1133.101833	1694.347656	134.682907
31176.612926	1133.101833	1693.326172	76.795563
31176.612926	1133.101833	1692.304688	74.976219
31176.612926	1133.101833	1691.282227	0.563227
31176.612926	1133.101833	1690.260742	10.275978
31176.612926	1133.101833	1689.238281	-43.228615
31176.612926	1133.101833	1688.214844	178.971344
31176.612926	1133.101833	1687.192383	-138.755814
31176.612926	1133.101833	1686.168945	-143.401047
31176.612926	1133.101833	1685.146484	24.736275
31176.612926	1133.101833	1684.123047	50.260658
31176.612926	1133.101833	1683.099609	-76.068687
31176.612926	1133.101833	1682.075195	-144.079941
31176.612926	1133.101833	1681.051758	-184.118759
31176.612926	1133.101833	1680.027344	27.791918
31176.612926	1133.101833	1679.002930	-66.086433
31176.612926	1133.101833	1677.978516	115.250450
31176.612926	1133.101833	1676.953125	88.869629
31176.612926	1133.101833	1675.928711	90.424202
31176.612926	1133.101833	1674.903320	-113.255867
31176.612926	1133.101833	1673.877930	-135.118683
31176.612926	1133.101833	1672.852539	41.044159
31176.612926	1133.101833	1671.826172	79.594406
31176.612926	1133.101833	1670.800781	3.938684
31176.612926	1133.101833	1669.774414	-195.203888
31176.612926	1133.101833	1668.748047	87.689590
31176.612926	1133.101833	1667.721680	302.899841
31176.612926	1133.101833	1666.694336	96.642891
31176.612926	1133.101833	1665.667969	67.295624
31176.612926	1133.101833	1664.640625	214.727097
31176.612926	1133.101833	1663.613281	96.846252
31176.612926	1133.101833	1662.585938	9.196520
31176.612926	1133.101833	1661.557617	207.545502
31176.612926	1133.101833	1660.530273	-26.664991
31176.612926	1133.101833	1659.501953	99.458122
31176.612926	1133.101833	1658.473633	311.479279
31176.612926	1133.101833	1657.444336	279.374939
31176.612926	1133.101833	1656.416016	142.713226
31176.612926	1133.101833	1655.386719	270.840057
31176.612926	1133.101833	1654.358398	103.962357
31176.612926	1133.101833	1653.328125	227.310944
31176.612926	1133.101833	1652.298828	306.484161
31176.612926	1133.101833	1651.269531	341.493591
31176.612926	1133.101833	1650.239258	582.964905
31176.612926	1133.101833	1649.208984	395.100555
31176.612926	1133.101833	1648.178711	439.238983
31176.612926	1133.101833	1647.148438	425.352417
31176.612926	1133.101833	1646.117188	594.605530
31176.612926	1133.101833	1645.086914	654.824951
31176.612926	1133.101833	1644.055664	376.580566
31176.612926	1133.101833	1643.024414	587.382690
31176.612926	1133.101833	1641.992188	462.114716
31176.612926	1133.101833	1640.960938	591.701904
31176.612926	1133.101833	1639.928711	591.507202
31176.612926	1133.101833	1638.896484	591.295776
31176.612926	1133.101833	1637.864258	822.579834
31176.612926	1133.101833	1636.832031	928.768250
31176.612926	1133.101833	1635.798828	648.414246
31176.612926	1133.101833	1634.766602	715.237122
31176.612926	1133.101833	1633.733398	758.877136
31176.612926	1133.101833	1632.699219	867.236084
31176.612926	1133.101833	1631.666016	760.508057
31176.612926	1133.101833	1630.632813	935.876099
31176.612926	1133.101833	1629.598633	1386.228516
31176.612926	1133.101833	1628.564453	1230.902710
31176.612926	1133.101833	1627.530273	1089.500977
31176.612926	1133.101833	1626.495117	959.690674
31176.612926	1133.101833	1625.460938	1206.434326
31176.612926	1133.101833	1624.425781	1330.679932
31176.612926	1133.101833	1623.390625	1487.206055
31176.612926	1133.101833	1622.355469	1398.989990
31176.612926	1133.101833	1621.319336	1470.048950
31176.612926	1133.101833	1620.284180	1469.573608
31176.612926	1133.101833	1619.248047	1630.588379
31176.612926	1133.101833	1618.211914	1487.083740
31176.612926	1133.101833	1617.174805	1558.105347
31176.612926	1133.101833	1616.138672	1382.421997
31176.612926	1133.101833	1615.101563	1541.069824
31176.612926	1133.101833	1614.065430	1761.919800
31176.612926	1133.101833	1613.027344	1526.414795
31176.612926	1133.101833	1611.990234	1710.347412
31176.612926	1133.101833	1610.953125	1698.440186
31176.612926	1133.101833	1609.915039	1672.729004
31176.612926	1133.101833	1608.876953	1596.398804
31176.612926	1133.101833	1607.838867	1685.877686
31176.612926	1133.101833	1606.800781	1552.091919
31176.612926	1133.101833	1605.761719	1692.217285
31176.612926	1133.101833	1604.723633	1395.193848
31176.612926	1133.101833	1603.684570	1740.089478
31176.612926	1133.101833	1602.644531	1682.396729
31176.612926	1133.101833	1601.605469	1613.282104
31176.612926	1133.101833	1600.566406	1622.396973
31176.612926	1133.101833	1599.526367	1643.026733
31176.612926	1133.101833	1598.486328	1780.890747
31176.612926	1133.101833	1597.446289	1569.507080
31176.612926	1133.101833	1596.405273	1698.216064
31176.612926	1133.101833	1595.365234	1744.254517
31176.612926	1133.101833	1594.324219	1930.378540
31176.612926	1133.101833	1593.283203	1508.087769
31176.612926	1133.101833	1592.242188	1462.451904
31176.612926	1133.101833	1591.200195	1712.916870
31176.612926	1133.101833	1590.159180	1619.179932
31176.612926	1133.101833	1589.117188	1452.110962
31176.612926	1133.101833	1588.075195	1670.483765
31176.612926	1133.101833	1587.032227	1659.501099
31176.612926	1133.101833	1585.990234	1453.718262
31176.612926	1133.101833	1584.947266	1768.398315
31176.612926	1133.101833	1583.904297	1544.447266
31176.612926	1133.101833	1582.861328	1540.614502
31176.612926	1133.101833	1581.818359	1546.010742
31176.612926	1133.101833	1580.775391	1606.439941
31176.612926	1133.101833	1579.731445	1538.660156
31176.612926	1133.101833	1578.687500	1464.105469
31176.612926	1133.101833	1577.643555	1611.691162
31176.612926	1133.101833	1576.598633	1585.339478
31176.612926	1133.101833	1575.554688	1634.593750
31176.612926	1133.101833	1574.509766	1475.703125
31176.612926	1133.101833	1573.464844	1742.386841
31176.612926	1133.101833	1572.419922	1702.603882
31176.612926	1133.101833	1571.374023	1233.056274
31176.612926	1133.101833	1570.329102	1584.441528
31176.612926	1133.101833	1569.283203	1348.380981
31176.612926	1133.101833	1568.237305	1304.437744
31176.612926	1133.101833	1567.191406	1429.655151
31176.612926	1133.101833	1566.144531	1301.351440
31176.612926	1133.101833	1565.098633	1312.501831
31176.612926	1133.101833	1564.051758	1294.037842
31176.612926	1133.101833	1563.004883	1599.827881
31176.612926	1133.101833	1561.957031	1362.369507
31176.612926	1133.101833	1560.910156	1426.319458
31176.612926	1133.101833	1559.862305	1408.188354
31176.612926	1133.101833	1558.814453	1305.758301
31176.612926	1133.101833	1557.766602	1290.122925
31176.612926	1133.101833	1556.718750	1374.912231
31176.612926	1133.101833	1555.669922	1172.511963
31176.612926	1133.101833	1554.621094	1113.877563
31176.612926	1133.101833	1553.573242	1363.010864
31176.612926	1133.101833	1552.523438	1243.030273
31176.612926	1133.101833	1551.474609	1248.491211
31176.612926	1133.101833	1550.424805	1283.645142
31176.612926	1133.101833	1549.375000	1143.558350
31176.612926	1133.101833	1548.325195	1012.734558
31176.612926	1133.101833	1547.275391	991.318359
31176.612926	1133.101833	1546.225586	908.571350
31176.612926	1133.101833	1545.174805	926.059814
31176.612926	1133.101833	1544.124023	932.274109
31176.612926	1133.101833	1543.073242	968.158630
31176.612926	1133.101833	1542.022461	885.895813
31176.612926	1133.101833	1540.970703	903.794373
31176.612926	1133.101833	1539.919922	794.520813
31176.612926	1133.101833	1538.868164	685.390015
31176.612926	1133.101833	1537.815430	744.535950
31176.612926	1133.101833	1536.763672	921.905640
31176.612926	1133.101833	1535.710938	788.158325
31176.612926	1133.101833	1534.659180	824.893005
31176.612926	1133.101833	1533.606445	888.960693
31176.612926	1133.101833	1532.552734	862.316589
31176.612926	1133.101833	1531.500000	599.795227
31176.612926	1133.101833	1530.446289	684.631165
31176.612926	1133.101833	1529.393555	762.755127
31176.612926	1133.101833	1528.338867	734.352905
31176.612926	1133.101833	1527.285156	848.947144
31176.612926	1133.101833	1526.231445	779.980286
31176.612926	1133.101833	1525.176758	770.085999
31176.612926	1133.101833	1524.122070	597.149719
31176.612926	1133.101833	1523.067383	485.581421
31176.612926	1133.101833	1522.012695	412.691193
31176.612926	1133.101833	1520.957031	407.892273
31176.612926	1133.101833	1519.901367	337.552155
31176.612926	1133.101833	1518.845703	398.676331
31176.612926	1133.101833	1517.790039	382.943085
31176.612926	1133.101833	1516.734375	254.187927
31176.612926	1133.101833	1515.677734	342.817749
31176.612926	1133.101833	1514.621094	379.510925
31176.612926	1133.101833	1513.564453	409.532623
31176.612926	1133.101833	1512.507813	398.968262
31176.612926	1133.101833	1511.450195	322.966431
31176.612926	1133.101833	1510.393555	183.841919
31176.612926	1133.101833	1509.335938	424.569153
31176.612926	1133.101833	1508.278320	665.333496
31176.612926	1133.101833	1507.219727	456.573059
31176.612926	1133.101833	1506.162109	279.655273
31176.612926	1133.101833	1505.103516	371.658020
31176.612926	1133.101833	1504.044922	470.529846
31176.612926	1133.101833	1502.986328	492.750580
31176.612926	1133.101833	1501.926758	517.346741
31176.612926	1133.101833	1500.868164	474.383667
31176.612926	1133.101833	1499.808594	582.714905
31176.612926	1133.101833	1498.749023	454.312622
31176.612926	1133.101833	1497.688477	310.307343
31176.612926	1133.101833	1496.628906	310.795563
31176.612926	1133.101833	1495.568359	397.072174
31176.612926	1133.101833	1494.507813	287.381287
31176.612926	1133.101833	1493.447266	292.787628
31176.612926	1133.101833	1492.386719	70.797234
31176.612926	1133.101833	1491.325195	96.786423
31176.612926	1133.101833	1490.263672	294.049500
31176.612926	1133.101833	1489.202148	99.620796
31176.612926	1133.101833	1488.140625	117.002472
31176.612926	1133.101833	1487.079102	39.994473
31176.612926	1133.101833	1486.016602	71.157257
31176.612926	1133.101833	1484.954102	91.199455
31176.612926	1133.101833	1483.891602	52.895599
31176.612926	1133.101833	1482.829102	3.503592
31176.612926	1133.101833	1481.765625	107.152733
31176.612926	1133.101833	1480.702148	19.845985
31176.612926	1133.101833	1479.638672	-26.855064
31176.612926	1133.101833	1478.575195	-208.152512
31176.612926	1133.101833	1477.511719	-178.130325
31176.612926	1133.101833	1476.447266	-94.045334
31176.612926	1133.101833	1475.382813	-39.059353
31176.612926	1133.101833	1474.318359	-150.062042
31176.612926	1133.101833	1473.253906	-25.208693
31176.612926	1133.101833	1472.189453	-5.701494
31176.612926	1133.101833	1471.124023	-122.899223
31176.612926	1133.101833	1470.058594	13.541433
31176.612926	1133.101833	1468.993164	31.211216
31176.612926	1133.101833	1467.927734	111.591484
31176.612926	1133.101833	1466.861328	-13.755164
31176.612926	1133.101833	1465.794922	-9.093427
31176.612926	1133.101833	1464.728516	204.041412
31176.612926	1133.101833	1463.662109	119.491997
31176.612926	1133.101833	1462.594727	316.677826
31176.612926	1133.101833	1461.528320	308.299591
31176.612926	1133.101833	1460.460938	340.632111
31176.612926	1133.101833	1459.393555	361.742828
31176.612926	1133.101833	1458.326172	347.583679
31176.612926	1133.101833	1457.257813	515.800415
31176.612926	1133.101833	1456.189453	240.462906
31176.612926	1133.101833	1455.121094	547.283875
31176.612926	1133.101833	1454.052734	454.436798
31176.612926	1133.101833	1452.984375	285.286743
31176.612926	1133.101833	1451.915039	320.447693
31176.612926	1133.101833	1450.845703	632.013367
31176.612926	1133.101833	1449.776367	274.371063
31176.612926	1133.101833	1448.707031	335.420929
31176.612926	1133.101833	1447.636719	225.679810
31176.612926	1133.101833	1446.567383	93.444176
31176.612926	1133.101833	1445.497070	311.401489
31176.612926	1133.101833	1444.425781	394.124054
31176.612926	1133.101833	1443.355469	393.329407
31176.612926	1133.101833	1442.285156	353.008240
31176.612926	1133.101833	1441.213867	674.291382
31176.612926	1133.101833	1440.142578	382.815002
31176.612926	1133.101833	1439.070313	348.628204
31176.612926	1133.101833	1437.999023	536.546753
31176.612926	1133.101833	1436.926758	382.981750
31176.612926	1133.101833	1435.854492	181.276855
31176.612926	1133.101833	1434.782227	369.332977
31176.612926	1133.101833	1433.709961	406.698456
31176.612926	1133.101833	1432.636719	298.238464
31176.612926	1133.101833	1431.563477	120.738434
31176.612926	1133.101833	1430.490234	255.672516
31176.612926	1133.101833	1429.416992	255.066544
31176.612926	1133.101833	1428.343750	120.874084
31176.612926	1133.101833	1427.269531	76.870049
31176.612926	1133.101833	1426.195313	-34.262337
31176.612926	1133.101833	1425.121094	-22.338072
31176.612926	1133.101833	1424.046875	114.942078
31176.612926	1133.101833	1422.971680	152.083908
31176.612926	1133.101833	1421.896484	-148.562851
31176.612926	1133.101833	1420.821289	-63.909950
31176.612926	1133.101833	1419.746094	-61.463848
31176.612926	1133.101833	1418.669922	-232.904831
31176.612926	1133.101833	1417.594727	-71.178764
31176.612926	1133.101833	1416.518555	-27.411119
31176.612926	1133.101833	1415.442383	-172.010773
31176.612926	1133.101833	1414.365234	-9.912470
31176.612926	1133.101833	1413.289063	-0.496626
31176.612926	1133.101833	1412.211914	82.178566
31176.612926	1133.101833	1411.134766	8.366832
31176.612926	1133.101833	1410.057617	14.116301
31176.612926	1133.101833	1408.979492	8.358966
31176.612926	1133.101833	1407.902344	71.996429
31176.612926	1133.101833	1406.824219	121.245026
31176.612926	1133.101833	1405.746094	121.099075
31176.612926	1133.101833	1404.666992	304.796631
31176.612926	1133.101833	1403.588867	71.418098
31176.612926	1133.101833	1402.509766	203.627884
31176.612926	1133.101833	1401.430664	183.461853
31176.612926	1133.101833	1400.351563	77.233665
31176.612926	1133.101833	1399.271484	449.809845
31176.612926	1133.101833	1398.192383	285.817474
31176.612926	1133.101833	1397.112305	343.280426
31176.612926	1133.101833	1396.031250	537.856445
31176.612926	1133.101833	1394.951172	417.613403
31176.612926	1133.101833	1393.871094	446.249939
31176.612926	1133.101833	1392.790039	106.151718
31176.612926	1133.101833	1391.708984	215.403351
31176.612926	1133.101833	1390.626953	373.795929
31176.612926	1133.101833	1389.545898	263.562256
31176.612926	1133.101833	1388.463867	290.863556
31176.612926	1133.101833	1387.381836	455.422668
31176.612926	1133.101833	1386.299805	196.082489
31176.612926	1133.101833	1385.217773	343.981812
31176.612926	1133.101833	1384.134766	300.812653
31176.612926	1133.101833	1383.051758	228.900986
31176.612926	1133.101833	1381.968750	193.891418
31176.612926	1133.101833	1380.885742	212.556503
31176.612926	1133.101833	1379.802734	408.089691
31176.612926	1133.101833	1378.718750	367.227386
31176.612926	1133.101833	1377.634766	252.772568
31176.612926	1133.101833	1376.550781	244.476288
31176.612926	1133.101833	1375.465820	226.758820
31176.612926	1133.101833	1374.381836	436.484985
31176.612926	1133.101833	1373.296875	597.745300
31176.612926	1133.101833	1372.211914	291.734863
31176.612926	1133.101833	1371.126953	303.335571
31176.612926	1133.101833	1370.041016	228.402634
31176.612926	1133.101833	1368.955078	338.828156
31176.612926	1133.101833	1367.869141	493.405090
31176.612926	1133.101833	1366.783203	468.898163
31176.612926	1133.101833	1365.697266	454.100311
31176.612926	1133.101833	1364.610352	485.619171
31176.612926	1133.101833	1363.523438	547.605103
31176.612926	1133.101833	1362.436523	534.206665
31176.612926	1133.101833	1361.349609	388.544800
31176.612926	1133.101833	1360.261719	344.234344
31176.612926	1133.101833	1359.174805	335.983398
31176.612926	1133.101833	1358.086914	561.753906
31176.612926	1133.101833	1356.998047	227.308762
31176.612926	1133.101833	1355.910156	418.705261
31176.612926	1133.101833	1354.821289	291.259308
31176.612926	1133.101833	1353.732422	527.456482
31176.612926	1133.101833	1352.643555	539.737244
31176.612926	1133.101833	1351.554688	478.692352
31176.612926	1133.101833	1350.464844	640.860046
31176.612926	1133.101833	1349.375000	752.756897
31176.612926	1133.101833	1348.285156	736.009766
31176.612926	1133.101833	1347.195313	731.093262
31176.612926	1133.101833	1346.105469	628.131409
31176.612926	1133.101833	1345.014648	750.405884
31176.612926	1133.101833	1343.923828	748.725891
31176.612926	1133.101833	1342.833008	772.067932
31176.612926	1133.101833	1341.741211	772.421875
31176.612926	1133.101833	1340.650391	581.112610
31176.612926	1133.101833	1339.558594	614.519409
31176.612926	1133.101833	1338.466797	586.697205
31176.612926	1133.101833	1337.374023	391.997498
31176.612926	1133.101833	1336.282227	489.500427
31176.612926	1133.101833	1335.189453	501.281158
31176.612926	1133.101833	1334.096680	446.401215
31176.612926	1133.101833	1333.003906	396.123199
31176.612926	1133.101833	1331.910156	400.206085
31176.612926	1133.101833	1330.817383	311.379913
31176.612926	1133.101833	1329.723633	474.785797
31176.612926	1133.101833	1328.629883	542.481018
31176.612926	1133.101833	1327.535156	537.954285
31176.612926	1133.101833	1326.441406	375.967377
31176.612926	1133.101833	1325.346680	487.615936
31176.612926	1133.101833	1324.251953	416.485382
31176.612926	1133.101833	1323.156250	622.848816
31176.612926	1133.101833	1322.061523	742.097473
31176.612926	1133.101833	1320.965820	556.773682
31176.612926	1133.101833	1319.870117	518.783020
31176.612926	1133.101833	1318.774414	583.568787
31176.612926	1133.101833	1317.678711	499.207092
31176.612926	1133.101833	1316.582031	627.129456
31176.612926	1133.101833	1315.485352	528.227661
31176.612926	1133.101833	1314.388672	701.027893
31176.612926	1133.101833	1313.291016	840.392639
31176.612926	1133.101833	1312.194336	651.982788
31176.612926	1133.101833	1311.096680	715.683289
31176.612926	1133.101833	1309.999023	719.914978
31176.612926	1133.101833	1308.901367	631.146484
31176.612926	1133.101833	1307.802734	621.041138
31176.612926	1133.101833	1306.705078	756.231262
31176.612926	1133.101833	1305.606445	577.509399
31176.612926	1133.101833	1304.506836	808.654785
31176.612926	1133.101833	1303.408203	622.994080
31176.612926	1133.101833	1302.308594	730.673340
31176.612926	1133.101833	1301.208984	631.072144
31176.612926	1133.101833	1300.109375	598.741272
31176.612926	1133.101833	1299.009766	757.388672
31176.612926	1133.101833	1297.909180	785.040283
31176.612926	1133.101833	1296.808594	804.923157
31176.612926	1133.101833	1295.708008	734.036255
31176.612926	1133.101833	1294.607422	718.202942
31176.612926	1133.101833	1293.506836	746.113586
31176.612926	1133.101833	1292.405273	633.561707
31176.612926	1133.101833	1291.303711	468.460938
31176.612926	1133.101833	1290.202148	554.031921
31176.612926	1133.101833	1289.099609	604.255859
31176.612926	1133.101833	1287.998047	492.213379
31176.612926	1133.101833	1286.895508	413.861053
31176.612926	1133.101833	1285.792969	329.283142
31176.612926	1133.101833	1284.689453	398.067352
31176.612926	1133.101833	1283.586914	387.079407
31176.612926	1133.101833	1282.483398	374.937073
31176.612926	1133.101833	1281.379883	285.206085
31176.612926	1133.101833	1280.276367	556.102295
31176.612926	1133.101833	1279.171875	322.690979
31176.612926	1133.101833	1278.067383	320.558380
31176.612926	1133.101833	1276.962891	195.934006
31176.612926	1133.101833	1275.858398	210.553268
31176.612926	1133.101833	1274.753906	223.839111
31176.612926	1133.101833	1273.648438	313.360840
31176.612926	1133.101833	1272.542969	261.863770
31176.612926	1133.101833	1271.437500	147.577469
31176.612926	1133.101833	1270.331055	122.439461
31176.612926	1133.101833	1269.225586	216.292740
31176.612926	1133.101833	1268.119141	261.317932
31176.612926	1133.101833	1267.012695	78.828735
31176.612926	1133.101833	1265.906250	86.478523
31176.612926	1133.101833	1264.798828	97.485161
31176.612926	1133.101833	1263.691406	-12.025202
31176.612926	1133.101833	1262.583984	15.644815
31176.612926	1133.101833	1261.476563	92.845932
31176.612926	1133.101833	1260.368164	98.788200
31176.612926	1133.101833	1259.260742	-251.243973
31176.612926	1133.101833	1258.152344	-36.331573
31176.612926	1133.101833	1257.043945	-213.015427
31176.612926	1133.101833	1255.934570	-62.813984
31176.612926	1133.101833	1254.825195	-198.143051
31176.612926	1133.101833	1253.716797	-98.761185
31176.612926	1133.101833	1252.606445	-47.518970
31176.612926	1133.101833	1251.497070	-309.613312
31176.612926	1133.101833	1250.387695	-175.493317
31176.612926	1133.101833	1249.277344	-94.549477
31176.612926	1133.101833	1248.166992	-88.555939
31176.612926	1133.101833	1247.055664	-4.753813
31176.612926	1133.101833	1245.945313	-74.669060
31176.612926	1133.101833	1244.833984	-91.362206
31176.612926	1133.101833	1243.722656	73.522530
31176.612926	1133.101833	1242.611328	-69.388634
31176.612926	1133.101833	1241.499023	14.298918
31176.612926	1133.101833	1240.387695	54.044712
31176.612926	1133.101833	1239.275391	-48.836868
31176.612926	1133.101833	1238.162109	122.224716
31176.612926	1133.101833	1237.049805	130.810181
31176.612926	1133.101833	1235.936523	149.319778
31176.612926	1133.101833	1234.823242	118.403412
31176.612926	1133.101833	1233.709961	-47.943531
31176.612926	1133.101833	1232.596680	44.123985
31176.612926	1133.101833	1231.482422	153.191895
31176.612926	1133.101833	1230.369141	120.557968
31176.612926	1133.101833	1229.253906	-99.548943
31176.612926	1133.101833	1228.139648	69.826530
31176.612926	1133.101833	1227.025391	74.040855
31176.612926	1133.101833	1225.910156	106.197487
31176.612926	1133.101833	1224.794922	7.269774
31176.612926	1133.101833	1223.679688	172.995377
31176.612926	1133.101833	1222.563477	77.834167
31176.612926	1133.101833	1221.447266	54.700966
31176.612926	1133.101833	1220.331055	151.655731
31176.612926	1133.101833	1219.214844	148.533798
31176.612926	1133.101833	1218.098633	124.891205
31176.612926	1133.101833	1216.981445	119.004166
31176.612926	1133.101833	1215.864258	183.567932
31176.612926	1133.101833	1214.747070	22.734280
31176.612926	1133.101833	1213.629883	296.224335
31176.612926	1133.101833	1212.511719	159.193100
31176.612926	1133.101833	1211.393555	345.108459
31176.612926	1133.101833	1210.275391	357.351685
31176.612926	1133.101833	1209.157227	420.849976
31176.612926	1133.101833	1208.038086	498.646973
31176.612926	1133.101833	1206.918945	324.823944
31176.612926	1133.101833	1205.799805	371.151855
31176.612926	1133.101833	1204.680664	450.863586
31176.612926	1133.101833	1203.560547	438.879669
31176.612926	1133.101833	1202.441406	392.267761
31176.612926	1133.101833	1201.321289	402.722809
31176.612926	1133.101833	1200.200195	370.829254
31176.612926	1133.101833	1199.080078	460.767273
31176.612926	1133.101833	1197.958984	381.448456
31176.612926	1133.101833	1196.837891	430.819641
31176.612926	1133.101833	1195.716797	344.258362
31176.612926	1133.101833	1194.594727	429.080353
31176.612926	1133.101833	1193.473633	471.545288
31176.612926	1133.101833	1192.351563	461.198303
31176.612926	1133.101833	1191.229492	613.459045
31176.612926	1133.101833	1190.106445	506.361053
31176.612926	1133.101833	1188.984375	411.202301
31176.612926	1133.101833	1187.861328	467.818665
31176.612926	1133.101833	1186.738281	363.777527
31176.612926	1133.101833	1185.614258	304.161957
31176.612926	1133.101833	1184.491211	278.934479
31176.612926	1133.101833	1183.367188	153.959915
31176.612926	1133.101833	1182.243164	126.279442
31176.612926	1133.101833	1181.119141	22.858536
31176.612926	1133.101833	1179.994141	38.688396
31176.612926	1133.101833	1178.869141	26.264395
31176.612926	1133.101833	1177.744141	93.690712
31176.612926	1133.101833	1176.619141	-48.138432
31176.612926	1133.101833	1175.493164	-4.957541
31176.612926	1133.101833	1174.368164	58.149708
31176.612926	1133.101833	1173.242188	-35.969017
31176.612926	1133.101833	1172.115234	-4.539699
31176.612926	1133.101833	1170.989258	-107.445557
31176.612926	1133.101833	1169.862305	-108.503197
31176.612926	1133.101833	1168.735352	-14.543991
31176.612926	1133.101833	1167.608398	-24.291807
31176.612926	1133.101833	1166.481445	-33.119938
31176.612926	1133.101833	1165.353516	-98.082520
31176.612926	1133.101833	1164.225586	23.068380
31176.612926	1133.101833	1163.097656	28.432154
31176.612926	1133.101833	1161.968750	73.210419
31176.612926	1133.101833	1160.840820	-9.685296
31176.612926	1133.101833	1159.711914	24.665028
31176.612926	1133.101833	1158.583008	-157.166214
31176.612926	1133.101833	1157.453125	14.592772
31176.612926	1133.101833	1156.324219	-115.081673
31176.612926	1133.101833	1155.194336	-60.819633
31176.612926	1133.101833	1154.064453	-28.328798
31176.612926	1133.101833	1152.933594	-243.099243
31176.612926	1133.101833	1151.803711	-67.068291
31176.612926	1133.101833	1150.672852	-166.680832
31176.612926	1133.101833	1149.541992	-162.308395
31176.612926	1133.101833	1148.411133	-54.829029
31176.612926	1133.101833	1147.279297	-17.634367
31176.612926	1133.101833	1146.147461	-69.563568
31176.612926	1133.101833	1145.015625	-114.013229
31176.612926	1133.101833	1143.883789	-187.657272
31176.612926	1133.101833	1142.750977	61.724838
31176.612926	1133.101833	1141.619141	-131.177414
31176.612926	1133.101833	1140.486328	-145.778381
31176.612926	1133.101833	1139.352539	-136.127090
31176.612926	1133.101833	1138.219727	-146.851166
31176.612926	1133.101833	1137.085938	-88.513618
31176.612926	1133.101833	1135.952148	-65.262741
31176.612926	1133.101833	1134.818359	-82.102478
31176.612926	1133.101833	1133.683594	48.975487
31176.612926	1133.101833	1132.549805	79.744400
31176.612926	1133.101833	1131.415039	219.376175
31176.612926	1133.101833	1130.279297	242.423386
31176.612926	1133.101833	1129.144531	290.475983
31176.612926	1133.101833	1128.008789	258.699768
31176.612926	1133.101833	1126.873047	320.760315
31176.612926	1133.101833	1125.737305	81.948692
31176.612926	1133.101833	1124.601563	269.217041
31176.612926	1133.101833	1123.464844	219.655334
31176.612926	1133.101833	1122.328125	172.487991
31176.612926	1133.101833	1121.191406	215.870316
31176.612926	1133.101833	1120.054688	139.682220
31176.612926	1133.101833	1118.916992	101.292831
31176.612926	1133.101833	1117.779297	270.023438
31176.612926	1133.101833	1116.641602	223.789124
31176.612926	1133.101833	1115.503906	50.519642
31176.612926	1133.101833	1114.365234	84.630844
31176.612926	1133.101833	1113.226563	-8.370255
31176.612926	1133.101833	1112.087891	-16.200369
31176.612926	1133.101833	1110.949219	21.249945
31176.612926	1133.101833	1109.809570	-109.878021
31176.612926	1133.101833	1108.669922	-39.579975
31176.612926	1133.101833	1107.530273	81.868782
31176.612926	1133.101833	1106.390625	22.386311
31176.612926	1133.101833	1105.250000	67.141090
31176.612926	1133.101833	1104.109375	-39.943439
31176.612926	1133.101833	1102.968750	58.713875
31176.612926	1133.101833	1101.828125	127.608269
31176.612926	1133.101833	1100.686523	108.291847
31176.612926	1133.101833	1099.544922	30.824963
31176.612926	1133.101833	1098.403320	134.776093
31176.612926	1133.101833	1097.261719	77.239136
31176.612926	1133.101833	1096.120117	-32.567043
31176.612926	1133.101833	1094.977539	126.603821
31176.612926	1133.101833	1093.834961	56.524212
31176.612926	1133.101833	1092.691406	90.662003
31176.612926	1133.101833	1091.548828	80.307457
31176.612926	1133.101833	1090.405273	157.836533
31176.612926	1133.101833	1089.261719	226.708450
31176.612926	1133.101833	1088.118164	102.050316
31176.612926	1133.101833	1086.973633	-63.535442
31176.612926	1133.101833	1085.829102	198.038452
31176.612926	1133.101833	1084.684570	56.119839
31176.612926	1133.101833	1083.540039	-68.309677
31176.612926	1133.101833	1082.395508	137.983490
31176.612926	1133.101833	1081.250000	154.030304
31176.612926	1133.101833	1080.104492	178.055923
31176.612926	1133.101833	1078.958984	303.444366
31176.612926	1133.101833	1077.812500	173.481323
31176.612926	1133.101833	1076.666016	370.355042
31176.612926	1133.101833	1075.519531	114.836182
31176.612926	1133.101833	1074.373047	115.708199
31176.612926	1133.101833	1073.226563	168.926346
31176.612926	1133.101833	1072.079102	226.291779
31176.612926	1133.101833	1070.931641	48.100368
31176.612926	1133.101833	1069.784180	171.024200
31176.612926	1133.101833	1068.635742	321.893585
31176.612926	1133.101833	1067.487305	267.347321
31176.612926	1133.101833	1066.338867	343.164917
31176.612926	1133.101833	1065.190430	168.433487
31176.612926	1133.101833	1064.041992	238.026321
31176.612926	1133.101833	1062.892578	355.971802
31176.612926	1133.101833	1061.743164	227.788788
31176.612926	1133.101833	1060.593750	297.792938
31176.612926	1133.101833	1059.443359	199.561356
31176.612926	1133.101833	1058.292969	159.005600
31176.612926	1133.101833	1057.142578	160.773361
31176.612926	1133.101833	1055.992188	10.889295
31176.612926	1133.101833	1054.841797	184.173950
31176.612926	1133.101833	1053.690430	212.942535
31176.612926	1133.101833	1052.539063	68.955429
31176.612926	1133.101833	1051.387695	-206.691422
31176.612926	1133.101833	1050.235352	71.735069
31176.612926	1133.101833	1049.083984	-14.730577
31176.612926	1133.101833	1047.931641	-57.418381
31176.612926	1133.101833	1046.778320	21.237228
31176.612926	1133.101833	1045.625977	130.440918
31176.612926	1133.101833	1044.472656	41.509930
31176.612926	1133.101833	1043.319336	-40.604641
31176.612926	1133.101833	1042.166016	-69.623245
31176.612926	1133.101833	1041.012695	-42.233135
31176.612926	1133.101833	1039.858398	44.139271
31176.612926	1133.101833	1038.704102	-72.914146
31176.612926	1133.101833	1037.549805	10.514084
31176.612926	1133.101833	1036.394531	32.228889
31176.612926	1133.101833	1035.239258	94.314445
31176.612926	1133.101833	1034.083984	93.937012
31176.612926	1133.101833	1032.928711	202.104660
31176.612926	1133.101833	1031.773438	214.241440
31176.612926	1133.101833	1030.617188	214.668732
31176.612926	1133.101833	1029.460938	218.279465
31176.612926	1133.101833	1028.304688	229.116852
31176.612926	1133.101833	1027.147461	194.967972
31176.612926	1133.101833	1025.991211	175.976166
31176.612926	1133.101833	1024.833984	1.552237
31176.612926	1133.101833	1023.675781	206.623077
31176.612926	1133.101833	1022.518555	90.997269
31176.612926	1133.101833	1021.360352	158.112747
31176.612926	1133.101833	1020.202148	111.277748
31176.612926	1133.101833	1019.043945	51.766922
31176.612926	1133.101833	1017.884766	118.934471
31176.612926	1133.101833	1016.726563	-31.097246
31176.612926	1133.101833	1015.567383	41.461937
31176.612926	1133.101833	1014.407227	-65.256012
31176.612926	1133.101833	1013.248047	-19.600214
31176.612926	1133.101833	1012.087891	-53.774853
31176.612926	1133.101833	1010.927734	-38.465588
31176.612926	1133.101833	1009.767578	173.778000
31176.612926	1133.101833	1008.606445	82.351852
31176.612926	1133.101833	1007.446289	245.352432
31176.612926	1133.101833	1006.285156	283.303772
31176.612926	1133.101833	1005.123047	36.446274
31176.612926	1133.101833	1003.961914	-33.322674
31176.612926	1133.101833	1002.799805	165.403610
31176.612926	1133.101833	1001.637695	204.754120
31176.612926	1133.101833	1000.475586	-10.585362
31176.612926	1133.101833	999.312500	56.384357
31176.612926	1133.101833	998.149414	18.882214
31176.612926	1133.101833	996.986328	-58.930458
31176.612926	1133.101833	995.823242	-48.596416
31176.612926	1133.101833	994.659180	106.491821
31176.612926	1133.101833	993.496094	-46.678967
31176.612926	1133.101833	992.332031	50.840328
31176.612926	1133.101833	991.166992	48.600601
31176.612926	1133.101833	990.002930	112.788002
31176.612926	1133.101833	988.837891	112.163002
31176.612926	1133.101833	987.672852	-4.506425
31176.612926	1133.101833	986.506836	105.387009
31176.612926	1133.101833	985.341797	45.152695
31176.612926	1133.101833	984.175781	65.900490
31176.612926	1133.101833	983.009766	-138.151337
31176.612926	1133.101833	981.843750	-80.602219
31176.612926	1133.101833	980.676758	131.152039
31176.612926	1133.101833	979.509766	-19.596970
31176.612926	1133.101833	978.342773	-65.935997
31176.612926	1133.101833	977.175781	61.725925
31176.612926	1133.101833	976.007813	131.727264
31176.612926	1133.101833	974.839844	-21.744783
31176.612926	1133.101833	973.671875	289.732758
31176.612926	1133.101833	972.503906	11.601462
31176.612926	1133.101833	971.334961	18.143023
31176.612926	1133.101833	970.166016	63.405067
31176.612926	1133.101833	968.997070	67.408234
31176.612926	1133.101833	967.828125	165.471008
31176.612926	1133.101833	966.658203	5.279290
31176.612926	1133.101833	965.488281	8.186447
31176.612926	1133.101833	964.318359	-48.741974
31176.612926	1133.101833	963.148438	34.976563
31176.612926	1133.101833	961.977539	94.091324
31176.612926	1133.101833	960.806641	-38.819645
31176.612926	1133.101833	959.635742	-72.252327
31176.612926	1133.101833	958.463867	-39.885277
31176.612926	1133.101833	957.292969	79.613495
31176.612926	1133.101833	956.121094	238.180679
31176.612926	1133.101833	954.948242	-6.867277
31176.612926	1133.101833	953.776367	143.162079
31176.612926	1133.101833	952.603516	98.911354
31176.612926	1133.101833	951.430664	-35.791233
31176.612926	1133.101833	950.257813	105.537781
31176.612926	1133.101833	949.084961	-78.816376
31176.612926	1133.101833	947.911133	-190.218063
31176.612926	1133.101833	946.737305	107.231339
31176.612926	1133.101833	945.563477	-88.644890
31176.612926	1133.101833	944.388672	30.091560
31176.612926	1133.101833	943.213867	149.102036
31176.612926	1133.101833	942.039063	2.054564
31176.612926	1133.101833	940.864258	161.115173
31176.612926	1133.101833	939.688477	324.555084
31176.612926	1133.101833	938.513672	79.229416
31176.612926	1133.101833	937.337891	106.231285
31176.612926	1133.101833	936.161133	113.161224
31176.612926	1133.101833	934.985352	100.222160
31176.612926	1133.101833	933.808594	51.291218
31176.612926	1133.101833	932.631836	84.979149
31176.612926	1133.101833	931.454102	214.656570
31176.612926	1133.101833	930.277344	136.727737
31176.612926	1133.101833	929.099609	268.405518
31176.612926	1133.101833	927.921875	257.353485
31176.612926	1133.101833	926.743164	308.740936
31176.612926	1133.101833	925.565430	94.640289
31176.612926	1133.101833	924.386719	108.078667
31176.612926	1133.101833	923.208008	23.362270
31176.612926	1133.101833	922.028320	172.728683
31176.612926	1133.101833	920.849609	-52.422390
31176.612926	1133.101833	919.669922	-48.544495
31176.612926	1133.101833	919.474609	39.553009
31176.612926	1133.101833	918.309570	55.026421
31176.612926	1133.101833	917.143555	-58.716797
31176.612926	1133.101833	915.977539	-101.178925
31176.612926	1133.101833	914.810547	-63.494610
31176.612926	1133.101833	913.644531	-39.211163
31176.612926	1133.101833	912.477539	-23.864458
31176.612926	1133.101833	911.310547	-41.926422
31176.612926	1133.101833	910.143555	-151.220383
31176.612926	1133.101833	908.975586	-195.991455
31176.612926	1133.101833	907.807617	-122.912704
31176.612926	1133.101833	906.639648	-98.803543
31176.612926	1133.101833	905.471680	-179.206070
31176.612926	1133.101833	904.303711	-75.143791
31176.612926	1133.101833	903.134766	-137.795120
31176.612926	1133.101833	901.965820	-40.500454
31176.612926	1133.101833	900.796875	-200.915192
31176.612926	1133.101833	899.626953	-161.436554
31176.612926	1133.101833	898.457031	-159.744232
31176.612926	1133.101833	897.287109	-124.786140
31176.612926	1133.101833	896.117188	41.063602
31176.612926	1133.101833	894.947266	-74.967117
31176.612926	1133.101833	893.776367	24.200916
31176.612926	1133.101833	892.605469	19.058975
31176.612926	1133.101833	891.434570	-34.894054
31176.612926	1133.101833	890.262695	112.893120
31176.612926	1133.101833	889.091797	-20.909592
31176.612926	1133.101833	887.919922	-88.202919
31176.612926	1133.101833	886.748047	92.649551
31176.612926	1133.101833	885.575195	60.745361
31176.612926	1133.101833	884.403320	-19.901615
31176.612926	1133.101833	883.230469	-87.258255
31176.612926	1133.101833	882.057617	0.348067
31176.612926	1133.101833	880.883789	-100.244484
31176.612926	1133.101833	879.710938	-132.229858
31176.612926	1133.101833	878.537109	-177.505325
31176.612926	1133.101833	877.362305	-76.799675
31176.612926	1133.101833	876.188477	-69.054253
31176.612926	1133.101833	875.013672	-61.341309
31176.612926	1133.101833	873.839844	-22.716845
31176.612926	1133.101833	872.664063	24.705036
31176.612926	1133.101833	871.489258	136.154755
31176.612926	1133.101833	870.313477	-30.841549
31176.612926	1133.101833	869.138672	-69.691704
31176.612926	1133.101833	867.962891	48.237251
31176.612926	1133.101833	866.786133	-96.656036
31176.612926	1133.101833	865.610352	56.482948
31176.612926	1133.101833	864.433594	66.070694
31176.612926	1133.101833	863.256836	51.348091
31176.612926	1133.101833	862.079102	111.607399
31176.612926	1133.101833	860.902344	99.018776
31176.612926	1133.101833	859.724609	-17.242720
31176.612926	1133.101833	858.546875	-62.939526
31176.612926	1133.101833	857.368164	96.349403
31176.612926	1133.101833	856.190430	-114.711891
31176.612926	1133.101833	855.011719	42.247677
31176.612926	1133.101833	853.833008	108.785622
31176.612926	1133.101833	852.654297	-20.762360
31176.612926	1133.101833	851.474609	-4.957314
31176.612926	1133.101833	850.294922	-61.848095
31176.612926	1133.101833	849.115234	61.740349
31176.612926	1133.101833	847.935547	-52.432938
31176.612926	1133.101833	846.754883	-19.180117
31176.612926	1133.101833	845.575195	-150.964050
31176.612926	1133.101833	844.393555	-97.985474
31176.612926	1133.101833	843.212891	-179.200378
31176.612926	1133.101833	842.032227	67.145424
31176.612926	1133.101833	840.850586	108.939835
31176.612926	1133.101833	839.668945	-5.345730
31176.612926	1133.101833	838.486328	-97.652069
31176.612926	1133.101833	837.304688	-64.754601
31176.612926	1133.101833	836.122070	-1.163141
31176.612926	1133.101833	834.939453	-38.640991
31176.612926	1133.101833	833.756836	-36.629810
31176.612926	1133.101833	832.573242	-164.153091
31176.612926	1133.101833	831.389648	-12.981855
31176.612926	1133.101833	830.206055	-140.540176
31176.612926	1133.101833	829.022461	-26.808294
31176.612926	1133.101833	827.838867	-33.780106
31176.612926	1133.101833	826.654297	-93.411896
31176.612926	1133.101833	825.469727	13.537201
31176.612926	1133.101833	824.284180	-109.722664
31176.612926	1133.101833	823.099609	-24.812279
31176.612926	1133.101833	821.914063	-49.516701
31176.612926	1133.101833	820.728516	192.960266
31176.612926	1133.101833	819.542969	-37.711720
31176.612926	1133.101833	818.356445	3.151444
31176.612926	1133.101833	817.169922	107.432480
31176.612926	1133.101833	815.983398	34.357708
31176.612926	1133.101833	814.796875	57.541622
31176.612926	1133.101833	813.609375	-37.458778
31176.612926	1133.101833	812.422852	42.503960
31176.612926	1133.101833	811.235352	48.041100
31176.612926	1133.101833	810.046875	110.372017
31176.612926	1133.101833	808.859375	50.226425
31176.612926	1133.101833	807.670898	175.812042
31176.612926	1133.101833	806.482422	218.272217
31176.612926	1133.101833	805.293945	236.639404
31176.612926	1133.101833	804.104492	132.649994
31176.612926	1133.101833	802.915039	35.205265
31176.612926	1133.101833	801.725586	236.831833
31176.612926	1133.101833	800.536133	244.074890
31176.612926	1133.101833	799.345703	240.354736
31176.612926	1133.101833	798.155273	260.585999
31176.612926	1133.101833	796.964844	108.440353
31176.612926	1133.101833	795.774414	52.263256
31176.612926	1133.101833	794.583008	17.863073
31176.612926	1133.101833	793.392578	186.157593
31176.612926	1133.101833	792.200195	158.182510
31176.612926	1133.101833	791.008789	101.840210
31176.612926	1133.101833	789.816406	150.041336
31176.612926	1133.101833	788.625000	-74.090904
31176.612926	1133.101833	787.432617	-108.726570
31176.612926	1133.101833	786.239258	6.826418
31176.612926	1133.101833	785.046875	67.861435
31176.612926	1133.101833	783.853516	48.296078
31176.612926	1133.101833	782.660156	-171.490112
31176.612926	1133.101833	781.465820	85.171135
31176.612926	1133.101833	780.272461	82.856773
31176.612926	1133.101833	779.078125	210.958679
31176.612926	1133.101833	777.883789	32.416134
31176.612926	1133.101833	776.688477	25.606760
31176.612926	1133.101833	775.494141	227.367126
31176.612926	1133.101833	774.298828	150.887604
31176.612926	1133.101833	773.103516	102.623810
31176.612926	1133.101833	771.907227	102.105034
31176.612926	1133.101833	770.711914	201.413818
31176.612926	1133.101833	769.515625	64.000977
31176.612926	1133.101833	768.318359	52.474159
31176.612926	1133.101833	767.122070	66.937668
31176.612926	1133.101833	765.924805	63.983665
31176.612926	1133.101833	764.727539	156.414764
31176.612926	1133.101833	763.530273	-163.285248
31176.612926	1133.101833	762.333008	-8.079370
31176.612926	1133.101833	761.134766	-87.107086
31176.612926	1133.101833	759.936523	-20.951326
31176.612926	1133.101833	758.738281	-56.719109
31176.612926	1133.101833	757.540039	134.940567
31176.612926	1133.101833	756.340820	-37.410271
31176.612926	1133.101833	755.141602	108.577751
31176.612926	1133.101833	753.942383	204.653137
31176.612926	1133.101833	752.742188	-19.723806
31176.612926	1133.101833	751.541992	151.968369
31176.612926	1133.101833	750.341797	-122.180534
31176.612926	1133.101833	749.141602	81.796249
31176.612926	1133.101833	747.941406	58.542755
31176.612926	1133.101833	746.740234	15.779854
31176.612926	1133.101833	745.539063	154.573181
31176.612926	1133.101833	744.337891	-74.185173
31176.612926	1133.101833	743.135742	8.269499
31176.612926	1133.101833	741.933594	23.657288
31176.612926	1133.101833	740.731445	41.142273
31176.612926	1133.101833	739.529297	15.371463
31176.612926	1133.101833	738.326172	-92.495079
31176.612926	1133.101833	737.124023	-62.215401
31176.612926	1133.101833	735.919922	47.846268
31176.612926	1133.101833	734.716797	71.495186
31176.612926	1133.101833	733.513672	-10.632036
31176.612926	1133.101833	732.309570	142.317368
31176.612926	1133.101833	731.105469	241.235321
31176.612926	1133.101833	729.900391	163.261154
31176.612926	1133.101833	728.696289	91.732674
31176.612926	1133.101833	727.491211	121.463554
31176.612926	1133.101833	726.286133	306.259003
31176.612926	1133.101833	725.080078	-34.702229
31176.612926	1133.101833	723.874023	139.164948
31176.612926	1133.101833	722.668945	147.104065
31176.612926	1133.101833	721.461914	-25.860949
31176.612926	1133.101833	720.255859	156.336609
31176.612926	1133.101833	719.048828	9.153866
31176.612926	1133.101833	717.841797	23.338326
31176.612926	1133.101833	716.634766	58.970734
31176.612926	1133.101833	715.427734	77.329109
31176.612926	1133.101833	714.219727	-18.335880
31176.612926	1133.101833	713.011719	38.611156
31176.612926	1133.101833	711.803711	-24.876921
31176.612926	1133.101833	710.594727	-21.784910
31176.612926	1133.101833	709.385742	-42.379597
31176.612926	1133.101833	708.176758	-133.900482
31176.612926	1133.101833	706.967773	32.253742
31176.612926	1133.101833	705.758789	-27.148096
31176.612926	1133.101833	704.548828	-17.892714
31176.612926	1133.101833	703.338867	42.810970
31176.612926	1133.101833	702.127930	-25.305273
31176.612926	1133.101833	700.917969	-95.588440
31176.612926	1133.101833	699.707031	-20.056257
31176.612926	1133.101833	698.496094	-90.418900
31176.612926	1133.101833	697.285156	-10.736588
31176.612926	1133.101833	696.073242	-12.592167
31176.612926	1133.101833	694.861328	-213.789902
31176.612926	1133.101833	693.649414	41.392220
31176.612926	1133.101833	692.436523	195.737015
31176.612926	1133.101833	691.224609	135.813690
31176.612926	1133.101833	690.011719	242.868149
31176.612926	1133.101833	688.798828	133.619308
31176.612926	1133.101833	687.584961	30.783430
31176.612926	1133.101833	686.372070	-39.957603
31176.612926	1133.101833	685.158203	167.390839
31176.612926	1133.101833	683.943359	77.294884
31176.612926	1133.101833	682.729492	252.357559
31176.612926	1133.101833	681.514648	196.393631
31176.612926	1133.101833	680.299805	275.069580
31176.612926	1133.101833	679.084961	118.588020
31176.612926	1133.101833	677.869141	135.187469
31176.612926	1133.101833	676.653320	168.823608
31176.612926	1133.101833	675.437500	65.712761
31176.612926	1133.101833	674.221680	-43.804764
31176.612926	1133.101833	673.004883	45.212574
31176.612926	1133.101833	671.789063	210.990585
31176.612926	1133.101833	670.571289	210.199463
31176.612926	1133.101833	669.354492	96.295044
31176.612926	1133.101833	668.136719	178.630463
31176.612926	1133.101833	666.919922	73.226730
31176.612926	1133.101833	665.701172	146.913879
31176.612926	1133.101833	664.483398	90.501640
31176.612926	1133.101833	663.264648	255.715988
31176.612926	1133.101833	662.045898	220.525818
31176.612926	1133.101833	660.827148	242.830124
31176.612926	1133.101833	659.608398	37.190056
31176.612926	1133.101833	658.388672	-44.901398
31176.612926	1133.101833	657.168945	122.095123
31176.612926	1133.101833	655.949219	-4.754350
31176.612926	1133.101833	654.728516	23.758945
31176.612926	1133.101833	653.507813	211.794586
31176.612926	1133.101833	652.287109	78.511406
31176.612926	1133.101833	651.066406	115.387543
31176.612926	1133.101833	649.844727	290.416870
31176.612926	1133.101833	648.623047	154.967072
31176.612926	1133.101833	647.401367	280.962646
31176.612926	1133.101833	646.179688	264.501892
31176.612926	1133.101833	644.957031	288.376434
31176.612926	1133.101833	643.734375	82.813469
31176.612926	1133.101833	642.511719	244.686722
31176.612926	1133.101833	641.289063	238.733170
31176.612926	1133.101833	640.065430	169.067642
31176.612926	1133.101833	638.841797	256.446716
31176.612926	1133.101833	637.618164	227.063507
31176.612926	1133.101833	636.393555	180.688019
31176.612926	1133.101833	635.168945	189.449005
31176.612926	1133.101833	633.944336	193.938980
31176.612926	1133.101833	632.719727	126.322670
31176.612926	1133.101833	631.494141	16.312454
31176.612926	1133.101833	630.269531	-100.027008
31176.612926	1133.101833	629.042969	-19.316908
31176.612926	1133.101833	627.817383	-135.650467
31176.612926	1133.101833	626.590820	-8.423056
31176.612926	1133.101833	625.365234	29.809023
31176.612926	1133.101833	624.137695	-23.031654
31176.612926	1133.101833	622.911133	-80.096703
31176.612926	1133.101833	621.683594	-8.090206
31176.612926	1133.101833	620.456055	-141.336304
31176.612926	1133.101833	619.228516	-12.276657
31176.612926	1133.101833	618.000977	59.614838
31176.612926	1133.101833	616.772461	55.346298
31176.612926	1133.101833	615.543945	-99.010857
31176.612926	1133.101833	614.314453	-90.601845
31176.612926	1133.101833	613.085938	-31.498341
31176.612926	1133.101833	611.856445	-25.247377
31176.612926	1133.101833	610.626953	-65.474762
31176.612926	1133.101833	609.397461	-118.366302
31176.612926	1133.101833	608.166992	-99.477432
31176.612926	1133.101833	606.936523	-89.050148
31176.612926	1133.101833	605.706055	7.876222
31176.612926	1133.101833	604.474609	16.141729
31176.612926	1133.101833	603.244141	-0.911142
31176.612926	1133.101833	602.012695	-26.405720
31176.612926	1133.101833	600.780273	-142.559097
31176.612926	1133.101833	599.548828	-35.230927
31176.612926	1133.101833	598.316406	114.188828
31176.612926	1133.101833	597.083984	-63.042812
31176.612926	1133.101833	595.851563	-21.123411
31176.612926	1133.101833	594.618164	-69.794022
31176.612926	1133.101833	593.384766	-4.742944
31176.612926	1133.101833	592.151367	9.753130
31176.612926	1133.101833	590.917969	110.534683
31176.612926	1133.101833	589.683594	-1.266308
31176.612926	1133.101833	588.449219	259.358124
31176.612926	1133.101833	587.214844	29.781610
31176.612926	1133.101833	585.979492	35.827545
31176.612926	1133.101833	584.745117	6.134212
31176.612926	1133.101833	583.509766	-128.652283
31176.612926	1133.101833	582.273438	-91.054802
31176.612926	1133.101833	581.038086	20.075647
31176.612926	1133.101833	579.801758	97.545311
31176.612926	1133.101833	578.565430	99.376701
31176.612926	1133.101833	577.329102	122.209007
31176.612926	1133.101833	576.091797	10.672185
31176.612926	1133.101833	574.854492	12.529898
31176.612926	1133.101833	573.617188	276.699615
31176.612926	1133.101833	572.378906	391.798615
31176.612926	1133.101833	571.141602	206.908234
31176.612926	1133.101833	569.903320	263.267365
31176.612926	1133.101833	568.664063	183.321793
31176.612926	1133.101833	567.425781	149.539505
31176.612926	1133.101833	566.186523	17.273626
31176.612926	1133.101833	564.947266	84.129433
31176.612926	1133.101833	563.708008	50.410999
31176.612926	1133.101833	562.467773	198.926910
31176.612926	1133.101833	561.227539	60.513775
31176.612926	1133.101833	559.987305	64.530319
31176.612926	1133.101833	558.747070	83.207275
31176.612926	1133.101833	557.505859	112.344406
31176.612926	1133.101833	556.264648	281.658112
31176.612926	1133.101833	555.023438	-40.651222
31176.612926	1133.101833	553.781250	-36.572914
31176.612926	1133.101833	552.539063	40.694279
31176.612926	1133.101833	551.296875	55.228622
31176.612926	1133.101833	550.054688	19.609346
31176.612926	1133.101833	548.811523	9.086319
31176.612926	1133.101833	547.569336	-3.503996
31176.612926	1133.101833	546.325195	138.470627
31176.612926	1133.101833	545.082031	272.048920
31176.612926	1133.101833	543.837891	-7.791976
31176.612926	1133.101833	542.593750	-231.144669
31176.612926	1133.101833	541.349609	-16.155731
31176.612926	1133.101833	540.105469	-91.253960
31176.612926	1133.101833	538.860352	8.905120
31176.612926	1133.101833	537.615234	-82.831833
31176.612926	1133.101833	536.369141	-101.546173
31176.612926	1133.101833	535.124023	-84.798447
31176.612926	1133.101833	533.877930	-47.210201
31176.612926	1133.101833	532.631836	140.399033
31176.612926	1133.101833	531.384766	21.695850
31176.612926	1133.101833	530.138672	103.007179
31176.612926	1133.101833	528.891602	55.182117
31176.612926	1133.101833	527.643555	44.855999
31176.612926	1133.101833	526.396484	111.562599
31176.612926	1133.101833	525.148438	-19.452547
31176.612926	1133.101833	523.900391	-4.764187
31176.612926	1133.101833	522.652344	-33.756699
31176.612926	1133.101833	521.403320	-100.169952
31176.612926	1133.101833	520.154297	-2.289786
31176.612926	1133.101833	518.905273	-87.378624
31176.612926	1133.101833	517.656250	-80.980202
31176.612926	1133.101833	516.406250	33.464302
31176.612926	1133.101833	515.156250	-388.118256
31176.612926	1133.101833	513.906250	-124.107689
31176.612926	1133.101833	512.655273	-121.860329
31176.612926	1133.101833	511.404297	-76.015877
31176.612926	1133.101833	510.153320	36.229309
31176.612926	1133.101833	508.902344	-65.323097
31176.612926	1133.101833	507.650391	-19.531605
31176.612926	1133.101833	506.398438	-65.034157
31176.612926	1133.101833	505.146484	-112.596619
31176.612926	1133.101833	503.893555	-164.297394
31176.612926	1133.101833	502.641602	86.677551
31176.612926	1133.101833	501.388672	113.694084
31176.612926	1133.101833	500.134766	-85.174042
31176.612926	1133.101833	498.881836	41.283535
31176.612926	1133.101833	497.627930	86.891479
31176.612926	1133.101833	496.374023	107.614967
31176.612926	1133.101833	495.119141	107.603691
31176.612926	1133.101833	493.865234	22.713360
31176.612926	1133.101833	492.610352	198.581818
31176.612926	1133.101833	491.355469	173.660385
31176.612926	1133.101833	490.099609	235.598434
31176.612926	1133.101833	488.843750	301.618652
31176.612926	1133.101833	487.587891	243.523758
31176.612926	1133.101833	486.332031	263.976654
31176.612926	1133.101833	485.075195	166.577606
31176.612926	1133.101833	483.818359	430.789368
31176.612926	1133.101833	482.561523	314.730743
31176.612926	1133.101833	481.304688	165.635727
31176.612926	1133.101833	480.046875	245.769241
31176.612926	1133.101833	478.789063	226.725693
31176.612926	1133.101833	477.531250	339.744720
31176.612926	1133.101833	476.272461	380.431763
31176.612926	1133.101833	475.013672	237.425018
31176.612926	1133.101833	473.754883	362.581177
31176.612926	1133.101833	472.496094	184.466705
31176.612926	1133.101833	471.236328	488.835999
31176.612926	1133.101833	469.976563	588.930725
31176.612926	1133.101833	468.716797	466.329773
31176.612926	1133.101833	467.456055	419.945435
31176.612926	1133.101833	466.196289	474.455536
31176.612926	1133.101833	464.935547	446.474487
31176.612926	1133.101833	463.673828	443.129639
31176.612926	1133.101833	462.413086	544.703430
31176.612926	1133.101833	461.151367	434.134918
31176.612926	1133.101833	459.889648	558.117615
31176.612926	1133.101833	458.626953	328.072571
31176.612926	1133.101833	457.364258	392.172821
31176.612926	1133.101833	456.101563	515.781677
31176.612926	1133.101833	454.838867	478.856201
31176.612926	1133.101833	453.575195	470.608765
31176.612926	1133.101833	452.312500	466.366180
31176.612926	1133.101833	451.047852	390.077728
31176.612926	1133.101833	449.784180	321.921539
31176.612926	1133.101833	448.519531	344.030487
31176.612926	1133.101833	447.254883	187.350098
31176.612926	1133.101833	445.990234	268.743988
31176.612926	1133.101833	444.725586	508.005463
31176.612926	1133.101833	443.459961	311.969360
31176.612926	1133.101833	442.194336	542.605591
31176.612926	1133.101833	440.927734	606.831726
31176.612926	1133.101833	439.662109	414.533264
31176.612926	1133.101833	438.395508	367.714813
31176.612926	1133.101833	437.127930	453.977264
31176.612926	1133.101833	435.861328	476.500732
31176.612926	1133.101833	434.593750	416.864807
31176.612926	1133.101833	433.326172	547.578674
31176.612926	1133.101833	432.058594	196.743240
31176.612926	1133.101833	430.790039	429.427521
31176.612926	1133.101833	429.521484	377.245239
31176.612926	1133.101833	428.252930	410.837158
31176.612926	1133.101833	426.984375	444.197327
31176.612926	1133.101833	425.714844	718.721802
31176.612926	1133.101833	424.445313	448.814667
31176.612926	1133.101833	423.174805	387.366455
31176.612926	1133.101833	421.905273	358.422943
31176.612926	1133.101833	420.634766	562.259338
31176.612926	1133.101833	419.364258	583.866943
31176.612926	1133.101833	418.092773	315.056030
31176.612926	1133.101833	416.822266	677.314880
31176.612926	1133.101833	415.550781	563.268311
31176.612926	1133.101833	414.278320	330.548523
31176.612926	1133.101833	413.006836	340.578217
31176.612926	1133.101833	411.734375	568.679871
31176.612926	1133.101833	410.461914	484.172699
31176.612926	1133.101833	409.188477	574.825623
31176.612926	1133.101833	407.916016	503.996399
31176.612926	1133.101833	406.642578	801.955444
31176.612926	1133.101833	405.368164	453.142731
31176.612926	1133.101833	404.094727	609.655396
31176.612926	1133.101833	402.820313	616.968079
31176.612926	1133.101833	401.545898	485.369598
31176.612926	1133.101833	400.270508	746.586365
31176.612926	1133.101833	398.996094	616.306213
31176.612926	1133.101833	397.720703	567.125244
31176.612926	1133.101833	396.444336	316.024353
31176.612926	1133.101833	395.168945	382.139130
31176.612926	1133.101833	393.892578	407.101654
31176.612926	1133.101833	392.616211	360.429443
31176.612926	1133.101833	391.339844	455.719299
31176.612926	1133.101833	390.062500	406.134705
31176.612926	1133.101833	388.785156	272.768097
31176.612926	1133.101833	387.507813	415.431671
31176.612926	1133.101833	386.229492	342.140167
31176.612926	1133.101833	384.951172	333.416412
31176.612926	1133.101833	383.672852	214.520493
31176.612926	1133.101833	382.394531	306.382446
31176.612926	1133.101833	381.115234	342.857819
31176.612926	1133.101833	379.835938	212.344467
31176.612926	1133.101833	378.556641	249.807236
31176.612926	1133.101833	377.277344	95.984283
31176.612926	1133.101833	375.997070	118.148125
31176.612926	1133.101833	374.716797	372.981934
31176.612926	1133.101833	373.435547	209.401688
31176.612926	1133.101833	372.155273	53.440826
31176.612926	1133.101833	370.874023	121.914505
31176.612926	1133.101833	369.591797	124.888046
31176.612926	1133.101833	368.310547	271.112091
31176.612926	1133.101833	367.028320	43.927120
31176.612926	1133.101833	365.746094	113.891655
31176.612926	1133.101833	364.463867	65.748749
31176.612926	1133.101833	363.180664	186.974335
31176.612926	1133.101833	361.897461	194.146637
31176.612926	1133.101833	360.614258	241.098251
31176.612926	1133.101833	359.330078	97.157799
31176.612926	1133.101833	358.045898	49.649818
31176.612926	1133.101833	356.761719	43.905666
31176.612926	1133.101833	355.477539	73.821068
31176.612926	1133.101833	354.192383	84.763130
31176.612926	1133.101833	352.907227	135.356979
31176.612926	1133.101833	351.622070	51.826206
31176.612926	1133.101833	350.336914	135.194138
31176.612926	1133.101833	349.050781	205.585968
31176.612926	1133.101833	347.764648	172.177597
31176.612926	1133.101833	346.477539	135.915085
31176.612926	1133.101833	345.191406	219.950409
31176.612926	1133.101833	343.904297	210.263199
31176.612926	1133.101833	342.616211	90.763115
31176.612926	1133.101833	341.329102	-35.571125
31176.612926	1133.101833	340.041016	81.199974
31176.612926	1133.101833	338.752930	170.817581
31176.612926	1133.101833	337.463867	39.770584
31176.612926	1133.101833	336.175781	-215.016815
31176.612926	1133.101833	334.886719	-172.519943
31176.612926	1133.101833	333.596680	-4.144245
31176.612926	1133.101833	332.307617	-98.540680
31176.612926	1133.101833	331.017578	-77.147919
31176.612926	1133.101833	329.727539	3.626238
31176.612926	1133.101833	328.436523	-274.873413
31176.612926	1133.101833	327.146484	-4.987480
31176.612926	1133.101833	325.855469	-176.799408
31176.612926	1133.101833	324.563477	-176.682037
31176.612926	1133.101833	323.272461	-179.593582
31176.612926	1133.101833	321.980469	-272.067566
31176.612926	1133.101833	320.688477	-148.546844
31176.612926	1133.101833	319.395508	-86.507874
31176.612926	1133.101833	318.103516	-252.560806
31176.612926	1133.101833	316.810547	-136.542587
31176.612926	1133.101833	315.516602	-17.755180
31176.612926	1133.101833	314.223633	1.501858
31176.612926	1133.101833	312.929688	160.018295
31176.612926	1133.101833	311.635742	212.932999
31176.612926	1133.101833	310.340820	43.888458
31176.612926	1133.101833	309.045898	88.311386
31176.612926	1133.101833	307.750977	9.160116
31176.612926	1133.101833	306.456055	333.775818
31176.612926	1133.101833	305.160156	336.226013
31176.612926	1133.101833	303.865234	553.886597
31176.612926	1133.101833	302.568359	477.528809
31176.612926	1133.101833	301.272461	656.354858
31176.612926	1133.101833	299.975586	967.901978
31176.612926	1133.101833	298.678711	743.385620
