#X		#Y		#Wave		#Intensity
22953.472500	3070.370667	1999.980469	199.877258
22953.472500	3070.370667	1999.016602	-21.565405
22953.472500	3070.370667	1998.052734	167.716797
22953.472500	3070.370667	1997.087891	15.288942
22953.472500	3070.370667	1996.123047	-10.387703
22953.472500	3070.370667	1995.158203	-149.686737
22953.472500	3070.370667	1994.193359	-70.674767
22953.472500	3070.370667	1993.228516	97.747032
22953.472500	3070.370667	1992.262695	55.936588
22953.472500	3070.370667	1991.297852	76.295944
22953.472500	3070.370667	1990.332031	67.200081
22953.472500	3070.370667	1989.366211	63.299450
22953.472500	3070.370667	1988.399414	69.524132
22953.472500	3070.370667	1987.433594	-65.022415
22953.472500	3070.370667	1986.466797	231.002853
22953.472500	3070.370667	1985.500977	-138.016098
22953.472500	3070.370667	1984.534180	19.857023
22953.472500	3070.370667	1983.567383	66.622261
22953.472500	3070.370667	1982.599609	-42.151592
22953.472500	3070.370667	1981.632813	-71.660934
22953.472500	3070.370667	1980.665039	111.435898
22953.472500	3070.370667	1979.697266	111.834663
22953.472500	3070.370667	1978.729492	-35.800652
22953.472500	3070.370667	1977.761719	-99.314590
22953.472500	3070.370667	1976.792969	-44.203766
22953.472500	3070.370667	1975.825195	-58.111881
22953.472500	3070.370667	1974.856445	164.970413
22953.472500	3070.370667	1973.887695	-26.415127
22953.472500	3070.370667	1972.918945	6.819845
22953.472500	3070.370667	1971.949219	-6.739037
22953.472500	3070.370667	1970.980469	-69.537430
22953.472500	3070.370667	1970.010742	32.923855
22953.472500	3070.370667	1969.041016	95.967064
22953.472500	3070.370667	1968.071289	-50.434013
22953.472500	3070.370667	1967.101563	57.046677
22953.472500	3070.370667	1966.130859	21.646807
22953.472500	3070.370667	1965.161133	-26.022480
22953.472500	3070.370667	1964.190430	-24.394690
22953.472500	3070.370667	1963.219727	-37.516747
22953.472500	3070.370667	1962.249023	52.771915
22953.472500	3070.370667	1961.277344	-2.168348
22953.472500	3070.370667	1960.306641	9.359305
22953.472500	3070.370667	1959.334961	30.728168
22953.472500	3070.370667	1958.363281	5.353576
22953.472500	3070.370667	1957.391602	21.792519
22953.472500	3070.370667	1956.419922	-15.877330
22953.472500	3070.370667	1955.447266	128.378265
22953.472500	3070.370667	1954.474609	51.348862
22953.472500	3070.370667	1953.501953	43.139462
22953.472500	3070.370667	1952.529297	145.478287
22953.472500	3070.370667	1951.556641	43.857395
22953.472500	3070.370667	1950.583984	11.017996
22953.472500	3070.370667	1949.610352	37.096680
22953.472500	3070.370667	1948.636719	16.483622
22953.472500	3070.370667	1947.663086	25.299372
22953.472500	3070.370667	1946.689453	122.428780
22953.472500	3070.370667	1945.715820	-121.603516
22953.472500	3070.370667	1944.741211	17.141794
22953.472500	3070.370667	1943.767578	52.767193
22953.472500	3070.370667	1942.792969	203.599884
22953.472500	3070.370667	1941.818359	8.593238
22953.472500	3070.370667	1940.842773	46.507648
22953.472500	3070.370667	1939.868164	-18.589685
22953.472500	3070.370667	1938.892578	-76.364159
22953.472500	3070.370667	1937.916992	20.191456
22953.472500	3070.370667	1936.941406	55.412399
22953.472500	3070.370667	1935.965820	139.549561
22953.472500	3070.370667	1934.990234	216.251404
22953.472500	3070.370667	1934.013672	172.895355
22953.472500	3070.370667	1933.037109	85.433754
22953.472500	3070.370667	1932.060547	46.894230
22953.472500	3070.370667	1931.083984	13.202457
22953.472500	3070.370667	1930.107422	-13.198233
22953.472500	3070.370667	1929.129883	-174.186584
22953.472500	3070.370667	1928.153320	-5.014671
22953.472500	3070.370667	1927.175781	134.688477
22953.472500	3070.370667	1926.198242	83.588562
22953.472500	3070.370667	1925.219727	5.556919
22953.472500	3070.370667	1924.242188	-62.731956
22953.472500	3070.370667	1923.263672	39.975502
22953.472500	3070.370667	1922.285156	-8.878085
22953.472500	3070.370667	1921.306641	-138.376556
22953.472500	3070.370667	1920.328125	25.149260
22953.472500	3070.370667	1919.349609	20.086340
22953.472500	3070.370667	1918.370117	-58.270634
22953.472500	3070.370667	1917.391602	-65.880630
22953.472500	3070.370667	1916.412109	2.094921
22953.472500	3070.370667	1915.431641	201.727142
22953.472500	3070.370667	1914.452148	18.262655
22953.472500	3070.370667	1913.472656	137.218445
22953.472500	3070.370667	1912.492188	61.000931
22953.472500	3070.370667	1911.511719	77.392876
22953.472500	3070.370667	1910.531250	37.660130
22953.472500	3070.370667	1909.550781	-41.106705
22953.472500	3070.370667	1908.569336	104.258018
22953.472500	3070.370667	1907.588867	-28.197187
22953.472500	3070.370667	1906.607422	48.803024
22953.472500	3070.370667	1905.625977	25.878876
22953.472500	3070.370667	1904.644531	73.516647
22953.472500	3070.370667	1903.662109	135.688049
22953.472500	3070.370667	1902.680664	73.663467
22953.472500	3070.370667	1901.698242	-110.057518
22953.472500	3070.370667	1900.715820	46.844929
22953.472500	3070.370667	1899.733398	-3.115913
22953.472500	3070.370667	1898.750000	-26.356148
22953.472500	3070.370667	1897.767578	59.787281
22953.472500	3070.370667	1896.784180	60.763805
22953.472500	3070.370667	1895.800781	17.944872
22953.472500	3070.370667	1894.817383	-54.062901
22953.472500	3070.370667	1893.833984	2.688921
22953.472500	3070.370667	1892.850586	115.252304
22953.472500	3070.370667	1891.866211	45.571320
22953.472500	3070.370667	1890.881836	77.868767
22953.472500	3070.370667	1889.897461	71.270851
22953.472500	3070.370667	1888.913086	-182.958008
22953.472500	3070.370667	1887.927734	55.547043
22953.472500	3070.370667	1886.943359	0.323105
22953.472500	3070.370667	1885.958008	27.570847
22953.472500	3070.370667	1884.972656	280.359985
22953.472500	3070.370667	1883.987305	-61.139771
22953.472500	3070.370667	1883.001953	126.045959
22953.472500	3070.370667	1882.015625	325.252594
22953.472500	3070.370667	1881.029297	-88.863083
22953.472500	3070.370667	1880.042969	27.864202
22953.472500	3070.370667	1879.056641	3.996732
22953.472500	3070.370667	1878.070313	93.970802
22953.472500	3070.370667	1877.083984	2.240757
22953.472500	3070.370667	1876.096680	53.392376
22953.472500	3070.370667	1875.109375	181.979980
22953.472500	3070.370667	1874.122070	5.503808
22953.472500	3070.370667	1873.134766	-3.930943
22953.472500	3070.370667	1872.146484	-23.059387
22953.472500	3070.370667	1871.159180	6.193331
22953.472500	3070.370667	1870.170898	40.257122
22953.472500	3070.370667	1869.182617	-0.673024
22953.472500	3070.370667	1868.194336	-27.090593
22953.472500	3070.370667	1867.205078	-9.997408
22953.472500	3070.370667	1866.216797	149.687286
22953.472500	3070.370667	1865.227539	-111.176575
22953.472500	3070.370667	1864.238281	-7.119611
22953.472500	3070.370667	1863.249023	-45.629520
22953.472500	3070.370667	1862.259766	181.541336
22953.472500	3070.370667	1861.269531	65.728920
22953.472500	3070.370667	1860.279297	5.486540
22953.472500	3070.370667	1859.290039	-115.076347
22953.472500	3070.370667	1858.298828	150.538177
22953.472500	3070.370667	1857.308594	112.029945
22953.472500	3070.370667	1856.318359	-32.609894
22953.472500	3070.370667	1855.327148	37.472576
22953.472500	3070.370667	1854.335938	-116.742203
22953.472500	3070.370667	1853.344727	136.582108
22953.472500	3070.370667	1852.353516	16.166096
22953.472500	3070.370667	1851.362305	141.641479
22953.472500	3070.370667	1850.370117	276.712677
22953.472500	3070.370667	1849.377930	84.077797
22953.472500	3070.370667	1848.385742	2.330853
22953.472500	3070.370667	1847.393555	84.393997
22953.472500	3070.370667	1846.401367	7.513567
22953.472500	3070.370667	1845.408203	120.860252
22953.472500	3070.370667	1844.415039	94.568481
22953.472500	3070.370667	1843.421875	10.541261
22953.472500	3070.370667	1842.428711	-18.100168
22953.472500	3070.370667	1841.435547	104.839134
22953.472500	3070.370667	1840.441406	133.940460
22953.472500	3070.370667	1839.448242	158.239258
22953.472500	3070.370667	1838.454102	40.686562
22953.472500	3070.370667	1837.459961	170.791519
22953.472500	3070.370667	1836.464844	19.662228
22953.472500	3070.370667	1835.470703	-47.287174
22953.472500	3070.370667	1834.475586	-8.486983
22953.472500	3070.370667	1833.480469	-51.353020
22953.472500	3070.370667	1832.485352	47.509132
22953.472500	3070.370667	1831.490234	47.905491
22953.472500	3070.370667	1830.495117	-4.494681
22953.472500	3070.370667	1829.499023	12.747731
22953.472500	3070.370667	1828.502930	142.793335
22953.472500	3070.370667	1827.506836	16.080858
22953.472500	3070.370667	1826.510742	28.570465
22953.472500	3070.370667	1825.513672	110.627518
22953.472500	3070.370667	1824.517578	-13.549431
22953.472500	3070.370667	1823.520508	54.140228
22953.472500	3070.370667	1822.523438	-31.588001
22953.472500	3070.370667	1821.526367	-143.626129
22953.472500	3070.370667	1820.529297	108.616219
22953.472500	3070.370667	1819.531250	114.022446
22953.472500	3070.370667	1818.533203	-96.126228
22953.472500	3070.370667	1817.535156	48.257076
22953.472500	3070.370667	1816.537109	-89.927788
22953.472500	3070.370667	1815.539063	119.076897
22953.472500	3070.370667	1814.540039	136.543671
22953.472500	3070.370667	1813.541992	87.022850
22953.472500	3070.370667	1812.542969	27.968239
22953.472500	3070.370667	1811.543945	131.618744
22953.472500	3070.370667	1810.543945	-54.141808
22953.472500	3070.370667	1809.544922	30.394829
22953.472500	3070.370667	1808.544922	47.975506
22953.472500	3070.370667	1807.544922	-65.897400
22953.472500	3070.370667	1806.544922	-69.775490
22953.472500	3070.370667	1805.544922	-42.571690
22953.472500	3070.370667	1804.544922	44.363029
22953.472500	3070.370667	1803.543945	147.999863
22953.472500	3070.370667	1802.542969	-82.710312
22953.472500	3070.370667	1801.541992	16.170052
22953.472500	3070.370667	1800.541016	220.063324
22953.472500	3070.370667	1799.539063	104.077881
22953.472500	3070.370667	1798.538086	-26.162718
22953.472500	3070.370667	1797.536133	96.549934
22953.472500	3070.370667	1796.534180	-7.375030
22953.472500	3070.370667	1795.532227	139.164810
22953.472500	3070.370667	1794.529297	71.061974
22953.472500	3070.370667	1793.527344	181.797653
22953.472500	3070.370667	1792.524414	23.163296
22953.472500	3070.370667	1791.521484	-56.758823
22953.472500	3070.370667	1790.518555	139.743469
22953.472500	3070.370667	1789.514648	16.968895
22953.472500	3070.370667	1788.511719	-22.388218
22953.472500	3070.370667	1787.507813	-23.623816
22953.472500	3070.370667	1786.503906	-8.186068
22953.472500	3070.370667	1785.500000	50.099014
22953.472500	3070.370667	1784.496094	58.389774
22953.472500	3070.370667	1783.491211	-18.980497
22953.472500	3070.370667	1782.486328	136.825546
22953.472500	3070.370667	1781.481445	-35.665146
22953.472500	3070.370667	1780.476563	165.274033
22953.472500	3070.370667	1779.471680	40.400467
22953.472500	3070.370667	1778.465820	-63.033218
22953.472500	3070.370667	1777.460938	173.449692
22953.472500	3070.370667	1776.455078	46.265053
22953.472500	3070.370667	1775.449219	56.925362
22953.472500	3070.370667	1774.442383	107.957588
22953.472500	3070.370667	1773.436523	-21.527826
22953.472500	3070.370667	1772.429688	43.736450
22953.472500	3070.370667	1771.422852	227.671539
22953.472500	3070.370667	1770.416016	-6.223658
22953.472500	3070.370667	1769.409180	2.021926
22953.472500	3070.370667	1768.402344	105.161560
22953.472500	3070.370667	1767.394531	196.387100
22953.472500	3070.370667	1766.386719	166.604477
22953.472500	3070.370667	1765.378906	328.897980
22953.472500	3070.370667	1764.371094	173.416306
22953.472500	3070.370667	1763.362305	224.202789
22953.472500	3070.370667	1762.354492	154.086624
22953.472500	3070.370667	1761.345703	195.343582
22953.472500	3070.370667	1760.336914	82.575363
22953.472500	3070.370667	1759.328125	126.158669
22953.472500	3070.370667	1758.318359	138.913986
22953.472500	3070.370667	1757.308594	324.485535
22953.472500	3070.370667	1756.299805	277.970764
22953.472500	3070.370667	1755.290039	250.379456
22953.472500	3070.370667	1754.279297	154.143860
22953.472500	3070.370667	1753.269531	261.388367
22953.472500	3070.370667	1752.258789	210.072311
22953.472500	3070.370667	1751.249023	338.489624
22953.472500	3070.370667	1750.238281	166.520416
22953.472500	3070.370667	1749.226563	344.470886
22953.472500	3070.370667	1748.215820	103.950012
22953.472500	3070.370667	1747.204102	232.144379
22953.472500	3070.370667	1746.193359	166.506836
22953.472500	3070.370667	1745.181641	381.967957
22953.472500	3070.370667	1744.168945	318.601898
22953.472500	3070.370667	1743.157227	389.821716
22953.472500	3070.370667	1742.144531	439.718384
22953.472500	3070.370667	1741.132813	279.466736
22953.472500	3070.370667	1740.120117	411.875854
22953.472500	3070.370667	1739.106445	435.640503
22953.472500	3070.370667	1738.093750	372.059326
22953.472500	3070.370667	1737.080078	445.254578
22953.472500	3070.370667	1736.067383	402.816620
22953.472500	3070.370667	1735.053711	492.375763
22953.472500	3070.370667	1734.040039	445.117432
22953.472500	3070.370667	1733.025391	423.742798
22953.472500	3070.370667	1732.011719	489.510651
22953.472500	3070.370667	1730.997070	463.305237
22953.472500	3070.370667	1729.982422	361.670105
22953.472500	3070.370667	1728.967773	648.605713
22953.472500	3070.370667	1727.952148	605.709534
22953.472500	3070.370667	1726.937500	680.478638
22953.472500	3070.370667	1725.921875	646.874390
22953.472500	3070.370667	1724.906250	617.921082
22953.472500	3070.370667	1723.890625	661.847656
22953.472500	3070.370667	1722.875000	788.019958
22953.472500	3070.370667	1721.858398	582.438843
22953.472500	3070.370667	1720.841797	830.705383
22953.472500	3070.370667	1719.825195	667.363220
22953.472500	3070.370667	1718.808594	623.887390
22953.472500	3070.370667	1717.791992	664.955322
22953.472500	3070.370667	1716.774414	661.277832
22953.472500	3070.370667	1715.756836	824.317932
22953.472500	3070.370667	1714.739258	691.260620
22953.472500	3070.370667	1713.721680	891.637817
22953.472500	3070.370667	1712.704102	950.976868
22953.472500	3070.370667	1711.685547	759.021179
22953.472500	3070.370667	1710.667969	998.906372
22953.472500	3070.370667	1709.649414	839.687195
22953.472500	3070.370667	1708.630859	769.589417
22953.472500	3070.370667	1707.611328	905.838806
22953.472500	3070.370667	1706.592773	969.244690
22953.472500	3070.370667	1705.573242	875.424683
22953.472500	3070.370667	1704.553711	877.659912
22953.472500	3070.370667	1703.534180	1034.491211
22953.472500	3070.370667	1702.513672	1055.237183
22953.472500	3070.370667	1701.494141	1064.164551
22953.472500	3070.370667	1700.473633	983.963440
22953.472500	3070.370667	1699.453125	969.266602
22953.472500	3070.370667	1698.432617	1045.793335
22953.472500	3070.370667	1697.412109	1026.194946
22953.472500	3070.370667	1696.390625	1020.533630
22953.472500	3070.370667	1695.369141	1127.097900
22953.472500	3070.370667	1694.347656	983.148926
22953.472500	3070.370667	1693.326172	1068.401611
22953.472500	3070.370667	1692.304688	1078.661987
22953.472500	3070.370667	1691.282227	1130.889893
22953.472500	3070.370667	1690.260742	1157.269531
22953.472500	3070.370667	1689.238281	1251.305054
22953.472500	3070.370667	1688.214844	1305.447144
22953.472500	3070.370667	1687.192383	1357.118896
22953.472500	3070.370667	1686.168945	1125.958862
22953.472500	3070.370667	1685.146484	1368.935547
22953.472500	3070.370667	1684.123047	1214.682861
22953.472500	3070.370667	1683.099609	1403.591553
22953.472500	3070.370667	1682.075195	1363.520264
22953.472500	3070.370667	1681.051758	1428.374634
22953.472500	3070.370667	1680.027344	1355.390015
22953.472500	3070.370667	1679.002930	1601.936279
22953.472500	3070.370667	1677.978516	1479.702148
22953.472500	3070.370667	1676.953125	1506.635010
22953.472500	3070.370667	1675.928711	1311.918823
22953.472500	3070.370667	1674.903320	1534.436035
22953.472500	3070.370667	1673.877930	1579.589600
22953.472500	3070.370667	1672.852539	1769.074097
22953.472500	3070.370667	1671.826172	1720.687012
22953.472500	3070.370667	1670.800781	1912.128296
22953.472500	3070.370667	1669.774414	1884.418701
22953.472500	3070.370667	1668.748047	1840.280640
22953.472500	3070.370667	1667.721680	1945.020630
22953.472500	3070.370667	1666.694336	1823.783691
22953.472500	3070.370667	1665.667969	1877.004150
22953.472500	3070.370667	1664.640625	1774.158081
22953.472500	3070.370667	1663.613281	1889.883179
22953.472500	3070.370667	1662.585938	1777.482544
22953.472500	3070.370667	1661.557617	1869.609253
22953.472500	3070.370667	1660.530273	1889.490234
22953.472500	3070.370667	1659.501953	1967.320801
22953.472500	3070.370667	1658.473633	2244.845947
22953.472500	3070.370667	1657.444336	2159.615967
22953.472500	3070.370667	1656.416016	2318.217041
22953.472500	3070.370667	1655.386719	2381.364258
22953.472500	3070.370667	1654.358398	2437.380859
22953.472500	3070.370667	1653.328125	2272.627441
22953.472500	3070.370667	1652.298828	2599.935547
22953.472500	3070.370667	1651.269531	2671.660156
22953.472500	3070.370667	1650.239258	2664.296631
22953.472500	3070.370667	1649.208984	2696.223389
22953.472500	3070.370667	1648.178711	2776.696533
22953.472500	3070.370667	1647.148438	2868.580566
22953.472500	3070.370667	1646.117188	2904.614258
22953.472500	3070.370667	1645.086914	2877.898193
22953.472500	3070.370667	1644.055664	3105.983398
22953.472500	3070.370667	1643.024414	3190.149658
22953.472500	3070.370667	1641.992188	3209.240967
22953.472500	3070.370667	1640.960938	3260.612061
22953.472500	3070.370667	1639.928711	3179.780762
22953.472500	3070.370667	1638.896484	3448.473389
22953.472500	3070.370667	1637.864258	3381.214844
22953.472500	3070.370667	1636.832031	3457.333252
22953.472500	3070.370667	1635.798828	3695.246094
22953.472500	3070.370667	1634.766602	3571.975586
22953.472500	3070.370667	1633.733398	3816.399170
22953.472500	3070.370667	1632.699219	3870.899414
22953.472500	3070.370667	1631.666016	3837.362793
22953.472500	3070.370667	1630.632813	3815.241943
22953.472500	3070.370667	1629.598633	4005.615479
22953.472500	3070.370667	1628.564453	3987.760986
22953.472500	3070.370667	1627.530273	4143.052246
22953.472500	3070.370667	1626.495117	4397.446289
22953.472500	3070.370667	1625.460938	4205.821289
22953.472500	3070.370667	1624.425781	4399.746582
22953.472500	3070.370667	1623.390625	4378.717285
22953.472500	3070.370667	1622.355469	4726.879883
22953.472500	3070.370667	1621.319336	4767.777344
22953.472500	3070.370667	1620.284180	4589.305664
22953.472500	3070.370667	1619.248047	4885.979492
22953.472500	3070.370667	1618.211914	5018.612793
22953.472500	3070.370667	1617.174805	5245.572754
22953.472500	3070.370667	1616.138672	5214.066406
22953.472500	3070.370667	1615.101563	5306.882324
22953.472500	3070.370667	1614.065430	5344.207031
22953.472500	3070.370667	1613.027344	5399.762207
22953.472500	3070.370667	1611.990234	5581.870605
22953.472500	3070.370667	1610.953125	5719.988281
22953.472500	3070.370667	1609.915039	5627.579590
22953.472500	3070.370667	1608.876953	5673.206055
22953.472500	3070.370667	1607.838867	5746.285645
22953.472500	3070.370667	1606.800781	5938.868164
22953.472500	3070.370667	1605.761719	6006.941406
22953.472500	3070.370667	1604.723633	6047.243164
22953.472500	3070.370667	1603.684570	5951.642090
22953.472500	3070.370667	1602.644531	6030.697266
22953.472500	3070.370667	1601.605469	5681.900391
22953.472500	3070.370667	1600.566406	5850.354492
22953.472500	3070.370667	1599.526367	6013.978516
22953.472500	3070.370667	1598.486328	6273.908203
22953.472500	3070.370667	1597.446289	5938.506348
22953.472500	3070.370667	1596.405273	6292.219238
22953.472500	3070.370667	1595.365234	6298.861816
22953.472500	3070.370667	1594.324219	6121.637207
22953.472500	3070.370667	1593.283203	6024.689453
22953.472500	3070.370667	1592.242188	6063.062988
22953.472500	3070.370667	1591.200195	6287.147461
22953.472500	3070.370667	1590.159180	6047.537598
22953.472500	3070.370667	1589.117188	6317.134766
22953.472500	3070.370667	1588.075195	6068.137695
22953.472500	3070.370667	1587.032227	6172.220215
22953.472500	3070.370667	1585.990234	6159.217773
22953.472500	3070.370667	1584.947266	6091.049805
22953.472500	3070.370667	1583.904297	6412.374512
22953.472500	3070.370667	1582.861328	6078.117188
22953.472500	3070.370667	1581.818359	6224.942383
22953.472500	3070.370667	1580.775391	6220.408691
22953.472500	3070.370667	1579.731445	6355.414063
22953.472500	3070.370667	1578.687500	6316.230469
22953.472500	3070.370667	1577.643555	6029.710938
22953.472500	3070.370667	1576.598633	6381.686523
22953.472500	3070.370667	1575.554688	6387.900879
22953.472500	3070.370667	1574.509766	6213.234375
22953.472500	3070.370667	1573.464844	6248.942871
22953.472500	3070.370667	1572.419922	6291.375488
22953.472500	3070.370667	1571.374023	6276.487793
22953.472500	3070.370667	1570.329102	6110.634766
22953.472500	3070.370667	1569.283203	6116.119629
22953.472500	3070.370667	1568.237305	5860.988281
22953.472500	3070.370667	1567.191406	6147.293945
22953.472500	3070.370667	1566.144531	6305.437012
22953.472500	3070.370667	1565.098633	6454.292480
22953.472500	3070.370667	1564.051758	6128.037109
22953.472500	3070.370667	1563.004883	6094.000977
22953.472500	3070.370667	1561.957031	5984.528809
22953.472500	3070.370667	1560.910156	5950.318359
22953.472500	3070.370667	1559.862305	6105.356445
22953.472500	3070.370667	1558.814453	5961.416016
22953.472500	3070.370667	1557.766602	5888.128418
22953.472500	3070.370667	1556.718750	6065.583008
22953.472500	3070.370667	1555.669922	5980.683105
22953.472500	3070.370667	1554.621094	5952.700684
22953.472500	3070.370667	1553.573242	6013.531250
22953.472500	3070.370667	1552.523438	6165.329590
22953.472500	3070.370667	1551.474609	6107.436035
22953.472500	3070.370667	1550.424805	5578.022949
22953.472500	3070.370667	1549.375000	5898.045898
22953.472500	3070.370667	1548.325195	6040.287598
22953.472500	3070.370667	1547.275391	6029.890625
22953.472500	3070.370667	1546.225586	6028.518066
22953.472500	3070.370667	1545.174805	5692.588379
22953.472500	3070.370667	1544.124023	5679.726563
22953.472500	3070.370667	1543.073242	5750.942383
22953.472500	3070.370667	1542.022461	5710.637695
22953.472500	3070.370667	1540.970703	5570.221680
22953.472500	3070.370667	1539.919922	5313.894531
22953.472500	3070.370667	1538.868164	5353.001465
22953.472500	3070.370667	1537.815430	5239.774414
22953.472500	3070.370667	1536.763672	5390.057617
22953.472500	3070.370667	1535.710938	5358.502930
22953.472500	3070.370667	1534.659180	5149.808105
22953.472500	3070.370667	1533.606445	5165.870117
22953.472500	3070.370667	1532.552734	5358.890625
22953.472500	3070.370667	1531.500000	5293.098145
22953.472500	3070.370667	1530.446289	5195.489258
22953.472500	3070.370667	1529.393555	5229.465820
22953.472500	3070.370667	1528.338867	5220.240234
22953.472500	3070.370667	1527.285156	5081.744629
22953.472500	3070.370667	1526.231445	4877.514648
22953.472500	3070.370667	1525.176758	4657.434082
22953.472500	3070.370667	1524.122070	4781.867188
22953.472500	3070.370667	1523.067383	4523.298340
22953.472500	3070.370667	1522.012695	4577.414551
22953.472500	3070.370667	1520.957031	4681.280273
22953.472500	3070.370667	1519.901367	4601.654785
22953.472500	3070.370667	1518.845703	4646.553711
22953.472500	3070.370667	1517.790039	4677.828125
22953.472500	3070.370667	1516.734375	4485.021973
22953.472500	3070.370667	1515.677734	4642.957520
22953.472500	3070.370667	1514.621094	4450.171387
22953.472500	3070.370667	1513.564453	4422.554199
22953.472500	3070.370667	1512.507813	4437.899414
22953.472500	3070.370667	1511.450195	4636.332520
22953.472500	3070.370667	1510.393555	4708.121582
22953.472500	3070.370667	1509.335938	4542.554199
22953.472500	3070.370667	1508.278320	4318.301758
22953.472500	3070.370667	1507.219727	4403.604980
22953.472500	3070.370667	1506.162109	4267.555664
22953.472500	3070.370667	1505.103516	4427.359863
22953.472500	3070.370667	1504.044922	4345.530762
22953.472500	3070.370667	1502.986328	4408.208984
22953.472500	3070.370667	1501.926758	4416.684570
22953.472500	3070.370667	1500.868164	4359.760254
22953.472500	3070.370667	1499.808594	4352.479980
22953.472500	3070.370667	1498.749023	4329.433105
22953.472500	3070.370667	1497.688477	4184.621582
22953.472500	3070.370667	1496.628906	4048.932861
22953.472500	3070.370667	1495.568359	4016.990967
22953.472500	3070.370667	1494.507813	3764.228271
22953.472500	3070.370667	1493.447266	3678.337891
22953.472500	3070.370667	1492.386719	3621.802734
22953.472500	3070.370667	1491.325195	3551.786621
22953.472500	3070.370667	1490.263672	3353.480469
22953.472500	3070.370667	1489.202148	3229.591797
22953.472500	3070.370667	1488.140625	3002.251221
22953.472500	3070.370667	1487.079102	3087.875488
22953.472500	3070.370667	1486.016602	2853.973633
22953.472500	3070.370667	1484.954102	2908.175781
22953.472500	3070.370667	1483.891602	2750.983887
22953.472500	3070.370667	1482.829102	2674.868408
22953.472500	3070.370667	1481.765625	2598.822754
22953.472500	3070.370667	1480.702148	2563.331299
22953.472500	3070.370667	1479.638672	2462.750488
22953.472500	3070.370667	1478.575195	2256.672119
22953.472500	3070.370667	1477.511719	2407.939941
22953.472500	3070.370667	1476.447266	2132.488037
22953.472500	3070.370667	1475.382813	1969.512451
22953.472500	3070.370667	1474.318359	1838.134888
22953.472500	3070.370667	1473.253906	1866.276733
22953.472500	3070.370667	1472.189453	1975.266846
22953.472500	3070.370667	1471.124023	2061.814941
22953.472500	3070.370667	1470.058594	1848.008301
22953.472500	3070.370667	1468.993164	1858.509888
22953.472500	3070.370667	1467.927734	1869.064209
22953.472500	3070.370667	1466.861328	1673.872803
22953.472500	3070.370667	1465.794922	1886.232422
22953.472500	3070.370667	1464.728516	1668.875366
22953.472500	3070.370667	1463.662109	1554.571411
22953.472500	3070.370667	1462.594727	1485.166992
22953.472500	3070.370667	1461.528320	1704.332642
22953.472500	3070.370667	1460.460938	1358.237915
22953.472500	3070.370667	1459.393555	1448.065063
22953.472500	3070.370667	1458.326172	1596.089844
22953.472500	3070.370667	1457.257813	1428.717773
22953.472500	3070.370667	1456.189453	1454.506470
22953.472500	3070.370667	1455.121094	1559.700806
22953.472500	3070.370667	1454.052734	1395.295166
22953.472500	3070.370667	1452.984375	1514.645630
22953.472500	3070.370667	1451.915039	1460.728516
22953.472500	3070.370667	1450.845703	1531.727905
22953.472500	3070.370667	1449.776367	1588.729004
22953.472500	3070.370667	1448.707031	1490.518555
22953.472500	3070.370667	1447.636719	1499.702393
22953.472500	3070.370667	1446.567383	1352.842773
22953.472500	3070.370667	1445.497070	1433.126465
22953.472500	3070.370667	1444.425781	1541.205688
22953.472500	3070.370667	1443.355469	1459.855835
22953.472500	3070.370667	1442.285156	1405.978638
22953.472500	3070.370667	1441.213867	1251.613647
22953.472500	3070.370667	1440.142578	1295.475220
22953.472500	3070.370667	1439.070313	1076.735962
22953.472500	3070.370667	1437.999023	1331.857910
22953.472500	3070.370667	1436.926758	1376.819336
22953.472500	3070.370667	1435.854492	1314.004272
22953.472500	3070.370667	1434.782227	1329.432373
22953.472500	3070.370667	1433.709961	1110.142212
22953.472500	3070.370667	1432.636719	1126.470093
22953.472500	3070.370667	1431.563477	1105.496460
22953.472500	3070.370667	1430.490234	1032.790894
22953.472500	3070.370667	1429.416992	949.381042
22953.472500	3070.370667	1428.343750	911.831543
22953.472500	3070.370667	1427.269531	840.941345
22953.472500	3070.370667	1426.195313	855.311584
22953.472500	3070.370667	1425.121094	659.467896
22953.472500	3070.370667	1424.046875	419.753082
22953.472500	3070.370667	1422.971680	641.657349
22953.472500	3070.370667	1421.896484	654.412842
22953.472500	3070.370667	1420.821289	463.420013
22953.472500	3070.370667	1419.746094	404.671112
22953.472500	3070.370667	1418.669922	254.440262
22953.472500	3070.370667	1417.594727	194.700134
22953.472500	3070.370667	1416.518555	45.092728
22953.472500	3070.370667	1415.442383	89.256149
22953.472500	3070.370667	1414.365234	166.162445
22953.472500	3070.370667	1413.289063	168.806122
22953.472500	3070.370667	1412.211914	165.375610
22953.472500	3070.370667	1411.134766	136.231766
22953.472500	3070.370667	1410.057617	310.716309
22953.472500	3070.370667	1408.979492	216.414505
22953.472500	3070.370667	1407.902344	232.467148
22953.472500	3070.370667	1406.824219	423.428925
22953.472500	3070.370667	1405.746094	551.457336
22953.472500	3070.370667	1404.666992	462.860260
22953.472500	3070.370667	1403.588867	508.420135
22953.472500	3070.370667	1402.509766	339.333893
22953.472500	3070.370667	1401.430664	270.146881
22953.472500	3070.370667	1400.351563	411.980865
22953.472500	3070.370667	1399.271484	429.319427
22953.472500	3070.370667	1398.192383	352.910492
22953.472500	3070.370667	1397.112305	399.313507
22953.472500	3070.370667	1396.031250	506.868622
22953.472500	3070.370667	1394.951172	605.047974
22953.472500	3070.370667	1393.871094	610.566895
22953.472500	3070.370667	1392.790039	421.459961
22953.472500	3070.370667	1391.708984	496.593536
22953.472500	3070.370667	1390.626953	338.825867
22953.472500	3070.370667	1389.545898	246.953781
22953.472500	3070.370667	1388.463867	246.141785
22953.472500	3070.370667	1387.381836	193.381119
22953.472500	3070.370667	1386.299805	235.315750
22953.472500	3070.370667	1385.217773	-78.919243
22953.472500	3070.370667	1384.134766	52.609962
22953.472500	3070.370667	1383.051758	-4.766616
22953.472500	3070.370667	1381.968750	12.103652
22953.472500	3070.370667	1380.885742	-22.171556
22953.472500	3070.370667	1379.802734	-54.673069
22953.472500	3070.370667	1378.718750	-158.187668
22953.472500	3070.370667	1377.634766	12.591840
22953.472500	3070.370667	1376.550781	-20.347095
22953.472500	3070.370667	1375.465820	-23.261278
22953.472500	3070.370667	1374.381836	12.208224
22953.472500	3070.370667	1373.296875	-73.586891
22953.472500	3070.370667	1372.211914	156.799805
22953.472500	3070.370667	1371.126953	116.375153
22953.472500	3070.370667	1370.041016	204.514359
22953.472500	3070.370667	1368.955078	351.022369
22953.472500	3070.370667	1367.869141	205.081711
22953.472500	3070.370667	1366.783203	402.880798
22953.472500	3070.370667	1365.697266	303.777863
22953.472500	3070.370667	1364.610352	117.954979
22953.472500	3070.370667	1363.523438	103.466591
22953.472500	3070.370667	1362.436523	145.126953
22953.472500	3070.370667	1361.349609	257.991486
22953.472500	3070.370667	1360.261719	128.839844
22953.472500	3070.370667	1359.174805	200.389496
22953.472500	3070.370667	1358.086914	-33.727531
22953.472500	3070.370667	1356.998047	-18.745159
22953.472500	3070.370667	1355.910156	141.125641
22953.472500	3070.370667	1354.821289	121.487160
22953.472500	3070.370667	1353.732422	81.454727
22953.472500	3070.370667	1352.643555	82.943878
22953.472500	3070.370667	1351.554688	43.160164
22953.472500	3070.370667	1350.464844	150.792603
22953.472500	3070.370667	1349.375000	-19.310318
22953.472500	3070.370667	1348.285156	70.205315
22953.472500	3070.370667	1347.195313	-163.335938
22953.472500	3070.370667	1346.105469	-27.161306
22953.472500	3070.370667	1345.014648	45.034679
22953.472500	3070.370667	1343.923828	119.161514
22953.472500	3070.370667	1342.833008	181.865906
22953.472500	3070.370667	1341.741211	59.772396
22953.472500	3070.370667	1340.650391	23.224525
22953.472500	3070.370667	1339.558594	-22.711222
22953.472500	3070.370667	1338.466797	56.735443
22953.472500	3070.370667	1337.374023	-2.877356
22953.472500	3070.370667	1336.282227	-157.997452
22953.472500	3070.370667	1335.189453	165.856812
22953.472500	3070.370667	1334.096680	73.579460
22953.472500	3070.370667	1333.003906	54.199776
22953.472500	3070.370667	1331.910156	19.987045
22953.472500	3070.370667	1330.817383	-117.262383
22953.472500	3070.370667	1329.723633	-35.828941
22953.472500	3070.370667	1328.629883	27.288307
22953.472500	3070.370667	1327.535156	279.997345
22953.472500	3070.370667	1326.441406	23.610723
22953.472500	3070.370667	1325.346680	-31.135248
22953.472500	3070.370667	1324.251953	-17.767221
22953.472500	3070.370667	1323.156250	108.597366
22953.472500	3070.370667	1322.061523	56.323483
22953.472500	3070.370667	1320.965820	10.205117
22953.472500	3070.370667	1319.870117	15.057191
22953.472500	3070.370667	1318.774414	145.234711
22953.472500	3070.370667	1317.678711	40.516479
22953.472500	3070.370667	1316.582031	356.036499
22953.472500	3070.370667	1315.485352	223.618240
22953.472500	3070.370667	1314.388672	164.747452
22953.472500	3070.370667	1313.291016	225.667252
22953.472500	3070.370667	1312.194336	206.761841
22953.472500	3070.370667	1311.096680	231.738037
22953.472500	3070.370667	1309.999023	335.937286
22953.472500	3070.370667	1308.901367	263.868683
22953.472500	3070.370667	1307.802734	374.961029
22953.472500	3070.370667	1306.705078	395.403351
22953.472500	3070.370667	1305.606445	429.574890
22953.472500	3070.370667	1304.506836	597.181580
22953.472500	3070.370667	1303.408203	426.587616
22953.472500	3070.370667	1302.308594	524.816162
22953.472500	3070.370667	1301.208984	627.172180
22953.472500	3070.370667	1300.109375	693.814941
22953.472500	3070.370667	1299.009766	581.175903
22953.472500	3070.370667	1297.909180	829.205566
22953.472500	3070.370667	1296.808594	676.674622
22953.472500	3070.370667	1295.708008	589.807434
22953.472500	3070.370667	1294.607422	858.842102
22953.472500	3070.370667	1293.506836	506.318542
22953.472500	3070.370667	1292.405273	557.787964
22953.472500	3070.370667	1291.303711	733.040894
22953.472500	3070.370667	1290.202148	741.398438
22953.472500	3070.370667	1289.099609	866.085327
22953.472500	3070.370667	1287.998047	618.817322
22953.472500	3070.370667	1286.895508	479.334442
22953.472500	3070.370667	1285.792969	637.685669
22953.472500	3070.370667	1284.689453	716.164978
22953.472500	3070.370667	1283.586914	585.066162
22953.472500	3070.370667	1282.483398	646.545227
22953.472500	3070.370667	1281.379883	754.165527
22953.472500	3070.370667	1280.276367	769.367981
22953.472500	3070.370667	1279.171875	722.064758
22953.472500	3070.370667	1278.067383	784.827393
22953.472500	3070.370667	1276.962891	799.248962
22953.472500	3070.370667	1275.858398	784.424561
22953.472500	3070.370667	1274.753906	708.441284
22953.472500	3070.370667	1273.648438	711.442932
22953.472500	3070.370667	1272.542969	593.036743
22953.472500	3070.370667	1271.437500	605.901611
22953.472500	3070.370667	1270.331055	550.460144
22953.472500	3070.370667	1269.225586	544.815125
22953.472500	3070.370667	1268.119141	435.586182
22953.472500	3070.370667	1267.012695	326.524841
22953.472500	3070.370667	1265.906250	441.651611
22953.472500	3070.370667	1264.798828	392.316895
22953.472500	3070.370667	1263.691406	418.946228
22953.472500	3070.370667	1262.583984	263.363800
22953.472500	3070.370667	1261.476563	316.774658
22953.472500	3070.370667	1260.368164	228.459625
22953.472500	3070.370667	1259.260742	413.855103
22953.472500	3070.370667	1258.152344	238.341339
22953.472500	3070.370667	1257.043945	124.301346
22953.472500	3070.370667	1255.934570	142.442474
22953.472500	3070.370667	1254.825195	140.599442
22953.472500	3070.370667	1253.716797	200.484055
22953.472500	3070.370667	1252.606445	245.592834
22953.472500	3070.370667	1251.497070	99.447319
22953.472500	3070.370667	1250.387695	-78.032944
22953.472500	3070.370667	1249.277344	115.062569
22953.472500	3070.370667	1248.166992	-42.796047
22953.472500	3070.370667	1247.055664	-47.656921
22953.472500	3070.370667	1245.945313	-20.860245
22953.472500	3070.370667	1244.833984	-11.172660
22953.472500	3070.370667	1243.722656	-38.592720
22953.472500	3070.370667	1242.611328	116.807846
22953.472500	3070.370667	1241.499023	174.327438
22953.472500	3070.370667	1240.387695	68.379745
22953.472500	3070.370667	1239.275391	25.786772
22953.472500	3070.370667	1238.162109	67.094421
22953.472500	3070.370667	1237.049805	53.303154
22953.472500	3070.370667	1235.936523	73.786728
22953.472500	3070.370667	1234.823242	185.980530
22953.472500	3070.370667	1233.709961	47.841961
22953.472500	3070.370667	1232.596680	67.304962
22953.472500	3070.370667	1231.482422	115.807930
22953.472500	3070.370667	1230.369141	26.641222
22953.472500	3070.370667	1229.253906	27.509466
22953.472500	3070.370667	1228.139648	100.505470
22953.472500	3070.370667	1227.025391	195.251312
22953.472500	3070.370667	1225.910156	-15.259222
22953.472500	3070.370667	1224.794922	38.068737
22953.472500	3070.370667	1223.679688	-81.342728
22953.472500	3070.370667	1222.563477	16.628460
22953.472500	3070.370667	1221.447266	13.460475
22953.472500	3070.370667	1220.331055	138.946442
22953.472500	3070.370667	1219.214844	-31.747498
22953.472500	3070.370667	1218.098633	50.485237
22953.472500	3070.370667	1216.981445	53.519272
22953.472500	3070.370667	1215.864258	158.886688
22953.472500	3070.370667	1214.747070	84.698891
22953.472500	3070.370667	1213.629883	128.267471
22953.472500	3070.370667	1212.511719	31.334675
22953.472500	3070.370667	1211.393555	-14.976185
22953.472500	3070.370667	1210.275391	77.007767
22953.472500	3070.370667	1209.157227	-54.563072
22953.472500	3070.370667	1208.038086	-59.912849
22953.472500	3070.370667	1206.918945	-167.214676
22953.472500	3070.370667	1205.799805	-90.736160
22953.472500	3070.370667	1204.680664	-17.429487
22953.472500	3070.370667	1203.560547	53.881947
22953.472500	3070.370667	1202.441406	96.097801
22953.472500	3070.370667	1201.321289	60.059692
22953.472500	3070.370667	1200.200195	145.798096
22953.472500	3070.370667	1199.080078	-25.074081
22953.472500	3070.370667	1197.958984	203.332184
22953.472500	3070.370667	1196.837891	161.070328
22953.472500	3070.370667	1195.716797	281.450745
22953.472500	3070.370667	1194.594727	321.345032
22953.472500	3070.370667	1193.473633	295.703064
22953.472500	3070.370667	1192.351563	357.547485
22953.472500	3070.370667	1191.229492	419.436127
22953.472500	3070.370667	1190.106445	550.080627
22953.472500	3070.370667	1188.984375	571.423523
22953.472500	3070.370667	1187.861328	621.758423
22953.472500	3070.370667	1186.738281	707.190674
22953.472500	3070.370667	1185.614258	780.526001
22953.472500	3070.370667	1184.491211	668.212097
22953.472500	3070.370667	1183.367188	817.207214
22953.472500	3070.370667	1182.243164	919.947510
22953.472500	3070.370667	1181.119141	891.297974
22953.472500	3070.370667	1179.994141	938.210999
22953.472500	3070.370667	1178.869141	921.654724
22953.472500	3070.370667	1177.744141	932.392761
22953.472500	3070.370667	1176.619141	1070.534180
22953.472500	3070.370667	1175.493164	1186.284302
22953.472500	3070.370667	1174.368164	1152.658569
22953.472500	3070.370667	1173.242188	1089.127563
22953.472500	3070.370667	1172.115234	1289.993896
22953.472500	3070.370667	1170.989258	1214.847900
22953.472500	3070.370667	1169.862305	1118.366455
22953.472500	3070.370667	1168.735352	1149.080811
22953.472500	3070.370667	1167.608398	1110.187256
22953.472500	3070.370667	1166.481445	1181.973389
22953.472500	3070.370667	1165.353516	1098.929077
22953.472500	3070.370667	1164.225586	1044.683228
22953.472500	3070.370667	1163.097656	944.475037
22953.472500	3070.370667	1161.968750	1119.520752
22953.472500	3070.370667	1160.840820	1094.552979
22953.472500	3070.370667	1159.711914	1119.442261
22953.472500	3070.370667	1158.583008	1128.318481
22953.472500	3070.370667	1157.453125	1076.197754
22953.472500	3070.370667	1156.324219	940.906433
22953.472500	3070.370667	1155.194336	903.123718
22953.472500	3070.370667	1154.064453	887.242065
22953.472500	3070.370667	1152.933594	841.624329
22953.472500	3070.370667	1151.803711	729.192871
22953.472500	3070.370667	1150.672852	563.354919
22953.472500	3070.370667	1149.541992	690.245544
22953.472500	3070.370667	1148.411133	699.928955
22953.472500	3070.370667	1147.279297	611.014893
22953.472500	3070.370667	1146.147461	568.759521
22953.472500	3070.370667	1145.015625	625.142151
22953.472500	3070.370667	1143.883789	533.192932
22953.472500	3070.370667	1142.750977	561.724609
22953.472500	3070.370667	1141.619141	518.887756
22953.472500	3070.370667	1140.486328	505.347839
22953.472500	3070.370667	1139.352539	410.138824
22953.472500	3070.370667	1138.219727	334.429230
22953.472500	3070.370667	1137.085938	298.787598
22953.472500	3070.370667	1135.952148	307.851410
22953.472500	3070.370667	1134.818359	366.272980
22953.472500	3070.370667	1133.683594	345.370453
22953.472500	3070.370667	1132.549805	361.751465
22953.472500	3070.370667	1131.415039	369.284821
22953.472500	3070.370667	1130.279297	354.419495
22953.472500	3070.370667	1129.144531	326.225525
22953.472500	3070.370667	1128.008789	396.453064
22953.472500	3070.370667	1126.873047	296.884827
22953.472500	3070.370667	1125.737305	328.190735
22953.472500	3070.370667	1124.601563	241.981247
22953.472500	3070.370667	1123.464844	235.969437
22953.472500	3070.370667	1122.328125	296.785034
22953.472500	3070.370667	1121.191406	389.137146
22953.472500	3070.370667	1120.054688	258.829590
22953.472500	3070.370667	1118.916992	360.264648
22953.472500	3070.370667	1117.779297	376.135895
22953.472500	3070.370667	1116.641602	490.391754
22953.472500	3070.370667	1115.503906	451.442657
22953.472500	3070.370667	1114.365234	522.150391
22953.472500	3070.370667	1113.226563	483.849670
22953.472500	3070.370667	1112.087891	465.553467
22953.472500	3070.370667	1110.949219	380.405121
22953.472500	3070.370667	1109.809570	307.669434
22953.472500	3070.370667	1108.669922	386.204590
22953.472500	3070.370667	1107.530273	236.789703
22953.472500	3070.370667	1106.390625	239.279663
22953.472500	3070.370667	1105.250000	295.496948
22953.472500	3070.370667	1104.109375	197.686493
22953.472500	3070.370667	1102.968750	224.962509
22953.472500	3070.370667	1101.828125	162.391403
22953.472500	3070.370667	1100.686523	268.248779
22953.472500	3070.370667	1099.544922	351.713806
22953.472500	3070.370667	1098.403320	290.246002
22953.472500	3070.370667	1097.261719	238.933807
22953.472500	3070.370667	1096.120117	257.678162
22953.472500	3070.370667	1094.977539	327.793182
22953.472500	3070.370667	1093.834961	389.979370
22953.472500	3070.370667	1092.691406	404.805969
22953.472500	3070.370667	1091.548828	445.862793
22953.472500	3070.370667	1090.405273	544.185120
22953.472500	3070.370667	1089.261719	517.744141
22953.472500	3070.370667	1088.118164	544.797302
22953.472500	3070.370667	1086.973633	526.880676
22953.472500	3070.370667	1085.829102	475.247528
22953.472500	3070.370667	1084.684570	446.655182
22953.472500	3070.370667	1083.540039	319.400757
22953.472500	3070.370667	1082.395508	278.597992
22953.472500	3070.370667	1081.250000	371.710297
22953.472500	3070.370667	1080.104492	337.696167
22953.472500	3070.370667	1078.958984	422.848541
22953.472500	3070.370667	1077.812500	360.172913
22953.472500	3070.370667	1076.666016	424.161041
22953.472500	3070.370667	1075.519531	403.326202
22953.472500	3070.370667	1074.373047	403.772522
22953.472500	3070.370667	1073.226563	498.602631
22953.472500	3070.370667	1072.079102	527.242676
22953.472500	3070.370667	1070.931641	506.557495
22953.472500	3070.370667	1069.784180	418.986359
22953.472500	3070.370667	1068.635742	399.992920
22953.472500	3070.370667	1067.487305	444.708405
22953.472500	3070.370667	1066.338867	351.561279
22953.472500	3070.370667	1065.190430	317.158844
22953.472500	3070.370667	1064.041992	234.881378
22953.472500	3070.370667	1062.892578	285.843170
22953.472500	3070.370667	1061.743164	179.102768
22953.472500	3070.370667	1060.593750	145.548294
22953.472500	3070.370667	1059.443359	157.207657
22953.472500	3070.370667	1058.292969	133.534088
22953.472500	3070.370667	1057.142578	131.283035
22953.472500	3070.370667	1055.992188	82.470230
22953.472500	3070.370667	1054.841797	-7.476438
22953.472500	3070.370667	1053.690430	109.523804
22953.472500	3070.370667	1052.539063	99.334991
22953.472500	3070.370667	1051.387695	70.047226
22953.472500	3070.370667	1050.235352	36.744179
22953.472500	3070.370667	1049.083984	-21.543072
22953.472500	3070.370667	1047.931641	-35.442513
22953.472500	3070.370667	1046.778320	-82.941193
22953.472500	3070.370667	1045.625977	-42.168327
22953.472500	3070.370667	1044.472656	-10.100201
22953.472500	3070.370667	1043.319336	-102.278084
22953.472500	3070.370667	1042.166016	-49.438766
22953.472500	3070.370667	1041.012695	-23.281874
22953.472500	3070.370667	1039.858398	29.138954
22953.472500	3070.370667	1038.704102	189.513412
22953.472500	3070.370667	1037.549805	212.147827
22953.472500	3070.370667	1036.394531	295.295166
22953.472500	3070.370667	1035.239258	505.074554
22953.472500	3070.370667	1034.083984	579.717285
22953.472500	3070.370667	1032.928711	612.599548
22953.472500	3070.370667	1031.773438	620.480652
22953.472500	3070.370667	1030.617188	585.909851
22953.472500	3070.370667	1029.460938	654.328491
22953.472500	3070.370667	1028.304688	587.817078
22953.472500	3070.370667	1027.147461	571.947815
22953.472500	3070.370667	1025.991211	656.082458
22953.472500	3070.370667	1024.833984	608.498230
22953.472500	3070.370667	1023.675781	633.186707
22953.472500	3070.370667	1022.518555	698.645264
22953.472500	3070.370667	1021.360352	753.796387
22953.472500	3070.370667	1020.202148	852.021912
22953.472500	3070.370667	1019.043945	823.618896
22953.472500	3070.370667	1017.884766	795.509277
22953.472500	3070.370667	1016.726563	776.701599
22953.472500	3070.370667	1015.567383	817.818909
22953.472500	3070.370667	1014.407227	694.737549
22953.472500	3070.370667	1013.248047	777.732971
22953.472500	3070.370667	1012.087891	716.351501
22953.472500	3070.370667	1010.927734	638.480774
22953.472500	3070.370667	1009.767578	563.766479
22953.472500	3070.370667	1008.606445	560.523010
22953.472500	3070.370667	1007.446289	467.022034
22953.472500	3070.370667	1006.285156	528.997681
22953.472500	3070.370667	1005.123047	604.047241
22953.472500	3070.370667	1003.961914	691.646790
22953.472500	3070.370667	1002.799805	670.469299
22953.472500	3070.370667	1001.637695	779.359619
22953.472500	3070.370667	1000.475586	855.296570
22953.472500	3070.370667	999.312500	1029.998047
22953.472500	3070.370667	998.149414	1031.573364
22953.472500	3070.370667	996.986328	1031.890503
22953.472500	3070.370667	995.823242	1054.112427
22953.472500	3070.370667	994.659180	1046.754272
22953.472500	3070.370667	993.496094	1045.521240
22953.472500	3070.370667	992.332031	996.617249
22953.472500	3070.370667	991.166992	969.678040
22953.472500	3070.370667	990.002930	936.330566
22953.472500	3070.370667	988.837891	914.605164
22953.472500	3070.370667	987.672852	920.889404
22953.472500	3070.370667	986.506836	938.230042
22953.472500	3070.370667	985.341797	923.752502
22953.472500	3070.370667	984.175781	906.685303
22953.472500	3070.370667	983.009766	1080.252808
22953.472500	3070.370667	981.843750	1086.745117
22953.472500	3070.370667	980.676758	1137.320068
22953.472500	3070.370667	979.509766	1184.632446
22953.472500	3070.370667	978.342773	1182.505005
22953.472500	3070.370667	977.175781	1184.361938
22953.472500	3070.370667	976.007813	1205.319214
22953.472500	3070.370667	974.839844	1135.827637
22953.472500	3070.370667	973.671875	1159.817627
22953.472500	3070.370667	972.503906	1235.559937
22953.472500	3070.370667	971.334961	1032.115234
22953.472500	3070.370667	970.166016	1062.740112
22953.472500	3070.370667	968.997070	1128.167603
22953.472500	3070.370667	967.828125	1056.465332
22953.472500	3070.370667	966.658203	1042.794189
22953.472500	3070.370667	965.488281	969.188416
22953.472500	3070.370667	964.318359	1037.749268
22953.472500	3070.370667	963.148438	1025.462524
22953.472500	3070.370667	961.977539	1014.909485
22953.472500	3070.370667	960.806641	1056.636719
22953.472500	3070.370667	959.635742	948.547546
22953.472500	3070.370667	958.463867	959.867004
22953.472500	3070.370667	957.292969	948.636353
22953.472500	3070.370667	956.121094	924.225464
22953.472500	3070.370667	954.948242	810.344116
22953.472500	3070.370667	953.776367	897.703674
22953.472500	3070.370667	952.603516	733.261047
22953.472500	3070.370667	951.430664	643.921692
22953.472500	3070.370667	950.257813	621.156860
22953.472500	3070.370667	949.084961	672.316956
22953.472500	3070.370667	947.911133	556.309692
22953.472500	3070.370667	946.737305	609.247131
22953.472500	3070.370667	945.563477	564.612122
22953.472500	3070.370667	944.388672	603.141418
22953.472500	3070.370667	943.213867	587.994202
22953.472500	3070.370667	942.039063	651.961975
22953.472500	3070.370667	940.864258	707.016541
22953.472500	3070.370667	939.688477	658.470886
22953.472500	3070.370667	938.513672	612.359253
22953.472500	3070.370667	937.337891	660.760254
22953.472500	3070.370667	936.161133	681.271729
22953.472500	3070.370667	934.985352	633.016541
22953.472500	3070.370667	933.808594	613.340881
22953.472500	3070.370667	932.631836	674.298157
22953.472500	3070.370667	931.454102	614.395081
22953.472500	3070.370667	930.277344	624.932556
22953.472500	3070.370667	929.099609	677.598999
22953.472500	3070.370667	927.921875	591.485535
22953.472500	3070.370667	926.743164	579.585754
22953.472500	3070.370667	925.565430	623.143250
22953.472500	3070.370667	924.386719	618.008850
22953.472500	3070.370667	923.208008	556.419495
22953.472500	3070.370667	922.028320	561.179321
22953.472500	3070.370667	920.849609	536.084290
22953.472500	3070.370667	919.669922	531.599060
22953.472500	3070.370667	919.474609	598.435242
22953.472500	3070.370667	918.309570	504.302368
22953.472500	3070.370667	917.143555	438.180664
22953.472500	3070.370667	915.977539	462.560394
22953.472500	3070.370667	914.810547	476.621857
22953.472500	3070.370667	913.644531	460.078735
22953.472500	3070.370667	912.477539	441.050385
22953.472500	3070.370667	911.310547	413.300934
22953.472500	3070.370667	910.143555	428.349152
22953.472500	3070.370667	908.975586	428.423218
22953.472500	3070.370667	907.807617	493.895172
22953.472500	3070.370667	906.639648	506.168488
22953.472500	3070.370667	905.471680	470.738007
22953.472500	3070.370667	904.303711	442.991699
22953.472500	3070.370667	903.134766	494.637268
22953.472500	3070.370667	901.965820	387.151825
22953.472500	3070.370667	900.796875	419.845703
22953.472500	3070.370667	899.626953	471.101685
22953.472500	3070.370667	898.457031	484.057404
22953.472500	3070.370667	897.287109	484.436737
22953.472500	3070.370667	896.117188	556.335266
22953.472500	3070.370667	894.947266	595.405151
22953.472500	3070.370667	893.776367	582.208008
22953.472500	3070.370667	892.605469	537.791565
22953.472500	3070.370667	891.434570	510.410156
22953.472500	3070.370667	890.262695	439.383423
22953.472500	3070.370667	889.091797	561.146729
22953.472500	3070.370667	887.919922	550.597290
22953.472500	3070.370667	886.748047	520.533447
22953.472500	3070.370667	885.575195	534.687134
22953.472500	3070.370667	884.403320	478.832764
22953.472500	3070.370667	883.230469	534.777649
22953.472500	3070.370667	882.057617	487.327698
22953.472500	3070.370667	880.883789	459.230316
22953.472500	3070.370667	879.710938	433.409760
22953.472500	3070.370667	878.537109	385.792114
22953.472500	3070.370667	877.362305	481.686707
22953.472500	3070.370667	876.188477	413.003937
22953.472500	3070.370667	875.013672	412.545105
22953.472500	3070.370667	873.839844	445.385834
22953.472500	3070.370667	872.664063	511.487000
22953.472500	3070.370667	871.489258	425.572632
22953.472500	3070.370667	870.313477	496.977844
22953.472500	3070.370667	869.138672	538.869446
22953.472500	3070.370667	867.962891	605.486633
22953.472500	3070.370667	866.786133	473.733612
22953.472500	3070.370667	865.610352	450.426208
22953.472500	3070.370667	864.433594	360.499298
22953.472500	3070.370667	863.256836	413.790771
22953.472500	3070.370667	862.079102	275.856537
22953.472500	3070.370667	860.902344	262.542908
22953.472500	3070.370667	859.724609	225.995544
22953.472500	3070.370667	858.546875	272.980072
22953.472500	3070.370667	857.368164	280.481079
22953.472500	3070.370667	856.190430	304.209198
22953.472500	3070.370667	855.011719	306.264587
22953.472500	3070.370667	853.833008	329.950470
22953.472500	3070.370667	852.654297	390.710052
22953.472500	3070.370667	851.474609	320.876038
22953.472500	3070.370667	850.294922	401.683746
22953.472500	3070.370667	849.115234	321.840088
22953.472500	3070.370667	847.935547	331.592896
22953.472500	3070.370667	846.754883	372.990173
22953.472500	3070.370667	845.575195	392.008545
22953.472500	3070.370667	844.393555	460.398407
22953.472500	3070.370667	843.212891	339.014862
22953.472500	3070.370667	842.032227	377.350739
22953.472500	3070.370667	840.850586	468.120483
22953.472500	3070.370667	839.668945	503.368896
22953.472500	3070.370667	838.486328	504.707947
22953.472500	3070.370667	837.304688	479.111481
22953.472500	3070.370667	836.122070	502.089966
22953.472500	3070.370667	834.939453	532.796814
22953.472500	3070.370667	833.756836	474.960693
22953.472500	3070.370667	832.573242	466.460785
22953.472500	3070.370667	831.389648	437.991394
22953.472500	3070.370667	830.206055	431.899292
22953.472500	3070.370667	829.022461	461.254822
22953.472500	3070.370667	827.838867	342.162506
22953.472500	3070.370667	826.654297	422.387390
22953.472500	3070.370667	825.469727	501.865631
22953.472500	3070.370667	824.284180	552.912659
22953.472500	3070.370667	823.099609	605.543152
22953.472500	3070.370667	821.914063	540.616882
22953.472500	3070.370667	820.728516	573.369568
22953.472500	3070.370667	819.542969	427.942230
22953.472500	3070.370667	818.356445	316.433105
22953.472500	3070.370667	817.169922	167.413651
22953.472500	3070.370667	815.983398	111.430008
22953.472500	3070.370667	814.796875	106.209023
22953.472500	3070.370667	813.609375	20.478964
22953.472500	3070.370667	812.422852	-4.511938
22953.472500	3070.370667	811.235352	-73.143242
22953.472500	3070.370667	810.046875	-81.842331
22953.472500	3070.370667	808.859375	-22.963556
22953.472500	3070.370667	807.670898	-0.059454
22953.472500	3070.370667	806.482422	47.454720
22953.472500	3070.370667	805.293945	45.230347
22953.472500	3070.370667	804.104492	71.445320
22953.472500	3070.370667	802.915039	-8.731475
22953.472500	3070.370667	801.725586	75.887390
22953.472500	3070.370667	800.536133	3.601123
22953.472500	3070.370667	799.345703	-40.232006
22953.472500	3070.370667	798.155273	-19.648151
22953.472500	3070.370667	796.964844	-53.297916
22953.472500	3070.370667	795.774414	-50.866608
22953.472500	3070.370667	794.583008	-6.259876
22953.472500	3070.370667	793.392578	19.326447
22953.472500	3070.370667	792.200195	-0.869721
22953.472500	3070.370667	791.008789	43.276241
22953.472500	3070.370667	789.816406	89.044952
22953.472500	3070.370667	788.625000	53.156178
22953.472500	3070.370667	787.432617	51.776588
22953.472500	3070.370667	786.239258	9.269235
22953.472500	3070.370667	785.046875	66.182747
22953.472500	3070.370667	783.853516	61.349339
22953.472500	3070.370667	782.660156	77.254578
22953.472500	3070.370667	781.465820	120.751320
22953.472500	3070.370667	780.272461	109.425293
22953.472500	3070.370667	779.078125	233.256851
22953.472500	3070.370667	777.883789	199.288605
22953.472500	3070.370667	776.688477	150.975235
22953.472500	3070.370667	775.494141	115.779861
22953.472500	3070.370667	774.298828	182.869095
22953.472500	3070.370667	773.103516	175.383560
22953.472500	3070.370667	771.907227	86.510674
22953.472500	3070.370667	770.711914	101.414116
22953.472500	3070.370667	769.515625	93.599136
22953.472500	3070.370667	768.318359	-5.447277
22953.472500	3070.370667	767.122070	-6.865971
22953.472500	3070.370667	765.924805	82.428947
22953.472500	3070.370667	764.727539	-10.802388
22953.472500	3070.370667	763.530273	-71.897743
22953.472500	3070.370667	762.333008	26.911526
22953.472500	3070.370667	761.134766	38.366203
22953.472500	3070.370667	759.936523	-22.270321
22953.472500	3070.370667	758.738281	24.448187
22953.472500	3070.370667	757.540039	84.973289
22953.472500	3070.370667	756.340820	102.306328
22953.472500	3070.370667	755.141602	134.973694
22953.472500	3070.370667	753.942383	97.897026
22953.472500	3070.370667	752.742188	89.838623
22953.472500	3070.370667	751.541992	72.061691
22953.472500	3070.370667	750.341797	-26.779366
22953.472500	3070.370667	749.141602	71.884354
22953.472500	3070.370667	747.941406	-44.828480
22953.472500	3070.370667	746.740234	90.506432
22953.472500	3070.370667	745.539063	194.079651
22953.472500	3070.370667	744.337891	143.829041
22953.472500	3070.370667	743.135742	226.417892
22953.472500	3070.370667	741.933594	-14.526719
22953.472500	3070.370667	740.731445	47.897266
22953.472500	3070.370667	739.529297	-37.297295
22953.472500	3070.370667	738.326172	-148.062057
22953.472500	3070.370667	737.124023	-60.971794
22953.472500	3070.370667	735.919922	22.444214
22953.472500	3070.370667	734.716797	17.401751
22953.472500	3070.370667	733.513672	3.425637
22953.472500	3070.370667	732.309570	48.624138
22953.472500	3070.370667	731.105469	-75.514397
22953.472500	3070.370667	729.900391	-87.511955
22953.472500	3070.370667	728.696289	-158.346176
22953.472500	3070.370667	727.491211	-192.715576
22953.472500	3070.370667	726.286133	-148.314087
22953.472500	3070.370667	725.080078	-71.290878
22953.472500	3070.370667	723.874023	-29.671286
22953.472500	3070.370667	722.668945	-68.005577
22953.472500	3070.370667	721.461914	-127.328690
22953.472500	3070.370667	720.255859	-67.183044
22953.472500	3070.370667	719.048828	-14.473388
22953.472500	3070.370667	717.841797	82.129097
22953.472500	3070.370667	716.634766	131.283310
22953.472500	3070.370667	715.427734	161.689148
22953.472500	3070.370667	714.219727	163.552963
22953.472500	3070.370667	713.011719	175.351425
22953.472500	3070.370667	711.803711	166.162659
22953.472500	3070.370667	710.594727	102.078484
22953.472500	3070.370667	709.385742	182.856308
22953.472500	3070.370667	708.176758	88.153748
22953.472500	3070.370667	706.967773	78.746025
22953.472500	3070.370667	705.758789	43.855087
22953.472500	3070.370667	704.548828	128.085709
22953.472500	3070.370667	703.338867	157.439209
22953.472500	3070.370667	702.127930	140.984314
22953.472500	3070.370667	700.917969	108.843796
22953.472500	3070.370667	699.707031	151.324905
22953.472500	3070.370667	698.496094	149.516281
22953.472500	3070.370667	697.285156	192.192780
22953.472500	3070.370667	696.073242	240.227570
22953.472500	3070.370667	694.861328	206.403229
22953.472500	3070.370667	693.649414	343.318207
22953.472500	3070.370667	692.436523	483.287659
22953.472500	3070.370667	691.224609	400.153381
22953.472500	3070.370667	690.011719	589.826599
22953.472500	3070.370667	688.798828	642.082458
22953.472500	3070.370667	687.584961	666.633179
22953.472500	3070.370667	686.372070	651.473633
22953.472500	3070.370667	685.158203	700.209351
22953.472500	3070.370667	683.943359	795.538269
22953.472500	3070.370667	682.729492	802.380920
22953.472500	3070.370667	681.514648	805.557495
22953.472500	3070.370667	680.299805	782.565002
22953.472500	3070.370667	679.084961	714.674744
22953.472500	3070.370667	677.869141	670.129028
22953.472500	3070.370667	676.653320	607.687256
22953.472500	3070.370667	675.437500	588.048279
22953.472500	3070.370667	674.221680	584.964294
22953.472500	3070.370667	673.004883	481.590759
22953.472500	3070.370667	671.789063	439.716888
22953.472500	3070.370667	670.571289	579.847290
22953.472500	3070.370667	669.354492	590.481873
22953.472500	3070.370667	668.136719	515.113159
22953.472500	3070.370667	666.919922	411.389679
22953.472500	3070.370667	665.701172	364.615234
22953.472500	3070.370667	664.483398	274.523621
22953.472500	3070.370667	663.264648	370.689880
22953.472500	3070.370667	662.045898	355.471130
22953.472500	3070.370667	660.827148	355.240234
22953.472500	3070.370667	659.608398	368.490692
22953.472500	3070.370667	658.388672	459.463440
22953.472500	3070.370667	657.168945	575.817078
22953.472500	3070.370667	655.949219	523.380005
22953.472500	3070.370667	654.728516	488.907745
22953.472500	3070.370667	653.507813	323.094910
22953.472500	3070.370667	652.287109	379.005676
22953.472500	3070.370667	651.066406	417.741272
22953.472500	3070.370667	649.844727	419.920441
22953.472500	3070.370667	648.623047	445.966217
22953.472500	3070.370667	647.401367	498.097961
22953.472500	3070.370667	646.179688	584.494995
22953.472500	3070.370667	644.957031	678.307678
22953.472500	3070.370667	643.734375	679.669006
22953.472500	3070.370667	642.511719	847.152161
22953.472500	3070.370667	641.289063	832.803711
22953.472500	3070.370667	640.065430	834.829590
22953.472500	3070.370667	638.841797	946.275757
22953.472500	3070.370667	637.618164	1142.506470
22953.472500	3070.370667	636.393555	1345.325928
22953.472500	3070.370667	635.168945	1411.861938
22953.472500	3070.370667	633.944336	1437.416870
22953.472500	3070.370667	632.719727	1389.288574
22953.472500	3070.370667	631.494141	1252.654053
22953.472500	3070.370667	630.269531	1321.953735
22953.472500	3070.370667	629.042969	1185.296265
22953.472500	3070.370667	627.817383	995.131775
22953.472500	3070.370667	626.590820	937.983032
22953.472500	3070.370667	625.365234	753.029907
22953.472500	3070.370667	624.137695	706.973694
22953.472500	3070.370667	622.911133	654.179932
22953.472500	3070.370667	621.683594	680.769836
22953.472500	3070.370667	620.456055	729.537109
22953.472500	3070.370667	619.228516	635.738098
22953.472500	3070.370667	618.000977	702.135986
22953.472500	3070.370667	616.772461	678.678589
22953.472500	3070.370667	615.543945	674.421509
22953.472500	3070.370667	614.314453	692.318726
22953.472500	3070.370667	613.085938	731.602112
22953.472500	3070.370667	611.856445	674.434937
22953.472500	3070.370667	610.626953	714.987854
22953.472500	3070.370667	609.397461	767.269348
22953.472500	3070.370667	608.166992	700.186218
22953.472500	3070.370667	606.936523	696.696106
22953.472500	3070.370667	605.706055	604.256348
22953.472500	3070.370667	604.474609	540.604919
22953.472500	3070.370667	603.244141	594.507568
22953.472500	3070.370667	602.012695	556.528564
22953.472500	3070.370667	600.780273	630.866150
22953.472500	3070.370667	599.548828	617.036255
22953.472500	3070.370667	598.316406	729.505493
22953.472500	3070.370667	597.083984	685.821289
22953.472500	3070.370667	595.851563	690.049683
22953.472500	3070.370667	594.618164	625.419250
22953.472500	3070.370667	593.384766	563.623047
22953.472500	3070.370667	592.151367	636.856445
22953.472500	3070.370667	590.917969	676.676758
22953.472500	3070.370667	589.683594	629.213684
22953.472500	3070.370667	588.449219	752.107117
22953.472500	3070.370667	587.214844	663.739685
22953.472500	3070.370667	585.979492	602.544067
22953.472500	3070.370667	584.745117	614.964294
22953.472500	3070.370667	583.509766	560.840515
22953.472500	3070.370667	582.273438	444.634705
22953.472500	3070.370667	581.038086	462.459778
22953.472500	3070.370667	579.801758	477.151855
22953.472500	3070.370667	578.565430	465.867889
22953.472500	3070.370667	577.329102	550.171570
22953.472500	3070.370667	576.091797	588.590576
22953.472500	3070.370667	574.854492	573.052002
22953.472500	3070.370667	573.617188	650.089539
22953.472500	3070.370667	572.378906	716.597656
22953.472500	3070.370667	571.141602	692.368896
22953.472500	3070.370667	569.903320	645.146729
22953.472500	3070.370667	568.664063	639.673340
22953.472500	3070.370667	567.425781	491.332336
22953.472500	3070.370667	566.186523	378.879456
22953.472500	3070.370667	564.947266	370.652771
22953.472500	3070.370667	563.708008	365.898804
22953.472500	3070.370667	562.467773	418.985535
22953.472500	3070.370667	561.227539	363.116455
22953.472500	3070.370667	559.987305	295.308350
22953.472500	3070.370667	558.747070	347.743988
22953.472500	3070.370667	557.505859	300.832062
22953.472500	3070.370667	556.264648	317.582245
22953.472500	3070.370667	555.023438	337.044739
22953.472500	3070.370667	553.781250	356.279816
22953.472500	3070.370667	552.539063	387.758301
22953.472500	3070.370667	551.296875	399.202637
22953.472500	3070.370667	550.054688	467.613068
22953.472500	3070.370667	548.811523	560.694031
22953.472500	3070.370667	547.569336	630.797058
22953.472500	3070.370667	546.325195	687.452759
22953.472500	3070.370667	545.082031	832.507202
22953.472500	3070.370667	543.837891	958.962097
22953.472500	3070.370667	542.593750	1050.723022
22953.472500	3070.370667	541.349609	1230.074585
22953.472500	3070.370667	540.105469	1311.043213
22953.472500	3070.370667	538.860352	1339.060791
22953.472500	3070.370667	537.615234	1327.333008
22953.472500	3070.370667	536.369141	1139.826904
22953.472500	3070.370667	535.124023	966.076538
22953.472500	3070.370667	533.877930	765.851685
22953.472500	3070.370667	532.631836	773.828491
22953.472500	3070.370667	531.384766	651.482849
22953.472500	3070.370667	530.138672	633.462952
22953.472500	3070.370667	528.891602	613.033630
22953.472500	3070.370667	527.643555	567.554810
22953.472500	3070.370667	526.396484	416.728821
22953.472500	3070.370667	525.148438	399.348053
22953.472500	3070.370667	523.900391	352.560944
22953.472500	3070.370667	522.652344	380.744446
22953.472500	3070.370667	521.403320	252.560364
22953.472500	3070.370667	520.154297	368.584198
22953.472500	3070.370667	518.905273	289.626343
22953.472500	3070.370667	517.656250	276.844910
22953.472500	3070.370667	516.406250	299.574371
22953.472500	3070.370667	515.156250	249.207214
22953.472500	3070.370667	513.906250	317.430695
22953.472500	3070.370667	512.655273	218.588440
22953.472500	3070.370667	511.404297	184.412598
22953.472500	3070.370667	510.153320	165.347107
22953.472500	3070.370667	508.902344	134.447357
22953.472500	3070.370667	507.650391	222.006500
22953.472500	3070.370667	506.398438	66.279205
22953.472500	3070.370667	505.146484	42.122955
22953.472500	3070.370667	503.893555	65.067604
22953.472500	3070.370667	502.641602	68.195000
22953.472500	3070.370667	501.388672	57.321606
22953.472500	3070.370667	500.134766	32.458244
22953.472500	3070.370667	498.881836	43.057037
22953.472500	3070.370667	497.627930	-13.374126
22953.472500	3070.370667	496.374023	73.170921
22953.472500	3070.370667	495.119141	25.868376
22953.472500	3070.370667	493.865234	-19.381941
22953.472500	3070.370667	492.610352	71.715874
22953.472500	3070.370667	491.355469	116.171829
22953.472500	3070.370667	490.099609	105.303680
22953.472500	3070.370667	488.843750	126.949509
22953.472500	3070.370667	487.587891	141.197250
22953.472500	3070.370667	486.332031	129.200851
22953.472500	3070.370667	485.075195	258.461182
22953.472500	3070.370667	483.818359	213.566147
22953.472500	3070.370667	482.561523	131.611389
22953.472500	3070.370667	481.304688	185.804443
22953.472500	3070.370667	480.046875	224.643799
22953.472500	3070.370667	478.789063	261.191681
22953.472500	3070.370667	477.531250	185.386871
22953.472500	3070.370667	476.272461	229.692245
22953.472500	3070.370667	475.013672	131.299927
22953.472500	3070.370667	473.754883	126.221199
22953.472500	3070.370667	472.496094	19.778456
22953.472500	3070.370667	471.236328	-126.482819
22953.472500	3070.370667	469.976563	-79.653641
22953.472500	3070.370667	468.716797	-35.795185
22953.472500	3070.370667	467.456055	13.763127
22953.472500	3070.370667	466.196289	-87.062767
22953.472500	3070.370667	464.935547	-36.158081
22953.472500	3070.370667	463.673828	-131.972015
22953.472500	3070.370667	462.413086	-39.975498
22953.472500	3070.370667	461.151367	-25.318861
22953.472500	3070.370667	459.889648	-124.752525
22953.472500	3070.370667	458.626953	-56.710613
22953.472500	3070.370667	457.364258	-17.568928
22953.472500	3070.370667	456.101563	-5.858836
22953.472500	3070.370667	454.838867	-0.638047
22953.472500	3070.370667	453.575195	24.775692
22953.472500	3070.370667	452.312500	9.112432
22953.472500	3070.370667	451.047852	113.121330
22953.472500	3070.370667	449.784180	60.738251
22953.472500	3070.370667	448.519531	59.563805
22953.472500	3070.370667	447.254883	28.179775
22953.472500	3070.370667	445.990234	127.222878
22953.472500	3070.370667	444.725586	56.343479
22953.472500	3070.370667	443.459961	108.654846
22953.472500	3070.370667	442.194336	57.368446
22953.472500	3070.370667	440.927734	80.290993
22953.472500	3070.370667	439.662109	32.072033
22953.472500	3070.370667	438.395508	-35.467880
22953.472500	3070.370667	437.127930	0.663473
22953.472500	3070.370667	435.861328	0.943191
22953.472500	3070.370667	434.593750	25.760502
22953.472500	3070.370667	433.326172	44.213776
22953.472500	3070.370667	432.058594	21.105789
22953.472500	3070.370667	430.790039	125.274284
22953.472500	3070.370667	429.521484	230.967026
22953.472500	3070.370667	428.252930	413.582703
22953.472500	3070.370667	426.984375	444.787506
22953.472500	3070.370667	425.714844	407.215637
22953.472500	3070.370667	424.445313	418.610565
22953.472500	3070.370667	423.174805	422.976563
22953.472500	3070.370667	421.905273	460.510010
22953.472500	3070.370667	420.634766	478.109222
22953.472500	3070.370667	419.364258	467.914551
22953.472500	3070.370667	418.092773	449.293518
22953.472500	3070.370667	416.822266	373.541290
22953.472500	3070.370667	415.550781	329.528320
22953.472500	3070.370667	414.278320	259.930420
22953.472500	3070.370667	413.006836	335.237579
22953.472500	3070.370667	411.734375	193.031448
22953.472500	3070.370667	410.461914	88.316681
22953.472500	3070.370667	409.188477	36.810524
22953.472500	3070.370667	407.916016	40.642834
22953.472500	3070.370667	406.642578	17.493689
22953.472500	3070.370667	405.368164	38.909348
22953.472500	3070.370667	404.094727	29.791248
22953.472500	3070.370667	402.820313	-2.703332
22953.472500	3070.370667	401.545898	42.234283
22953.472500	3070.370667	400.270508	-56.271786
22953.472500	3070.370667	398.996094	-83.772484
22953.472500	3070.370667	397.720703	-52.469402
22953.472500	3070.370667	396.444336	5.463153
22953.472500	3070.370667	395.168945	-23.509386
22953.472500	3070.370667	393.892578	-132.917816
22953.472500	3070.370667	392.616211	-120.726852
22953.472500	3070.370667	391.339844	-111.174973
22953.472500	3070.370667	390.062500	-67.884018
22953.472500	3070.370667	388.785156	-102.137932
22953.472500	3070.370667	387.507813	-1.391469
22953.472500	3070.370667	386.229492	-39.503746
22953.472500	3070.370667	384.951172	8.139169
22953.472500	3070.370667	383.672852	-28.126072
22953.472500	3070.370667	382.394531	-47.791981
22953.472500	3070.370667	381.115234	100.129875
22953.472500	3070.370667	379.835938	38.087437
22953.472500	3070.370667	378.556641	189.136703
22953.472500	3070.370667	377.277344	212.159195
22953.472500	3070.370667	375.997070	215.403625
22953.472500	3070.370667	374.716797	311.299133
22953.472500	3070.370667	373.435547	389.509277
22953.472500	3070.370667	372.155273	278.636902
22953.472500	3070.370667	370.874023	252.550064
22953.472500	3070.370667	369.591797	353.124908
22953.472500	3070.370667	368.310547	202.859833
22953.472500	3070.370667	367.028320	250.290039
22953.472500	3070.370667	365.746094	306.296143
22953.472500	3070.370667	364.463867	282.070007
22953.472500	3070.370667	363.180664	255.051605
22953.472500	3070.370667	361.897461	151.389694
22953.472500	3070.370667	360.614258	111.662132
22953.472500	3070.370667	359.330078	19.420300
22953.472500	3070.370667	358.045898	-55.786652
22953.472500	3070.370667	356.761719	51.291962
22953.472500	3070.370667	355.477539	51.157261
22953.472500	3070.370667	354.192383	84.954956
22953.472500	3070.370667	352.907227	221.405884
22953.472500	3070.370667	351.622070	152.111877
22953.472500	3070.370667	350.336914	110.308403
22953.472500	3070.370667	349.050781	61.233295
22953.472500	3070.370667	347.764648	81.359932
22953.472500	3070.370667	346.477539	65.806549
22953.472500	3070.370667	345.191406	36.519440
22953.472500	3070.370667	343.904297	224.924759
22953.472500	3070.370667	342.616211	85.234009
22953.472500	3070.370667	341.329102	37.190228
22953.472500	3070.370667	340.041016	32.586380
22953.472500	3070.370667	338.752930	88.334221
22953.472500	3070.370667	337.463867	100.411285
22953.472500	3070.370667	336.175781	214.436905
22953.472500	3070.370667	334.886719	165.261520
22953.472500	3070.370667	333.596680	52.573956
22953.472500	3070.370667	332.307617	77.718025
22953.472500	3070.370667	331.017578	-6.657444
22953.472500	3070.370667	329.727539	3.547289
22953.472500	3070.370667	328.436523	50.318565
22953.472500	3070.370667	327.146484	53.135605
22953.472500	3070.370667	325.855469	-65.670341
22953.472500	3070.370667	324.563477	-0.594331
22953.472500	3070.370667	323.272461	17.556351
22953.472500	3070.370667	321.980469	-139.618484
22953.472500	3070.370667	320.688477	-99.792221
22953.472500	3070.370667	319.395508	-84.509346
22953.472500	3070.370667	318.103516	18.966686
22953.472500	3070.370667	316.810547	-63.606014
22953.472500	3070.370667	315.516602	-118.033676
22953.472500	3070.370667	314.223633	-71.127907
22953.472500	3070.370667	312.929688	-106.845024
22953.472500	3070.370667	311.635742	76.810844
22953.472500	3070.370667	310.340820	-48.972233
22953.472500	3070.370667	309.045898	-6.972321
22953.472500	3070.370667	307.750977	74.575462
22953.472500	3070.370667	306.456055	146.323196
22953.472500	3070.370667	305.160156	30.950224
22953.472500	3070.370667	303.865234	-1.488028
22953.472500	3070.370667	302.568359	55.089962
22953.472500	3070.370667	301.272461	11.584104
22953.472500	3070.370667	299.975586	51.263939
22953.472500	3070.370667	298.678711	-20.570230
