#X		#Y		#Wave		#Intensity
23002.352234	3292.089667	1999.980469	-118.191780
23002.352234	3292.089667	1999.016602	-78.036201
23002.352234	3292.089667	1998.052734	-32.215298
23002.352234	3292.089667	1997.087891	-56.261673
23002.352234	3292.089667	1996.123047	55.512470
23002.352234	3292.089667	1995.158203	-53.672115
23002.352234	3292.089667	1994.193359	-190.492889
23002.352234	3292.089667	1993.228516	100.715668
23002.352234	3292.089667	1992.262695	72.034210
23002.352234	3292.089667	1991.297852	-1.595466
23002.352234	3292.089667	1990.332031	-55.773956
23002.352234	3292.089667	1989.366211	25.791862
23002.352234	3292.089667	1988.399414	102.025841
23002.352234	3292.089667	1987.433594	71.516418
23002.352234	3292.089667	1986.466797	-87.912712
23002.352234	3292.089667	1985.500977	76.299469
23002.352234	3292.089667	1984.534180	-46.629150
23002.352234	3292.089667	1983.567383	-53.646374
23002.352234	3292.089667	1982.599609	79.910027
23002.352234	3292.089667	1981.632813	84.648598
23002.352234	3292.089667	1980.665039	57.001167
23002.352234	3292.089667	1979.697266	80.966606
23002.352234	3292.089667	1978.729492	-36.087502
23002.352234	3292.089667	1977.761719	88.613945
23002.352234	3292.089667	1976.792969	-127.616837
23002.352234	3292.089667	1975.825195	-99.661613
23002.352234	3292.089667	1974.856445	34.172302
23002.352234	3292.089667	1973.887695	-7.418680
23002.352234	3292.089667	1972.918945	-22.062811
23002.352234	3292.089667	1971.949219	39.558392
23002.352234	3292.089667	1970.980469	12.202969
23002.352234	3292.089667	1970.010742	9.333055
23002.352234	3292.089667	1969.041016	109.817032
23002.352234	3292.089667	1968.071289	155.884094
23002.352234	3292.089667	1967.101563	-24.901304
23002.352234	3292.089667	1966.130859	-28.399532
23002.352234	3292.089667	1965.161133	2.443293
23002.352234	3292.089667	1964.190430	99.627792
23002.352234	3292.089667	1963.219727	125.247368
23002.352234	3292.089667	1962.249023	7.960820
23002.352234	3292.089667	1961.277344	-35.563927
23002.352234	3292.089667	1960.306641	6.943285
23002.352234	3292.089667	1959.334961	96.073792
23002.352234	3292.089667	1958.363281	84.221581
23002.352234	3292.089667	1957.391602	-60.522739
23002.352234	3292.089667	1956.419922	72.551903
23002.352234	3292.089667	1955.447266	55.530373
23002.352234	3292.089667	1954.474609	156.420212
23002.352234	3292.089667	1953.501953	87.632736
23002.352234	3292.089667	1952.529297	43.374004
23002.352234	3292.089667	1951.556641	13.808447
23002.352234	3292.089667	1950.583984	79.985603
23002.352234	3292.089667	1949.610352	69.957367
23002.352234	3292.089667	1948.636719	180.189346
23002.352234	3292.089667	1947.663086	-14.055470
23002.352234	3292.089667	1946.689453	-46.284714
23002.352234	3292.089667	1945.715820	93.230164
23002.352234	3292.089667	1944.741211	65.827797
23002.352234	3292.089667	1943.767578	-106.315529
23002.352234	3292.089667	1942.792969	-138.631119
23002.352234	3292.089667	1941.818359	79.148781
23002.352234	3292.089667	1940.842773	85.992096
23002.352234	3292.089667	1939.868164	-113.075081
23002.352234	3292.089667	1938.892578	75.120293
23002.352234	3292.089667	1937.916992	-55.290161
23002.352234	3292.089667	1936.941406	-38.674683
23002.352234	3292.089667	1935.965820	-105.345467
23002.352234	3292.089667	1934.990234	-22.615303
23002.352234	3292.089667	1934.013672	13.564469
23002.352234	3292.089667	1933.037109	71.764900
23002.352234	3292.089667	1932.060547	5.128449
23002.352234	3292.089667	1931.083984	82.897575
23002.352234	3292.089667	1930.107422	99.484077
23002.352234	3292.089667	1929.129883	-79.613174
23002.352234	3292.089667	1928.153320	0.609167
23002.352234	3292.089667	1927.175781	-41.443172
23002.352234	3292.089667	1926.198242	158.564774
23002.352234	3292.089667	1925.219727	-8.124774
23002.352234	3292.089667	1924.242188	-96.527519
23002.352234	3292.089667	1923.263672	179.182953
23002.352234	3292.089667	1922.285156	-33.765766
23002.352234	3292.089667	1921.306641	-43.887981
23002.352234	3292.089667	1920.328125	33.931778
23002.352234	3292.089667	1919.349609	-54.274578
23002.352234	3292.089667	1918.370117	-96.041107
23002.352234	3292.089667	1917.391602	-169.489441
23002.352234	3292.089667	1916.412109	140.225189
23002.352234	3292.089667	1915.431641	-33.209743
23002.352234	3292.089667	1914.452148	-40.676563
23002.352234	3292.089667	1913.472656	-123.711571
23002.352234	3292.089667	1912.492188	-77.451118
23002.352234	3292.089667	1911.511719	7.832222
23002.352234	3292.089667	1910.531250	41.931900
23002.352234	3292.089667	1909.550781	-123.778625
23002.352234	3292.089667	1908.569336	110.196510
23002.352234	3292.089667	1907.588867	183.340240
23002.352234	3292.089667	1906.607422	44.592587
23002.352234	3292.089667	1905.625977	-98.937798
23002.352234	3292.089667	1904.644531	100.915215
23002.352234	3292.089667	1903.662109	300.728424
23002.352234	3292.089667	1902.680664	8.877163
23002.352234	3292.089667	1901.698242	-78.428932
23002.352234	3292.089667	1900.715820	-46.455208
23002.352234	3292.089667	1899.733398	2.569171
23002.352234	3292.089667	1898.750000	-101.603798
23002.352234	3292.089667	1897.767578	88.511948
23002.352234	3292.089667	1896.784180	13.605130
23002.352234	3292.089667	1895.800781	-32.071949
23002.352234	3292.089667	1894.817383	111.854813
23002.352234	3292.089667	1893.833984	-6.646286
23002.352234	3292.089667	1892.850586	35.261173
23002.352234	3292.089667	1891.866211	60.183594
23002.352234	3292.089667	1890.881836	172.549164
23002.352234	3292.089667	1889.897461	-16.152996
23002.352234	3292.089667	1888.913086	-44.543171
23002.352234	3292.089667	1887.927734	150.389313
23002.352234	3292.089667	1886.943359	170.569733
23002.352234	3292.089667	1885.958008	-49.410076
23002.352234	3292.089667	1884.972656	-114.039841
23002.352234	3292.089667	1883.987305	68.748955
23002.352234	3292.089667	1883.001953	21.148293
23002.352234	3292.089667	1882.015625	143.288925
23002.352234	3292.089667	1881.029297	-69.075920
23002.352234	3292.089667	1880.042969	62.777870
23002.352234	3292.089667	1879.056641	-28.301081
23002.352234	3292.089667	1878.070313	59.936703
23002.352234	3292.089667	1877.083984	-74.660706
23002.352234	3292.089667	1876.096680	-85.689636
23002.352234	3292.089667	1875.109375	72.779564
23002.352234	3292.089667	1874.122070	23.033379
23002.352234	3292.089667	1873.134766	45.927601
23002.352234	3292.089667	1872.146484	54.310200
23002.352234	3292.089667	1871.159180	-43.743843
23002.352234	3292.089667	1870.170898	97.713524
23002.352234	3292.089667	1869.182617	-174.408295
23002.352234	3292.089667	1868.194336	-28.121267
23002.352234	3292.089667	1867.205078	45.597332
23002.352234	3292.089667	1866.216797	141.048828
23002.352234	3292.089667	1865.227539	-19.681973
23002.352234	3292.089667	1864.238281	136.160385
23002.352234	3292.089667	1863.249023	151.841660
23002.352234	3292.089667	1862.259766	3.287289
23002.352234	3292.089667	1861.269531	76.945244
23002.352234	3292.089667	1860.279297	78.147560
23002.352234	3292.089667	1859.290039	156.590042
23002.352234	3292.089667	1858.298828	169.839478
23002.352234	3292.089667	1857.308594	55.195438
23002.352234	3292.089667	1856.318359	-47.348236
23002.352234	3292.089667	1855.327148	-77.500404
23002.352234	3292.089667	1854.335938	-93.180046
23002.352234	3292.089667	1853.344727	-231.829987
23002.352234	3292.089667	1852.353516	-88.393059
23002.352234	3292.089667	1851.362305	209.230377
23002.352234	3292.089667	1850.370117	152.495453
23002.352234	3292.089667	1849.377930	59.626759
23002.352234	3292.089667	1848.385742	60.720993
23002.352234	3292.089667	1847.393555	225.566254
23002.352234	3292.089667	1846.401367	-9.386743
23002.352234	3292.089667	1845.408203	-73.342171
23002.352234	3292.089667	1844.415039	132.290848
23002.352234	3292.089667	1843.421875	24.967884
23002.352234	3292.089667	1842.428711	49.996082
23002.352234	3292.089667	1841.435547	151.968719
23002.352234	3292.089667	1840.441406	140.828979
23002.352234	3292.089667	1839.448242	175.354095
23002.352234	3292.089667	1838.454102	128.088104
23002.352234	3292.089667	1837.459961	-133.136765
23002.352234	3292.089667	1836.464844	38.314964
23002.352234	3292.089667	1835.470703	46.265705
23002.352234	3292.089667	1834.475586	95.017532
23002.352234	3292.089667	1833.480469	-36.440903
23002.352234	3292.089667	1832.485352	-23.794617
23002.352234	3292.089667	1831.490234	113.664452
23002.352234	3292.089667	1830.495117	70.976410
23002.352234	3292.089667	1829.499023	-38.947189
23002.352234	3292.089667	1828.502930	194.294159
23002.352234	3292.089667	1827.506836	151.476410
23002.352234	3292.089667	1826.510742	65.445831
23002.352234	3292.089667	1825.513672	209.645599
23002.352234	3292.089667	1824.517578	147.514343
23002.352234	3292.089667	1823.520508	224.408951
23002.352234	3292.089667	1822.523438	-72.722878
23002.352234	3292.089667	1821.526367	167.043793
23002.352234	3292.089667	1820.529297	210.177353
23002.352234	3292.089667	1819.531250	147.823349
23002.352234	3292.089667	1818.533203	253.101120
23002.352234	3292.089667	1817.535156	260.090393
23002.352234	3292.089667	1816.537109	29.973553
23002.352234	3292.089667	1815.539063	139.814224
23002.352234	3292.089667	1814.540039	228.005280
23002.352234	3292.089667	1813.541992	167.732330
23002.352234	3292.089667	1812.542969	152.871124
23002.352234	3292.089667	1811.543945	178.612320
23002.352234	3292.089667	1810.543945	204.271866
23002.352234	3292.089667	1809.544922	280.066742
23002.352234	3292.089667	1808.544922	123.856598
23002.352234	3292.089667	1807.544922	357.249390
23002.352234	3292.089667	1806.544922	272.629700
23002.352234	3292.089667	1805.544922	216.638062
23002.352234	3292.089667	1804.544922	91.311401
23002.352234	3292.089667	1803.543945	154.641586
23002.352234	3292.089667	1802.542969	148.614914
23002.352234	3292.089667	1801.541992	180.711304
23002.352234	3292.089667	1800.541016	281.940460
23002.352234	3292.089667	1799.539063	189.724121
23002.352234	3292.089667	1798.538086	209.614578
23002.352234	3292.089667	1797.536133	110.120377
23002.352234	3292.089667	1796.534180	156.082428
23002.352234	3292.089667	1795.532227	161.397217
23002.352234	3292.089667	1794.529297	85.548676
23002.352234	3292.089667	1793.527344	2.490400
23002.352234	3292.089667	1792.524414	52.847374
23002.352234	3292.089667	1791.521484	196.033752
23002.352234	3292.089667	1790.518555	177.056000
23002.352234	3292.089667	1789.514648	393.823486
23002.352234	3292.089667	1788.511719	212.672073
23002.352234	3292.089667	1787.507813	143.410568
23002.352234	3292.089667	1786.503906	90.745163
23002.352234	3292.089667	1785.500000	166.542740
23002.352234	3292.089667	1784.496094	139.878265
23002.352234	3292.089667	1783.491211	53.635727
23002.352234	3292.089667	1782.486328	10.148733
23002.352234	3292.089667	1781.481445	61.720787
23002.352234	3292.089667	1780.476563	194.028458
23002.352234	3292.089667	1779.471680	38.489071
23002.352234	3292.089667	1778.465820	-29.141180
23002.352234	3292.089667	1777.460938	-27.918167
23002.352234	3292.089667	1776.455078	51.614441
23002.352234	3292.089667	1775.449219	43.106956
23002.352234	3292.089667	1774.442383	-70.023598
23002.352234	3292.089667	1773.436523	-9.841024
23002.352234	3292.089667	1772.429688	47.833447
23002.352234	3292.089667	1771.422852	-15.696077
23002.352234	3292.089667	1770.416016	55.986439
23002.352234	3292.089667	1769.409180	87.191093
23002.352234	3292.089667	1768.402344	101.667465
23002.352234	3292.089667	1767.394531	40.112755
23002.352234	3292.089667	1766.386719	111.292633
23002.352234	3292.089667	1765.378906	182.336594
23002.352234	3292.089667	1764.371094	61.201355
23002.352234	3292.089667	1763.362305	30.073521
23002.352234	3292.089667	1762.354492	-1.147285
23002.352234	3292.089667	1761.345703	-4.038720
23002.352234	3292.089667	1760.336914	47.449310
23002.352234	3292.089667	1759.328125	-88.316254
23002.352234	3292.089667	1758.318359	88.451874
23002.352234	3292.089667	1757.308594	54.312462
23002.352234	3292.089667	1756.299805	31.916519
23002.352234	3292.089667	1755.290039	-71.062309
23002.352234	3292.089667	1754.279297	-91.297813
23002.352234	3292.089667	1753.269531	82.373909
23002.352234	3292.089667	1752.258789	35.870075
23002.352234	3292.089667	1751.249023	161.924881
23002.352234	3292.089667	1750.238281	56.082588
23002.352234	3292.089667	1749.226563	6.898032
23002.352234	3292.089667	1748.215820	28.536770
23002.352234	3292.089667	1747.204102	35.866222
23002.352234	3292.089667	1746.193359	-30.159000
23002.352234	3292.089667	1745.181641	-32.498039
23002.352234	3292.089667	1744.168945	24.089098
23002.352234	3292.089667	1743.157227	163.198822
23002.352234	3292.089667	1742.144531	162.835297
23002.352234	3292.089667	1741.132813	-64.243484
23002.352234	3292.089667	1740.120117	17.811983
23002.352234	3292.089667	1739.106445	-27.705498
23002.352234	3292.089667	1738.093750	-40.282814
23002.352234	3292.089667	1737.080078	-60.053005
23002.352234	3292.089667	1736.067383	104.024849
23002.352234	3292.089667	1735.053711	-59.818905
23002.352234	3292.089667	1734.040039	-35.123661
23002.352234	3292.089667	1733.025391	5.939178
23002.352234	3292.089667	1732.011719	-12.028986
23002.352234	3292.089667	1730.997070	7.584251
23002.352234	3292.089667	1729.982422	151.923584
23002.352234	3292.089667	1728.967773	-52.461784
23002.352234	3292.089667	1727.952148	-59.097694
23002.352234	3292.089667	1726.937500	-79.958267
23002.352234	3292.089667	1725.921875	-53.855370
23002.352234	3292.089667	1724.906250	19.193213
23002.352234	3292.089667	1723.890625	-4.363815
23002.352234	3292.089667	1722.875000	-11.554782
23002.352234	3292.089667	1721.858398	101.088615
23002.352234	3292.089667	1720.841797	-162.663330
23002.352234	3292.089667	1719.825195	-29.091799
23002.352234	3292.089667	1718.808594	-97.832977
23002.352234	3292.089667	1717.791992	-46.795967
23002.352234	3292.089667	1716.774414	-54.639320
23002.352234	3292.089667	1715.756836	101.862923
23002.352234	3292.089667	1714.739258	89.084435
23002.352234	3292.089667	1713.721680	40.979954
23002.352234	3292.089667	1712.704102	-28.341948
23002.352234	3292.089667	1711.685547	38.400684
23002.352234	3292.089667	1710.667969	1.756230
23002.352234	3292.089667	1709.649414	-206.287323
23002.352234	3292.089667	1708.630859	-116.396286
23002.352234	3292.089667	1707.611328	-89.985771
23002.352234	3292.089667	1706.592773	41.860592
23002.352234	3292.089667	1705.573242	79.753647
23002.352234	3292.089667	1704.553711	19.071001
23002.352234	3292.089667	1703.534180	-130.754425
23002.352234	3292.089667	1702.513672	-20.512152
23002.352234	3292.089667	1701.494141	-165.781387
23002.352234	3292.089667	1700.473633	73.070343
23002.352234	3292.089667	1699.453125	4.923123
23002.352234	3292.089667	1698.432617	-75.000977
23002.352234	3292.089667	1697.412109	-16.858782
23002.352234	3292.089667	1696.390625	36.473835
23002.352234	3292.089667	1695.369141	-125.611420
23002.352234	3292.089667	1694.347656	7.091466
23002.352234	3292.089667	1693.326172	-17.084515
23002.352234	3292.089667	1692.304688	12.453887
23002.352234	3292.089667	1691.282227	-107.782822
23002.352234	3292.089667	1690.260742	-38.668251
23002.352234	3292.089667	1689.238281	27.982626
23002.352234	3292.089667	1688.214844	-5.988095
23002.352234	3292.089667	1687.192383	-35.343651
23002.352234	3292.089667	1686.168945	82.396950
23002.352234	3292.089667	1685.146484	-98.956940
23002.352234	3292.089667	1684.123047	104.992874
23002.352234	3292.089667	1683.099609	30.932671
23002.352234	3292.089667	1682.075195	29.174648
23002.352234	3292.089667	1681.051758	1.678691
23002.352234	3292.089667	1680.027344	-51.567192
23002.352234	3292.089667	1679.002930	16.450752
23002.352234	3292.089667	1677.978516	12.055451
23002.352234	3292.089667	1676.953125	-69.388443
23002.352234	3292.089667	1675.928711	-295.428131
23002.352234	3292.089667	1674.903320	-38.891125
23002.352234	3292.089667	1673.877930	40.332390
23002.352234	3292.089667	1672.852539	-111.252472
23002.352234	3292.089667	1671.826172	177.496048
23002.352234	3292.089667	1670.800781	93.361481
23002.352234	3292.089667	1669.774414	106.998169
23002.352234	3292.089667	1668.748047	64.677452
23002.352234	3292.089667	1667.721680	141.045090
23002.352234	3292.089667	1666.694336	228.944275
23002.352234	3292.089667	1665.667969	286.507813
23002.352234	3292.089667	1664.640625	64.758629
23002.352234	3292.089667	1663.613281	271.083649
23002.352234	3292.089667	1662.585938	114.431419
23002.352234	3292.089667	1661.557617	104.270889
23002.352234	3292.089667	1660.530273	289.373108
23002.352234	3292.089667	1659.501953	116.355278
23002.352234	3292.089667	1658.473633	189.705200
23002.352234	3292.089667	1657.444336	276.901428
23002.352234	3292.089667	1656.416016	173.526917
23002.352234	3292.089667	1655.386719	244.335312
23002.352234	3292.089667	1654.358398	126.976120
23002.352234	3292.089667	1653.328125	209.265869
23002.352234	3292.089667	1652.298828	284.529419
23002.352234	3292.089667	1651.269531	199.573425
23002.352234	3292.089667	1650.239258	344.323486
23002.352234	3292.089667	1649.208984	361.373260
23002.352234	3292.089667	1648.178711	202.086441
23002.352234	3292.089667	1647.148438	620.293518
23002.352234	3292.089667	1646.117188	416.872223
23002.352234	3292.089667	1645.086914	401.289063
23002.352234	3292.089667	1644.055664	387.979675
23002.352234	3292.089667	1643.024414	571.617981
23002.352234	3292.089667	1641.992188	405.285736
23002.352234	3292.089667	1640.960938	521.610840
23002.352234	3292.089667	1639.928711	728.171265
23002.352234	3292.089667	1638.896484	659.072754
23002.352234	3292.089667	1637.864258	650.167297
23002.352234	3292.089667	1636.832031	729.198547
23002.352234	3292.089667	1635.798828	870.644592
23002.352234	3292.089667	1634.766602	1046.737183
23002.352234	3292.089667	1633.733398	808.639954
23002.352234	3292.089667	1632.699219	1130.316284
23002.352234	3292.089667	1631.666016	1155.876831
23002.352234	3292.089667	1630.632813	1028.820313
23002.352234	3292.089667	1629.598633	1086.705688
23002.352234	3292.089667	1628.564453	1338.684814
23002.352234	3292.089667	1627.530273	1343.318726
23002.352234	3292.089667	1626.495117	1292.480957
23002.352234	3292.089667	1625.460938	1274.004883
23002.352234	3292.089667	1624.425781	1451.803345
23002.352234	3292.089667	1623.390625	1451.746704
23002.352234	3292.089667	1622.355469	1352.424438
23002.352234	3292.089667	1621.319336	1502.379883
23002.352234	3292.089667	1620.284180	1403.083496
23002.352234	3292.089667	1619.248047	1476.837280
23002.352234	3292.089667	1618.211914	1363.730713
23002.352234	3292.089667	1617.174805	1684.208618
23002.352234	3292.089667	1616.138672	1518.083008
23002.352234	3292.089667	1615.101563	1296.685425
23002.352234	3292.089667	1614.065430	1633.157837
23002.352234	3292.089667	1613.027344	1497.085938
23002.352234	3292.089667	1611.990234	1683.637939
23002.352234	3292.089667	1610.953125	1695.067505
23002.352234	3292.089667	1609.915039	1552.190430
23002.352234	3292.089667	1608.876953	1549.838257
23002.352234	3292.089667	1607.838867	1720.160767
23002.352234	3292.089667	1606.800781	1678.683105
23002.352234	3292.089667	1605.761719	1690.153809
23002.352234	3292.089667	1604.723633	1777.579712
23002.352234	3292.089667	1603.684570	1623.446289
23002.352234	3292.089667	1602.644531	1777.562744
23002.352234	3292.089667	1601.605469	1752.304565
23002.352234	3292.089667	1600.566406	1722.485352
23002.352234	3292.089667	1599.526367	1970.810913
23002.352234	3292.089667	1598.486328	1849.080200
23002.352234	3292.089667	1597.446289	1964.081665
23002.352234	3292.089667	1596.405273	1824.070190
23002.352234	3292.089667	1595.365234	1707.130371
23002.352234	3292.089667	1594.324219	1723.439209
23002.352234	3292.089667	1593.283203	1650.240967
23002.352234	3292.089667	1592.242188	1960.436401
23002.352234	3292.089667	1591.200195	1979.080322
23002.352234	3292.089667	1590.159180	1832.570190
23002.352234	3292.089667	1589.117188	1839.844604
23002.352234	3292.089667	1588.075195	1757.710571
23002.352234	3292.089667	1587.032227	1978.330811
23002.352234	3292.089667	1585.990234	1770.196777
23002.352234	3292.089667	1584.947266	1784.522095
23002.352234	3292.089667	1583.904297	1908.897705
23002.352234	3292.089667	1582.861328	1717.071167
23002.352234	3292.089667	1581.818359	1795.696167
23002.352234	3292.089667	1580.775391	1714.013184
23002.352234	3292.089667	1579.731445	1751.482178
23002.352234	3292.089667	1578.687500	1894.312012
23002.352234	3292.089667	1577.643555	1613.661377
23002.352234	3292.089667	1576.598633	1829.800659
23002.352234	3292.089667	1575.554688	1936.096191
23002.352234	3292.089667	1574.509766	1818.199097
23002.352234	3292.089667	1573.464844	1929.141235
23002.352234	3292.089667	1572.419922	1980.645630
23002.352234	3292.089667	1571.374023	1645.779785
23002.352234	3292.089667	1570.329102	1674.593140
23002.352234	3292.089667	1569.283203	1630.313477
23002.352234	3292.089667	1568.237305	1549.559204
23002.352234	3292.089667	1567.191406	1475.762207
23002.352234	3292.089667	1566.144531	1317.538452
23002.352234	3292.089667	1565.098633	1344.445190
23002.352234	3292.089667	1564.051758	1323.453003
23002.352234	3292.089667	1563.004883	1019.477844
23002.352234	3292.089667	1561.957031	1069.451294
23002.352234	3292.089667	1560.910156	1076.141968
23002.352234	3292.089667	1559.862305	893.533813
23002.352234	3292.089667	1558.814453	795.476868
23002.352234	3292.089667	1557.766602	966.648254
23002.352234	3292.089667	1556.718750	688.651550
23002.352234	3292.089667	1555.669922	837.136475
23002.352234	3292.089667	1554.621094	746.328857
23002.352234	3292.089667	1553.573242	965.571411
23002.352234	3292.089667	1552.523438	767.857117
23002.352234	3292.089667	1551.474609	814.054626
23002.352234	3292.089667	1550.424805	659.899109
23002.352234	3292.089667	1549.375000	817.843506
23002.352234	3292.089667	1548.325195	921.181824
23002.352234	3292.089667	1547.275391	837.934753
23002.352234	3292.089667	1546.225586	795.777039
23002.352234	3292.089667	1545.174805	783.297791
23002.352234	3292.089667	1544.124023	864.185547
23002.352234	3292.089667	1543.073242	708.613403
23002.352234	3292.089667	1542.022461	546.381042
23002.352234	3292.089667	1540.970703	691.210632
23002.352234	3292.089667	1539.919922	756.543884
23002.352234	3292.089667	1538.868164	731.042786
23002.352234	3292.089667	1537.815430	771.533875
23002.352234	3292.089667	1536.763672	696.273621
23002.352234	3292.089667	1535.710938	789.203918
23002.352234	3292.089667	1534.659180	745.973328
23002.352234	3292.089667	1533.606445	879.937378
23002.352234	3292.089667	1532.552734	759.727112
23002.352234	3292.089667	1531.500000	1039.094971
23002.352234	3292.089667	1530.446289	841.979980
23002.352234	3292.089667	1529.393555	808.394836
23002.352234	3292.089667	1528.338867	852.027771
23002.352234	3292.089667	1527.285156	875.360291
23002.352234	3292.089667	1526.231445	767.304871
23002.352234	3292.089667	1525.176758	1031.133911
23002.352234	3292.089667	1524.122070	877.988098
23002.352234	3292.089667	1523.067383	845.107483
23002.352234	3292.089667	1522.012695	615.274048
23002.352234	3292.089667	1520.957031	779.732300
23002.352234	3292.089667	1519.901367	862.725830
23002.352234	3292.089667	1518.845703	633.376587
23002.352234	3292.089667	1517.790039	494.781860
23002.352234	3292.089667	1516.734375	483.098694
23002.352234	3292.089667	1515.677734	315.411926
23002.352234	3292.089667	1514.621094	383.184265
23002.352234	3292.089667	1513.564453	349.276733
23002.352234	3292.089667	1512.507813	261.236877
23002.352234	3292.089667	1511.450195	315.784760
23002.352234	3292.089667	1510.393555	341.061493
23002.352234	3292.089667	1509.335938	366.447968
23002.352234	3292.089667	1508.278320	136.628784
23002.352234	3292.089667	1507.219727	22.234535
23002.352234	3292.089667	1506.162109	163.247147
23002.352234	3292.089667	1505.103516	376.589447
23002.352234	3292.089667	1504.044922	95.538246
23002.352234	3292.089667	1502.986328	15.627309
23002.352234	3292.089667	1501.926758	87.081558
23002.352234	3292.089667	1500.868164	145.110092
23002.352234	3292.089667	1499.808594	-8.814224
23002.352234	3292.089667	1498.749023	241.189209
23002.352234	3292.089667	1497.688477	-133.423752
23002.352234	3292.089667	1496.628906	130.303940
23002.352234	3292.089667	1495.568359	333.195740
23002.352234	3292.089667	1494.507813	175.552551
23002.352234	3292.089667	1493.447266	182.597504
23002.352234	3292.089667	1492.386719	97.412025
23002.352234	3292.089667	1491.325195	215.106018
23002.352234	3292.089667	1490.263672	-58.939102
23002.352234	3292.089667	1489.202148	36.503593
23002.352234	3292.089667	1488.140625	39.756744
23002.352234	3292.089667	1487.079102	-8.613879
23002.352234	3292.089667	1486.016602	-7.325934
23002.352234	3292.089667	1484.954102	34.596973
23002.352234	3292.089667	1483.891602	-202.257935
23002.352234	3292.089667	1482.829102	-72.325912
23002.352234	3292.089667	1481.765625	-144.656174
23002.352234	3292.089667	1480.702148	-66.212357
23002.352234	3292.089667	1479.638672	95.512611
23002.352234	3292.089667	1478.575195	-111.201721
23002.352234	3292.089667	1477.511719	55.247406
23002.352234	3292.089667	1476.447266	113.915871
23002.352234	3292.089667	1475.382813	143.538513
23002.352234	3292.089667	1474.318359	319.225861
23002.352234	3292.089667	1473.253906	362.464386
23002.352234	3292.089667	1472.189453	246.657623
23002.352234	3292.089667	1471.124023	191.498734
23002.352234	3292.089667	1470.058594	275.693481
23002.352234	3292.089667	1468.993164	368.805511
23002.352234	3292.089667	1467.927734	240.321167
23002.352234	3292.089667	1466.861328	158.963516
23002.352234	3292.089667	1465.794922	223.301941
23002.352234	3292.089667	1464.728516	612.439026
23002.352234	3292.089667	1463.662109	415.214752
23002.352234	3292.089667	1462.594727	285.632751
23002.352234	3292.089667	1461.528320	232.014908
23002.352234	3292.089667	1460.460938	424.480103
23002.352234	3292.089667	1459.393555	223.571503
23002.352234	3292.089667	1458.326172	508.018555
23002.352234	3292.089667	1457.257813	170.983826
23002.352234	3292.089667	1456.189453	312.953369
23002.352234	3292.089667	1455.121094	258.012085
23002.352234	3292.089667	1454.052734	520.006592
23002.352234	3292.089667	1452.984375	409.740448
23002.352234	3292.089667	1451.915039	430.477478
23002.352234	3292.089667	1450.845703	216.668793
23002.352234	3292.089667	1449.776367	441.541779
23002.352234	3292.089667	1448.707031	264.826782
23002.352234	3292.089667	1447.636719	315.262665
23002.352234	3292.089667	1446.567383	219.577347
23002.352234	3292.089667	1445.497070	488.426605
23002.352234	3292.089667	1444.425781	175.077286
23002.352234	3292.089667	1443.355469	389.654877
23002.352234	3292.089667	1442.285156	140.551743
23002.352234	3292.089667	1441.213867	246.370850
23002.352234	3292.089667	1440.142578	289.414307
23002.352234	3292.089667	1439.070313	343.537262
23002.352234	3292.089667	1437.999023	287.919403
23002.352234	3292.089667	1436.926758	275.071136
23002.352234	3292.089667	1435.854492	70.959061
23002.352234	3292.089667	1434.782227	203.136566
23002.352234	3292.089667	1433.709961	334.222473
23002.352234	3292.089667	1432.636719	305.919250
23002.352234	3292.089667	1431.563477	255.257416
23002.352234	3292.089667	1430.490234	126.991455
23002.352234	3292.089667	1429.416992	113.241096
23002.352234	3292.089667	1428.343750	244.903412
23002.352234	3292.089667	1427.269531	252.500854
23002.352234	3292.089667	1426.195313	95.248695
23002.352234	3292.089667	1425.121094	49.004906
23002.352234	3292.089667	1424.046875	208.638184
23002.352234	3292.089667	1422.971680	178.163635
23002.352234	3292.089667	1421.896484	157.390686
23002.352234	3292.089667	1420.821289	101.115746
23002.352234	3292.089667	1419.746094	69.674248
23002.352234	3292.089667	1418.669922	48.789783
23002.352234	3292.089667	1417.594727	166.570450
23002.352234	3292.089667	1416.518555	157.843872
23002.352234	3292.089667	1415.442383	137.508499
23002.352234	3292.089667	1414.365234	114.813751
23002.352234	3292.089667	1413.289063	80.357887
23002.352234	3292.089667	1412.211914	34.486103
23002.352234	3292.089667	1411.134766	11.905860
23002.352234	3292.089667	1410.057617	102.137070
23002.352234	3292.089667	1408.979492	-18.091763
23002.352234	3292.089667	1407.902344	70.975487
23002.352234	3292.089667	1406.824219	-180.117508
23002.352234	3292.089667	1405.746094	4.883873
23002.352234	3292.089667	1404.666992	169.718353
23002.352234	3292.089667	1403.588867	-125.454689
23002.352234	3292.089667	1402.509766	-149.089661
23002.352234	3292.089667	1401.430664	-154.051620
23002.352234	3292.089667	1400.351563	207.582581
23002.352234	3292.089667	1399.271484	-0.792529
23002.352234	3292.089667	1398.192383	-56.951416
23002.352234	3292.089667	1397.112305	-52.657909
23002.352234	3292.089667	1396.031250	-170.164337
23002.352234	3292.089667	1394.951172	-100.000801
23002.352234	3292.089667	1393.871094	112.585823
23002.352234	3292.089667	1392.790039	56.422371
23002.352234	3292.089667	1391.708984	33.185593
23002.352234	3292.089667	1390.626953	77.572647
23002.352234	3292.089667	1389.545898	173.740692
23002.352234	3292.089667	1388.463867	246.742157
23002.352234	3292.089667	1387.381836	251.849960
23002.352234	3292.089667	1386.299805	264.229309
23002.352234	3292.089667	1385.217773	443.201630
23002.352234	3292.089667	1384.134766	479.275269
23002.352234	3292.089667	1383.051758	379.080048
23002.352234	3292.089667	1381.968750	576.357361
23002.352234	3292.089667	1380.885742	512.219604
23002.352234	3292.089667	1379.802734	392.840729
23002.352234	3292.089667	1378.718750	680.037109
23002.352234	3292.089667	1377.634766	683.647095
23002.352234	3292.089667	1376.550781	718.520264
23002.352234	3292.089667	1375.465820	724.410950
23002.352234	3292.089667	1374.381836	525.135254
23002.352234	3292.089667	1373.296875	705.398804
23002.352234	3292.089667	1372.211914	845.103760
23002.352234	3292.089667	1371.126953	722.037354
23002.352234	3292.089667	1370.041016	743.869263
23002.352234	3292.089667	1368.955078	841.069702
23002.352234	3292.089667	1367.869141	764.531189
23002.352234	3292.089667	1366.783203	762.573181
23002.352234	3292.089667	1365.697266	639.137024
23002.352234	3292.089667	1364.610352	642.414368
23002.352234	3292.089667	1363.523438	638.816345
23002.352234	3292.089667	1362.436523	653.287231
23002.352234	3292.089667	1361.349609	708.847473
23002.352234	3292.089667	1360.261719	614.349304
23002.352234	3292.089667	1359.174805	466.235840
23002.352234	3292.089667	1358.086914	379.778900
23002.352234	3292.089667	1356.998047	577.920044
23002.352234	3292.089667	1355.910156	480.063873
23002.352234	3292.089667	1354.821289	377.817627
23002.352234	3292.089667	1353.732422	372.293610
23002.352234	3292.089667	1352.643555	472.356049
23002.352234	3292.089667	1351.554688	495.515594
23002.352234	3292.089667	1350.464844	594.961060
23002.352234	3292.089667	1349.375000	246.017273
23002.352234	3292.089667	1348.285156	377.435181
23002.352234	3292.089667	1347.195313	453.700012
23002.352234	3292.089667	1346.105469	284.683716
23002.352234	3292.089667	1345.014648	323.139954
23002.352234	3292.089667	1343.923828	165.700775
23002.352234	3292.089667	1342.833008	422.257660
23002.352234	3292.089667	1341.741211	314.693359
23002.352234	3292.089667	1340.650391	463.338745
23002.352234	3292.089667	1339.558594	411.271057
23002.352234	3292.089667	1338.466797	245.769409
23002.352234	3292.089667	1337.374023	399.961914
23002.352234	3292.089667	1336.282227	406.164215
23002.352234	3292.089667	1335.189453	328.295898
23002.352234	3292.089667	1334.096680	420.579132
23002.352234	3292.089667	1333.003906	352.444397
23002.352234	3292.089667	1331.910156	172.595367
23002.352234	3292.089667	1330.817383	296.152649
23002.352234	3292.089667	1329.723633	384.560852
23002.352234	3292.089667	1328.629883	407.607269
23002.352234	3292.089667	1327.535156	333.096375
23002.352234	3292.089667	1326.441406	336.371826
23002.352234	3292.089667	1325.346680	249.174728
23002.352234	3292.089667	1324.251953	399.617188
23002.352234	3292.089667	1323.156250	408.960022
23002.352234	3292.089667	1322.061523	388.354980
23002.352234	3292.089667	1320.965820	245.354187
23002.352234	3292.089667	1319.870117	297.798981
23002.352234	3292.089667	1318.774414	218.601334
23002.352234	3292.089667	1317.678711	290.504181
23002.352234	3292.089667	1316.582031	266.037201
23002.352234	3292.089667	1315.485352	333.377502
23002.352234	3292.089667	1314.388672	323.407715
23002.352234	3292.089667	1313.291016	422.287476
23002.352234	3292.089667	1312.194336	388.078766
23002.352234	3292.089667	1311.096680	448.753540
23002.352234	3292.089667	1309.999023	567.847961
23002.352234	3292.089667	1308.901367	609.901978
23002.352234	3292.089667	1307.802734	652.701355
23002.352234	3292.089667	1306.705078	636.625977
23002.352234	3292.089667	1305.606445	608.384583
23002.352234	3292.089667	1304.506836	699.136230
23002.352234	3292.089667	1303.408203	643.210754
23002.352234	3292.089667	1302.308594	791.541748
23002.352234	3292.089667	1301.208984	680.996094
23002.352234	3292.089667	1300.109375	610.067688
23002.352234	3292.089667	1299.009766	481.210480
23002.352234	3292.089667	1297.909180	558.750732
23002.352234	3292.089667	1296.808594	373.734955
23002.352234	3292.089667	1295.708008	485.899170
23002.352234	3292.089667	1294.607422	427.533325
23002.352234	3292.089667	1293.506836	244.688904
23002.352234	3292.089667	1292.405273	255.877945
23002.352234	3292.089667	1291.303711	254.501205
23002.352234	3292.089667	1290.202148	185.537018
23002.352234	3292.089667	1289.099609	353.734741
23002.352234	3292.089667	1287.998047	346.738647
23002.352234	3292.089667	1286.895508	349.211792
23002.352234	3292.089667	1285.792969	349.062592
23002.352234	3292.089667	1284.689453	363.999542
23002.352234	3292.089667	1283.586914	73.434258
23002.352234	3292.089667	1282.483398	88.617889
23002.352234	3292.089667	1281.379883	33.858208
23002.352234	3292.089667	1280.276367	64.156013
23002.352234	3292.089667	1279.171875	71.010902
23002.352234	3292.089667	1278.067383	30.333132
23002.352234	3292.089667	1276.962891	21.333471
23002.352234	3292.089667	1275.858398	-88.969688
23002.352234	3292.089667	1274.753906	-145.687836
23002.352234	3292.089667	1273.648438	-78.817375
23002.352234	3292.089667	1272.542969	48.225704
23002.352234	3292.089667	1271.437500	29.995941
23002.352234	3292.089667	1270.331055	20.285046
23002.352234	3292.089667	1269.225586	66.667374
23002.352234	3292.089667	1268.119141	164.164001
23002.352234	3292.089667	1267.012695	69.714394
23002.352234	3292.089667	1265.906250	-155.189407
23002.352234	3292.089667	1264.798828	29.314674
23002.352234	3292.089667	1263.691406	11.001046
23002.352234	3292.089667	1262.583984	52.915482
23002.352234	3292.089667	1261.476563	-17.466555
23002.352234	3292.089667	1260.368164	-113.819084
23002.352234	3292.089667	1259.260742	-82.223099
23002.352234	3292.089667	1258.152344	-99.894691
23002.352234	3292.089667	1257.043945	-65.895401
23002.352234	3292.089667	1255.934570	-80.982246
23002.352234	3292.089667	1254.825195	47.793007
23002.352234	3292.089667	1253.716797	32.219448
23002.352234	3292.089667	1252.606445	-9.912308
23002.352234	3292.089667	1251.497070	-51.153770
23002.352234	3292.089667	1250.387695	40.989029
23002.352234	3292.089667	1249.277344	147.283463
23002.352234	3292.089667	1248.166992	57.492294
23002.352234	3292.089667	1247.055664	69.826256
23002.352234	3292.089667	1245.945313	95.440865
23002.352234	3292.089667	1244.833984	83.936356
23002.352234	3292.089667	1243.722656	147.191742
23002.352234	3292.089667	1242.611328	81.374977
23002.352234	3292.089667	1241.499023	-36.482948
23002.352234	3292.089667	1240.387695	-109.615982
23002.352234	3292.089667	1239.275391	-36.798042
23002.352234	3292.089667	1238.162109	-95.685432
23002.352234	3292.089667	1237.049805	-37.630157
23002.352234	3292.089667	1235.936523	36.436558
23002.352234	3292.089667	1234.823242	4.725941
23002.352234	3292.089667	1233.709961	13.835666
23002.352234	3292.089667	1232.596680	75.736465
23002.352234	3292.089667	1231.482422	17.552004
23002.352234	3292.089667	1230.369141	145.946182
23002.352234	3292.089667	1229.253906	81.083794
23002.352234	3292.089667	1228.139648	72.598976
23002.352234	3292.089667	1227.025391	75.096840
23002.352234	3292.089667	1225.910156	135.770294
23002.352234	3292.089667	1224.794922	170.611099
23002.352234	3292.089667	1223.679688	216.575394
23002.352234	3292.089667	1222.563477	-13.775824
23002.352234	3292.089667	1221.447266	97.525879
23002.352234	3292.089667	1220.331055	212.457169
23002.352234	3292.089667	1219.214844	277.108978
23002.352234	3292.089667	1218.098633	258.300781
23002.352234	3292.089667	1216.981445	186.128601
23002.352234	3292.089667	1215.864258	73.199730
23002.352234	3292.089667	1214.747070	131.350266
23002.352234	3292.089667	1213.629883	226.423111
23002.352234	3292.089667	1212.511719	232.451721
23002.352234	3292.089667	1211.393555	178.154861
23002.352234	3292.089667	1210.275391	95.876472
23002.352234	3292.089667	1209.157227	90.064972
23002.352234	3292.089667	1208.038086	109.200958
23002.352234	3292.089667	1206.918945	143.339325
23002.352234	3292.089667	1205.799805	118.802528
23002.352234	3292.089667	1204.680664	-16.165054
23002.352234	3292.089667	1203.560547	135.463913
23002.352234	3292.089667	1202.441406	106.488922
23002.352234	3292.089667	1201.321289	93.991737
23002.352234	3292.089667	1200.200195	132.993973
23002.352234	3292.089667	1199.080078	24.306644
23002.352234	3292.089667	1197.958984	-0.832482
23002.352234	3292.089667	1196.837891	7.243750
23002.352234	3292.089667	1195.716797	-49.049332
23002.352234	3292.089667	1194.594727	-20.927835
23002.352234	3292.089667	1193.473633	-8.483584
23002.352234	3292.089667	1192.351563	30.677536
23002.352234	3292.089667	1191.229492	33.303020
23002.352234	3292.089667	1190.106445	42.373875
23002.352234	3292.089667	1188.984375	63.287460
23002.352234	3292.089667	1187.861328	-32.644978
23002.352234	3292.089667	1186.738281	-59.903255
23002.352234	3292.089667	1185.614258	-3.127621
23002.352234	3292.089667	1184.491211	-141.897339
23002.352234	3292.089667	1183.367188	-113.421524
23002.352234	3292.089667	1182.243164	-157.763275
23002.352234	3292.089667	1181.119141	-103.579887
23002.352234	3292.089667	1179.994141	-178.747177
23002.352234	3292.089667	1178.869141	-119.985748
23002.352234	3292.089667	1177.744141	-30.741947
23002.352234	3292.089667	1176.619141	-58.159363
23002.352234	3292.089667	1175.493164	-12.245337
23002.352234	3292.089667	1174.368164	-63.709442
23002.352234	3292.089667	1173.242188	-115.101036
23002.352234	3292.089667	1172.115234	-220.130753
23002.352234	3292.089667	1170.989258	-49.516068
23002.352234	3292.089667	1169.862305	-21.721226
23002.352234	3292.089667	1168.735352	-72.751892
23002.352234	3292.089667	1167.608398	23.899290
23002.352234	3292.089667	1166.481445	-8.047899
23002.352234	3292.089667	1165.353516	-51.546543
23002.352234	3292.089667	1164.225586	-25.262695
23002.352234	3292.089667	1163.097656	-42.182114
23002.352234	3292.089667	1161.968750	68.751732
23002.352234	3292.089667	1160.840820	-54.671177
23002.352234	3292.089667	1159.711914	-47.353043
23002.352234	3292.089667	1158.583008	-7.806732
23002.352234	3292.089667	1157.453125	65.219879
23002.352234	3292.089667	1156.324219	56.017788
23002.352234	3292.089667	1155.194336	-17.577375
23002.352234	3292.089667	1154.064453	-22.252514
23002.352234	3292.089667	1152.933594	-105.115082
23002.352234	3292.089667	1151.803711	-51.589375
23002.352234	3292.089667	1150.672852	-45.504761
23002.352234	3292.089667	1149.541992	-43.350113
23002.352234	3292.089667	1148.411133	-39.550995
23002.352234	3292.089667	1147.279297	55.548538
23002.352234	3292.089667	1146.147461	151.994507
23002.352234	3292.089667	1145.015625	-33.637646
23002.352234	3292.089667	1143.883789	-15.531768
23002.352234	3292.089667	1142.750977	59.811146
23002.352234	3292.089667	1141.619141	116.041267
23002.352234	3292.089667	1140.486328	217.416061
23002.352234	3292.089667	1139.352539	-31.418867
23002.352234	3292.089667	1138.219727	41.379452
23002.352234	3292.089667	1137.085938	173.311768
23002.352234	3292.089667	1135.952148	125.351547
23002.352234	3292.089667	1134.818359	67.203201
23002.352234	3292.089667	1133.683594	215.473679
23002.352234	3292.089667	1132.549805	322.741058
23002.352234	3292.089667	1131.415039	313.031342
23002.352234	3292.089667	1130.279297	426.727020
23002.352234	3292.089667	1129.144531	393.140472
23002.352234	3292.089667	1128.008789	511.836914
23002.352234	3292.089667	1126.873047	335.110199
23002.352234	3292.089667	1125.737305	403.130676
23002.352234	3292.089667	1124.601563	408.603821
23002.352234	3292.089667	1123.464844	373.893402
23002.352234	3292.089667	1122.328125	501.469879
23002.352234	3292.089667	1121.191406	362.224792
23002.352234	3292.089667	1120.054688	469.725983
23002.352234	3292.089667	1118.916992	479.769623
23002.352234	3292.089667	1117.779297	424.184814
23002.352234	3292.089667	1116.641602	358.318268
23002.352234	3292.089667	1115.503906	374.291565
23002.352234	3292.089667	1114.365234	364.205292
23002.352234	3292.089667	1113.226563	465.455841
23002.352234	3292.089667	1112.087891	394.343475
23002.352234	3292.089667	1110.949219	412.550415
23002.352234	3292.089667	1109.809570	433.051056
23002.352234	3292.089667	1108.669922	364.321625
23002.352234	3292.089667	1107.530273	339.073608
23002.352234	3292.089667	1106.390625	303.315887
23002.352234	3292.089667	1105.250000	473.227203
23002.352234	3292.089667	1104.109375	348.388153
23002.352234	3292.089667	1102.968750	287.152313
23002.352234	3292.089667	1101.828125	279.119873
23002.352234	3292.089667	1100.686523	447.481140
23002.352234	3292.089667	1099.544922	368.246124
23002.352234	3292.089667	1098.403320	248.542435
23002.352234	3292.089667	1097.261719	411.731018
23002.352234	3292.089667	1096.120117	362.044983
23002.352234	3292.089667	1094.977539	330.589752
23002.352234	3292.089667	1093.834961	255.761078
23002.352234	3292.089667	1092.691406	446.511444
23002.352234	3292.089667	1091.548828	201.740494
23002.352234	3292.089667	1090.405273	347.532745
23002.352234	3292.089667	1089.261719	371.603516
23002.352234	3292.089667	1088.118164	442.210327
23002.352234	3292.089667	1086.973633	333.048157
23002.352234	3292.089667	1085.829102	486.687958
23002.352234	3292.089667	1084.684570	443.564575
23002.352234	3292.089667	1083.540039	307.661133
23002.352234	3292.089667	1082.395508	263.033051
23002.352234	3292.089667	1081.250000	376.196289
23002.352234	3292.089667	1080.104492	300.332092
23002.352234	3292.089667	1078.958984	270.873810
23002.352234	3292.089667	1077.812500	336.034973
23002.352234	3292.089667	1076.666016	490.791931
23002.352234	3292.089667	1075.519531	521.687988
23002.352234	3292.089667	1074.373047	485.354309
23002.352234	3292.089667	1073.226563	407.867828
23002.352234	3292.089667	1072.079102	652.609253
23002.352234	3292.089667	1070.931641	514.871277
23002.352234	3292.089667	1069.784180	613.231873
23002.352234	3292.089667	1068.635742	540.247803
23002.352234	3292.089667	1067.487305	500.654327
23002.352234	3292.089667	1066.338867	593.779480
23002.352234	3292.089667	1065.190430	617.949219
23002.352234	3292.089667	1064.041992	596.966248
23002.352234	3292.089667	1062.892578	562.638977
23002.352234	3292.089667	1061.743164	450.224060
23002.352234	3292.089667	1060.593750	413.730621
23002.352234	3292.089667	1059.443359	404.655029
23002.352234	3292.089667	1058.292969	252.374130
23002.352234	3292.089667	1057.142578	139.191071
23002.352234	3292.089667	1055.992188	122.569656
23002.352234	3292.089667	1054.841797	316.928253
23002.352234	3292.089667	1053.690430	324.734131
23002.352234	3292.089667	1052.539063	189.980225
23002.352234	3292.089667	1051.387695	124.997520
23002.352234	3292.089667	1050.235352	185.475800
23002.352234	3292.089667	1049.083984	139.635880
23002.352234	3292.089667	1047.931641	261.146362
23002.352234	3292.089667	1046.778320	62.761009
23002.352234	3292.089667	1045.625977	204.732178
23002.352234	3292.089667	1044.472656	134.410828
23002.352234	3292.089667	1043.319336	191.629227
23002.352234	3292.089667	1042.166016	197.419098
23002.352234	3292.089667	1041.012695	57.788719
23002.352234	3292.089667	1039.858398	108.311234
23002.352234	3292.089667	1038.704102	226.839645
23002.352234	3292.089667	1037.549805	80.813911
23002.352234	3292.089667	1036.394531	227.143433
23002.352234	3292.089667	1035.239258	45.354733
23002.352234	3292.089667	1034.083984	291.408783
23002.352234	3292.089667	1032.928711	191.171295
23002.352234	3292.089667	1031.773438	-11.017373
23002.352234	3292.089667	1030.617188	248.747574
23002.352234	3292.089667	1029.460938	196.517349
23002.352234	3292.089667	1028.304688	259.862762
23002.352234	3292.089667	1027.147461	167.126984
23002.352234	3292.089667	1025.991211	147.690186
23002.352234	3292.089667	1024.833984	254.011505
23002.352234	3292.089667	1023.675781	342.817413
23002.352234	3292.089667	1022.518555	251.217880
23002.352234	3292.089667	1021.360352	314.040436
23002.352234	3292.089667	1020.202148	365.030060
23002.352234	3292.089667	1019.043945	518.845947
23002.352234	3292.089667	1017.884766	374.061920
23002.352234	3292.089667	1016.726563	264.485168
23002.352234	3292.089667	1015.567383	327.023834
23002.352234	3292.089667	1014.407227	175.613342
23002.352234	3292.089667	1013.248047	296.193573
23002.352234	3292.089667	1012.087891	258.446808
23002.352234	3292.089667	1010.927734	327.942139
23002.352234	3292.089667	1009.767578	273.405182
23002.352234	3292.089667	1008.606445	365.064209
23002.352234	3292.089667	1007.446289	468.678772
23002.352234	3292.089667	1006.285156	429.028381
23002.352234	3292.089667	1005.123047	292.936279
23002.352234	3292.089667	1003.961914	144.394714
23002.352234	3292.089667	1002.799805	202.050171
23002.352234	3292.089667	1001.637695	253.752838
23002.352234	3292.089667	1000.475586	335.110718
23002.352234	3292.089667	999.312500	185.994751
23002.352234	3292.089667	998.149414	226.201553
23002.352234	3292.089667	996.986328	252.759537
23002.352234	3292.089667	995.823242	197.258133
23002.352234	3292.089667	994.659180	254.945602
23002.352234	3292.089667	993.496094	230.865677
23002.352234	3292.089667	992.332031	273.568451
23002.352234	3292.089667	991.166992	182.430893
23002.352234	3292.089667	990.002930	199.929016
23002.352234	3292.089667	988.837891	164.336899
23002.352234	3292.089667	987.672852	104.854286
23002.352234	3292.089667	986.506836	96.344429
23002.352234	3292.089667	985.341797	107.959930
23002.352234	3292.089667	984.175781	94.703552
23002.352234	3292.089667	983.009766	22.655569
23002.352234	3292.089667	981.843750	76.895638
23002.352234	3292.089667	980.676758	-91.853767
23002.352234	3292.089667	979.509766	6.354897
23002.352234	3292.089667	978.342773	72.036346
23002.352234	3292.089667	977.175781	156.234116
23002.352234	3292.089667	976.007813	72.126602
23002.352234	3292.089667	974.839844	79.594086
23002.352234	3292.089667	973.671875	17.317295
23002.352234	3292.089667	972.503906	-62.041115
23002.352234	3292.089667	971.334961	140.547256
23002.352234	3292.089667	970.166016	175.904175
23002.352234	3292.089667	968.997070	58.137131
23002.352234	3292.089667	967.828125	16.395094
23002.352234	3292.089667	966.658203	43.482731
23002.352234	3292.089667	965.488281	110.293671
23002.352234	3292.089667	964.318359	69.776222
23002.352234	3292.089667	963.148438	48.460194
23002.352234	3292.089667	961.977539	-49.360104
23002.352234	3292.089667	960.806641	135.671951
23002.352234	3292.089667	959.635742	249.008041
23002.352234	3292.089667	958.463867	11.763198
23002.352234	3292.089667	957.292969	-31.001053
23002.352234	3292.089667	956.121094	131.332489
23002.352234	3292.089667	954.948242	172.117310
23002.352234	3292.089667	953.776367	180.683578
23002.352234	3292.089667	952.603516	76.235786
23002.352234	3292.089667	951.430664	46.299629
23002.352234	3292.089667	950.257813	95.531364
23002.352234	3292.089667	949.084961	161.772797
23002.352234	3292.089667	947.911133	226.623611
23002.352234	3292.089667	946.737305	-44.874817
23002.352234	3292.089667	945.563477	52.889328
23002.352234	3292.089667	944.388672	155.155807
23002.352234	3292.089667	943.213867	128.119370
23002.352234	3292.089667	942.039063	-18.807919
23002.352234	3292.089667	940.864258	263.561920
23002.352234	3292.089667	939.688477	212.236145
23002.352234	3292.089667	938.513672	176.490646
23002.352234	3292.089667	937.337891	136.070419
23002.352234	3292.089667	936.161133	238.232697
23002.352234	3292.089667	934.985352	218.012207
23002.352234	3292.089667	933.808594	184.366776
23002.352234	3292.089667	932.631836	230.724136
23002.352234	3292.089667	931.454102	214.781342
23002.352234	3292.089667	930.277344	227.772949
23002.352234	3292.089667	929.099609	131.893433
23002.352234	3292.089667	927.921875	331.466064
23002.352234	3292.089667	926.743164	382.141968
23002.352234	3292.089667	925.565430	446.125977
23002.352234	3292.089667	924.386719	287.994751
23002.352234	3292.089667	923.208008	236.472473
23002.352234	3292.089667	922.028320	236.033936
23002.352234	3292.089667	920.849609	373.192596
23002.352234	3292.089667	919.669922	374.102692
23002.352234	3292.089667	919.474609	221.945602
23002.352234	3292.089667	918.309570	210.364410
23002.352234	3292.089667	917.143555	101.175262
23002.352234	3292.089667	915.977539	71.861633
23002.352234	3292.089667	914.810547	82.463135
23002.352234	3292.089667	913.644531	44.278923
23002.352234	3292.089667	912.477539	130.222366
23002.352234	3292.089667	911.310547	34.410717
23002.352234	3292.089667	910.143555	-43.645473
23002.352234	3292.089667	908.975586	-115.032639
23002.352234	3292.089667	907.807617	-2.583225
23002.352234	3292.089667	906.639648	89.885178
23002.352234	3292.089667	905.471680	18.491976
23002.352234	3292.089667	904.303711	-1.973507
23002.352234	3292.089667	903.134766	172.292862
23002.352234	3292.089667	901.965820	-60.597534
23002.352234	3292.089667	900.796875	-14.695215
23002.352234	3292.089667	899.626953	185.986511
23002.352234	3292.089667	898.457031	121.256821
23002.352234	3292.089667	897.287109	-25.243954
23002.352234	3292.089667	896.117188	108.996613
23002.352234	3292.089667	894.947266	-2.097933
23002.352234	3292.089667	893.776367	101.144119
23002.352234	3292.089667	892.605469	155.745773
23002.352234	3292.089667	891.434570	280.987488
23002.352234	3292.089667	890.262695	192.009674
23002.352234	3292.089667	889.091797	171.493439
23002.352234	3292.089667	887.919922	296.642273
23002.352234	3292.089667	886.748047	201.083206
23002.352234	3292.089667	885.575195	136.445343
23002.352234	3292.089667	884.403320	102.708138
23002.352234	3292.089667	883.230469	181.445648
23002.352234	3292.089667	882.057617	-11.034017
23002.352234	3292.089667	880.883789	151.450516
23002.352234	3292.089667	879.710938	20.756100
23002.352234	3292.089667	878.537109	-96.667282
23002.352234	3292.089667	877.362305	-187.610077
23002.352234	3292.089667	876.188477	109.115631
23002.352234	3292.089667	875.013672	-43.494328
23002.352234	3292.089667	873.839844	-19.920019
23002.352234	3292.089667	872.664063	-57.988304
23002.352234	3292.089667	871.489258	-25.623182
23002.352234	3292.089667	870.313477	79.333733
23002.352234	3292.089667	869.138672	-167.718246
23002.352234	3292.089667	867.962891	-40.787254
23002.352234	3292.089667	866.786133	-105.211655
23002.352234	3292.089667	865.610352	28.244272
23002.352234	3292.089667	864.433594	-33.975494
23002.352234	3292.089667	863.256836	-98.370041
23002.352234	3292.089667	862.079102	-158.346069
23002.352234	3292.089667	860.902344	-51.357800
23002.352234	3292.089667	859.724609	-32.262096
23002.352234	3292.089667	858.546875	-87.831505
23002.352234	3292.089667	857.368164	8.092674
23002.352234	3292.089667	856.190430	-86.974571
23002.352234	3292.089667	855.011719	-59.120617
23002.352234	3292.089667	853.833008	-90.516953
23002.352234	3292.089667	852.654297	-56.099693
23002.352234	3292.089667	851.474609	-201.525620
23002.352234	3292.089667	850.294922	-147.372498
23002.352234	3292.089667	849.115234	51.434761
23002.352234	3292.089667	847.935547	-1.884208
23002.352234	3292.089667	846.754883	10.551849
23002.352234	3292.089667	845.575195	22.978600
23002.352234	3292.089667	844.393555	-58.785660
23002.352234	3292.089667	843.212891	-171.179123
23002.352234	3292.089667	842.032227	-44.884514
23002.352234	3292.089667	840.850586	-14.960091
23002.352234	3292.089667	839.668945	-70.404076
23002.352234	3292.089667	838.486328	-143.333817
23002.352234	3292.089667	837.304688	153.467316
23002.352234	3292.089667	836.122070	-26.659092
23002.352234	3292.089667	834.939453	-123.621414
23002.352234	3292.089667	833.756836	207.957596
23002.352234	3292.089667	832.573242	78.189537
23002.352234	3292.089667	831.389648	-25.306658
23002.352234	3292.089667	830.206055	-111.287064
23002.352234	3292.089667	829.022461	-57.433060
23002.352234	3292.089667	827.838867	42.256596
23002.352234	3292.089667	826.654297	-76.456665
23002.352234	3292.089667	825.469727	51.563175
23002.352234	3292.089667	824.284180	55.111717
23002.352234	3292.089667	823.099609	-30.819017
23002.352234	3292.089667	821.914063	14.183193
23002.352234	3292.089667	820.728516	17.714325
23002.352234	3292.089667	819.542969	-24.562330
23002.352234	3292.089667	818.356445	20.386551
23002.352234	3292.089667	817.169922	-21.889936
23002.352234	3292.089667	815.983398	-114.287109
23002.352234	3292.089667	814.796875	-126.030861
23002.352234	3292.089667	813.609375	-139.957550
23002.352234	3292.089667	812.422852	-27.555544
23002.352234	3292.089667	811.235352	-2.318583
23002.352234	3292.089667	810.046875	42.492733
23002.352234	3292.089667	808.859375	-126.052811
23002.352234	3292.089667	807.670898	-96.491493
23002.352234	3292.089667	806.482422	-32.139923
23002.352234	3292.089667	805.293945	-61.371494
23002.352234	3292.089667	804.104492	-25.353260
23002.352234	3292.089667	802.915039	1.938999
23002.352234	3292.089667	801.725586	77.037148
23002.352234	3292.089667	800.536133	84.706917
23002.352234	3292.089667	799.345703	9.777780
23002.352234	3292.089667	798.155273	69.576225
23002.352234	3292.089667	796.964844	166.263977
23002.352234	3292.089667	795.774414	286.787415
23002.352234	3292.089667	794.583008	294.331879
23002.352234	3292.089667	793.392578	86.931747
23002.352234	3292.089667	792.200195	81.458733
23002.352234	3292.089667	791.008789	62.950436
23002.352234	3292.089667	789.816406	-1.128859
23002.352234	3292.089667	788.625000	47.596577
23002.352234	3292.089667	787.432617	33.390770
23002.352234	3292.089667	786.239258	-35.033859
23002.352234	3292.089667	785.046875	-34.079823
23002.352234	3292.089667	783.853516	75.222855
23002.352234	3292.089667	782.660156	71.780869
23002.352234	3292.089667	781.465820	120.314507
23002.352234	3292.089667	780.272461	60.506348
23002.352234	3292.089667	779.078125	93.821335
23002.352234	3292.089667	777.883789	124.935249
23002.352234	3292.089667	776.688477	101.896927
23002.352234	3292.089667	775.494141	113.473045
23002.352234	3292.089667	774.298828	94.728012
23002.352234	3292.089667	773.103516	168.990021
23002.352234	3292.089667	771.907227	-100.699524
23002.352234	3292.089667	770.711914	-119.460991
23002.352234	3292.089667	769.515625	2.288409
23002.352234	3292.089667	768.318359	76.407532
23002.352234	3292.089667	767.122070	68.348854
23002.352234	3292.089667	765.924805	-78.012955
23002.352234	3292.089667	764.727539	108.325699
23002.352234	3292.089667	763.530273	-31.559471
23002.352234	3292.089667	762.333008	55.309566
23002.352234	3292.089667	761.134766	-62.975178
23002.352234	3292.089667	759.936523	2.222305
23002.352234	3292.089667	758.738281	52.257496
23002.352234	3292.089667	757.540039	-3.474571
23002.352234	3292.089667	756.340820	171.587250
23002.352234	3292.089667	755.141602	126.573692
23002.352234	3292.089667	753.942383	241.101471
23002.352234	3292.089667	752.742188	77.466026
23002.352234	3292.089667	751.541992	94.905098
23002.352234	3292.089667	750.341797	17.493408
23002.352234	3292.089667	749.141602	-139.629379
23002.352234	3292.089667	747.941406	-87.794769
23002.352234	3292.089667	746.740234	11.358942
23002.352234	3292.089667	745.539063	20.010553
23002.352234	3292.089667	744.337891	-40.258366
23002.352234	3292.089667	743.135742	73.780518
23002.352234	3292.089667	741.933594	71.546333
23002.352234	3292.089667	740.731445	-1.712849
23002.352234	3292.089667	739.529297	-1.853930
23002.352234	3292.089667	738.326172	23.769781
23002.352234	3292.089667	737.124023	-0.101812
23002.352234	3292.089667	735.919922	49.075695
23002.352234	3292.089667	734.716797	205.640793
23002.352234	3292.089667	733.513672	226.745529
23002.352234	3292.089667	732.309570	148.990082
23002.352234	3292.089667	731.105469	107.735237
23002.352234	3292.089667	729.900391	49.277905
23002.352234	3292.089667	728.696289	25.151903
23002.352234	3292.089667	727.491211	149.083237
23002.352234	3292.089667	726.286133	32.591076
23002.352234	3292.089667	725.080078	66.277359
23002.352234	3292.089667	723.874023	91.326370
23002.352234	3292.089667	722.668945	120.611023
23002.352234	3292.089667	721.461914	42.635998
23002.352234	3292.089667	720.255859	67.540848
23002.352234	3292.089667	719.048828	13.094095
23002.352234	3292.089667	717.841797	-11.379148
23002.352234	3292.089667	716.634766	-125.860695
23002.352234	3292.089667	715.427734	-71.141930
23002.352234	3292.089667	714.219727	-129.983490
23002.352234	3292.089667	713.011719	-180.284698
23002.352234	3292.089667	711.803711	51.921890
23002.352234	3292.089667	710.594727	-15.613245
23002.352234	3292.089667	709.385742	6.691181
23002.352234	3292.089667	708.176758	-39.513298
23002.352234	3292.089667	706.967773	72.510796
23002.352234	3292.089667	705.758789	19.799295
23002.352234	3292.089667	704.548828	11.950199
23002.352234	3292.089667	703.338867	44.662205
23002.352234	3292.089667	702.127930	66.624077
23002.352234	3292.089667	700.917969	103.482803
23002.352234	3292.089667	699.707031	178.719193
23002.352234	3292.089667	698.496094	55.273361
23002.352234	3292.089667	697.285156	59.929230
23002.352234	3292.089667	696.073242	224.622971
23002.352234	3292.089667	694.861328	143.769913
23002.352234	3292.089667	693.649414	150.379150
23002.352234	3292.089667	692.436523	69.468269
23002.352234	3292.089667	691.224609	186.889603
23002.352234	3292.089667	690.011719	58.987137
23002.352234	3292.089667	688.798828	95.240456
23002.352234	3292.089667	687.584961	-22.040966
23002.352234	3292.089667	686.372070	141.966263
23002.352234	3292.089667	685.158203	126.882721
23002.352234	3292.089667	683.943359	248.074860
23002.352234	3292.089667	682.729492	162.588013
23002.352234	3292.089667	681.514648	194.186111
23002.352234	3292.089667	680.299805	257.647919
23002.352234	3292.089667	679.084961	261.435272
23002.352234	3292.089667	677.869141	282.186493
23002.352234	3292.089667	676.653320	379.460846
23002.352234	3292.089667	675.437500	98.039948
23002.352234	3292.089667	674.221680	303.653809
23002.352234	3292.089667	673.004883	279.507996
23002.352234	3292.089667	671.789063	132.034042
23002.352234	3292.089667	670.571289	-47.316380
23002.352234	3292.089667	669.354492	51.695496
23002.352234	3292.089667	668.136719	84.754181
23002.352234	3292.089667	666.919922	158.099655
23002.352234	3292.089667	665.701172	154.911209
23002.352234	3292.089667	664.483398	217.482834
23002.352234	3292.089667	663.264648	279.969482
23002.352234	3292.089667	662.045898	204.442261
23002.352234	3292.089667	660.827148	279.524811
23002.352234	3292.089667	659.608398	180.586914
23002.352234	3292.089667	658.388672	104.960312
23002.352234	3292.089667	657.168945	131.083023
23002.352234	3292.089667	655.949219	288.567078
23002.352234	3292.089667	654.728516	185.247025
23002.352234	3292.089667	653.507813	255.666077
23002.352234	3292.089667	652.287109	222.197021
23002.352234	3292.089667	651.066406	241.638443
23002.352234	3292.089667	649.844727	305.483521
23002.352234	3292.089667	648.623047	354.427521
23002.352234	3292.089667	647.401367	490.081573
23002.352234	3292.089667	646.179688	350.516815
23002.352234	3292.089667	644.957031	483.888916
23002.352234	3292.089667	643.734375	564.269348
23002.352234	3292.089667	642.511719	490.177979
23002.352234	3292.089667	641.289063	690.941833
23002.352234	3292.089667	640.065430	665.369446
23002.352234	3292.089667	638.841797	565.783325
23002.352234	3292.089667	637.618164	628.896423
23002.352234	3292.089667	636.393555	459.538544
23002.352234	3292.089667	635.168945	435.943176
23002.352234	3292.089667	633.944336	224.363724
23002.352234	3292.089667	632.719727	143.725479
23002.352234	3292.089667	631.494141	259.377258
23002.352234	3292.089667	630.269531	351.722076
23002.352234	3292.089667	629.042969	370.123627
23002.352234	3292.089667	627.817383	316.751556
23002.352234	3292.089667	626.590820	206.406830
23002.352234	3292.089667	625.365234	239.452835
23002.352234	3292.089667	624.137695	211.294373
23002.352234	3292.089667	622.911133	147.276398
23002.352234	3292.089667	621.683594	184.386230
23002.352234	3292.089667	620.456055	-39.809513
23002.352234	3292.089667	619.228516	43.578545
23002.352234	3292.089667	618.000977	200.596008
23002.352234	3292.089667	616.772461	56.417671
23002.352234	3292.089667	615.543945	244.854996
23002.352234	3292.089667	614.314453	100.642784
23002.352234	3292.089667	613.085938	145.830261
23002.352234	3292.089667	611.856445	-97.250916
23002.352234	3292.089667	610.626953	69.866203
23002.352234	3292.089667	609.397461	-91.160835
23002.352234	3292.089667	608.166992	10.633668
23002.352234	3292.089667	606.936523	-81.025887
23002.352234	3292.089667	605.706055	-63.404743
23002.352234	3292.089667	604.474609	-22.718866
23002.352234	3292.089667	603.244141	-5.184104
23002.352234	3292.089667	602.012695	-4.494468
23002.352234	3292.089667	600.780273	86.444649
23002.352234	3292.089667	599.548828	-87.182510
23002.352234	3292.089667	598.316406	-225.090561
23002.352234	3292.089667	597.083984	-132.150986
23002.352234	3292.089667	595.851563	-89.627914
23002.352234	3292.089667	594.618164	-149.928772
23002.352234	3292.089667	593.384766	87.544304
23002.352234	3292.089667	592.151367	209.581406
23002.352234	3292.089667	590.917969	226.738770
23002.352234	3292.089667	589.683594	258.530853
23002.352234	3292.089667	588.449219	323.811981
23002.352234	3292.089667	587.214844	403.708221
23002.352234	3292.089667	585.979492	368.359100
23002.352234	3292.089667	584.745117	508.897125
23002.352234	3292.089667	583.509766	356.274445
23002.352234	3292.089667	582.273438	325.088440
23002.352234	3292.089667	581.038086	147.429199
23002.352234	3292.089667	579.801758	222.969620
23002.352234	3292.089667	578.565430	290.098877
23002.352234	3292.089667	577.329102	258.902649
23002.352234	3292.089667	576.091797	154.528214
23002.352234	3292.089667	574.854492	142.163162
23002.352234	3292.089667	573.617188	-1.864619
23002.352234	3292.089667	572.378906	90.260155
23002.352234	3292.089667	571.141602	142.655670
23002.352234	3292.089667	569.903320	155.338028
23002.352234	3292.089667	568.664063	195.152222
23002.352234	3292.089667	567.425781	126.397118
23002.352234	3292.089667	566.186523	82.711914
23002.352234	3292.089667	564.947266	135.036224
23002.352234	3292.089667	563.708008	76.767799
23002.352234	3292.089667	562.467773	72.754715
23002.352234	3292.089667	561.227539	143.822357
23002.352234	3292.089667	559.987305	250.310379
23002.352234	3292.089667	558.747070	152.478851
23002.352234	3292.089667	557.505859	210.997192
23002.352234	3292.089667	556.264648	138.233231
23002.352234	3292.089667	555.023438	242.581345
23002.352234	3292.089667	553.781250	38.648979
23002.352234	3292.089667	552.539063	59.704327
23002.352234	3292.089667	551.296875	99.502579
23002.352234	3292.089667	550.054688	47.719349
23002.352234	3292.089667	548.811523	8.457262
23002.352234	3292.089667	547.569336	54.536411
23002.352234	3292.089667	546.325195	169.248001
23002.352234	3292.089667	545.082031	148.763351
23002.352234	3292.089667	543.837891	138.701050
23002.352234	3292.089667	542.593750	120.353081
23002.352234	3292.089667	541.349609	287.004395
23002.352234	3292.089667	540.105469	21.424274
23002.352234	3292.089667	538.860352	144.450867
23002.352234	3292.089667	537.615234	84.684113
23002.352234	3292.089667	536.369141	2.127679
23002.352234	3292.089667	535.124023	79.498611
23002.352234	3292.089667	533.877930	-25.787308
23002.352234	3292.089667	532.631836	-72.889542
23002.352234	3292.089667	531.384766	-68.073395
23002.352234	3292.089667	530.138672	-150.335999
23002.352234	3292.089667	528.891602	-112.249161
23002.352234	3292.089667	527.643555	-107.317528
23002.352234	3292.089667	526.396484	-67.103409
23002.352234	3292.089667	525.148438	95.406967
23002.352234	3292.089667	523.900391	-110.933510
23002.352234	3292.089667	522.652344	-225.990997
23002.352234	3292.089667	521.403320	-19.931065
23002.352234	3292.089667	520.154297	-85.175911
23002.352234	3292.089667	518.905273	-121.362755
23002.352234	3292.089667	517.656250	16.378963
23002.352234	3292.089667	516.406250	-23.860903
23002.352234	3292.089667	515.156250	-53.689384
23002.352234	3292.089667	513.906250	-0.715015
23002.352234	3292.089667	512.655273	-61.458260
23002.352234	3292.089667	511.404297	12.270019
23002.352234	3292.089667	510.153320	-77.285301
23002.352234	3292.089667	508.902344	-77.879852
23002.352234	3292.089667	507.650391	-86.688866
23002.352234	3292.089667	506.398438	-29.333094
23002.352234	3292.089667	505.146484	32.184631
23002.352234	3292.089667	503.893555	-48.752308
23002.352234	3292.089667	502.641602	37.630016
23002.352234	3292.089667	501.388672	64.171509
23002.352234	3292.089667	500.134766	-107.349937
23002.352234	3292.089667	498.881836	-84.799004
23002.352234	3292.089667	497.627930	-37.450397
23002.352234	3292.089667	496.374023	-82.865555
23002.352234	3292.089667	495.119141	90.347672
23002.352234	3292.089667	493.865234	78.025177
23002.352234	3292.089667	492.610352	30.727865
23002.352234	3292.089667	491.355469	-59.759933
23002.352234	3292.089667	490.099609	-73.930878
23002.352234	3292.089667	488.843750	39.658802
23002.352234	3292.089667	487.587891	112.076317
23002.352234	3292.089667	486.332031	46.587532
23002.352234	3292.089667	485.075195	40.872566
23002.352234	3292.089667	483.818359	-20.343052
23002.352234	3292.089667	482.561523	-30.039282
23002.352234	3292.089667	481.304688	102.255020
23002.352234	3292.089667	480.046875	53.574837
23002.352234	3292.089667	478.789063	111.886887
23002.352234	3292.089667	477.531250	-16.831583
23002.352234	3292.089667	476.272461	115.564156
23002.352234	3292.089667	475.013672	106.180565
23002.352234	3292.089667	473.754883	49.605457
23002.352234	3292.089667	472.496094	-52.077827
23002.352234	3292.089667	471.236328	57.830414
23002.352234	3292.089667	469.976563	171.846725
23002.352234	3292.089667	468.716797	232.496536
23002.352234	3292.089667	467.456055	110.530151
23002.352234	3292.089667	466.196289	253.323135
23002.352234	3292.089667	464.935547	186.874512
23002.352234	3292.089667	463.673828	212.776779
23002.352234	3292.089667	462.413086	130.044098
23002.352234	3292.089667	461.151367	274.915619
23002.352234	3292.089667	459.889648	159.484329
23002.352234	3292.089667	458.626953	87.162064
23002.352234	3292.089667	457.364258	213.608429
23002.352234	3292.089667	456.101563	213.046890
23002.352234	3292.089667	454.838867	312.844849
23002.352234	3292.089667	453.575195	312.307220
23002.352234	3292.089667	452.312500	276.996155
23002.352234	3292.089667	451.047852	323.564819
23002.352234	3292.089667	449.784180	214.642639
23002.352234	3292.089667	448.519531	257.136322
23002.352234	3292.089667	447.254883	244.402863
23002.352234	3292.089667	445.990234	250.078232
23002.352234	3292.089667	444.725586	306.851868
23002.352234	3292.089667	443.459961	287.977295
23002.352234	3292.089667	442.194336	168.983734
23002.352234	3292.089667	440.927734	254.302567
23002.352234	3292.089667	439.662109	353.863892
23002.352234	3292.089667	438.395508	128.696075
23002.352234	3292.089667	437.127930	215.936249
23002.352234	3292.089667	435.861328	284.738159
23002.352234	3292.089667	434.593750	365.712097
23002.352234	3292.089667	433.326172	297.678040
23002.352234	3292.089667	432.058594	292.853058
23002.352234	3292.089667	430.790039	243.108704
23002.352234	3292.089667	429.521484	331.961761
23002.352234	3292.089667	428.252930	178.143326
23002.352234	3292.089667	426.984375	230.145920
23002.352234	3292.089667	425.714844	365.578339
23002.352234	3292.089667	424.445313	254.382034
23002.352234	3292.089667	423.174805	363.087097
23002.352234	3292.089667	421.905273	353.547699
23002.352234	3292.089667	420.634766	443.647980
23002.352234	3292.089667	419.364258	486.779449
23002.352234	3292.089667	418.092773	385.289215
23002.352234	3292.089667	416.822266	501.389160
23002.352234	3292.089667	415.550781	485.085693
23002.352234	3292.089667	414.278320	310.019073
23002.352234	3292.089667	413.006836	464.225281
23002.352234	3292.089667	411.734375	388.503235
23002.352234	3292.089667	410.461914	448.788208
23002.352234	3292.089667	409.188477	478.375366
23002.352234	3292.089667	407.916016	361.498413
23002.352234	3292.089667	406.642578	337.874420
23002.352234	3292.089667	405.368164	194.238754
23002.352234	3292.089667	404.094727	371.170898
23002.352234	3292.089667	402.820313	403.678009
23002.352234	3292.089667	401.545898	362.865875
23002.352234	3292.089667	400.270508	394.827515
23002.352234	3292.089667	398.996094	460.977234
23002.352234	3292.089667	397.720703	405.130829
23002.352234	3292.089667	396.444336	328.721039
23002.352234	3292.089667	395.168945	509.443268
23002.352234	3292.089667	393.892578	270.269135
23002.352234	3292.089667	392.616211	515.065247
23002.352234	3292.089667	391.339844	206.409241
23002.352234	3292.089667	390.062500	225.571503
23002.352234	3292.089667	388.785156	426.552185
23002.352234	3292.089667	387.507813	388.173859
23002.352234	3292.089667	386.229492	383.782043
23002.352234	3292.089667	384.951172	350.620789
23002.352234	3292.089667	383.672852	325.105713
23002.352234	3292.089667	382.394531	319.349335
23002.352234	3292.089667	381.115234	319.156616
23002.352234	3292.089667	379.835938	316.429108
23002.352234	3292.089667	378.556641	242.429871
23002.352234	3292.089667	377.277344	279.052551
23002.352234	3292.089667	375.997070	446.396637
23002.352234	3292.089667	374.716797	546.422607
23002.352234	3292.089667	373.435547	389.317444
23002.352234	3292.089667	372.155273	259.926971
23002.352234	3292.089667	370.874023	180.391327
23002.352234	3292.089667	369.591797	289.902130
23002.352234	3292.089667	368.310547	525.795532
23002.352234	3292.089667	367.028320	419.942474
23002.352234	3292.089667	365.746094	436.417267
23002.352234	3292.089667	364.463867	502.525879
23002.352234	3292.089667	363.180664	559.735779
23002.352234	3292.089667	361.897461	410.528717
23002.352234	3292.089667	360.614258	413.687561
23002.352234	3292.089667	359.330078	351.493805
23002.352234	3292.089667	358.045898	310.588470
23002.352234	3292.089667	356.761719	228.506866
23002.352234	3292.089667	355.477539	354.893097
23002.352234	3292.089667	354.192383	425.882019
23002.352234	3292.089667	352.907227	363.017487
23002.352234	3292.089667	351.622070	204.585510
23002.352234	3292.089667	350.336914	226.194748
23002.352234	3292.089667	349.050781	83.779236
23002.352234	3292.089667	347.764648	229.832748
23002.352234	3292.089667	346.477539	20.843964
23002.352234	3292.089667	345.191406	114.257210
23002.352234	3292.089667	343.904297	37.597046
23002.352234	3292.089667	342.616211	130.438354
23002.352234	3292.089667	341.329102	77.370628
23002.352234	3292.089667	340.041016	47.066147
23002.352234	3292.089667	338.752930	145.904190
23002.352234	3292.089667	337.463867	84.704842
23002.352234	3292.089667	336.175781	54.236855
23002.352234	3292.089667	334.886719	34.312885
23002.352234	3292.089667	333.596680	-17.238661
23002.352234	3292.089667	332.307617	-114.401390
23002.352234	3292.089667	331.017578	-90.850060
23002.352234	3292.089667	329.727539	33.288342
23002.352234	3292.089667	328.436523	101.546303
23002.352234	3292.089667	327.146484	-152.479828
23002.352234	3292.089667	325.855469	-87.687630
23002.352234	3292.089667	324.563477	-62.825821
23002.352234	3292.089667	323.272461	-71.815933
23002.352234	3292.089667	321.980469	9.342224
23002.352234	3292.089667	320.688477	-97.609634
23002.352234	3292.089667	319.395508	37.566433
23002.352234	3292.089667	318.103516	-17.354427
23002.352234	3292.089667	316.810547	-54.389935
23002.352234	3292.089667	315.516602	144.361984
23002.352234	3292.089667	314.223633	-0.976906
23002.352234	3292.089667	312.929688	-124.563423
23002.352234	3292.089667	311.635742	-86.522377
23002.352234	3292.089667	310.340820	-222.728134
23002.352234	3292.089667	309.045898	158.073929
23002.352234	3292.089667	307.750977	204.738312
23002.352234	3292.089667	306.456055	-60.608841
23002.352234	3292.089667	305.160156	-68.974144
23002.352234	3292.089667	303.865234	79.765610
23002.352234	3292.089667	302.568359	83.938789
23002.352234	3292.089667	301.272461	306.864868
23002.352234	3292.089667	299.975586	289.466644
23002.352234	3292.089667	298.678711	408.780365
