#X		#Y		#Wave		#Intensity
23205.596064	2442.362000	1999.980469	-41.610119
23205.596064	2442.362000	1999.016602	-27.277924
23205.596064	2442.362000	1998.052734	77.022591
23205.596064	2442.362000	1997.087891	-101.908081
23205.596064	2442.362000	1996.123047	80.288155
23205.596064	2442.362000	1995.158203	194.872330
23205.596064	2442.362000	1994.193359	-30.541452
23205.596064	2442.362000	1993.228516	-142.583603
23205.596064	2442.362000	1992.262695	-37.298756
23205.596064	2442.362000	1991.297852	-4.434562
23205.596064	2442.362000	1990.332031	-182.501541
23205.596064	2442.362000	1989.366211	269.936371
23205.596064	2442.362000	1988.399414	53.707741
23205.596064	2442.362000	1987.433594	143.757370
23205.596064	2442.362000	1986.466797	114.580574
23205.596064	2442.362000	1985.500977	280.264038
23205.596064	2442.362000	1984.534180	309.462524
23205.596064	2442.362000	1983.567383	71.261482
23205.596064	2442.362000	1982.599609	67.494278
23205.596064	2442.362000	1981.632813	-119.533310
23205.596064	2442.362000	1980.665039	-136.433258
23205.596064	2442.362000	1979.697266	-17.871536
23205.596064	2442.362000	1978.729492	1.498325
23205.596064	2442.362000	1977.761719	-226.391571
23205.596064	2442.362000	1976.792969	7.071022
23205.596064	2442.362000	1975.825195	45.135918
23205.596064	2442.362000	1974.856445	151.964050
23205.596064	2442.362000	1973.887695	-222.639557
23205.596064	2442.362000	1972.918945	85.864990
23205.596064	2442.362000	1971.949219	-22.811560
23205.596064	2442.362000	1970.980469	250.470840
23205.596064	2442.362000	1970.010742	-21.432131
23205.596064	2442.362000	1969.041016	256.175201
23205.596064	2442.362000	1968.071289	205.680862
23205.596064	2442.362000	1967.101563	246.144501
23205.596064	2442.362000	1966.130859	69.595955
23205.596064	2442.362000	1965.161133	89.946030
23205.596064	2442.362000	1964.190430	124.870148
23205.596064	2442.362000	1963.219727	58.649693
23205.596064	2442.362000	1962.249023	270.440613
23205.596064	2442.362000	1961.277344	216.180679
23205.596064	2442.362000	1960.306641	378.322296
23205.596064	2442.362000	1959.334961	134.315140
23205.596064	2442.362000	1958.363281	-16.272631
23205.596064	2442.362000	1957.391602	305.254700
23205.596064	2442.362000	1956.419922	154.432434
23205.596064	2442.362000	1955.447266	55.174610
23205.596064	2442.362000	1954.474609	-26.951000
23205.596064	2442.362000	1953.501953	-77.202736
23205.596064	2442.362000	1952.529297	66.574898
23205.596064	2442.362000	1951.556641	72.640686
23205.596064	2442.362000	1950.583984	29.497339
23205.596064	2442.362000	1949.610352	96.799210
23205.596064	2442.362000	1948.636719	-56.964748
23205.596064	2442.362000	1947.663086	204.117722
23205.596064	2442.362000	1946.689453	37.995754
23205.596064	2442.362000	1945.715820	158.981583
23205.596064	2442.362000	1944.741211	277.419678
23205.596064	2442.362000	1943.767578	231.426117
23205.596064	2442.362000	1942.792969	97.121506
23205.596064	2442.362000	1941.818359	178.611053
23205.596064	2442.362000	1940.842773	108.043037
23205.596064	2442.362000	1939.868164	108.560417
23205.596064	2442.362000	1938.892578	101.704735
23205.596064	2442.362000	1937.916992	168.342331
23205.596064	2442.362000	1936.941406	-169.263077
23205.596064	2442.362000	1935.965820	78.626663
23205.596064	2442.362000	1934.990234	150.103058
23205.596064	2442.362000	1934.013672	-8.595080
23205.596064	2442.362000	1933.037109	-25.252546
23205.596064	2442.362000	1932.060547	-154.481430
23205.596064	2442.362000	1931.083984	17.328669
23205.596064	2442.362000	1930.107422	-111.840881
23205.596064	2442.362000	1929.129883	277.623016
23205.596064	2442.362000	1928.153320	273.211090
23205.596064	2442.362000	1927.175781	156.339951
23205.596064	2442.362000	1926.198242	171.549896
23205.596064	2442.362000	1925.219727	-113.868690
23205.596064	2442.362000	1924.242188	-17.919973
23205.596064	2442.362000	1923.263672	-41.705238
23205.596064	2442.362000	1922.285156	-70.337158
23205.596064	2442.362000	1921.306641	-409.120758
23205.596064	2442.362000	1920.328125	82.533363
23205.596064	2442.362000	1919.349609	-99.826553
23205.596064	2442.362000	1918.370117	-91.680298
23205.596064	2442.362000	1917.391602	221.576035
23205.596064	2442.362000	1916.412109	102.844704
23205.596064	2442.362000	1915.431641	45.187283
23205.596064	2442.362000	1914.452148	194.925888
23205.596064	2442.362000	1913.472656	-155.304520
23205.596064	2442.362000	1912.492188	-22.572033
23205.596064	2442.362000	1911.511719	66.270767
23205.596064	2442.362000	1910.531250	-13.062819
23205.596064	2442.362000	1909.550781	124.566200
23205.596064	2442.362000	1908.569336	40.462543
23205.596064	2442.362000	1907.588867	66.054482
23205.596064	2442.362000	1906.607422	-20.359432
23205.596064	2442.362000	1905.625977	49.152573
23205.596064	2442.362000	1904.644531	138.156769
23205.596064	2442.362000	1903.662109	-40.597012
23205.596064	2442.362000	1902.680664	53.342068
23205.596064	2442.362000	1901.698242	-71.713753
23205.596064	2442.362000	1900.715820	-14.214178
23205.596064	2442.362000	1899.733398	-2.913636
23205.596064	2442.362000	1898.750000	-88.855453
23205.596064	2442.362000	1897.767578	180.275665
23205.596064	2442.362000	1896.784180	-90.352524
23205.596064	2442.362000	1895.800781	-52.155136
23205.596064	2442.362000	1894.817383	-1.783424
23205.596064	2442.362000	1893.833984	-165.207077
23205.596064	2442.362000	1892.850586	-114.763008
23205.596064	2442.362000	1891.866211	-6.012329
23205.596064	2442.362000	1890.881836	32.309048
23205.596064	2442.362000	1889.897461	150.768311
23205.596064	2442.362000	1888.913086	-68.200195
23205.596064	2442.362000	1887.927734	186.205597
23205.596064	2442.362000	1886.943359	-47.190670
23205.596064	2442.362000	1885.958008	-110.644951
23205.596064	2442.362000	1884.972656	-106.135857
23205.596064	2442.362000	1883.987305	24.505079
23205.596064	2442.362000	1883.001953	89.653297
23205.596064	2442.362000	1882.015625	99.038490
23205.596064	2442.362000	1881.029297	-114.548698
23205.596064	2442.362000	1880.042969	74.235817
23205.596064	2442.362000	1879.056641	3.716525
23205.596064	2442.362000	1878.070313	-241.178574
23205.596064	2442.362000	1877.083984	56.556576
23205.596064	2442.362000	1876.096680	34.548035
23205.596064	2442.362000	1875.109375	-403.867004
23205.596064	2442.362000	1874.122070	-60.250916
23205.596064	2442.362000	1873.134766	-159.650482
23205.596064	2442.362000	1872.146484	135.407883
23205.596064	2442.362000	1871.159180	-17.210325
23205.596064	2442.362000	1870.170898	1.967348
23205.596064	2442.362000	1869.182617	-61.091236
23205.596064	2442.362000	1868.194336	30.615849
23205.596064	2442.362000	1867.205078	-32.434029
23205.596064	2442.362000	1866.216797	-221.154785
23205.596064	2442.362000	1865.227539	-206.822144
23205.596064	2442.362000	1864.238281	78.092239
23205.596064	2442.362000	1863.249023	121.320633
23205.596064	2442.362000	1862.259766	31.683229
23205.596064	2442.362000	1861.269531	-77.258804
23205.596064	2442.362000	1860.279297	-133.065048
23205.596064	2442.362000	1859.290039	18.712814
23205.596064	2442.362000	1858.298828	-29.899773
23205.596064	2442.362000	1857.308594	-105.065369
23205.596064	2442.362000	1856.318359	200.937271
23205.596064	2442.362000	1855.327148	-76.910973
23205.596064	2442.362000	1854.335938	161.381180
23205.596064	2442.362000	1853.344727	30.651392
23205.596064	2442.362000	1852.353516	-13.286096
23205.596064	2442.362000	1851.362305	46.390751
23205.596064	2442.362000	1850.370117	-272.327637
23205.596064	2442.362000	1849.377930	-7.924418
23205.596064	2442.362000	1848.385742	420.135315
23205.596064	2442.362000	1847.393555	195.310349
23205.596064	2442.362000	1846.401367	42.756668
23205.596064	2442.362000	1845.408203	102.066055
23205.596064	2442.362000	1844.415039	103.525101
23205.596064	2442.362000	1843.421875	18.289829
23205.596064	2442.362000	1842.428711	5.209645
23205.596064	2442.362000	1841.435547	292.780426
23205.596064	2442.362000	1840.441406	202.558533
23205.596064	2442.362000	1839.448242	126.731407
23205.596064	2442.362000	1838.454102	82.118896
23205.596064	2442.362000	1837.459961	126.394775
23205.596064	2442.362000	1836.464844	-64.953232
23205.596064	2442.362000	1835.470703	101.733627
23205.596064	2442.362000	1834.475586	265.876251
23205.596064	2442.362000	1833.480469	-38.521221
23205.596064	2442.362000	1832.485352	38.964947
23205.596064	2442.362000	1831.490234	209.983078
23205.596064	2442.362000	1830.495117	27.949120
23205.596064	2442.362000	1829.499023	129.121796
23205.596064	2442.362000	1828.502930	273.361206
23205.596064	2442.362000	1827.506836	71.948586
23205.596064	2442.362000	1826.510742	131.997162
23205.596064	2442.362000	1825.513672	206.312271
23205.596064	2442.362000	1824.517578	203.769501
23205.596064	2442.362000	1823.520508	-67.399460
23205.596064	2442.362000	1822.523438	90.505966
23205.596064	2442.362000	1821.526367	142.798355
23205.596064	2442.362000	1820.529297	48.796158
23205.596064	2442.362000	1819.531250	417.091309
23205.596064	2442.362000	1818.533203	186.320404
23205.596064	2442.362000	1817.535156	202.190659
23205.596064	2442.362000	1816.537109	629.770569
23205.596064	2442.362000	1815.539063	97.115105
23205.596064	2442.362000	1814.540039	86.313713
23205.596064	2442.362000	1813.541992	329.057068
23205.596064	2442.362000	1812.542969	236.627502
23205.596064	2442.362000	1811.543945	400.064850
23205.596064	2442.362000	1810.543945	137.596985
23205.596064	2442.362000	1809.544922	319.868683
23205.596064	2442.362000	1808.544922	140.934860
23205.596064	2442.362000	1807.544922	95.796890
23205.596064	2442.362000	1806.544922	-143.033081
23205.596064	2442.362000	1805.544922	287.121185
23205.596064	2442.362000	1804.544922	-240.983994
23205.596064	2442.362000	1803.543945	186.362915
23205.596064	2442.362000	1802.542969	102.371086
23205.596064	2442.362000	1801.541992	77.961006
23205.596064	2442.362000	1800.541016	-61.161655
23205.596064	2442.362000	1799.539063	-11.832704
23205.596064	2442.362000	1798.538086	318.912231
23205.596064	2442.362000	1797.536133	200.857864
23205.596064	2442.362000	1796.534180	187.655777
23205.596064	2442.362000	1795.532227	157.615311
23205.596064	2442.362000	1794.529297	175.120804
23205.596064	2442.362000	1793.527344	1.755343
23205.596064	2442.362000	1792.524414	80.952797
23205.596064	2442.362000	1791.521484	-33.060184
23205.596064	2442.362000	1790.518555	52.953609
23205.596064	2442.362000	1789.514648	88.749031
23205.596064	2442.362000	1788.511719	74.363930
23205.596064	2442.362000	1787.507813	24.101933
23205.596064	2442.362000	1786.503906	95.122215
23205.596064	2442.362000	1785.500000	194.517624
23205.596064	2442.362000	1784.496094	-103.726395
23205.596064	2442.362000	1783.491211	169.040771
23205.596064	2442.362000	1782.486328	301.182159
23205.596064	2442.362000	1781.481445	157.196991
23205.596064	2442.362000	1780.476563	108.227089
23205.596064	2442.362000	1779.471680	123.306885
23205.596064	2442.362000	1778.465820	74.021935
23205.596064	2442.362000	1777.460938	281.286835
23205.596064	2442.362000	1776.455078	326.708832
23205.596064	2442.362000	1775.449219	167.621033
23205.596064	2442.362000	1774.442383	84.430725
23205.596064	2442.362000	1773.436523	202.981659
23205.596064	2442.362000	1772.429688	-163.090775
23205.596064	2442.362000	1771.422852	451.287506
23205.596064	2442.362000	1770.416016	-107.294052
23205.596064	2442.362000	1769.409180	281.046936
23205.596064	2442.362000	1768.402344	21.323824
23205.596064	2442.362000	1767.394531	41.442974
23205.596064	2442.362000	1766.386719	139.649399
23205.596064	2442.362000	1765.378906	100.106888
23205.596064	2442.362000	1764.371094	290.381622
23205.596064	2442.362000	1763.362305	432.990814
23205.596064	2442.362000	1762.354492	-19.485455
23205.596064	2442.362000	1761.345703	-83.370079
23205.596064	2442.362000	1760.336914	153.465927
23205.596064	2442.362000	1759.328125	-36.315418
23205.596064	2442.362000	1758.318359	-77.015907
23205.596064	2442.362000	1757.308594	-20.798943
23205.596064	2442.362000	1756.299805	58.903248
23205.596064	2442.362000	1755.290039	-43.857090
23205.596064	2442.362000	1754.279297	-94.705353
23205.596064	2442.362000	1753.269531	-88.915596
23205.596064	2442.362000	1752.258789	23.129948
23205.596064	2442.362000	1751.249023	82.937233
23205.596064	2442.362000	1750.238281	-164.858994
23205.596064	2442.362000	1749.226563	26.977367
23205.596064	2442.362000	1748.215820	3.484602
23205.596064	2442.362000	1747.204102	185.413757
23205.596064	2442.362000	1746.193359	-62.914906
23205.596064	2442.362000	1745.181641	-195.582962
23205.596064	2442.362000	1744.168945	-125.266266
23205.596064	2442.362000	1743.157227	-116.534126
23205.596064	2442.362000	1742.144531	125.743904
23205.596064	2442.362000	1741.132813	-9.914832
23205.596064	2442.362000	1740.120117	10.055065
23205.596064	2442.362000	1739.106445	-19.719368
23205.596064	2442.362000	1738.093750	58.881832
23205.596064	2442.362000	1737.080078	26.405619
23205.596064	2442.362000	1736.067383	139.998047
23205.596064	2442.362000	1735.053711	-31.933197
23205.596064	2442.362000	1734.040039	-246.402496
23205.596064	2442.362000	1733.025391	-67.369232
23205.596064	2442.362000	1732.011719	-154.838333
23205.596064	2442.362000	1730.997070	19.061625
23205.596064	2442.362000	1729.982422	-59.317787
23205.596064	2442.362000	1728.967773	97.676628
23205.596064	2442.362000	1727.952148	-275.370209
23205.596064	2442.362000	1726.937500	13.110742
23205.596064	2442.362000	1725.921875	-138.852310
23205.596064	2442.362000	1724.906250	90.315781
23205.596064	2442.362000	1723.890625	18.067183
23205.596064	2442.362000	1722.875000	-218.985748
23205.596064	2442.362000	1721.858398	-30.417034
23205.596064	2442.362000	1720.841797	40.343319
23205.596064	2442.362000	1719.825195	23.927273
23205.596064	2442.362000	1718.808594	28.515648
23205.596064	2442.362000	1717.791992	-124.517357
23205.596064	2442.362000	1716.774414	-265.914307
23205.596064	2442.362000	1715.756836	111.776482
23205.596064	2442.362000	1714.739258	66.382446
23205.596064	2442.362000	1713.721680	-73.083458
23205.596064	2442.362000	1712.704102	62.061695
23205.596064	2442.362000	1711.685547	42.053288
23205.596064	2442.362000	1710.667969	33.654835
23205.596064	2442.362000	1709.649414	137.732178
23205.596064	2442.362000	1708.630859	63.316307
23205.596064	2442.362000	1707.611328	129.507401
23205.596064	2442.362000	1706.592773	315.154083
23205.596064	2442.362000	1705.573242	26.924042
23205.596064	2442.362000	1704.553711	-137.086716
23205.596064	2442.362000	1703.534180	-132.417709
23205.596064	2442.362000	1702.513672	-38.854034
23205.596064	2442.362000	1701.494141	77.983635
23205.596064	2442.362000	1700.473633	30.644606
23205.596064	2442.362000	1699.453125	-2.756765
23205.596064	2442.362000	1698.432617	-59.693485
23205.596064	2442.362000	1697.412109	-88.644402
23205.596064	2442.362000	1696.390625	95.270805
23205.596064	2442.362000	1695.369141	-60.350502
23205.596064	2442.362000	1694.347656	184.071472
23205.596064	2442.362000	1693.326172	93.743507
23205.596064	2442.362000	1692.304688	162.374359
23205.596064	2442.362000	1691.282227	-145.656113
23205.596064	2442.362000	1690.260742	105.120117
23205.596064	2442.362000	1689.238281	37.750069
23205.596064	2442.362000	1688.214844	-34.403450
23205.596064	2442.362000	1687.192383	183.124344
23205.596064	2442.362000	1686.168945	-101.854446
23205.596064	2442.362000	1685.146484	-178.929321
23205.596064	2442.362000	1684.123047	206.291550
23205.596064	2442.362000	1683.099609	-50.837135
23205.596064	2442.362000	1682.075195	207.917282
23205.596064	2442.362000	1681.051758	209.751328
23205.596064	2442.362000	1680.027344	-112.900917
23205.596064	2442.362000	1679.002930	285.393799
23205.596064	2442.362000	1677.978516	156.262482
23205.596064	2442.362000	1676.953125	132.011612
23205.596064	2442.362000	1675.928711	268.586700
23205.596064	2442.362000	1674.903320	48.307808
23205.596064	2442.362000	1673.877930	149.678986
23205.596064	2442.362000	1672.852539	-49.696182
23205.596064	2442.362000	1671.826172	263.480743
23205.596064	2442.362000	1670.800781	320.232208
23205.596064	2442.362000	1669.774414	460.701843
23205.596064	2442.362000	1668.748047	424.064026
23205.596064	2442.362000	1667.721680	66.078728
23205.596064	2442.362000	1666.694336	413.420990
23205.596064	2442.362000	1665.667969	371.930450
23205.596064	2442.362000	1664.640625	593.287231
23205.596064	2442.362000	1663.613281	521.369202
23205.596064	2442.362000	1662.585938	649.436401
23205.596064	2442.362000	1661.557617	751.786682
23205.596064	2442.362000	1660.530273	809.879456
23205.596064	2442.362000	1659.501953	663.306396
23205.596064	2442.362000	1658.473633	770.055237
23205.596064	2442.362000	1657.444336	918.509583
23205.596064	2442.362000	1656.416016	911.217163
23205.596064	2442.362000	1655.386719	797.005676
23205.596064	2442.362000	1654.358398	1165.848755
23205.596064	2442.362000	1653.328125	877.371399
23205.596064	2442.362000	1652.298828	862.904175
23205.596064	2442.362000	1651.269531	1180.295654
23205.596064	2442.362000	1650.239258	1418.601074
23205.596064	2442.362000	1649.208984	1336.607544
23205.596064	2442.362000	1648.178711	1342.750732
23205.596064	2442.362000	1647.148438	1497.282959
23205.596064	2442.362000	1646.117188	1547.357056
23205.596064	2442.362000	1645.086914	1615.947510
23205.596064	2442.362000	1644.055664	1628.832397
23205.596064	2442.362000	1643.024414	1713.523438
23205.596064	2442.362000	1641.992188	1997.386597
23205.596064	2442.362000	1640.960938	1938.306274
23205.596064	2442.362000	1639.928711	1601.281372
23205.596064	2442.362000	1638.896484	2060.923340
23205.596064	2442.362000	1637.864258	1879.085938
23205.596064	2442.362000	1636.832031	1771.375000
23205.596064	2442.362000	1635.798828	2064.029297
23205.596064	2442.362000	1634.766602	1736.494141
23205.596064	2442.362000	1633.733398	1709.787842
23205.596064	2442.362000	1632.699219	1879.658813
23205.596064	2442.362000	1631.666016	1822.868530
23205.596064	2442.362000	1630.632813	1960.304321
23205.596064	2442.362000	1629.598633	1885.005859
23205.596064	2442.362000	1628.564453	2177.203857
23205.596064	2442.362000	1627.530273	1907.812378
23205.596064	2442.362000	1626.495117	1894.939697
23205.596064	2442.362000	1625.460938	2277.071777
23205.596064	2442.362000	1624.425781	2303.416992
23205.596064	2442.362000	1623.390625	2205.092041
23205.596064	2442.362000	1622.355469	2266.099365
23205.596064	2442.362000	1621.319336	2359.394775
23205.596064	2442.362000	1620.284180	2277.329346
23205.596064	2442.362000	1619.248047	2455.992432
23205.596064	2442.362000	1618.211914	2821.447998
23205.596064	2442.362000	1617.174805	2527.212646
23205.596064	2442.362000	1616.138672	2408.379395
23205.596064	2442.362000	1615.101563	2469.412598
23205.596064	2442.362000	1614.065430	2371.451660
23205.596064	2442.362000	1613.027344	2870.345215
23205.596064	2442.362000	1611.990234	2237.897705
23205.596064	2442.362000	1610.953125	2269.133789
23205.596064	2442.362000	1609.915039	2678.069824
23205.596064	2442.362000	1608.876953	2847.430420
23205.596064	2442.362000	1607.838867	2613.906738
23205.596064	2442.362000	1606.800781	2688.948730
23205.596064	2442.362000	1605.761719	2607.512451
23205.596064	2442.362000	1604.723633	2701.043457
23205.596064	2442.362000	1603.684570	2617.452637
23205.596064	2442.362000	1602.644531	2497.134766
23205.596064	2442.362000	1601.605469	2836.833252
23205.596064	2442.362000	1600.566406	2783.341064
23205.596064	2442.362000	1599.526367	2612.693115
23205.596064	2442.362000	1598.486328	2529.507080
23205.596064	2442.362000	1597.446289	2568.199219
23205.596064	2442.362000	1596.405273	2542.609863
23205.596064	2442.362000	1595.365234	2425.260254
23205.596064	2442.362000	1594.324219	2466.457520
23205.596064	2442.362000	1593.283203	2532.971436
23205.596064	2442.362000	1592.242188	2319.509033
23205.596064	2442.362000	1591.200195	2475.676270
23205.596064	2442.362000	1590.159180	2574.529541
23205.596064	2442.362000	1589.117188	2671.120117
23205.596064	2442.362000	1588.075195	2630.149170
23205.596064	2442.362000	1587.032227	2905.718994
23205.596064	2442.362000	1585.990234	2605.834473
23205.596064	2442.362000	1584.947266	2938.801514
23205.596064	2442.362000	1583.904297	2664.418213
23205.596064	2442.362000	1582.861328	2720.194824
23205.596064	2442.362000	1581.818359	2425.549072
23205.596064	2442.362000	1580.775391	2632.729248
23205.596064	2442.362000	1579.731445	2420.849609
23205.596064	2442.362000	1578.687500	2873.132080
23205.596064	2442.362000	1577.643555	2624.886719
23205.596064	2442.362000	1576.598633	2781.922363
23205.596064	2442.362000	1575.554688	2927.592773
23205.596064	2442.362000	1574.509766	2874.270752
23205.596064	2442.362000	1573.464844	3109.290039
23205.596064	2442.362000	1572.419922	3129.375732
23205.596064	2442.362000	1571.374023	3195.287598
23205.596064	2442.362000	1570.329102	3073.870361
23205.596064	2442.362000	1569.283203	2678.349609
23205.596064	2442.362000	1568.237305	3007.477051
23205.596064	2442.362000	1567.191406	2932.232422
23205.596064	2442.362000	1566.144531	2822.869141
23205.596064	2442.362000	1565.098633	2581.249756
23205.596064	2442.362000	1564.051758	2533.921387
23205.596064	2442.362000	1563.004883	2756.121338
23205.596064	2442.362000	1561.957031	2540.145508
23205.596064	2442.362000	1560.910156	2618.781738
23205.596064	2442.362000	1559.862305	2713.486328
23205.596064	2442.362000	1558.814453	2564.229980
23205.596064	2442.362000	1557.766602	2807.440186
23205.596064	2442.362000	1556.718750	2487.514893
23205.596064	2442.362000	1555.669922	2630.622314
23205.596064	2442.362000	1554.621094	2199.465088
23205.596064	2442.362000	1553.573242	2543.432373
23205.596064	2442.362000	1552.523438	2279.073730
23205.596064	2442.362000	1551.474609	2128.889648
23205.596064	2442.362000	1550.424805	1794.436646
23205.596064	2442.362000	1549.375000	2027.248535
23205.596064	2442.362000	1548.325195	1861.736938
23205.596064	2442.362000	1547.275391	1944.549805
23205.596064	2442.362000	1546.225586	1809.036133
23205.596064	2442.362000	1545.174805	1746.533691
23205.596064	2442.362000	1544.124023	1572.764771
23205.596064	2442.362000	1543.073242	1553.888672
23205.596064	2442.362000	1542.022461	1466.977417
23205.596064	2442.362000	1540.970703	1557.585815
23205.596064	2442.362000	1539.919922	1086.930420
23205.596064	2442.362000	1538.868164	1123.391602
23205.596064	2442.362000	1537.815430	1019.135132
23205.596064	2442.362000	1536.763672	1208.153809
23205.596064	2442.362000	1535.710938	1117.912842
23205.596064	2442.362000	1534.659180	968.867126
23205.596064	2442.362000	1533.606445	1001.670105
23205.596064	2442.362000	1532.552734	1204.872437
23205.596064	2442.362000	1531.500000	995.168030
23205.596064	2442.362000	1530.446289	1073.877319
23205.596064	2442.362000	1529.393555	946.326355
23205.596064	2442.362000	1528.338867	814.454712
23205.596064	2442.362000	1527.285156	843.840637
23205.596064	2442.362000	1526.231445	1245.216675
23205.596064	2442.362000	1525.176758	939.413818
23205.596064	2442.362000	1524.122070	1103.037109
23205.596064	2442.362000	1523.067383	668.626831
23205.596064	2442.362000	1522.012695	798.656494
23205.596064	2442.362000	1520.957031	783.869812
23205.596064	2442.362000	1519.901367	690.037231
23205.596064	2442.362000	1518.845703	723.224121
23205.596064	2442.362000	1517.790039	548.357239
23205.596064	2442.362000	1516.734375	810.542908
23205.596064	2442.362000	1515.677734	676.853882
23205.596064	2442.362000	1514.621094	473.297638
23205.596064	2442.362000	1513.564453	419.304840
23205.596064	2442.362000	1512.507813	293.179016
23205.596064	2442.362000	1511.450195	569.737671
23205.596064	2442.362000	1510.393555	274.522156
23205.596064	2442.362000	1509.335938	293.760712
23205.596064	2442.362000	1508.278320	525.598206
23205.596064	2442.362000	1507.219727	70.792442
23205.596064	2442.362000	1506.162109	174.267807
23205.596064	2442.362000	1505.103516	286.943420
23205.596064	2442.362000	1504.044922	354.633331
23205.596064	2442.362000	1502.986328	440.572540
23205.596064	2442.362000	1501.926758	251.353638
23205.596064	2442.362000	1500.868164	466.328613
23205.596064	2442.362000	1499.808594	149.029907
23205.596064	2442.362000	1498.749023	276.407043
23205.596064	2442.362000	1497.688477	97.262421
23205.596064	2442.362000	1496.628906	200.239212
23205.596064	2442.362000	1495.568359	100.517914
23205.596064	2442.362000	1494.507813	154.310852
23205.596064	2442.362000	1493.447266	-41.805351
23205.596064	2442.362000	1492.386719	25.958799
23205.596064	2442.362000	1491.325195	-266.464325
23205.596064	2442.362000	1490.263672	-60.873085
23205.596064	2442.362000	1489.202148	-224.378433
23205.596064	2442.362000	1488.140625	-185.001495
23205.596064	2442.362000	1487.079102	36.881073
23205.596064	2442.362000	1486.016602	47.388138
23205.596064	2442.362000	1484.954102	100.860832
23205.596064	2442.362000	1483.891602	-90.624428
23205.596064	2442.362000	1482.829102	-90.659195
23205.596064	2442.362000	1481.765625	17.450384
23205.596064	2442.362000	1480.702148	195.417526
23205.596064	2442.362000	1479.638672	335.345947
23205.596064	2442.362000	1478.575195	282.224060
23205.596064	2442.362000	1477.511719	69.895744
23205.596064	2442.362000	1476.447266	-23.069183
23205.596064	2442.362000	1475.382813	-129.271164
23205.596064	2442.362000	1474.318359	119.422691
23205.596064	2442.362000	1473.253906	253.867889
23205.596064	2442.362000	1472.189453	532.189453
23205.596064	2442.362000	1471.124023	112.944489
23205.596064	2442.362000	1470.058594	351.011871
23205.596064	2442.362000	1468.993164	503.916931
23205.596064	2442.362000	1467.927734	235.956482
23205.596064	2442.362000	1466.861328	719.147400
23205.596064	2442.362000	1465.794922	570.271912
23205.596064	2442.362000	1464.728516	631.786865
23205.596064	2442.362000	1463.662109	454.991058
23205.596064	2442.362000	1462.594727	625.392273
23205.596064	2442.362000	1461.528320	573.597534
23205.596064	2442.362000	1460.460938	752.578064
23205.596064	2442.362000	1459.393555	511.940765
23205.596064	2442.362000	1458.326172	823.025269
23205.596064	2442.362000	1457.257813	680.824768
23205.596064	2442.362000	1456.189453	742.119385
23205.596064	2442.362000	1455.121094	716.563171
23205.596064	2442.362000	1454.052734	358.546295
23205.596064	2442.362000	1452.984375	926.381042
23205.596064	2442.362000	1451.915039	726.971680
23205.596064	2442.362000	1450.845703	818.399902
23205.596064	2442.362000	1449.776367	794.887939
23205.596064	2442.362000	1448.707031	826.620972
23205.596064	2442.362000	1447.636719	1039.920044
23205.596064	2442.362000	1446.567383	833.798096
23205.596064	2442.362000	1445.497070	1145.763184
23205.596064	2442.362000	1444.425781	1244.182739
23205.596064	2442.362000	1443.355469	1151.593506
23205.596064	2442.362000	1442.285156	1035.902954
23205.596064	2442.362000	1441.213867	1090.300659
23205.596064	2442.362000	1440.142578	1135.166626
23205.596064	2442.362000	1439.070313	856.411377
23205.596064	2442.362000	1437.999023	1181.509277
23205.596064	2442.362000	1436.926758	1364.655029
23205.596064	2442.362000	1435.854492	1240.622559
23205.596064	2442.362000	1434.782227	1296.981445
23205.596064	2442.362000	1433.709961	1438.051270
23205.596064	2442.362000	1432.636719	1113.349243
23205.596064	2442.362000	1431.563477	1159.904053
23205.596064	2442.362000	1430.490234	1143.312622
23205.596064	2442.362000	1429.416992	1469.810547
23205.596064	2442.362000	1428.343750	1129.238892
23205.596064	2442.362000	1427.269531	1073.121460
23205.596064	2442.362000	1426.195313	1005.679260
23205.596064	2442.362000	1425.121094	909.095154
23205.596064	2442.362000	1424.046875	775.788147
23205.596064	2442.362000	1422.971680	750.782898
23205.596064	2442.362000	1421.896484	851.908936
23205.596064	2442.362000	1420.821289	834.987549
23205.596064	2442.362000	1419.746094	406.133148
23205.596064	2442.362000	1418.669922	525.220642
23205.596064	2442.362000	1417.594727	845.038635
23205.596064	2442.362000	1416.518555	486.343842
23205.596064	2442.362000	1415.442383	313.622772
23205.596064	2442.362000	1414.365234	294.717865
23205.596064	2442.362000	1413.289063	525.472717
23205.596064	2442.362000	1412.211914	479.585022
23205.596064	2442.362000	1411.134766	496.474030
23205.596064	2442.362000	1410.057617	384.371124
23205.596064	2442.362000	1408.979492	651.588318
23205.596064	2442.362000	1407.902344	546.959473
23205.596064	2442.362000	1406.824219	757.037598
23205.596064	2442.362000	1405.746094	824.317139
23205.596064	2442.362000	1404.666992	866.255310
23205.596064	2442.362000	1403.588867	725.453857
23205.596064	2442.362000	1402.509766	797.006409
23205.596064	2442.362000	1401.430664	796.935791
23205.596064	2442.362000	1400.351563	924.567017
23205.596064	2442.362000	1399.271484	901.026184
23205.596064	2442.362000	1398.192383	1073.524414
23205.596064	2442.362000	1397.112305	1235.418823
23205.596064	2442.362000	1396.031250	945.302490
23205.596064	2442.362000	1394.951172	967.547546
23205.596064	2442.362000	1393.871094	924.385864
23205.596064	2442.362000	1392.790039	648.673035
23205.596064	2442.362000	1391.708984	787.807129
23205.596064	2442.362000	1390.626953	636.673279
23205.596064	2442.362000	1389.545898	841.968201
23205.596064	2442.362000	1388.463867	1051.604248
23205.596064	2442.362000	1387.381836	1174.922119
23205.596064	2442.362000	1386.299805	959.803223
23205.596064	2442.362000	1385.217773	1269.453369
23205.596064	2442.362000	1384.134766	850.571106
23205.596064	2442.362000	1383.051758	918.496460
23205.596064	2442.362000	1381.968750	972.399841
23205.596064	2442.362000	1380.885742	1048.912720
23205.596064	2442.362000	1379.802734	1037.777710
23205.596064	2442.362000	1378.718750	1140.112305
23205.596064	2442.362000	1377.634766	806.806335
23205.596064	2442.362000	1376.550781	1108.606445
23205.596064	2442.362000	1375.465820	1275.614624
23205.596064	2442.362000	1374.381836	1030.868652
23205.596064	2442.362000	1373.296875	1032.607422
23205.596064	2442.362000	1372.211914	1069.419434
23205.596064	2442.362000	1371.126953	1367.285400
23205.596064	2442.362000	1370.041016	936.911865
23205.596064	2442.362000	1368.955078	1275.531006
23205.596064	2442.362000	1367.869141	1110.178467
23205.596064	2442.362000	1366.783203	923.673157
23205.596064	2442.362000	1365.697266	1047.634521
23205.596064	2442.362000	1364.610352	1016.441406
23205.596064	2442.362000	1363.523438	1168.884033
23205.596064	2442.362000	1362.436523	982.138672
23205.596064	2442.362000	1361.349609	1017.145020
23205.596064	2442.362000	1360.261719	1056.401611
23205.596064	2442.362000	1359.174805	982.987061
23205.596064	2442.362000	1358.086914	945.960449
23205.596064	2442.362000	1356.998047	1067.187866
23205.596064	2442.362000	1355.910156	809.852356
23205.596064	2442.362000	1354.821289	963.982727
23205.596064	2442.362000	1353.732422	941.035889
23205.596064	2442.362000	1352.643555	714.715332
23205.596064	2442.362000	1351.554688	682.658020
23205.596064	2442.362000	1350.464844	744.844055
23205.596064	2442.362000	1349.375000	643.204346
23205.596064	2442.362000	1348.285156	654.702209
23205.596064	2442.362000	1347.195313	893.900391
23205.596064	2442.362000	1346.105469	706.418335
23205.596064	2442.362000	1345.014648	315.629211
23205.596064	2442.362000	1343.923828	360.012238
23205.596064	2442.362000	1342.833008	475.747375
23205.596064	2442.362000	1341.741211	755.225647
23205.596064	2442.362000	1340.650391	563.544861
23205.596064	2442.362000	1339.558594	645.910767
23205.596064	2442.362000	1338.466797	605.108582
23205.596064	2442.362000	1337.374023	833.166565
23205.596064	2442.362000	1336.282227	558.906128
23205.596064	2442.362000	1335.189453	1047.246826
23205.596064	2442.362000	1334.096680	892.340576
23205.596064	2442.362000	1333.003906	799.142761
23205.596064	2442.362000	1331.910156	1206.998413
23205.596064	2442.362000	1330.817383	822.761353
23205.596064	2442.362000	1329.723633	778.117554
23205.596064	2442.362000	1328.629883	1034.822021
23205.596064	2442.362000	1327.535156	1099.975952
23205.596064	2442.362000	1326.441406	974.280151
23205.596064	2442.362000	1325.346680	1299.890015
23205.596064	2442.362000	1324.251953	973.112976
23205.596064	2442.362000	1323.156250	884.958801
23205.596064	2442.362000	1322.061523	666.424377
23205.596064	2442.362000	1320.965820	1006.554443
23205.596064	2442.362000	1319.870117	941.966736
23205.596064	2442.362000	1318.774414	896.259033
23205.596064	2442.362000	1317.678711	1005.855408
23205.596064	2442.362000	1316.582031	916.184204
23205.596064	2442.362000	1315.485352	1168.532471
23205.596064	2442.362000	1314.388672	1147.853760
23205.596064	2442.362000	1313.291016	960.224731
23205.596064	2442.362000	1312.194336	1022.420349
23205.596064	2442.362000	1311.096680	993.099915
23205.596064	2442.362000	1309.999023	1016.983948
23205.596064	2442.362000	1308.901367	925.683960
23205.596064	2442.362000	1307.802734	1116.503784
23205.596064	2442.362000	1306.705078	1161.897217
23205.596064	2442.362000	1305.606445	904.643433
23205.596064	2442.362000	1304.506836	1059.889404
23205.596064	2442.362000	1303.408203	1041.855957
23205.596064	2442.362000	1302.308594	1006.488953
23205.596064	2442.362000	1301.208984	975.066833
23205.596064	2442.362000	1300.109375	819.275391
23205.596064	2442.362000	1299.009766	1078.087524
23205.596064	2442.362000	1297.909180	1009.795837
23205.596064	2442.362000	1296.808594	1171.307617
23205.596064	2442.362000	1295.708008	1304.203125
23205.596064	2442.362000	1294.607422	1077.377197
23205.596064	2442.362000	1293.506836	1064.808594
23205.596064	2442.362000	1292.405273	996.075317
23205.596064	2442.362000	1291.303711	911.930115
23205.596064	2442.362000	1290.202148	908.129089
23205.596064	2442.362000	1289.099609	1055.703491
23205.596064	2442.362000	1287.998047	592.851440
23205.596064	2442.362000	1286.895508	583.147034
23205.596064	2442.362000	1285.792969	512.842651
23205.596064	2442.362000	1284.689453	797.571350
23205.596064	2442.362000	1283.586914	602.175598
23205.596064	2442.362000	1282.483398	584.120239
23205.596064	2442.362000	1281.379883	302.403717
23205.596064	2442.362000	1280.276367	404.393616
23205.596064	2442.362000	1279.171875	322.859741
23205.596064	2442.362000	1278.067383	490.986115
23205.596064	2442.362000	1276.962891	605.624634
23205.596064	2442.362000	1275.858398	403.355713
23205.596064	2442.362000	1274.753906	277.689484
23205.596064	2442.362000	1273.648438	424.403656
23205.596064	2442.362000	1272.542969	311.703705
23205.596064	2442.362000	1271.437500	560.402527
23205.596064	2442.362000	1270.331055	228.119598
23205.596064	2442.362000	1269.225586	108.882622
23205.596064	2442.362000	1268.119141	186.223343
23205.596064	2442.362000	1267.012695	389.657745
23205.596064	2442.362000	1265.906250	170.801437
23205.596064	2442.362000	1264.798828	205.936203
23205.596064	2442.362000	1263.691406	-0.927878
23205.596064	2442.362000	1262.583984	241.586578
23205.596064	2442.362000	1261.476563	263.386261
23205.596064	2442.362000	1260.368164	239.186584
23205.596064	2442.362000	1259.260742	205.843201
23205.596064	2442.362000	1258.152344	133.192780
23205.596064	2442.362000	1257.043945	133.358688
23205.596064	2442.362000	1255.934570	58.995811
23205.596064	2442.362000	1254.825195	78.487335
23205.596064	2442.362000	1253.716797	291.413727
23205.596064	2442.362000	1252.606445	107.615639
23205.596064	2442.362000	1251.497070	127.058113
23205.596064	2442.362000	1250.387695	147.499588
23205.596064	2442.362000	1249.277344	203.893768
23205.596064	2442.362000	1248.166992	160.252838
23205.596064	2442.362000	1247.055664	-45.559364
23205.596064	2442.362000	1245.945313	215.779953
23205.596064	2442.362000	1244.833984	-1.343881
23205.596064	2442.362000	1243.722656	184.225952
23205.596064	2442.362000	1242.611328	52.189262
23205.596064	2442.362000	1241.499023	131.499680
23205.596064	2442.362000	1240.387695	-175.156494
23205.596064	2442.362000	1239.275391	-54.937027
23205.596064	2442.362000	1238.162109	61.783630
23205.596064	2442.362000	1237.049805	33.732952
23205.596064	2442.362000	1235.936523	-18.071159
23205.596064	2442.362000	1234.823242	-13.666962
23205.596064	2442.362000	1233.709961	-14.585034
23205.596064	2442.362000	1232.596680	-79.641106
23205.596064	2442.362000	1231.482422	-41.774261
23205.596064	2442.362000	1230.369141	-24.580835
23205.596064	2442.362000	1229.253906	-106.738922
23205.596064	2442.362000	1228.139648	-34.381500
23205.596064	2442.362000	1227.025391	270.048462
23205.596064	2442.362000	1225.910156	214.047287
23205.596064	2442.362000	1224.794922	199.321274
23205.596064	2442.362000	1223.679688	-21.236277
23205.596064	2442.362000	1222.563477	214.587723
23205.596064	2442.362000	1221.447266	87.765282
23205.596064	2442.362000	1220.331055	185.103867
23205.596064	2442.362000	1219.214844	108.723412
23205.596064	2442.362000	1218.098633	135.913818
23205.596064	2442.362000	1216.981445	-91.195992
23205.596064	2442.362000	1215.864258	-24.762644
23205.596064	2442.362000	1214.747070	-102.804794
23205.596064	2442.362000	1213.629883	-143.952438
23205.596064	2442.362000	1212.511719	-51.793587
23205.596064	2442.362000	1211.393555	59.322010
23205.596064	2442.362000	1210.275391	2.153088
23205.596064	2442.362000	1209.157227	36.497440
23205.596064	2442.362000	1208.038086	139.921188
23205.596064	2442.362000	1206.918945	86.690063
23205.596064	2442.362000	1205.799805	84.035515
23205.596064	2442.362000	1204.680664	51.841316
23205.596064	2442.362000	1203.560547	83.122635
23205.596064	2442.362000	1202.441406	-103.476044
23205.596064	2442.362000	1201.321289	-17.751614
23205.596064	2442.362000	1200.200195	-61.974689
23205.596064	2442.362000	1199.080078	-18.670340
23205.596064	2442.362000	1197.958984	-58.325203
23205.596064	2442.362000	1196.837891	-151.895569
23205.596064	2442.362000	1195.716797	-112.575668
23205.596064	2442.362000	1194.594727	-76.319481
23205.596064	2442.362000	1193.473633	-69.774429
23205.596064	2442.362000	1192.351563	47.394550
23205.596064	2442.362000	1191.229492	-123.301651
23205.596064	2442.362000	1190.106445	-25.080885
23205.596064	2442.362000	1188.984375	-190.539246
23205.596064	2442.362000	1187.861328	-59.529606
23205.596064	2442.362000	1186.738281	-33.085716
23205.596064	2442.362000	1185.614258	-28.505711
23205.596064	2442.362000	1184.491211	-58.609695
23205.596064	2442.362000	1183.367188	-55.196365
23205.596064	2442.362000	1182.243164	-51.623348
23205.596064	2442.362000	1181.119141	-23.881582
23205.596064	2442.362000	1179.994141	105.847694
23205.596064	2442.362000	1178.869141	140.406326
23205.596064	2442.362000	1177.744141	82.174492
23205.596064	2442.362000	1176.619141	332.055847
23205.596064	2442.362000	1175.493164	460.193146
23205.596064	2442.362000	1174.368164	179.339951
23205.596064	2442.362000	1173.242188	305.325287
23205.596064	2442.362000	1172.115234	178.570206
23205.596064	2442.362000	1170.989258	302.805328
23205.596064	2442.362000	1169.862305	477.996002
23205.596064	2442.362000	1168.735352	225.588379
23205.596064	2442.362000	1167.608398	237.279160
23205.596064	2442.362000	1166.481445	93.810005
23205.596064	2442.362000	1165.353516	160.612152
23205.596064	2442.362000	1164.225586	365.970001
23205.596064	2442.362000	1163.097656	214.752182
23205.596064	2442.362000	1161.968750	-11.450086
23205.596064	2442.362000	1160.840820	-39.172268
23205.596064	2442.362000	1159.711914	-8.909281
23205.596064	2442.362000	1158.583008	118.858101
23205.596064	2442.362000	1157.453125	-78.566315
23205.596064	2442.362000	1156.324219	-46.512188
23205.596064	2442.362000	1155.194336	-145.469177
23205.596064	2442.362000	1154.064453	-180.484100
23205.596064	2442.362000	1152.933594	-27.138176
23205.596064	2442.362000	1151.803711	-74.906853
23205.596064	2442.362000	1150.672852	-124.229607
23205.596064	2442.362000	1149.541992	-172.482956
23205.596064	2442.362000	1148.411133	-56.534386
23205.596064	2442.362000	1147.279297	-74.840485
23205.596064	2442.362000	1146.147461	-189.933731
23205.596064	2442.362000	1145.015625	-246.324142
23205.596064	2442.362000	1143.883789	2.218460
23205.596064	2442.362000	1142.750977	-225.608475
23205.596064	2442.362000	1141.619141	-22.657690
23205.596064	2442.362000	1140.486328	-96.723564
23205.596064	2442.362000	1139.352539	131.765686
23205.596064	2442.362000	1138.219727	-48.356552
23205.596064	2442.362000	1137.085938	191.997650
23205.596064	2442.362000	1135.952148	93.929512
23205.596064	2442.362000	1134.818359	216.425217
23205.596064	2442.362000	1133.683594	180.304626
23205.596064	2442.362000	1132.549805	263.343475
23205.596064	2442.362000	1131.415039	320.265594
23205.596064	2442.362000	1130.279297	590.463196
23205.596064	2442.362000	1129.144531	788.499695
23205.596064	2442.362000	1128.008789	643.678467
23205.596064	2442.362000	1126.873047	807.796875
23205.596064	2442.362000	1125.737305	607.227905
23205.596064	2442.362000	1124.601563	566.510559
23205.596064	2442.362000	1123.464844	523.899597
23205.596064	2442.362000	1122.328125	582.995483
23205.596064	2442.362000	1121.191406	501.120453
23205.596064	2442.362000	1120.054688	285.885834
23205.596064	2442.362000	1118.916992	680.534363
23205.596064	2442.362000	1117.779297	486.938416
23205.596064	2442.362000	1116.641602	196.263992
23205.596064	2442.362000	1115.503906	43.423241
23205.596064	2442.362000	1114.365234	173.791428
23205.596064	2442.362000	1113.226563	206.852615
23205.596064	2442.362000	1112.087891	161.823654
23205.596064	2442.362000	1110.949219	-19.240662
23205.596064	2442.362000	1109.809570	24.909599
23205.596064	2442.362000	1108.669922	271.278412
23205.596064	2442.362000	1107.530273	296.207733
23205.596064	2442.362000	1106.390625	129.275742
23205.596064	2442.362000	1105.250000	246.284882
23205.596064	2442.362000	1104.109375	232.995346
23205.596064	2442.362000	1102.968750	593.917053
23205.596064	2442.362000	1101.828125	589.104919
23205.596064	2442.362000	1100.686523	288.661713
23205.596064	2442.362000	1099.544922	460.488739
23205.596064	2442.362000	1098.403320	405.041260
23205.596064	2442.362000	1097.261719	420.397583
23205.596064	2442.362000	1096.120117	486.452484
23205.596064	2442.362000	1094.977539	387.880707
23205.596064	2442.362000	1093.834961	350.427704
23205.596064	2442.362000	1092.691406	410.539551
23205.596064	2442.362000	1091.548828	495.529846
23205.596064	2442.362000	1090.405273	504.598999
23205.596064	2442.362000	1089.261719	571.584717
23205.596064	2442.362000	1088.118164	520.575073
23205.596064	2442.362000	1086.973633	563.537354
23205.596064	2442.362000	1085.829102	634.702026
23205.596064	2442.362000	1084.684570	565.124084
23205.596064	2442.362000	1083.540039	435.278412
23205.596064	2442.362000	1082.395508	322.364624
23205.596064	2442.362000	1081.250000	435.972504
23205.596064	2442.362000	1080.104492	463.987396
23205.596064	2442.362000	1078.958984	419.388092
23205.596064	2442.362000	1077.812500	407.371674
23205.596064	2442.362000	1076.666016	434.134216
23205.596064	2442.362000	1075.519531	579.853882
23205.596064	2442.362000	1074.373047	391.943054
23205.596064	2442.362000	1073.226563	576.326050
23205.596064	2442.362000	1072.079102	517.506104
23205.596064	2442.362000	1070.931641	407.429840
23205.596064	2442.362000	1069.784180	561.986267
23205.596064	2442.362000	1068.635742	571.912903
23205.596064	2442.362000	1067.487305	449.742462
23205.596064	2442.362000	1066.338867	398.473419
23205.596064	2442.362000	1065.190430	415.063263
23205.596064	2442.362000	1064.041992	633.287781
23205.596064	2442.362000	1062.892578	610.612671
23205.596064	2442.362000	1061.743164	609.385498
23205.596064	2442.362000	1060.593750	452.737549
23205.596064	2442.362000	1059.443359	355.718323
23205.596064	2442.362000	1058.292969	492.949036
23205.596064	2442.362000	1057.142578	399.654816
23205.596064	2442.362000	1055.992188	386.906464
23205.596064	2442.362000	1054.841797	291.368500
23205.596064	2442.362000	1053.690430	291.691559
23205.596064	2442.362000	1052.539063	137.022751
23205.596064	2442.362000	1051.387695	216.692627
23205.596064	2442.362000	1050.235352	256.959045
23205.596064	2442.362000	1049.083984	170.145660
23205.596064	2442.362000	1047.931641	129.169922
23205.596064	2442.362000	1046.778320	251.235275
23205.596064	2442.362000	1045.625977	185.792755
23205.596064	2442.362000	1044.472656	40.884422
23205.596064	2442.362000	1043.319336	160.202896
23205.596064	2442.362000	1042.166016	-33.616512
23205.596064	2442.362000	1041.012695	99.870087
23205.596064	2442.362000	1039.858398	116.730484
23205.596064	2442.362000	1038.704102	123.276741
23205.596064	2442.362000	1037.549805	105.310188
23205.596064	2442.362000	1036.394531	-62.900406
23205.596064	2442.362000	1035.239258	28.093962
23205.596064	2442.362000	1034.083984	60.819241
23205.596064	2442.362000	1032.928711	86.412704
23205.596064	2442.362000	1031.773438	265.380798
23205.596064	2442.362000	1030.617188	207.349335
23205.596064	2442.362000	1029.460938	422.767700
23205.596064	2442.362000	1028.304688	202.851318
23205.596064	2442.362000	1027.147461	250.094971
23205.596064	2442.362000	1025.991211	280.245087
23205.596064	2442.362000	1024.833984	261.991821
23205.596064	2442.362000	1023.675781	217.634354
23205.596064	2442.362000	1022.518555	55.700764
23205.596064	2442.362000	1021.360352	327.210907
23205.596064	2442.362000	1020.202148	150.282608
23205.596064	2442.362000	1019.043945	154.139145
23205.596064	2442.362000	1017.884766	104.040443
23205.596064	2442.362000	1016.726563	-108.824684
23205.596064	2442.362000	1015.567383	-43.340294
23205.596064	2442.362000	1014.407227	56.393414
23205.596064	2442.362000	1013.248047	136.771683
23205.596064	2442.362000	1012.087891	-65.098709
23205.596064	2442.362000	1010.927734	5.493367
23205.596064	2442.362000	1009.767578	-98.238625
23205.596064	2442.362000	1008.606445	-173.996155
23205.596064	2442.362000	1007.446289	-40.518158
23205.596064	2442.362000	1006.285156	22.589640
23205.596064	2442.362000	1005.123047	3.770041
23205.596064	2442.362000	1003.961914	32.215080
23205.596064	2442.362000	1002.799805	211.612671
23205.596064	2442.362000	1001.637695	42.892136
23205.596064	2442.362000	1000.475586	-50.508442
23205.596064	2442.362000	999.312500	101.271530
23205.596064	2442.362000	998.149414	-8.409739
23205.596064	2442.362000	996.986328	160.753983
23205.596064	2442.362000	995.823242	206.932190
23205.596064	2442.362000	994.659180	-95.763756
23205.596064	2442.362000	993.496094	47.887447
23205.596064	2442.362000	992.332031	47.580551
23205.596064	2442.362000	991.166992	-184.536591
23205.596064	2442.362000	990.002930	-5.055840
23205.596064	2442.362000	988.837891	-7.594299
23205.596064	2442.362000	987.672852	-69.059914
23205.596064	2442.362000	986.506836	4.909287
23205.596064	2442.362000	985.341797	173.212036
23205.596064	2442.362000	984.175781	168.663452
23205.596064	2442.362000	983.009766	223.854797
23205.596064	2442.362000	981.843750	2.143058
23205.596064	2442.362000	980.676758	-18.457727
23205.596064	2442.362000	979.509766	27.580353
23205.596064	2442.362000	978.342773	117.730469
23205.596064	2442.362000	977.175781	156.729462
23205.596064	2442.362000	976.007813	-57.642204
23205.596064	2442.362000	974.839844	94.437485
23205.596064	2442.362000	973.671875	309.679962
23205.596064	2442.362000	972.503906	178.845490
23205.596064	2442.362000	971.334961	123.287567
23205.596064	2442.362000	970.166016	78.882095
23205.596064	2442.362000	968.997070	66.492828
23205.596064	2442.362000	967.828125	-103.660042
23205.596064	2442.362000	966.658203	-10.356969
23205.596064	2442.362000	965.488281	34.529049
23205.596064	2442.362000	964.318359	21.817806
23205.596064	2442.362000	963.148438	-70.710953
23205.596064	2442.362000	961.977539	235.419937
23205.596064	2442.362000	960.806641	-85.411385
23205.596064	2442.362000	959.635742	7.764244
23205.596064	2442.362000	958.463867	-20.415976
23205.596064	2442.362000	957.292969	332.874420
23205.596064	2442.362000	956.121094	-123.680527
23205.596064	2442.362000	954.948242	-225.417419
23205.596064	2442.362000	953.776367	82.969894
23205.596064	2442.362000	952.603516	-24.982222
23205.596064	2442.362000	951.430664	3.648552
23205.596064	2442.362000	950.257813	-394.039734
23205.596064	2442.362000	949.084961	-83.468620
23205.596064	2442.362000	947.911133	-181.649704
23205.596064	2442.362000	946.737305	-22.003330
23205.596064	2442.362000	945.563477	80.784332
23205.596064	2442.362000	944.388672	-86.745750
23205.596064	2442.362000	943.213867	39.467628
23205.596064	2442.362000	942.039063	-89.568367
23205.596064	2442.362000	940.864258	36.552837
23205.596064	2442.362000	939.688477	48.088837
23205.596064	2442.362000	938.513672	272.549744
23205.596064	2442.362000	937.337891	157.286346
23205.596064	2442.362000	936.161133	-10.420913
23205.596064	2442.362000	934.985352	15.321084
23205.596064	2442.362000	933.808594	310.921478
23205.596064	2442.362000	932.631836	179.055969
23205.596064	2442.362000	931.454102	194.970139
23205.596064	2442.362000	930.277344	-11.081325
23205.596064	2442.362000	929.099609	229.329941
23205.596064	2442.362000	927.921875	116.316254
23205.596064	2442.362000	926.743164	165.657242
23205.596064	2442.362000	925.565430	231.596054
23205.596064	2442.362000	924.386719	245.027588
23205.596064	2442.362000	923.208008	74.741028
23205.596064	2442.362000	922.028320	69.056824
23205.596064	2442.362000	920.849609	51.414650
23205.596064	2442.362000	919.669922	58.398575
23205.596064	2442.362000	919.474609	223.235046
23205.596064	2442.362000	918.309570	295.987579
23205.596064	2442.362000	917.143555	147.073395
23205.596064	2442.362000	915.977539	-44.697716
23205.596064	2442.362000	914.810547	135.161469
23205.596064	2442.362000	913.644531	79.144646
23205.596064	2442.362000	912.477539	63.599117
23205.596064	2442.362000	911.310547	-154.313660
23205.596064	2442.362000	910.143555	108.586105
23205.596064	2442.362000	908.975586	209.544220
23205.596064	2442.362000	907.807617	-29.772903
23205.596064	2442.362000	906.639648	-7.385707
23205.596064	2442.362000	905.471680	226.605286
23205.596064	2442.362000	904.303711	61.035095
23205.596064	2442.362000	903.134766	76.163994
23205.596064	2442.362000	901.965820	186.316681
23205.596064	2442.362000	900.796875	301.143585
23205.596064	2442.362000	899.626953	137.945908
23205.596064	2442.362000	898.457031	-96.472137
23205.596064	2442.362000	897.287109	343.575989
23205.596064	2442.362000	896.117188	583.979980
23205.596064	2442.362000	894.947266	344.766083
23205.596064	2442.362000	893.776367	459.229523
23205.596064	2442.362000	892.605469	381.421722
23205.596064	2442.362000	891.434570	460.180481
23205.596064	2442.362000	890.262695	403.687531
23205.596064	2442.362000	889.091797	221.501160
23205.596064	2442.362000	887.919922	252.731842
23205.596064	2442.362000	886.748047	82.438950
23205.596064	2442.362000	885.575195	-38.047489
23205.596064	2442.362000	884.403320	-94.550911
23205.596064	2442.362000	883.230469	-122.635834
23205.596064	2442.362000	882.057617	45.832355
23205.596064	2442.362000	880.883789	83.967712
23205.596064	2442.362000	879.710938	-138.367432
23205.596064	2442.362000	878.537109	-74.243759
23205.596064	2442.362000	877.362305	-26.742537
23205.596064	2442.362000	876.188477	-88.134102
23205.596064	2442.362000	875.013672	4.223558
23205.596064	2442.362000	873.839844	-50.126297
23205.596064	2442.362000	872.664063	-132.853607
23205.596064	2442.362000	871.489258	-7.555404
23205.596064	2442.362000	870.313477	-71.422951
23205.596064	2442.362000	869.138672	53.738590
23205.596064	2442.362000	867.962891	131.564957
23205.596064	2442.362000	866.786133	-88.294754
23205.596064	2442.362000	865.610352	246.868134
23205.596064	2442.362000	864.433594	5.749700
23205.596064	2442.362000	863.256836	19.639214
23205.596064	2442.362000	862.079102	-63.276661
23205.596064	2442.362000	860.902344	-186.315399
23205.596064	2442.362000	859.724609	-186.661087
23205.596064	2442.362000	858.546875	-109.208931
23205.596064	2442.362000	857.368164	-45.973602
23205.596064	2442.362000	856.190430	-32.319206
23205.596064	2442.362000	855.011719	-112.997528
23205.596064	2442.362000	853.833008	25.496740
23205.596064	2442.362000	852.654297	-109.435349
23205.596064	2442.362000	851.474609	226.809494
23205.596064	2442.362000	850.294922	273.171204
23205.596064	2442.362000	849.115234	180.538147
23205.596064	2442.362000	847.935547	245.641403
23205.596064	2442.362000	846.754883	211.817505
23205.596064	2442.362000	845.575195	250.914795
23205.596064	2442.362000	844.393555	360.546906
23205.596064	2442.362000	843.212891	256.017456
23205.596064	2442.362000	842.032227	132.671692
23205.596064	2442.362000	840.850586	533.705261
23205.596064	2442.362000	839.668945	518.410950
23205.596064	2442.362000	838.486328	510.132813
23205.596064	2442.362000	837.304688	459.507690
23205.596064	2442.362000	836.122070	469.948578
23205.596064	2442.362000	834.939453	426.310913
23205.596064	2442.362000	833.756836	544.691956
23205.596064	2442.362000	832.573242	573.754761
23205.596064	2442.362000	831.389648	407.909515
23205.596064	2442.362000	830.206055	530.773987
23205.596064	2442.362000	829.022461	442.345795
23205.596064	2442.362000	827.838867	311.674286
23205.596064	2442.362000	826.654297	600.878418
23205.596064	2442.362000	825.469727	500.617615
23205.596064	2442.362000	824.284180	299.529236
23205.596064	2442.362000	823.099609	515.733521
23205.596064	2442.362000	821.914063	286.497009
23205.596064	2442.362000	820.728516	277.565094
23205.596064	2442.362000	819.542969	247.499802
23205.596064	2442.362000	818.356445	240.818222
23205.596064	2442.362000	817.169922	-166.357117
23205.596064	2442.362000	815.983398	-203.496399
23205.596064	2442.362000	814.796875	21.495581
23205.596064	2442.362000	813.609375	80.178673
23205.596064	2442.362000	812.422852	103.680733
23205.596064	2442.362000	811.235352	21.848431
23205.596064	2442.362000	810.046875	103.716293
23205.596064	2442.362000	808.859375	115.339218
23205.596064	2442.362000	807.670898	-125.592674
23205.596064	2442.362000	806.482422	175.797455
23205.596064	2442.362000	805.293945	93.746407
23205.596064	2442.362000	804.104492	30.363436
23205.596064	2442.362000	802.915039	125.792107
23205.596064	2442.362000	801.725586	50.629585
23205.596064	2442.362000	800.536133	52.491577
23205.596064	2442.362000	799.345703	-253.863464
23205.596064	2442.362000	798.155273	44.361561
23205.596064	2442.362000	796.964844	144.046997
23205.596064	2442.362000	795.774414	80.313454
23205.596064	2442.362000	794.583008	-200.386505
23205.596064	2442.362000	793.392578	106.652740
23205.596064	2442.362000	792.200195	98.734077
23205.596064	2442.362000	791.008789	177.003815
23205.596064	2442.362000	789.816406	103.682747
23205.596064	2442.362000	788.625000	114.210335
23205.596064	2442.362000	787.432617	-3.465296
23205.596064	2442.362000	786.239258	197.942307
23205.596064	2442.362000	785.046875	-89.835083
23205.596064	2442.362000	783.853516	-186.645569
23205.596064	2442.362000	782.660156	-220.635681
23205.596064	2442.362000	781.465820	-131.335846
23205.596064	2442.362000	780.272461	-56.105667
23205.596064	2442.362000	779.078125	5.065726
23205.596064	2442.362000	777.883789	-299.015839
23205.596064	2442.362000	776.688477	-279.818481
23205.596064	2442.362000	775.494141	-102.613457
23205.596064	2442.362000	774.298828	93.040314
23205.596064	2442.362000	773.103516	125.866898
23205.596064	2442.362000	771.907227	-6.356005
23205.596064	2442.362000	770.711914	96.014961
23205.596064	2442.362000	769.515625	56.600082
23205.596064	2442.362000	768.318359	-96.649124
23205.596064	2442.362000	767.122070	-27.050842
23205.596064	2442.362000	765.924805	-41.113071
23205.596064	2442.362000	764.727539	153.598663
23205.596064	2442.362000	763.530273	-280.577179
23205.596064	2442.362000	762.333008	48.481056
23205.596064	2442.362000	761.134766	24.825956
23205.596064	2442.362000	759.936523	-5.854791
23205.596064	2442.362000	758.738281	97.846619
23205.596064	2442.362000	757.540039	252.413208
23205.596064	2442.362000	756.340820	128.778198
23205.596064	2442.362000	755.141602	162.645172
23205.596064	2442.362000	753.942383	221.895615
23205.596064	2442.362000	752.742188	84.204742
23205.596064	2442.362000	751.541992	152.542023
23205.596064	2442.362000	750.341797	102.717628
23205.596064	2442.362000	749.141602	101.428528
23205.596064	2442.362000	747.941406	26.017151
23205.596064	2442.362000	746.740234	154.120361
23205.596064	2442.362000	745.539063	242.768539
23205.596064	2442.362000	744.337891	93.127373
23205.596064	2442.362000	743.135742	165.398026
23205.596064	2442.362000	741.933594	195.948959
23205.596064	2442.362000	740.731445	161.696930
23205.596064	2442.362000	739.529297	162.028397
23205.596064	2442.362000	738.326172	224.640335
23205.596064	2442.362000	737.124023	104.695602
23205.596064	2442.362000	735.919922	56.289402
23205.596064	2442.362000	734.716797	10.125901
23205.596064	2442.362000	733.513672	-1.486592
23205.596064	2442.362000	732.309570	-43.180470
23205.596064	2442.362000	731.105469	-29.577745
23205.596064	2442.362000	729.900391	36.980095
23205.596064	2442.362000	728.696289	218.725296
23205.596064	2442.362000	727.491211	278.108795
23205.596064	2442.362000	726.286133	56.160259
23205.596064	2442.362000	725.080078	101.546761
23205.596064	2442.362000	723.874023	135.303055
23205.596064	2442.362000	722.668945	-36.064171
23205.596064	2442.362000	721.461914	142.624847
23205.596064	2442.362000	720.255859	-178.526550
23205.596064	2442.362000	719.048828	-96.753906
23205.596064	2442.362000	717.841797	24.023869
23205.596064	2442.362000	716.634766	-232.739151
23205.596064	2442.362000	715.427734	115.609398
23205.596064	2442.362000	714.219727	-51.537373
23205.596064	2442.362000	713.011719	-14.024816
23205.596064	2442.362000	711.803711	-130.671234
23205.596064	2442.362000	710.594727	53.783508
23205.596064	2442.362000	709.385742	-79.098450
23205.596064	2442.362000	708.176758	-7.507434
23205.596064	2442.362000	706.967773	-25.632788
23205.596064	2442.362000	705.758789	-105.857193
23205.596064	2442.362000	704.548828	236.397598
23205.596064	2442.362000	703.338867	151.377716
23205.596064	2442.362000	702.127930	-133.402161
23205.596064	2442.362000	700.917969	-285.041138
23205.596064	2442.362000	699.707031	-287.569763
23205.596064	2442.362000	698.496094	-145.664307
23205.596064	2442.362000	697.285156	296.541656
23205.596064	2442.362000	696.073242	149.162140
23205.596064	2442.362000	694.861328	393.780823
23205.596064	2442.362000	693.649414	372.328674
23205.596064	2442.362000	692.436523	733.486938
23205.596064	2442.362000	691.224609	503.306183
23205.596064	2442.362000	690.011719	497.611389
23205.596064	2442.362000	688.798828	659.012085
23205.596064	2442.362000	687.584961	788.198120
23205.596064	2442.362000	686.372070	624.232361
23205.596064	2442.362000	685.158203	524.328979
23205.596064	2442.362000	683.943359	994.142578
23205.596064	2442.362000	682.729492	660.683777
23205.596064	2442.362000	681.514648	713.819702
23205.596064	2442.362000	680.299805	531.312866
23205.596064	2442.362000	679.084961	646.015320
23205.596064	2442.362000	677.869141	449.712250
23205.596064	2442.362000	676.653320	225.984726
23205.596064	2442.362000	675.437500	217.043274
23205.596064	2442.362000	674.221680	365.644409
23205.596064	2442.362000	673.004883	520.948120
23205.596064	2442.362000	671.789063	189.746567
23205.596064	2442.362000	670.571289	230.710754
23205.596064	2442.362000	669.354492	303.535370
23205.596064	2442.362000	668.136719	113.821701
23205.596064	2442.362000	666.919922	67.847000
23205.596064	2442.362000	665.701172	352.547119
23205.596064	2442.362000	664.483398	349.711334
23205.596064	2442.362000	663.264648	244.194489
23205.596064	2442.362000	662.045898	-16.362772
23205.596064	2442.362000	660.827148	338.462280
23205.596064	2442.362000	659.608398	137.089417
23205.596064	2442.362000	658.388672	227.319763
23205.596064	2442.362000	657.168945	374.380249
23205.596064	2442.362000	655.949219	343.690674
23205.596064	2442.362000	654.728516	465.473022
23205.596064	2442.362000	653.507813	273.022736
23205.596064	2442.362000	652.287109	278.570282
23205.596064	2442.362000	651.066406	279.496582
23205.596064	2442.362000	649.844727	305.371979
23205.596064	2442.362000	648.623047	153.778458
23205.596064	2442.362000	647.401367	279.585205
23205.596064	2442.362000	646.179688	373.448517
23205.596064	2442.362000	644.957031	424.019836
23205.596064	2442.362000	643.734375	338.167419
23205.596064	2442.362000	642.511719	354.524231
23205.596064	2442.362000	641.289063	357.186188
23205.596064	2442.362000	640.065430	330.260559
23205.596064	2442.362000	638.841797	400.916718
23205.596064	2442.362000	637.618164	201.364838
23205.596064	2442.362000	636.393555	210.626236
23205.596064	2442.362000	635.168945	281.091156
23205.596064	2442.362000	633.944336	133.698334
23205.596064	2442.362000	632.719727	351.466644
23205.596064	2442.362000	631.494141	210.815720
23205.596064	2442.362000	630.269531	503.188385
23205.596064	2442.362000	629.042969	348.862518
23205.596064	2442.362000	627.817383	568.466248
23205.596064	2442.362000	626.590820	550.037659
23205.596064	2442.362000	625.365234	563.290405
23205.596064	2442.362000	624.137695	284.342926
23205.596064	2442.362000	622.911133	102.838371
23205.596064	2442.362000	621.683594	485.021759
23205.596064	2442.362000	620.456055	108.831749
23205.596064	2442.362000	619.228516	-7.022177
23205.596064	2442.362000	618.000977	-14.275880
23205.596064	2442.362000	616.772461	48.548725
23205.596064	2442.362000	615.543945	190.457886
23205.596064	2442.362000	614.314453	142.362289
23205.596064	2442.362000	613.085938	207.279984
23205.596064	2442.362000	611.856445	195.301361
23205.596064	2442.362000	610.626953	-123.973457
23205.596064	2442.362000	609.397461	31.228558
23205.596064	2442.362000	608.166992	-82.416313
23205.596064	2442.362000	606.936523	-112.491455
23205.596064	2442.362000	605.706055	-95.168152
23205.596064	2442.362000	604.474609	-206.526001
23205.596064	2442.362000	603.244141	56.730698
23205.596064	2442.362000	602.012695	-34.341007
23205.596064	2442.362000	600.780273	5.426459
23205.596064	2442.362000	599.548828	-20.225824
23205.596064	2442.362000	598.316406	78.115608
23205.596064	2442.362000	597.083984	147.102859
23205.596064	2442.362000	595.851563	-43.112076
23205.596064	2442.362000	594.618164	88.938095
23205.596064	2442.362000	593.384766	88.020744
23205.596064	2442.362000	592.151367	136.648224
23205.596064	2442.362000	590.917969	115.452011
23205.596064	2442.362000	589.683594	-16.051748
23205.596064	2442.362000	588.449219	140.594742
23205.596064	2442.362000	587.214844	-112.366692
23205.596064	2442.362000	585.979492	-104.248978
23205.596064	2442.362000	584.745117	-53.384312
23205.596064	2442.362000	583.509766	64.923058
23205.596064	2442.362000	582.273438	180.935501
23205.596064	2442.362000	581.038086	-197.610901
23205.596064	2442.362000	579.801758	-70.331848
23205.596064	2442.362000	578.565430	133.302597
23205.596064	2442.362000	577.329102	242.516663
23205.596064	2442.362000	576.091797	77.690796
23205.596064	2442.362000	574.854492	-82.554283
23205.596064	2442.362000	573.617188	293.839600
23205.596064	2442.362000	572.378906	-97.531281
23205.596064	2442.362000	571.141602	-93.756332
23205.596064	2442.362000	569.903320	233.105530
23205.596064	2442.362000	568.664063	-124.285942
23205.596064	2442.362000	567.425781	191.285263
23205.596064	2442.362000	566.186523	-152.433960
23205.596064	2442.362000	564.947266	-38.683598
23205.596064	2442.362000	563.708008	-164.752274
23205.596064	2442.362000	562.467773	-131.652023
23205.596064	2442.362000	561.227539	-29.084854
23205.596064	2442.362000	559.987305	147.385117
23205.596064	2442.362000	558.747070	-5.348230
23205.596064	2442.362000	557.505859	-75.150414
23205.596064	2442.362000	556.264648	112.519478
23205.596064	2442.362000	555.023438	45.042542
23205.596064	2442.362000	553.781250	185.701721
23205.596064	2442.362000	552.539063	138.450806
23205.596064	2442.362000	551.296875	-181.570419
23205.596064	2442.362000	550.054688	-31.873592
23205.596064	2442.362000	548.811523	155.801788
23205.596064	2442.362000	547.569336	-58.833702
23205.596064	2442.362000	546.325195	77.467232
23205.596064	2442.362000	545.082031	75.259903
23205.596064	2442.362000	543.837891	296.449127
23205.596064	2442.362000	542.593750	151.380630
23205.596064	2442.362000	541.349609	307.820770
23205.596064	2442.362000	540.105469	-49.126183
23205.596064	2442.362000	538.860352	15.896912
23205.596064	2442.362000	537.615234	107.719780
23205.596064	2442.362000	536.369141	-30.199825
23205.596064	2442.362000	535.124023	231.196884
23205.596064	2442.362000	533.877930	178.149979
23205.596064	2442.362000	532.631836	-164.610855
23205.596064	2442.362000	531.384766	32.174820
23205.596064	2442.362000	530.138672	-60.730736
23205.596064	2442.362000	528.891602	-8.740642
23205.596064	2442.362000	527.643555	3.189295
23205.596064	2442.362000	526.396484	-167.419403
23205.596064	2442.362000	525.148438	158.567093
23205.596064	2442.362000	523.900391	-76.439720
23205.596064	2442.362000	522.652344	129.334351
23205.596064	2442.362000	521.403320	-78.756683
23205.596064	2442.362000	520.154297	-186.601547
23205.596064	2442.362000	518.905273	43.693855
23205.596064	2442.362000	517.656250	9.356516
23205.596064	2442.362000	516.406250	26.212934
23205.596064	2442.362000	515.156250	5.335762
23205.596064	2442.362000	513.906250	148.950760
23205.596064	2442.362000	512.655273	-51.784698
23205.596064	2442.362000	511.404297	-45.822777
23205.596064	2442.362000	510.153320	-153.061081
23205.596064	2442.362000	508.902344	-13.771342
23205.596064	2442.362000	507.650391	-116.436043
23205.596064	2442.362000	506.398438	111.645340
23205.596064	2442.362000	505.146484	-44.156677
23205.596064	2442.362000	503.893555	139.534576
23205.596064	2442.362000	502.641602	205.653091
23205.596064	2442.362000	501.388672	242.958527
23205.596064	2442.362000	500.134766	311.316132
23205.596064	2442.362000	498.881836	255.572449
23205.596064	2442.362000	497.627930	102.388290
23205.596064	2442.362000	496.374023	259.449219
23205.596064	2442.362000	495.119141	383.246460
23205.596064	2442.362000	493.865234	425.088654
23205.596064	2442.362000	492.610352	61.788597
23205.596064	2442.362000	491.355469	406.962860
23205.596064	2442.362000	490.099609	510.793579
23205.596064	2442.362000	488.843750	506.180084
23205.596064	2442.362000	487.587891	612.183472
23205.596064	2442.362000	486.332031	439.495361
23205.596064	2442.362000	485.075195	311.102020
23205.596064	2442.362000	483.818359	662.460754
23205.596064	2442.362000	482.561523	805.913086
23205.596064	2442.362000	481.304688	686.353271
23205.596064	2442.362000	480.046875	664.028503
23205.596064	2442.362000	478.789063	809.555542
23205.596064	2442.362000	477.531250	793.800598
23205.596064	2442.362000	476.272461	778.022095
23205.596064	2442.362000	475.013672	757.803040
23205.596064	2442.362000	473.754883	1026.641846
23205.596064	2442.362000	472.496094	831.999817
23205.596064	2442.362000	471.236328	886.646057
23205.596064	2442.362000	469.976563	945.623840
23205.596064	2442.362000	468.716797	843.561646
23205.596064	2442.362000	467.456055	717.222046
23205.596064	2442.362000	466.196289	954.511658
23205.596064	2442.362000	464.935547	984.490662
23205.596064	2442.362000	463.673828	1071.640137
23205.596064	2442.362000	462.413086	986.868286
23205.596064	2442.362000	461.151367	1296.181641
23205.596064	2442.362000	459.889648	1319.053345
23205.596064	2442.362000	458.626953	1174.509766
23205.596064	2442.362000	457.364258	1331.379272
23205.596064	2442.362000	456.101563	1087.625977
23205.596064	2442.362000	454.838867	1292.557495
23205.596064	2442.362000	453.575195	1239.938599
23205.596064	2442.362000	452.312500	1042.069580
23205.596064	2442.362000	451.047852	984.787354
23205.596064	2442.362000	449.784180	1257.010864
23205.596064	2442.362000	448.519531	1274.034790
23205.596064	2442.362000	447.254883	1154.647339
23205.596064	2442.362000	445.990234	1043.878662
23205.596064	2442.362000	444.725586	935.128113
23205.596064	2442.362000	443.459961	1045.713379
23205.596064	2442.362000	442.194336	1125.273682
23205.596064	2442.362000	440.927734	1158.446289
23205.596064	2442.362000	439.662109	1283.480957
23205.596064	2442.362000	438.395508	1219.530151
23205.596064	2442.362000	437.127930	1159.683960
23205.596064	2442.362000	435.861328	1375.811523
23205.596064	2442.362000	434.593750	1398.609985
23205.596064	2442.362000	433.326172	1118.619873
23205.596064	2442.362000	432.058594	1467.235352
23205.596064	2442.362000	430.790039	1477.963745
23205.596064	2442.362000	429.521484	1291.189087
23205.596064	2442.362000	428.252930	1217.952759
23205.596064	2442.362000	426.984375	1520.865845
23205.596064	2442.362000	425.714844	1698.446655
23205.596064	2442.362000	424.445313	1479.426880
23205.596064	2442.362000	423.174805	1601.311401
23205.596064	2442.362000	421.905273	1722.663330
23205.596064	2442.362000	420.634766	2031.512817
23205.596064	2442.362000	419.364258	1740.645752
23205.596064	2442.362000	418.092773	1796.899780
23205.596064	2442.362000	416.822266	1585.960693
23205.596064	2442.362000	415.550781	1761.248169
23205.596064	2442.362000	414.278320	1623.465454
23205.596064	2442.362000	413.006836	1456.739014
23205.596064	2442.362000	411.734375	1359.296875
23205.596064	2442.362000	410.461914	1302.705933
23205.596064	2442.362000	409.188477	1291.268555
23205.596064	2442.362000	407.916016	1287.864990
23205.596064	2442.362000	406.642578	1360.069092
23205.596064	2442.362000	405.368164	1246.066772
23205.596064	2442.362000	404.094727	1198.947510
23205.596064	2442.362000	402.820313	1460.606079
23205.596064	2442.362000	401.545898	1492.447876
23205.596064	2442.362000	400.270508	1427.509277
23205.596064	2442.362000	398.996094	1335.588013
23205.596064	2442.362000	397.720703	1229.700439
23205.596064	2442.362000	396.444336	1469.169312
23205.596064	2442.362000	395.168945	1404.937134
23205.596064	2442.362000	393.892578	1156.854492
23205.596064	2442.362000	392.616211	1256.075562
23205.596064	2442.362000	391.339844	1336.787964
23205.596064	2442.362000	390.062500	850.736938
23205.596064	2442.362000	388.785156	1009.744995
23205.596064	2442.362000	387.507813	1276.259888
23205.596064	2442.362000	386.229492	1411.004761
23205.596064	2442.362000	384.951172	1335.814575
23205.596064	2442.362000	383.672852	1365.889160
23205.596064	2442.362000	382.394531	1231.720825
23205.596064	2442.362000	381.115234	1456.836792
23205.596064	2442.362000	379.835938	1341.719604
23205.596064	2442.362000	378.556641	1097.162476
23205.596064	2442.362000	377.277344	1315.820923
23205.596064	2442.362000	375.997070	1198.664551
23205.596064	2442.362000	374.716797	1312.220581
23205.596064	2442.362000	373.435547	1157.323730
23205.596064	2442.362000	372.155273	1204.819946
23205.596064	2442.362000	370.874023	1059.820435
23205.596064	2442.362000	369.591797	1097.445679
23205.596064	2442.362000	368.310547	970.835876
23205.596064	2442.362000	367.028320	1256.373779
23205.596064	2442.362000	365.746094	1059.038818
23205.596064	2442.362000	364.463867	1145.866455
23205.596064	2442.362000	363.180664	1037.993530
23205.596064	2442.362000	361.897461	1058.141724
23205.596064	2442.362000	360.614258	968.078247
23205.596064	2442.362000	359.330078	685.536804
23205.596064	2442.362000	358.045898	693.137207
23205.596064	2442.362000	356.761719	986.316406
23205.596064	2442.362000	355.477539	814.381348
23205.596064	2442.362000	354.192383	741.864685
23205.596064	2442.362000	352.907227	770.869629
23205.596064	2442.362000	351.622070	516.569885
23205.596064	2442.362000	350.336914	679.200928
23205.596064	2442.362000	349.050781	1022.888184
23205.596064	2442.362000	347.764648	761.332092
23205.596064	2442.362000	346.477539	620.359497
23205.596064	2442.362000	345.191406	416.465118
23205.596064	2442.362000	343.904297	455.988159
23205.596064	2442.362000	342.616211	518.591980
23205.596064	2442.362000	341.329102	289.354675
23205.596064	2442.362000	340.041016	546.944092
23205.596064	2442.362000	338.752930	726.034424
23205.596064	2442.362000	337.463867	373.745789
23205.596064	2442.362000	336.175781	415.300385
23205.596064	2442.362000	334.886719	95.891579
23205.596064	2442.362000	333.596680	143.971939
23205.596064	2442.362000	332.307617	203.967819
23205.596064	2442.362000	331.017578	234.696030
23205.596064	2442.362000	329.727539	-101.867699
23205.596064	2442.362000	328.436523	156.651917
23205.596064	2442.362000	327.146484	316.943054
23205.596064	2442.362000	325.855469	157.147659
23205.596064	2442.362000	324.563477	-30.020699
23205.596064	2442.362000	323.272461	-27.148193
23205.596064	2442.362000	321.980469	49.207733
23205.596064	2442.362000	320.688477	-84.759651
23205.596064	2442.362000	319.395508	131.906952
23205.596064	2442.362000	318.103516	-63.772358
23205.596064	2442.362000	316.810547	26.437374
23205.596064	2442.362000	315.516602	6.998394
23205.596064	2442.362000	314.223633	-91.769188
23205.596064	2442.362000	312.929688	-29.680128
23205.596064	2442.362000	311.635742	-300.540253
23205.596064	2442.362000	310.340820	-324.876282
23205.596064	2442.362000	309.045898	94.609528
23205.596064	2442.362000	307.750977	-95.804230
23205.596064	2442.362000	306.456055	-147.264008
23205.596064	2442.362000	305.160156	306.572845
23205.596064	2442.362000	303.865234	253.680466
23205.596064	2442.362000	302.568359	197.510742
23205.596064	2442.362000	301.272461	327.038330
23205.596064	2442.362000	299.975586	309.622528
23205.596064	2442.362000	298.678711	460.300018
