#X		#Y		#Wave		#Intensity
30887.037074	1188.969000	1999.980469	-56.444275
30887.037074	1188.969000	1999.016602	1.524826
30887.037074	1188.969000	1998.052734	55.138302
30887.037074	1188.969000	1997.087891	-42.807873
30887.037074	1188.969000	1996.123047	-4.817407
30887.037074	1188.969000	1995.158203	3.071560
30887.037074	1188.969000	1994.193359	-113.229134
30887.037074	1188.969000	1993.228516	2.945550
30887.037074	1188.969000	1992.262695	-37.222588
30887.037074	1188.969000	1991.297852	78.247337
30887.037074	1188.969000	1990.332031	-118.467117
30887.037074	1188.969000	1989.366211	-23.422840
30887.037074	1188.969000	1988.399414	49.035526
30887.037074	1188.969000	1987.433594	-59.386818
30887.037074	1188.969000	1986.466797	84.218384
30887.037074	1188.969000	1985.500977	106.345619
30887.037074	1188.969000	1984.534180	-12.698423
30887.037074	1188.969000	1983.567383	60.848793
30887.037074	1188.969000	1982.599609	32.814720
30887.037074	1188.969000	1981.632813	-247.460632
30887.037074	1188.969000	1980.665039	87.260811
30887.037074	1188.969000	1979.697266	-0.701995
30887.037074	1188.969000	1978.729492	-39.449139
30887.037074	1188.969000	1977.761719	17.909342
30887.037074	1188.969000	1976.792969	129.364594
30887.037074	1188.969000	1975.825195	173.957336
30887.037074	1188.969000	1974.856445	109.784920
30887.037074	1188.969000	1973.887695	28.197792
30887.037074	1188.969000	1972.918945	57.477657
30887.037074	1188.969000	1971.949219	59.463116
30887.037074	1188.969000	1970.980469	-121.167984
30887.037074	1188.969000	1970.010742	-166.283615
30887.037074	1188.969000	1969.041016	84.258698
30887.037074	1188.969000	1968.071289	33.923477
30887.037074	1188.969000	1967.101563	99.284950
30887.037074	1188.969000	1966.130859	245.795731
30887.037074	1188.969000	1965.161133	39.929325
30887.037074	1188.969000	1964.190430	161.547714
30887.037074	1188.969000	1963.219727	147.601898
30887.037074	1188.969000	1962.249023	84.330444
30887.037074	1188.969000	1961.277344	301.560211
30887.037074	1188.969000	1960.306641	73.232857
30887.037074	1188.969000	1959.334961	125.373245
30887.037074	1188.969000	1958.363281	54.424866
30887.037074	1188.969000	1957.391602	71.963516
30887.037074	1188.969000	1956.419922	-16.307697
30887.037074	1188.969000	1955.447266	187.938339
30887.037074	1188.969000	1954.474609	-25.808157
30887.037074	1188.969000	1953.501953	-55.221909
30887.037074	1188.969000	1952.529297	52.915337
30887.037074	1188.969000	1951.556641	129.024826
30887.037074	1188.969000	1950.583984	20.848501
30887.037074	1188.969000	1949.610352	-30.852961
30887.037074	1188.969000	1948.636719	138.394180
30887.037074	1188.969000	1947.663086	-104.859863
30887.037074	1188.969000	1946.689453	-24.089436
30887.037074	1188.969000	1945.715820	135.142670
30887.037074	1188.969000	1944.741211	31.773188
30887.037074	1188.969000	1943.767578	87.858414
30887.037074	1188.969000	1942.792969	-84.181587
30887.037074	1188.969000	1941.818359	82.201645
30887.037074	1188.969000	1940.842773	15.605026
30887.037074	1188.969000	1939.868164	127.950829
30887.037074	1188.969000	1938.892578	-21.979580
30887.037074	1188.969000	1937.916992	-76.306015
30887.037074	1188.969000	1936.941406	82.506958
30887.037074	1188.969000	1935.965820	94.297920
30887.037074	1188.969000	1934.990234	44.859947
30887.037074	1188.969000	1934.013672	-14.356717
30887.037074	1188.969000	1933.037109	-100.477654
30887.037074	1188.969000	1932.060547	136.499939
30887.037074	1188.969000	1931.083984	224.125122
30887.037074	1188.969000	1930.107422	86.640793
30887.037074	1188.969000	1929.129883	-72.801544
30887.037074	1188.969000	1928.153320	-60.980274
30887.037074	1188.969000	1927.175781	26.645205
30887.037074	1188.969000	1926.198242	-61.770493
30887.037074	1188.969000	1925.219727	40.510338
30887.037074	1188.969000	1924.242188	106.111267
30887.037074	1188.969000	1923.263672	7.995571
30887.037074	1188.969000	1922.285156	181.094879
30887.037074	1188.969000	1921.306641	-87.936501
30887.037074	1188.969000	1920.328125	-17.412552
30887.037074	1188.969000	1919.349609	-103.155167
30887.037074	1188.969000	1918.370117	-152.230698
30887.037074	1188.969000	1917.391602	45.236187
30887.037074	1188.969000	1916.412109	162.123596
30887.037074	1188.969000	1915.431641	-28.415911
30887.037074	1188.969000	1914.452148	-104.215347
30887.037074	1188.969000	1913.472656	46.844250
30887.037074	1188.969000	1912.492188	161.294479
30887.037074	1188.969000	1911.511719	-31.448576
30887.037074	1188.969000	1910.531250	139.082260
30887.037074	1188.969000	1909.550781	-99.838783
30887.037074	1188.969000	1908.569336	65.815865
30887.037074	1188.969000	1907.588867	46.293556
30887.037074	1188.969000	1906.607422	7.317576
30887.037074	1188.969000	1905.625977	-24.313599
30887.037074	1188.969000	1904.644531	-31.560349
30887.037074	1188.969000	1903.662109	-2.265803
30887.037074	1188.969000	1902.680664	73.285645
30887.037074	1188.969000	1901.698242	41.766056
30887.037074	1188.969000	1900.715820	100.300713
30887.037074	1188.969000	1899.733398	5.595027
30887.037074	1188.969000	1898.750000	151.714981
30887.037074	1188.969000	1897.767578	20.611574
30887.037074	1188.969000	1896.784180	-42.348747
30887.037074	1188.969000	1895.800781	8.977532
30887.037074	1188.969000	1894.817383	-265.332764
30887.037074	1188.969000	1893.833984	-223.655487
30887.037074	1188.969000	1892.850586	-45.932911
30887.037074	1188.969000	1891.866211	-135.421906
30887.037074	1188.969000	1890.881836	56.832298
30887.037074	1188.969000	1889.897461	132.498138
30887.037074	1188.969000	1888.913086	191.164963
30887.037074	1188.969000	1887.927734	96.930382
30887.037074	1188.969000	1886.943359	-16.660286
30887.037074	1188.969000	1885.958008	0.818189
30887.037074	1188.969000	1884.972656	32.863224
30887.037074	1188.969000	1883.987305	-41.792427
30887.037074	1188.969000	1883.001953	206.083954
30887.037074	1188.969000	1882.015625	104.791138
30887.037074	1188.969000	1881.029297	83.538742
30887.037074	1188.969000	1880.042969	-0.697396
30887.037074	1188.969000	1879.056641	75.023865
30887.037074	1188.969000	1878.070313	99.859451
30887.037074	1188.969000	1877.083984	-52.105480
30887.037074	1188.969000	1876.096680	-12.700159
30887.037074	1188.969000	1875.109375	-251.721985
30887.037074	1188.969000	1874.122070	83.044510
30887.037074	1188.969000	1873.134766	81.292305
30887.037074	1188.969000	1872.146484	193.276138
30887.037074	1188.969000	1871.159180	36.688469
30887.037074	1188.969000	1870.170898	34.970318
30887.037074	1188.969000	1869.182617	-10.271102
30887.037074	1188.969000	1868.194336	-40.982517
30887.037074	1188.969000	1867.205078	128.969681
30887.037074	1188.969000	1866.216797	-138.613281
30887.037074	1188.969000	1865.227539	-33.946651
30887.037074	1188.969000	1864.238281	82.763229
30887.037074	1188.969000	1863.249023	-37.302002
30887.037074	1188.969000	1862.259766	57.628139
30887.037074	1188.969000	1861.269531	125.959679
30887.037074	1188.969000	1860.279297	117.006264
30887.037074	1188.969000	1859.290039	-12.637713
30887.037074	1188.969000	1858.298828	62.898186
30887.037074	1188.969000	1857.308594	29.819599
30887.037074	1188.969000	1856.318359	32.933884
30887.037074	1188.969000	1855.327148	62.571316
30887.037074	1188.969000	1854.335938	10.196401
30887.037074	1188.969000	1853.344727	-182.012222
30887.037074	1188.969000	1852.353516	40.472237
30887.037074	1188.969000	1851.362305	53.174595
30887.037074	1188.969000	1850.370117	68.268822
30887.037074	1188.969000	1849.377930	-29.893341
30887.037074	1188.969000	1848.385742	42.994659
30887.037074	1188.969000	1847.393555	113.430305
30887.037074	1188.969000	1846.401367	82.689896
30887.037074	1188.969000	1845.408203	18.237335
30887.037074	1188.969000	1844.415039	13.965942
30887.037074	1188.969000	1843.421875	134.817535
30887.037074	1188.969000	1842.428711	72.737350
30887.037074	1188.969000	1841.435547	135.753143
30887.037074	1188.969000	1840.441406	184.290176
30887.037074	1188.969000	1839.448242	-113.501297
30887.037074	1188.969000	1838.454102	-129.902100
30887.037074	1188.969000	1837.459961	-45.361507
30887.037074	1188.969000	1836.464844	65.556862
30887.037074	1188.969000	1835.470703	118.734428
30887.037074	1188.969000	1834.475586	97.383865
30887.037074	1188.969000	1833.480469	136.062332
30887.037074	1188.969000	1832.485352	-5.425523
30887.037074	1188.969000	1831.490234	-48.445927
30887.037074	1188.969000	1830.495117	160.588013
30887.037074	1188.969000	1829.499023	71.878616
30887.037074	1188.969000	1828.502930	227.945160
30887.037074	1188.969000	1827.506836	43.210484
30887.037074	1188.969000	1826.510742	242.328415
30887.037074	1188.969000	1825.513672	76.770195
30887.037074	1188.969000	1824.517578	69.502037
30887.037074	1188.969000	1823.520508	-139.196671
30887.037074	1188.969000	1822.523438	-69.798592
30887.037074	1188.969000	1821.526367	-7.659153
30887.037074	1188.969000	1820.529297	-91.752892
30887.037074	1188.969000	1819.531250	224.223770
30887.037074	1188.969000	1818.533203	171.165085
30887.037074	1188.969000	1817.535156	297.690765
30887.037074	1188.969000	1816.537109	172.713974
30887.037074	1188.969000	1815.539063	119.552719
30887.037074	1188.969000	1814.540039	54.394199
30887.037074	1188.969000	1813.541992	-101.722565
30887.037074	1188.969000	1812.542969	199.144547
30887.037074	1188.969000	1811.543945	-14.455052
30887.037074	1188.969000	1810.543945	157.027008
30887.037074	1188.969000	1809.544922	101.228828
30887.037074	1188.969000	1808.544922	196.013077
30887.037074	1188.969000	1807.544922	218.997269
30887.037074	1188.969000	1806.544922	74.627937
30887.037074	1188.969000	1805.544922	-134.256821
30887.037074	1188.969000	1804.544922	79.722168
30887.037074	1188.969000	1803.543945	30.826355
30887.037074	1188.969000	1802.542969	101.292259
30887.037074	1188.969000	1801.541992	133.470261
30887.037074	1188.969000	1800.541016	67.702957
30887.037074	1188.969000	1799.539063	28.151033
30887.037074	1188.969000	1798.538086	155.590668
30887.037074	1188.969000	1797.536133	13.324361
30887.037074	1188.969000	1796.534180	-224.364075
30887.037074	1188.969000	1795.532227	193.813828
30887.037074	1188.969000	1794.529297	163.495102
30887.037074	1188.969000	1793.527344	199.876495
30887.037074	1188.969000	1792.524414	50.261452
30887.037074	1188.969000	1791.521484	41.237385
30887.037074	1188.969000	1790.518555	67.889694
30887.037074	1188.969000	1789.514648	101.607620
30887.037074	1188.969000	1788.511719	47.124268
30887.037074	1188.969000	1787.507813	85.459801
30887.037074	1188.969000	1786.503906	211.801620
30887.037074	1188.969000	1785.500000	133.314819
30887.037074	1188.969000	1784.496094	197.581940
30887.037074	1188.969000	1783.491211	28.565153
30887.037074	1188.969000	1782.486328	-7.234805
30887.037074	1188.969000	1781.481445	-57.364235
30887.037074	1188.969000	1780.476563	49.408901
30887.037074	1188.969000	1779.471680	79.983658
30887.037074	1188.969000	1778.465820	77.190094
30887.037074	1188.969000	1777.460938	26.793251
30887.037074	1188.969000	1776.455078	-154.357956
30887.037074	1188.969000	1775.449219	-88.426262
30887.037074	1188.969000	1774.442383	-20.222452
30887.037074	1188.969000	1773.436523	-82.736740
30887.037074	1188.969000	1772.429688	132.509674
30887.037074	1188.969000	1771.422852	-34.622162
30887.037074	1188.969000	1770.416016	78.318680
30887.037074	1188.969000	1769.409180	134.185501
30887.037074	1188.969000	1768.402344	147.246201
30887.037074	1188.969000	1767.394531	93.798988
30887.037074	1188.969000	1766.386719	101.962631
30887.037074	1188.969000	1765.378906	3.336128
30887.037074	1188.969000	1764.371094	-7.607031
30887.037074	1188.969000	1763.362305	-156.112793
30887.037074	1188.969000	1762.354492	8.203905
30887.037074	1188.969000	1761.345703	-17.186363
30887.037074	1188.969000	1760.336914	30.796644
30887.037074	1188.969000	1759.328125	40.786182
30887.037074	1188.969000	1758.318359	-62.983028
30887.037074	1188.969000	1757.308594	252.297546
30887.037074	1188.969000	1756.299805	198.090576
30887.037074	1188.969000	1755.290039	-66.827530
30887.037074	1188.969000	1754.279297	46.893150
30887.037074	1188.969000	1753.269531	-83.192413
30887.037074	1188.969000	1752.258789	141.510178
30887.037074	1188.969000	1751.249023	-24.174732
30887.037074	1188.969000	1750.238281	18.203434
30887.037074	1188.969000	1749.226563	34.476112
30887.037074	1188.969000	1748.215820	-20.238918
30887.037074	1188.969000	1747.204102	26.602299
30887.037074	1188.969000	1746.193359	283.640808
30887.037074	1188.969000	1745.181641	174.337311
30887.037074	1188.969000	1744.168945	-3.501616
30887.037074	1188.969000	1743.157227	35.906693
30887.037074	1188.969000	1742.144531	-99.494568
30887.037074	1188.969000	1741.132813	-55.514713
30887.037074	1188.969000	1740.120117	85.128555
30887.037074	1188.969000	1739.106445	29.786352
30887.037074	1188.969000	1738.093750	54.607830
30887.037074	1188.969000	1737.080078	69.901772
30887.037074	1188.969000	1736.067383	47.388439
30887.037074	1188.969000	1735.053711	67.243546
30887.037074	1188.969000	1734.040039	-146.364944
30887.037074	1188.969000	1733.025391	73.701057
30887.037074	1188.969000	1732.011719	109.808907
30887.037074	1188.969000	1730.997070	-4.961876
30887.037074	1188.969000	1729.982422	-70.296516
30887.037074	1188.969000	1728.967773	73.925507
30887.037074	1188.969000	1727.952148	-29.227335
30887.037074	1188.969000	1726.937500	-61.780483
30887.037074	1188.969000	1725.921875	-54.386471
30887.037074	1188.969000	1724.906250	-96.487938
30887.037074	1188.969000	1723.890625	240.167542
30887.037074	1188.969000	1722.875000	-98.521133
30887.037074	1188.969000	1721.858398	-147.866638
30887.037074	1188.969000	1720.841797	40.240467
30887.037074	1188.969000	1719.825195	-112.700287
30887.037074	1188.969000	1718.808594	-91.705948
30887.037074	1188.969000	1717.791992	9.116600
30887.037074	1188.969000	1716.774414	-45.256523
30887.037074	1188.969000	1715.756836	128.202469
30887.037074	1188.969000	1714.739258	54.901398
30887.037074	1188.969000	1713.721680	0.348641
30887.037074	1188.969000	1712.704102	53.753788
30887.037074	1188.969000	1711.685547	-106.554741
30887.037074	1188.969000	1710.667969	21.824625
30887.037074	1188.969000	1709.649414	-126.813240
30887.037074	1188.969000	1708.630859	24.845119
30887.037074	1188.969000	1707.611328	-140.291992
30887.037074	1188.969000	1706.592773	104.993935
30887.037074	1188.969000	1705.573242	85.155540
30887.037074	1188.969000	1704.553711	11.343473
30887.037074	1188.969000	1703.534180	3.127767
30887.037074	1188.969000	1702.513672	83.896004
30887.037074	1188.969000	1701.494141	77.891693
30887.037074	1188.969000	1700.473633	172.551376
30887.037074	1188.969000	1699.453125	21.198864
30887.037074	1188.969000	1698.432617	-80.979538
30887.037074	1188.969000	1697.412109	-26.316090
30887.037074	1188.969000	1696.390625	-158.997665
30887.037074	1188.969000	1695.369141	124.885719
30887.037074	1188.969000	1694.347656	118.467674
30887.037074	1188.969000	1693.326172	-35.382839
30887.037074	1188.969000	1692.304688	-27.841785
30887.037074	1188.969000	1691.282227	3.019973
30887.037074	1188.969000	1690.260742	-113.467896
30887.037074	1188.969000	1689.238281	48.200478
30887.037074	1188.969000	1688.214844	151.318771
30887.037074	1188.969000	1687.192383	-89.133652
30887.037074	1188.969000	1686.168945	20.883030
30887.037074	1188.969000	1685.146484	-46.700455
30887.037074	1188.969000	1684.123047	11.794231
30887.037074	1188.969000	1683.099609	280.359772
30887.037074	1188.969000	1682.075195	74.878120
30887.037074	1188.969000	1681.051758	-27.864166
30887.037074	1188.969000	1680.027344	84.064857
30887.037074	1188.969000	1679.002930	226.239136
30887.037074	1188.969000	1677.978516	-25.898054
30887.037074	1188.969000	1676.953125	4.205027
30887.037074	1188.969000	1675.928711	94.891968
30887.037074	1188.969000	1674.903320	82.918617
30887.037074	1188.969000	1673.877930	-68.937759
30887.037074	1188.969000	1672.852539	180.053268
30887.037074	1188.969000	1671.826172	107.372025
30887.037074	1188.969000	1670.800781	144.177872
30887.037074	1188.969000	1669.774414	101.739067
30887.037074	1188.969000	1668.748047	233.926819
30887.037074	1188.969000	1667.721680	54.061440
30887.037074	1188.969000	1666.694336	113.975662
30887.037074	1188.969000	1665.667969	108.682671
30887.037074	1188.969000	1664.640625	121.967087
30887.037074	1188.969000	1663.613281	137.544037
30887.037074	1188.969000	1662.585938	364.744568
30887.037074	1188.969000	1661.557617	159.287094
30887.037074	1188.969000	1660.530273	181.742661
30887.037074	1188.969000	1659.501953	34.463066
30887.037074	1188.969000	1658.473633	314.851074
30887.037074	1188.969000	1657.444336	295.346680
30887.037074	1188.969000	1656.416016	166.648087
30887.037074	1188.969000	1655.386719	381.734863
30887.037074	1188.969000	1654.358398	436.490814
30887.037074	1188.969000	1653.328125	307.760254
30887.037074	1188.969000	1652.298828	281.213593
30887.037074	1188.969000	1651.269531	212.883621
30887.037074	1188.969000	1650.239258	290.745453
30887.037074	1188.969000	1649.208984	486.885559
30887.037074	1188.969000	1648.178711	325.716125
30887.037074	1188.969000	1647.148438	322.299713
30887.037074	1188.969000	1646.117188	506.677795
30887.037074	1188.969000	1645.086914	493.932648
30887.037074	1188.969000	1644.055664	629.512390
30887.037074	1188.969000	1643.024414	718.684265
30887.037074	1188.969000	1641.992188	870.359863
30887.037074	1188.969000	1640.960938	711.574585
30887.037074	1188.969000	1639.928711	809.913330
30887.037074	1188.969000	1638.896484	1070.298584
30887.037074	1188.969000	1637.864258	719.388550
30887.037074	1188.969000	1636.832031	699.610107
30887.037074	1188.969000	1635.798828	783.967712
30887.037074	1188.969000	1634.766602	757.242737
30887.037074	1188.969000	1633.733398	587.091431
30887.037074	1188.969000	1632.699219	812.499207
30887.037074	1188.969000	1631.666016	785.778809
30887.037074	1188.969000	1630.632813	742.889587
30887.037074	1188.969000	1629.598633	780.915161
30887.037074	1188.969000	1628.564453	770.399109
30887.037074	1188.969000	1627.530273	817.659851
30887.037074	1188.969000	1626.495117	758.632507
30887.037074	1188.969000	1625.460938	865.947083
30887.037074	1188.969000	1624.425781	767.695313
30887.037074	1188.969000	1623.390625	1001.963867
30887.037074	1188.969000	1622.355469	1058.408936
30887.037074	1188.969000	1621.319336	1084.833008
30887.037074	1188.969000	1620.284180	1346.633301
30887.037074	1188.969000	1619.248047	1329.187134
30887.037074	1188.969000	1618.211914	1270.244873
30887.037074	1188.969000	1617.174805	1188.272217
30887.037074	1188.969000	1616.138672	1187.059692
30887.037074	1188.969000	1615.101563	1349.528931
30887.037074	1188.969000	1614.065430	1186.989746
30887.037074	1188.969000	1613.027344	1427.775635
30887.037074	1188.969000	1611.990234	1302.182373
30887.037074	1188.969000	1610.953125	1418.522949
30887.037074	1188.969000	1609.915039	1152.535767
30887.037074	1188.969000	1608.876953	1149.168213
30887.037074	1188.969000	1607.838867	1456.612793
30887.037074	1188.969000	1606.800781	1398.003174
30887.037074	1188.969000	1605.761719	1159.941162
30887.037074	1188.969000	1604.723633	1352.253662
30887.037074	1188.969000	1603.684570	1383.489624
30887.037074	1188.969000	1602.644531	1345.741089
30887.037074	1188.969000	1601.605469	1377.032349
30887.037074	1188.969000	1600.566406	1486.508667
30887.037074	1188.969000	1599.526367	1554.595337
30887.037074	1188.969000	1598.486328	1487.106567
30887.037074	1188.969000	1597.446289	1490.905518
30887.037074	1188.969000	1596.405273	1478.652832
30887.037074	1188.969000	1595.365234	1652.486450
30887.037074	1188.969000	1594.324219	1543.841675
30887.037074	1188.969000	1593.283203	1508.746338
30887.037074	1188.969000	1592.242188	1494.365479
30887.037074	1188.969000	1591.200195	1445.600098
30887.037074	1188.969000	1590.159180	1454.267334
30887.037074	1188.969000	1589.117188	1694.664185
30887.037074	1188.969000	1588.075195	1517.582031
30887.037074	1188.969000	1587.032227	1301.623169
30887.037074	1188.969000	1585.990234	1402.195313
30887.037074	1188.969000	1584.947266	1305.635620
30887.037074	1188.969000	1583.904297	1149.577271
30887.037074	1188.969000	1582.861328	1252.550415
30887.037074	1188.969000	1581.818359	1378.443604
30887.037074	1188.969000	1580.775391	1394.399170
30887.037074	1188.969000	1579.731445	1172.233765
30887.037074	1188.969000	1578.687500	1236.401245
30887.037074	1188.969000	1577.643555	975.547852
30887.037074	1188.969000	1576.598633	1147.397583
30887.037074	1188.969000	1575.554688	1120.172363
30887.037074	1188.969000	1574.509766	1209.682129
30887.037074	1188.969000	1573.464844	1127.667847
30887.037074	1188.969000	1572.419922	1338.461182
30887.037074	1188.969000	1571.374023	1199.404541
30887.037074	1188.969000	1570.329102	1277.637207
30887.037074	1188.969000	1569.283203	1221.048828
30887.037074	1188.969000	1568.237305	1299.362427
30887.037074	1188.969000	1567.191406	1336.587280
30887.037074	1188.969000	1566.144531	1257.360107
30887.037074	1188.969000	1565.098633	1253.600708
30887.037074	1188.969000	1564.051758	1336.664307
30887.037074	1188.969000	1563.004883	1346.712769
30887.037074	1188.969000	1561.957031	1155.967896
30887.037074	1188.969000	1560.910156	1262.023682
30887.037074	1188.969000	1559.862305	1233.492554
30887.037074	1188.969000	1558.814453	1047.652710
30887.037074	1188.969000	1557.766602	980.545593
30887.037074	1188.969000	1556.718750	920.377075
30887.037074	1188.969000	1555.669922	926.407227
30887.037074	1188.969000	1554.621094	898.319885
30887.037074	1188.969000	1553.573242	792.846436
30887.037074	1188.969000	1552.523438	682.916504
30887.037074	1188.969000	1551.474609	666.506104
30887.037074	1188.969000	1550.424805	859.695618
30887.037074	1188.969000	1549.375000	718.167603
30887.037074	1188.969000	1548.325195	645.069092
30887.037074	1188.969000	1547.275391	314.879272
30887.037074	1188.969000	1546.225586	335.346771
30887.037074	1188.969000	1545.174805	626.626892
30887.037074	1188.969000	1544.124023	474.297150
30887.037074	1188.969000	1543.073242	506.325897
30887.037074	1188.969000	1542.022461	429.278168
30887.037074	1188.969000	1540.970703	736.540955
30887.037074	1188.969000	1539.919922	596.000244
30887.037074	1188.969000	1538.868164	562.399292
30887.037074	1188.969000	1537.815430	492.536621
30887.037074	1188.969000	1536.763672	406.890625
30887.037074	1188.969000	1535.710938	575.727356
30887.037074	1188.969000	1534.659180	342.672150
30887.037074	1188.969000	1533.606445	438.977844
30887.037074	1188.969000	1532.552734	596.610962
30887.037074	1188.969000	1531.500000	450.179749
30887.037074	1188.969000	1530.446289	419.604462
30887.037074	1188.969000	1529.393555	309.737091
30887.037074	1188.969000	1528.338867	522.051636
30887.037074	1188.969000	1527.285156	446.393341
30887.037074	1188.969000	1526.231445	402.595337
30887.037074	1188.969000	1525.176758	306.766418
30887.037074	1188.969000	1524.122070	140.812454
30887.037074	1188.969000	1523.067383	453.097137
30887.037074	1188.969000	1522.012695	90.278114
30887.037074	1188.969000	1520.957031	250.880478
30887.037074	1188.969000	1519.901367	363.958160
30887.037074	1188.969000	1518.845703	325.397308
30887.037074	1188.969000	1517.790039	316.371124
30887.037074	1188.969000	1516.734375	135.446335
30887.037074	1188.969000	1515.677734	194.525436
30887.037074	1188.969000	1514.621094	61.387459
30887.037074	1188.969000	1513.564453	39.224125
30887.037074	1188.969000	1512.507813	62.391209
30887.037074	1188.969000	1511.450195	72.075684
30887.037074	1188.969000	1510.393555	23.086226
30887.037074	1188.969000	1509.335938	100.766273
30887.037074	1188.969000	1508.278320	-54.217064
30887.037074	1188.969000	1507.219727	-285.853241
30887.037074	1188.969000	1506.162109	-56.538475
30887.037074	1188.969000	1505.103516	179.554794
30887.037074	1188.969000	1504.044922	142.468246
30887.037074	1188.969000	1502.986328	-113.460983
30887.037074	1188.969000	1501.926758	-84.832275
30887.037074	1188.969000	1500.868164	-71.908066
30887.037074	1188.969000	1499.808594	-11.517155
30887.037074	1188.969000	1498.749023	91.802544
30887.037074	1188.969000	1497.688477	89.193176
30887.037074	1188.969000	1496.628906	93.450127
30887.037074	1188.969000	1495.568359	136.125183
30887.037074	1188.969000	1494.507813	-150.156891
30887.037074	1188.969000	1493.447266	-53.171375
30887.037074	1188.969000	1492.386719	46.128735
30887.037074	1188.969000	1491.325195	32.870461
30887.037074	1188.969000	1490.263672	-79.363846
30887.037074	1188.969000	1489.202148	65.213013
30887.037074	1188.969000	1488.140625	-179.589325
30887.037074	1188.969000	1487.079102	19.166714
30887.037074	1188.969000	1486.016602	-70.069145
30887.037074	1188.969000	1484.954102	65.797600
30887.037074	1188.969000	1483.891602	-47.948814
30887.037074	1188.969000	1482.829102	-49.111111
30887.037074	1188.969000	1481.765625	66.737343
30887.037074	1188.969000	1480.702148	54.513889
30887.037074	1188.969000	1479.638672	-22.779531
30887.037074	1188.969000	1478.575195	120.243797
30887.037074	1188.969000	1477.511719	-48.921040
30887.037074	1188.969000	1476.447266	85.298523
30887.037074	1188.969000	1475.382813	338.518524
30887.037074	1188.969000	1474.318359	82.235977
30887.037074	1188.969000	1473.253906	-14.595080
30887.037074	1188.969000	1472.189453	124.274307
30887.037074	1188.969000	1471.124023	216.233536
30887.037074	1188.969000	1470.058594	142.453781
30887.037074	1188.969000	1468.993164	277.008179
30887.037074	1188.969000	1467.927734	182.995239
30887.037074	1188.969000	1466.861328	118.457069
30887.037074	1188.969000	1465.794922	123.436485
30887.037074	1188.969000	1464.728516	135.011459
30887.037074	1188.969000	1463.662109	202.826401
30887.037074	1188.969000	1462.594727	326.557495
30887.037074	1188.969000	1461.528320	284.979889
30887.037074	1188.969000	1460.460938	330.555603
30887.037074	1188.969000	1459.393555	410.069977
30887.037074	1188.969000	1458.326172	308.389069
30887.037074	1188.969000	1457.257813	287.197296
30887.037074	1188.969000	1456.189453	538.197693
30887.037074	1188.969000	1455.121094	528.568726
30887.037074	1188.969000	1454.052734	436.720398
30887.037074	1188.969000	1452.984375	500.940460
30887.037074	1188.969000	1451.915039	442.981232
30887.037074	1188.969000	1450.845703	534.153564
30887.037074	1188.969000	1449.776367	463.920135
30887.037074	1188.969000	1448.707031	261.753296
30887.037074	1188.969000	1447.636719	400.498444
30887.037074	1188.969000	1446.567383	338.745270
30887.037074	1188.969000	1445.497070	360.305054
30887.037074	1188.969000	1444.425781	213.587860
30887.037074	1188.969000	1443.355469	370.250305
30887.037074	1188.969000	1442.285156	466.036285
30887.037074	1188.969000	1441.213867	480.605164
30887.037074	1188.969000	1440.142578	322.824432
30887.037074	1188.969000	1439.070313	476.138763
30887.037074	1188.969000	1437.999023	364.704773
30887.037074	1188.969000	1436.926758	623.556641
30887.037074	1188.969000	1435.854492	411.587006
30887.037074	1188.969000	1434.782227	512.680176
30887.037074	1188.969000	1433.709961	406.194153
30887.037074	1188.969000	1432.636719	356.571167
30887.037074	1188.969000	1431.563477	439.121307
30887.037074	1188.969000	1430.490234	299.791412
30887.037074	1188.969000	1429.416992	419.988312
30887.037074	1188.969000	1428.343750	203.427399
30887.037074	1188.969000	1427.269531	250.330536
30887.037074	1188.969000	1426.195313	263.008362
30887.037074	1188.969000	1425.121094	142.816833
30887.037074	1188.969000	1424.046875	301.473297
30887.037074	1188.969000	1422.971680	-96.987564
30887.037074	1188.969000	1421.896484	315.315765
30887.037074	1188.969000	1420.821289	253.790070
30887.037074	1188.969000	1419.746094	163.179947
30887.037074	1188.969000	1418.669922	278.871948
30887.037074	1188.969000	1417.594727	195.992950
30887.037074	1188.969000	1416.518555	286.158417
30887.037074	1188.969000	1415.442383	341.975861
30887.037074	1188.969000	1414.365234	270.752136
30887.037074	1188.969000	1413.289063	304.506897
30887.037074	1188.969000	1412.211914	166.505661
30887.037074	1188.969000	1411.134766	291.596863
30887.037074	1188.969000	1410.057617	307.227234
30887.037074	1188.969000	1408.979492	361.164795
30887.037074	1188.969000	1407.902344	366.037872
30887.037074	1188.969000	1406.824219	378.545349
30887.037074	1188.969000	1405.746094	420.779297
30887.037074	1188.969000	1404.666992	342.153625
30887.037074	1188.969000	1403.588867	313.713959
30887.037074	1188.969000	1402.509766	504.557159
30887.037074	1188.969000	1401.430664	269.796570
30887.037074	1188.969000	1400.351563	240.926666
30887.037074	1188.969000	1399.271484	427.340210
30887.037074	1188.969000	1398.192383	324.881775
30887.037074	1188.969000	1397.112305	387.579742
30887.037074	1188.969000	1396.031250	185.085037
30887.037074	1188.969000	1394.951172	284.609985
30887.037074	1188.969000	1393.871094	440.757446
30887.037074	1188.969000	1392.790039	208.708557
30887.037074	1188.969000	1391.708984	323.933380
30887.037074	1188.969000	1390.626953	299.888611
30887.037074	1188.969000	1389.545898	338.692108
30887.037074	1188.969000	1388.463867	252.667221
30887.037074	1188.969000	1387.381836	369.331512
30887.037074	1188.969000	1386.299805	488.459686
30887.037074	1188.969000	1385.217773	257.917267
30887.037074	1188.969000	1384.134766	331.050079
30887.037074	1188.969000	1383.051758	405.786469
30887.037074	1188.969000	1381.968750	316.636536
30887.037074	1188.969000	1380.885742	462.512604
30887.037074	1188.969000	1379.802734	456.588867
30887.037074	1188.969000	1378.718750	513.200623
30887.037074	1188.969000	1377.634766	470.862793
30887.037074	1188.969000	1376.550781	423.940948
30887.037074	1188.969000	1375.465820	495.011780
30887.037074	1188.969000	1374.381836	430.785004
30887.037074	1188.969000	1373.296875	374.616974
30887.037074	1188.969000	1372.211914	358.440277
30887.037074	1188.969000	1371.126953	605.620422
30887.037074	1188.969000	1370.041016	769.789124
30887.037074	1188.969000	1368.955078	666.203918
30887.037074	1188.969000	1367.869141	613.269348
30887.037074	1188.969000	1366.783203	622.353882
30887.037074	1188.969000	1365.697266	587.670593
30887.037074	1188.969000	1364.610352	560.251831
30887.037074	1188.969000	1363.523438	668.485779
30887.037074	1188.969000	1362.436523	578.510376
30887.037074	1188.969000	1361.349609	581.175354
30887.037074	1188.969000	1360.261719	590.190186
30887.037074	1188.969000	1359.174805	478.825317
30887.037074	1188.969000	1358.086914	503.981659
30887.037074	1188.969000	1356.998047	503.350983
30887.037074	1188.969000	1355.910156	401.019012
30887.037074	1188.969000	1354.821289	513.325317
30887.037074	1188.969000	1353.732422	483.593201
30887.037074	1188.969000	1352.643555	407.322815
30887.037074	1188.969000	1351.554688	395.666687
30887.037074	1188.969000	1350.464844	531.487915
30887.037074	1188.969000	1349.375000	489.266693
30887.037074	1188.969000	1348.285156	660.655579
30887.037074	1188.969000	1347.195313	680.901855
30887.037074	1188.969000	1346.105469	505.074097
30887.037074	1188.969000	1345.014648	644.785522
30887.037074	1188.969000	1343.923828	585.330627
30887.037074	1188.969000	1342.833008	696.201782
30887.037074	1188.969000	1341.741211	665.860962
30887.037074	1188.969000	1340.650391	624.354553
30887.037074	1188.969000	1339.558594	516.417908
30887.037074	1188.969000	1338.466797	528.356995
30887.037074	1188.969000	1337.374023	480.488434
30887.037074	1188.969000	1336.282227	247.037033
30887.037074	1188.969000	1335.189453	602.751160
30887.037074	1188.969000	1334.096680	505.017609
30887.037074	1188.969000	1333.003906	564.213562
30887.037074	1188.969000	1331.910156	510.440063
30887.037074	1188.969000	1330.817383	670.167542
30887.037074	1188.969000	1329.723633	497.918182
30887.037074	1188.969000	1328.629883	552.223206
30887.037074	1188.969000	1327.535156	500.083099
30887.037074	1188.969000	1326.441406	662.113647
30887.037074	1188.969000	1325.346680	407.331451
30887.037074	1188.969000	1324.251953	471.931549
30887.037074	1188.969000	1323.156250	452.394196
30887.037074	1188.969000	1322.061523	481.729340
30887.037074	1188.969000	1320.965820	449.908905
30887.037074	1188.969000	1319.870117	436.727539
30887.037074	1188.969000	1318.774414	449.839691
30887.037074	1188.969000	1317.678711	418.790527
30887.037074	1188.969000	1316.582031	437.828888
30887.037074	1188.969000	1315.485352	471.816711
30887.037074	1188.969000	1314.388672	383.340118
30887.037074	1188.969000	1313.291016	499.963501
30887.037074	1188.969000	1312.194336	461.263855
30887.037074	1188.969000	1311.096680	357.802338
30887.037074	1188.969000	1309.999023	350.744446
30887.037074	1188.969000	1308.901367	92.513283
30887.037074	1188.969000	1307.802734	494.090302
30887.037074	1188.969000	1306.705078	372.159698
30887.037074	1188.969000	1305.606445	406.313141
30887.037074	1188.969000	1304.506836	536.526489
30887.037074	1188.969000	1303.408203	421.706451
30887.037074	1188.969000	1302.308594	489.964355
30887.037074	1188.969000	1301.208984	433.493927
30887.037074	1188.969000	1300.109375	443.281708
30887.037074	1188.969000	1299.009766	451.672668
30887.037074	1188.969000	1297.909180	188.862259
30887.037074	1188.969000	1296.808594	425.357666
30887.037074	1188.969000	1295.708008	452.198151
30887.037074	1188.969000	1294.607422	340.932800
30887.037074	1188.969000	1293.506836	301.544250
30887.037074	1188.969000	1292.405273	410.928284
30887.037074	1188.969000	1291.303711	337.218964
30887.037074	1188.969000	1290.202148	196.453598
30887.037074	1188.969000	1289.099609	195.248703
30887.037074	1188.969000	1287.998047	178.001968
30887.037074	1188.969000	1286.895508	153.489059
30887.037074	1188.969000	1285.792969	159.577423
30887.037074	1188.969000	1284.689453	202.042755
30887.037074	1188.969000	1283.586914	90.435051
30887.037074	1188.969000	1282.483398	276.108154
30887.037074	1188.969000	1281.379883	131.486176
30887.037074	1188.969000	1280.276367	210.303741
30887.037074	1188.969000	1279.171875	154.939102
30887.037074	1188.969000	1278.067383	165.924728
30887.037074	1188.969000	1276.962891	147.378098
30887.037074	1188.969000	1275.858398	31.157913
30887.037074	1188.969000	1274.753906	53.345505
30887.037074	1188.969000	1273.648438	-37.494308
30887.037074	1188.969000	1272.542969	12.770549
30887.037074	1188.969000	1271.437500	-7.144766
30887.037074	1188.969000	1270.331055	-13.262357
30887.037074	1188.969000	1269.225586	93.750023
30887.037074	1188.969000	1268.119141	-1.899200
30887.037074	1188.969000	1267.012695	104.844933
30887.037074	1188.969000	1265.906250	-17.749676
30887.037074	1188.969000	1264.798828	-21.652388
30887.037074	1188.969000	1263.691406	43.024788
30887.037074	1188.969000	1262.583984	-29.780300
30887.037074	1188.969000	1261.476563	32.940502
30887.037074	1188.969000	1260.368164	49.524452
30887.037074	1188.969000	1259.260742	81.972893
30887.037074	1188.969000	1258.152344	57.330101
30887.037074	1188.969000	1257.043945	23.994892
30887.037074	1188.969000	1255.934570	8.659973
30887.037074	1188.969000	1254.825195	1.939999
30887.037074	1188.969000	1253.716797	105.686005
30887.037074	1188.969000	1252.606445	79.889381
30887.037074	1188.969000	1251.497070	10.394466
30887.037074	1188.969000	1250.387695	-17.386295
30887.037074	1188.969000	1249.277344	147.360855
30887.037074	1188.969000	1248.166992	134.303406
30887.037074	1188.969000	1247.055664	140.373260
30887.037074	1188.969000	1245.945313	-23.151552
30887.037074	1188.969000	1244.833984	-11.229889
30887.037074	1188.969000	1243.722656	-132.457870
30887.037074	1188.969000	1242.611328	61.541908
30887.037074	1188.969000	1241.499023	146.254990
30887.037074	1188.969000	1240.387695	98.963509
30887.037074	1188.969000	1239.275391	-5.019085
30887.037074	1188.969000	1238.162109	18.512697
30887.037074	1188.969000	1237.049805	56.941681
30887.037074	1188.969000	1235.936523	95.329285
30887.037074	1188.969000	1234.823242	66.160629
30887.037074	1188.969000	1233.709961	45.066067
30887.037074	1188.969000	1232.596680	7.094914
30887.037074	1188.969000	1231.482422	71.437691
30887.037074	1188.969000	1230.369141	-36.873089
30887.037074	1188.969000	1229.253906	95.909866
30887.037074	1188.969000	1228.139648	105.089104
30887.037074	1188.969000	1227.025391	32.805332
30887.037074	1188.969000	1225.910156	22.054661
30887.037074	1188.969000	1224.794922	62.070492
30887.037074	1188.969000	1223.679688	90.279137
30887.037074	1188.969000	1222.563477	73.352425
30887.037074	1188.969000	1221.447266	-65.318916
30887.037074	1188.969000	1220.331055	-89.303688
30887.037074	1188.969000	1219.214844	-131.156021
30887.037074	1188.969000	1218.098633	-137.393906
30887.037074	1188.969000	1216.981445	-48.959877
30887.037074	1188.969000	1215.864258	-176.180817
30887.037074	1188.969000	1214.747070	-63.794456
30887.037074	1188.969000	1213.629883	50.320908
30887.037074	1188.969000	1212.511719	10.955077
30887.037074	1188.969000	1211.393555	37.918983
30887.037074	1188.969000	1210.275391	78.153648
30887.037074	1188.969000	1209.157227	41.886253
30887.037074	1188.969000	1208.038086	-25.518284
30887.037074	1188.969000	1206.918945	36.714966
30887.037074	1188.969000	1205.799805	116.052444
30887.037074	1188.969000	1204.680664	88.325844
30887.037074	1188.969000	1203.560547	4.815036
30887.037074	1188.969000	1202.441406	58.490494
30887.037074	1188.969000	1201.321289	-59.049637
30887.037074	1188.969000	1200.200195	-15.489362
30887.037074	1188.969000	1199.080078	113.695709
30887.037074	1188.969000	1197.958984	70.911179
30887.037074	1188.969000	1196.837891	-43.758141
30887.037074	1188.969000	1195.716797	55.102497
30887.037074	1188.969000	1194.594727	236.352844
30887.037074	1188.969000	1193.473633	130.146545
30887.037074	1188.969000	1192.351563	8.019773
30887.037074	1188.969000	1191.229492	39.806549
30887.037074	1188.969000	1190.106445	-8.794116
30887.037074	1188.969000	1188.984375	19.404903
30887.037074	1188.969000	1187.861328	-51.774815
30887.037074	1188.969000	1186.738281	-25.787161
30887.037074	1188.969000	1185.614258	-10.614891
30887.037074	1188.969000	1184.491211	-122.124779
30887.037074	1188.969000	1183.367188	0.795530
30887.037074	1188.969000	1182.243164	-79.533287
30887.037074	1188.969000	1181.119141	-127.944946
30887.037074	1188.969000	1179.994141	-33.244591
30887.037074	1188.969000	1178.869141	-17.047459
30887.037074	1188.969000	1177.744141	-77.717514
30887.037074	1188.969000	1176.619141	-25.296928
30887.037074	1188.969000	1175.493164	-83.788239
30887.037074	1188.969000	1174.368164	-73.487236
30887.037074	1188.969000	1173.242188	-97.085838
30887.037074	1188.969000	1172.115234	-0.236171
30887.037074	1188.969000	1170.989258	34.003033
30887.037074	1188.969000	1169.862305	-85.932426
30887.037074	1188.969000	1168.735352	-128.472351
30887.037074	1188.969000	1167.608398	-162.481613
30887.037074	1188.969000	1166.481445	-84.856827
30887.037074	1188.969000	1165.353516	-63.371807
30887.037074	1188.969000	1164.225586	-16.130978
30887.037074	1188.969000	1163.097656	-26.296560
30887.037074	1188.969000	1161.968750	-135.725952
30887.037074	1188.969000	1160.840820	35.362206
30887.037074	1188.969000	1159.711914	-120.240471
30887.037074	1188.969000	1158.583008	-9.146974
30887.037074	1188.969000	1157.453125	-160.415024
30887.037074	1188.969000	1156.324219	-162.820572
30887.037074	1188.969000	1155.194336	-116.344231
30887.037074	1188.969000	1154.064453	-97.260933
30887.037074	1188.969000	1152.933594	-135.179321
30887.037074	1188.969000	1151.803711	-175.820801
30887.037074	1188.969000	1150.672852	-104.691170
30887.037074	1188.969000	1149.541992	71.476791
30887.037074	1188.969000	1148.411133	66.978470
30887.037074	1188.969000	1147.279297	14.963861
30887.037074	1188.969000	1146.147461	75.865852
30887.037074	1188.969000	1145.015625	-33.827286
30887.037074	1188.969000	1143.883789	-16.230310
30887.037074	1188.969000	1142.750977	-3.877912
30887.037074	1188.969000	1141.619141	23.719662
30887.037074	1188.969000	1140.486328	119.619469
30887.037074	1188.969000	1139.352539	109.050911
30887.037074	1188.969000	1138.219727	159.959061
30887.037074	1188.969000	1137.085938	189.271347
30887.037074	1188.969000	1135.952148	210.315613
30887.037074	1188.969000	1134.818359	18.530350
30887.037074	1188.969000	1133.683594	5.839104
30887.037074	1188.969000	1132.549805	81.935402
30887.037074	1188.969000	1131.415039	196.888443
30887.037074	1188.969000	1130.279297	273.578064
30887.037074	1188.969000	1129.144531	297.347900
30887.037074	1188.969000	1128.008789	354.488159
30887.037074	1188.969000	1126.873047	467.570648
30887.037074	1188.969000	1125.737305	311.099823
30887.037074	1188.969000	1124.601563	297.907776
30887.037074	1188.969000	1123.464844	326.414856
30887.037074	1188.969000	1122.328125	311.666199
30887.037074	1188.969000	1121.191406	256.383545
30887.037074	1188.969000	1120.054688	131.580200
30887.037074	1188.969000	1118.916992	158.560638
30887.037074	1188.969000	1117.779297	86.986832
30887.037074	1188.969000	1116.641602	236.545425
30887.037074	1188.969000	1115.503906	225.578339
30887.037074	1188.969000	1114.365234	184.566193
30887.037074	1188.969000	1113.226563	279.582764
30887.037074	1188.969000	1112.087891	285.965088
30887.037074	1188.969000	1110.949219	309.037994
30887.037074	1188.969000	1109.809570	216.278091
30887.037074	1188.969000	1108.669922	260.289581
30887.037074	1188.969000	1107.530273	195.241089
30887.037074	1188.969000	1106.390625	384.525330
30887.037074	1188.969000	1105.250000	357.633881
30887.037074	1188.969000	1104.109375	235.408447
30887.037074	1188.969000	1102.968750	280.830139
30887.037074	1188.969000	1101.828125	207.876663
30887.037074	1188.969000	1100.686523	335.289490
30887.037074	1188.969000	1099.544922	212.441238
30887.037074	1188.969000	1098.403320	311.890656
30887.037074	1188.969000	1097.261719	430.451416
30887.037074	1188.969000	1096.120117	266.376617
30887.037074	1188.969000	1094.977539	176.678146
30887.037074	1188.969000	1093.834961	349.481171
30887.037074	1188.969000	1092.691406	248.737427
30887.037074	1188.969000	1091.548828	304.233032
30887.037074	1188.969000	1090.405273	314.011292
30887.037074	1188.969000	1089.261719	172.429047
30887.037074	1188.969000	1088.118164	264.164734
30887.037074	1188.969000	1086.973633	85.092751
30887.037074	1188.969000	1085.829102	88.231659
30887.037074	1188.969000	1084.684570	243.851685
30887.037074	1188.969000	1083.540039	323.569794
30887.037074	1188.969000	1082.395508	253.357849
30887.037074	1188.969000	1081.250000	339.694641
30887.037074	1188.969000	1080.104492	281.304413
30887.037074	1188.969000	1078.958984	340.982910
30887.037074	1188.969000	1077.812500	177.184280
30887.037074	1188.969000	1076.666016	283.891296
30887.037074	1188.969000	1075.519531	314.126617
30887.037074	1188.969000	1074.373047	173.443756
30887.037074	1188.969000	1073.226563	217.747238
30887.037074	1188.969000	1072.079102	293.915985
30887.037074	1188.969000	1070.931641	283.626221
30887.037074	1188.969000	1069.784180	178.799622
30887.037074	1188.969000	1068.635742	286.141632
30887.037074	1188.969000	1067.487305	252.498047
30887.037074	1188.969000	1066.338867	282.452118
30887.037074	1188.969000	1065.190430	322.541718
30887.037074	1188.969000	1064.041992	235.182648
30887.037074	1188.969000	1062.892578	191.786301
30887.037074	1188.969000	1061.743164	264.165924
30887.037074	1188.969000	1060.593750	257.165466
30887.037074	1188.969000	1059.443359	177.431686
30887.037074	1188.969000	1058.292969	235.458023
30887.037074	1188.969000	1057.142578	95.705185
30887.037074	1188.969000	1055.992188	215.971817
30887.037074	1188.969000	1054.841797	172.971573
30887.037074	1188.969000	1053.690430	225.852966
30887.037074	1188.969000	1052.539063	304.710175
30887.037074	1188.969000	1051.387695	265.320374
30887.037074	1188.969000	1050.235352	146.000412
30887.037074	1188.969000	1049.083984	63.052921
30887.037074	1188.969000	1047.931641	26.688019
30887.037074	1188.969000	1046.778320	178.706207
30887.037074	1188.969000	1045.625977	159.672958
30887.037074	1188.969000	1044.472656	107.300690
30887.037074	1188.969000	1043.319336	-6.501262
30887.037074	1188.969000	1042.166016	79.790359
30887.037074	1188.969000	1041.012695	92.696838
30887.037074	1188.969000	1039.858398	87.365402
30887.037074	1188.969000	1038.704102	-52.304733
30887.037074	1188.969000	1037.549805	76.500687
30887.037074	1188.969000	1036.394531	63.722271
30887.037074	1188.969000	1035.239258	180.745636
30887.037074	1188.969000	1034.083984	149.177536
30887.037074	1188.969000	1032.928711	163.714035
30887.037074	1188.969000	1031.773438	220.015594
30887.037074	1188.969000	1030.617188	207.471466
30887.037074	1188.969000	1029.460938	4.054753
30887.037074	1188.969000	1028.304688	82.116341
30887.037074	1188.969000	1027.147461	70.620117
30887.037074	1188.969000	1025.991211	71.792976
30887.037074	1188.969000	1024.833984	182.485703
30887.037074	1188.969000	1023.675781	-40.027054
30887.037074	1188.969000	1022.518555	85.836716
30887.037074	1188.969000	1021.360352	198.331467
30887.037074	1188.969000	1020.202148	-4.681307
30887.037074	1188.969000	1019.043945	184.596024
30887.037074	1188.969000	1017.884766	155.147690
30887.037074	1188.969000	1016.726563	-2.160412
30887.037074	1188.969000	1015.567383	-64.431442
30887.037074	1188.969000	1014.407227	8.164411
30887.037074	1188.969000	1013.248047	35.651855
30887.037074	1188.969000	1012.087891	56.806519
30887.037074	1188.969000	1010.927734	57.592072
30887.037074	1188.969000	1009.767578	293.348633
30887.037074	1188.969000	1008.606445	346.581757
30887.037074	1188.969000	1007.446289	152.788483
30887.037074	1188.969000	1006.285156	299.185150
30887.037074	1188.969000	1005.123047	254.038132
30887.037074	1188.969000	1003.961914	251.685379
30887.037074	1188.969000	1002.799805	9.544779
30887.037074	1188.969000	1001.637695	15.592850
30887.037074	1188.969000	1000.475586	287.933380
30887.037074	1188.969000	999.312500	149.184036
30887.037074	1188.969000	998.149414	81.524017
30887.037074	1188.969000	996.986328	143.296844
30887.037074	1188.969000	995.823242	200.764008
30887.037074	1188.969000	994.659180	-21.799150
30887.037074	1188.969000	993.496094	127.571571
30887.037074	1188.969000	992.332031	133.541840
30887.037074	1188.969000	991.166992	140.251495
30887.037074	1188.969000	990.002930	89.463661
30887.037074	1188.969000	988.837891	212.998688
30887.037074	1188.969000	987.672852	132.590546
30887.037074	1188.969000	986.506836	93.064774
30887.037074	1188.969000	985.341797	99.537598
30887.037074	1188.969000	984.175781	227.902008
30887.037074	1188.969000	983.009766	9.550717
30887.037074	1188.969000	981.843750	-83.858826
30887.037074	1188.969000	980.676758	37.066704
30887.037074	1188.969000	979.509766	-10.432789
30887.037074	1188.969000	978.342773	86.997398
30887.037074	1188.969000	977.175781	218.638733
30887.037074	1188.969000	976.007813	68.349327
30887.037074	1188.969000	974.839844	142.046844
30887.037074	1188.969000	973.671875	123.588921
30887.037074	1188.969000	972.503906	-158.149734
30887.037074	1188.969000	971.334961	-3.196827
30887.037074	1188.969000	970.166016	72.533821
30887.037074	1188.969000	968.997070	-50.533287
30887.037074	1188.969000	967.828125	-14.511735
30887.037074	1188.969000	966.658203	24.265059
30887.037074	1188.969000	965.488281	-179.916992
30887.037074	1188.969000	964.318359	20.890022
30887.037074	1188.969000	963.148438	113.655533
30887.037074	1188.969000	961.977539	-83.124847
30887.037074	1188.969000	960.806641	-0.980117
30887.037074	1188.969000	959.635742	50.482948
30887.037074	1188.969000	958.463867	-63.602371
30887.037074	1188.969000	957.292969	-79.562729
30887.037074	1188.969000	956.121094	95.024513
30887.037074	1188.969000	954.948242	121.910934
30887.037074	1188.969000	953.776367	118.722076
30887.037074	1188.969000	952.603516	11.890282
30887.037074	1188.969000	951.430664	7.410019
30887.037074	1188.969000	950.257813	4.967942
30887.037074	1188.969000	949.084961	-9.097445
30887.037074	1188.969000	947.911133	-136.786774
30887.037074	1188.969000	946.737305	44.359802
30887.037074	1188.969000	945.563477	178.478607
30887.037074	1188.969000	944.388672	143.727188
30887.037074	1188.969000	943.213867	-54.612846
30887.037074	1188.969000	942.039063	85.697388
30887.037074	1188.969000	940.864258	23.797623
30887.037074	1188.969000	939.688477	84.924942
30887.037074	1188.969000	938.513672	22.909159
30887.037074	1188.969000	937.337891	-61.797165
30887.037074	1188.969000	936.161133	78.486198
30887.037074	1188.969000	934.985352	143.850815
30887.037074	1188.969000	933.808594	150.170593
30887.037074	1188.969000	932.631836	115.551376
30887.037074	1188.969000	931.454102	264.830750
30887.037074	1188.969000	930.277344	32.523693
30887.037074	1188.969000	929.099609	70.542557
30887.037074	1188.969000	927.921875	51.764725
30887.037074	1188.969000	926.743164	48.869034
30887.037074	1188.969000	925.565430	43.697136
30887.037074	1188.969000	924.386719	183.786346
30887.037074	1188.969000	923.208008	167.223495
30887.037074	1188.969000	922.028320	57.636627
30887.037074	1188.969000	920.849609	2.524635
30887.037074	1188.969000	919.669922	5.530716
30887.037074	1188.969000	919.474609	-36.197468
30887.037074	1188.969000	918.309570	-113.998222
30887.037074	1188.969000	917.143555	28.148405
30887.037074	1188.969000	915.977539	-51.913887
30887.037074	1188.969000	914.810547	56.154266
30887.037074	1188.969000	913.644531	-109.999718
30887.037074	1188.969000	912.477539	-126.576019
30887.037074	1188.969000	911.310547	-68.411110
30887.037074	1188.969000	910.143555	-80.476692
30887.037074	1188.969000	908.975586	0.280908
30887.037074	1188.969000	907.807617	-120.457680
30887.037074	1188.969000	906.639648	-46.530380
30887.037074	1188.969000	905.471680	-8.843482
30887.037074	1188.969000	904.303711	-134.055725
30887.037074	1188.969000	903.134766	46.106224
30887.037074	1188.969000	901.965820	15.891378
30887.037074	1188.969000	900.796875	-16.580692
30887.037074	1188.969000	899.626953	-19.661695
30887.037074	1188.969000	898.457031	-74.727119
30887.037074	1188.969000	897.287109	39.676586
30887.037074	1188.969000	896.117188	74.961449
30887.037074	1188.969000	894.947266	44.727486
30887.037074	1188.969000	893.776367	170.302124
30887.037074	1188.969000	892.605469	282.270844
30887.037074	1188.969000	891.434570	26.278576
30887.037074	1188.969000	890.262695	165.294296
30887.037074	1188.969000	889.091797	207.226410
30887.037074	1188.969000	887.919922	52.887009
30887.037074	1188.969000	886.748047	81.276131
30887.037074	1188.969000	885.575195	244.934006
30887.037074	1188.969000	884.403320	162.790558
30887.037074	1188.969000	883.230469	353.391205
30887.037074	1188.969000	882.057617	169.837540
30887.037074	1188.969000	880.883789	256.704926
30887.037074	1188.969000	879.710938	116.022964
30887.037074	1188.969000	878.537109	51.959023
30887.037074	1188.969000	877.362305	71.220459
30887.037074	1188.969000	876.188477	65.698723
30887.037074	1188.969000	875.013672	-36.607319
30887.037074	1188.969000	873.839844	-91.630890
30887.037074	1188.969000	872.664063	-61.149338
30887.037074	1188.969000	871.489258	21.039179
30887.037074	1188.969000	870.313477	-45.236984
30887.037074	1188.969000	869.138672	106.589508
30887.037074	1188.969000	867.962891	193.155563
30887.037074	1188.969000	866.786133	27.964384
30887.037074	1188.969000	865.610352	62.806023
30887.037074	1188.969000	864.433594	-88.836990
30887.037074	1188.969000	863.256836	-110.159813
30887.037074	1188.969000	862.079102	-133.730881
30887.037074	1188.969000	860.902344	-13.619455
30887.037074	1188.969000	859.724609	124.388832
30887.037074	1188.969000	858.546875	141.139374
30887.037074	1188.969000	857.368164	12.028534
30887.037074	1188.969000	856.190430	174.581360
30887.037074	1188.969000	855.011719	162.114655
30887.037074	1188.969000	853.833008	252.787811
30887.037074	1188.969000	852.654297	155.088928
30887.037074	1188.969000	851.474609	189.662292
30887.037074	1188.969000	850.294922	114.398300
30887.037074	1188.969000	849.115234	142.214233
30887.037074	1188.969000	847.935547	62.479481
30887.037074	1188.969000	846.754883	-53.069408
30887.037074	1188.969000	845.575195	252.369202
30887.037074	1188.969000	844.393555	107.695259
30887.037074	1188.969000	843.212891	119.737366
30887.037074	1188.969000	842.032227	102.667091
30887.037074	1188.969000	840.850586	157.182327
30887.037074	1188.969000	839.668945	-54.525677
30887.037074	1188.969000	838.486328	125.203354
30887.037074	1188.969000	837.304688	-61.851719
30887.037074	1188.969000	836.122070	-20.829163
30887.037074	1188.969000	834.939453	-42.421444
30887.037074	1188.969000	833.756836	-144.467178
30887.037074	1188.969000	832.573242	-83.399963
30887.037074	1188.969000	831.389648	2.192773
30887.037074	1188.969000	830.206055	-61.890888
30887.037074	1188.969000	829.022461	-94.709793
30887.037074	1188.969000	827.838867	-174.412125
30887.037074	1188.969000	826.654297	69.507881
30887.037074	1188.969000	825.469727	3.153775
30887.037074	1188.969000	824.284180	-2.958928
30887.037074	1188.969000	823.099609	-82.694550
30887.037074	1188.969000	821.914063	-75.450050
30887.037074	1188.969000	820.728516	69.998291
30887.037074	1188.969000	819.542969	23.669262
30887.037074	1188.969000	818.356445	-33.804043
30887.037074	1188.969000	817.169922	-55.626556
30887.037074	1188.969000	815.983398	51.740528
30887.037074	1188.969000	814.796875	14.274004
30887.037074	1188.969000	813.609375	34.695755
30887.037074	1188.969000	812.422852	-96.301567
30887.037074	1188.969000	811.235352	28.700161
30887.037074	1188.969000	810.046875	-149.018127
30887.037074	1188.969000	808.859375	-19.655748
30887.037074	1188.969000	807.670898	74.039284
30887.037074	1188.969000	806.482422	18.665436
30887.037074	1188.969000	805.293945	-96.744347
30887.037074	1188.969000	804.104492	-36.510815
30887.037074	1188.969000	802.915039	41.452347
30887.037074	1188.969000	801.725586	194.910019
30887.037074	1188.969000	800.536133	-107.161957
30887.037074	1188.969000	799.345703	46.211456
30887.037074	1188.969000	798.155273	61.808571
30887.037074	1188.969000	796.964844	-13.658944
30887.037074	1188.969000	795.774414	41.847237
30887.037074	1188.969000	794.583008	15.187341
30887.037074	1188.969000	793.392578	-44.773907
30887.037074	1188.969000	792.200195	-42.619942
30887.037074	1188.969000	791.008789	63.749283
30887.037074	1188.969000	789.816406	-16.224937
30887.037074	1188.969000	788.625000	43.478565
30887.037074	1188.969000	787.432617	120.862518
30887.037074	1188.969000	786.239258	-27.860479
30887.037074	1188.969000	785.046875	13.995920
30887.037074	1188.969000	783.853516	108.971909
30887.037074	1188.969000	782.660156	70.992599
30887.037074	1188.969000	781.465820	190.214859
30887.037074	1188.969000	780.272461	54.764221
30887.037074	1188.969000	779.078125	173.878922
30887.037074	1188.969000	777.883789	11.871884
30887.037074	1188.969000	776.688477	49.023422
30887.037074	1188.969000	775.494141	212.211716
30887.037074	1188.969000	774.298828	-78.066391
30887.037074	1188.969000	773.103516	18.685249
30887.037074	1188.969000	771.907227	2.622340
30887.037074	1188.969000	770.711914	37.367428
30887.037074	1188.969000	769.515625	-20.742014
30887.037074	1188.969000	768.318359	-3.744819
30887.037074	1188.969000	767.122070	141.322052
30887.037074	1188.969000	765.924805	10.253953
30887.037074	1188.969000	764.727539	-14.815578
30887.037074	1188.969000	763.530273	-84.056129
30887.037074	1188.969000	762.333008	3.391990
30887.037074	1188.969000	761.134766	-63.684357
30887.037074	1188.969000	759.936523	264.113647
30887.037074	1188.969000	758.738281	93.279999
30887.037074	1188.969000	757.540039	19.508406
30887.037074	1188.969000	756.340820	3.054375
30887.037074	1188.969000	755.141602	6.410121
30887.037074	1188.969000	753.942383	91.267899
30887.037074	1188.969000	752.742188	129.786484
30887.037074	1188.969000	751.541992	0.839029
30887.037074	1188.969000	750.341797	-28.983252
30887.037074	1188.969000	749.141602	123.928909
30887.037074	1188.969000	747.941406	69.805893
30887.037074	1188.969000	746.740234	-87.776672
30887.037074	1188.969000	745.539063	152.966187
30887.037074	1188.969000	744.337891	133.964569
30887.037074	1188.969000	743.135742	59.944435
30887.037074	1188.969000	741.933594	208.033142
30887.037074	1188.969000	740.731445	65.796555
30887.037074	1188.969000	739.529297	90.648682
30887.037074	1188.969000	738.326172	238.528763
30887.037074	1188.969000	737.124023	201.736389
30887.037074	1188.969000	735.919922	173.710403
30887.037074	1188.969000	734.716797	158.837555
30887.037074	1188.969000	733.513672	310.825684
30887.037074	1188.969000	732.309570	17.030912
30887.037074	1188.969000	731.105469	239.152206
30887.037074	1188.969000	729.900391	180.239502
30887.037074	1188.969000	728.696289	233.213928
30887.037074	1188.969000	727.491211	211.545441
30887.037074	1188.969000	726.286133	244.678787
30887.037074	1188.969000	725.080078	104.535873
30887.037074	1188.969000	723.874023	190.217758
30887.037074	1188.969000	722.668945	65.414474
30887.037074	1188.969000	721.461914	37.044415
30887.037074	1188.969000	720.255859	78.759140
30887.037074	1188.969000	719.048828	113.847626
30887.037074	1188.969000	717.841797	243.053680
30887.037074	1188.969000	716.634766	59.068798
30887.037074	1188.969000	715.427734	-6.666965
30887.037074	1188.969000	714.219727	-39.582947
30887.037074	1188.969000	713.011719	-0.312624
30887.037074	1188.969000	711.803711	-50.789948
30887.037074	1188.969000	710.594727	-177.835907
30887.037074	1188.969000	709.385742	-149.604385
30887.037074	1188.969000	708.176758	44.738766
30887.037074	1188.969000	706.967773	35.681019
30887.037074	1188.969000	705.758789	-32.413677
30887.037074	1188.969000	704.548828	-93.961632
30887.037074	1188.969000	703.338867	-39.742008
30887.037074	1188.969000	702.127930	-24.893322
30887.037074	1188.969000	700.917969	64.156471
30887.037074	1188.969000	699.707031	2.499295
30887.037074	1188.969000	698.496094	8.495276
30887.037074	1188.969000	697.285156	-66.286003
30887.037074	1188.969000	696.073242	-49.438698
30887.037074	1188.969000	694.861328	-19.544458
30887.037074	1188.969000	693.649414	121.524429
30887.037074	1188.969000	692.436523	-23.125557
30887.037074	1188.969000	691.224609	24.083500
30887.037074	1188.969000	690.011719	25.470711
30887.037074	1188.969000	688.798828	68.225121
30887.037074	1188.969000	687.584961	10.716811
30887.037074	1188.969000	686.372070	197.144547
30887.037074	1188.969000	685.158203	196.187164
30887.037074	1188.969000	683.943359	216.969421
30887.037074	1188.969000	682.729492	157.176132
30887.037074	1188.969000	681.514648	175.719864
30887.037074	1188.969000	680.299805	148.535034
30887.037074	1188.969000	679.084961	264.901825
30887.037074	1188.969000	677.869141	274.620850
30887.037074	1188.969000	676.653320	482.176941
30887.037074	1188.969000	675.437500	433.092468
30887.037074	1188.969000	674.221680	312.276123
30887.037074	1188.969000	673.004883	404.436646
30887.037074	1188.969000	671.789063	292.312592
30887.037074	1188.969000	670.571289	178.032822
30887.037074	1188.969000	669.354492	178.874191
30887.037074	1188.969000	668.136719	188.371948
30887.037074	1188.969000	666.919922	184.817551
30887.037074	1188.969000	665.701172	257.195648
30887.037074	1188.969000	664.483398	51.784824
30887.037074	1188.969000	663.264648	82.894157
30887.037074	1188.969000	662.045898	257.114288
30887.037074	1188.969000	660.827148	242.583435
30887.037074	1188.969000	659.608398	193.349060
30887.037074	1188.969000	658.388672	96.426010
30887.037074	1188.969000	657.168945	162.052994
30887.037074	1188.969000	655.949219	49.969364
30887.037074	1188.969000	654.728516	156.691910
30887.037074	1188.969000	653.507813	209.207947
30887.037074	1188.969000	652.287109	120.942421
30887.037074	1188.969000	651.066406	73.826607
30887.037074	1188.969000	649.844727	-92.326317
30887.037074	1188.969000	648.623047	83.464211
30887.037074	1188.969000	647.401367	125.032845
30887.037074	1188.969000	646.179688	129.797729
30887.037074	1188.969000	644.957031	125.893784
30887.037074	1188.969000	643.734375	7.389581
30887.037074	1188.969000	642.511719	5.646640
30887.037074	1188.969000	641.289063	-41.492050
30887.037074	1188.969000	640.065430	95.030815
30887.037074	1188.969000	638.841797	-32.060383
30887.037074	1188.969000	637.618164	61.185280
30887.037074	1188.969000	636.393555	33.458900
30887.037074	1188.969000	635.168945	74.817924
30887.037074	1188.969000	633.944336	-19.827234
30887.037074	1188.969000	632.719727	-79.913307
30887.037074	1188.969000	631.494141	19.668287
30887.037074	1188.969000	630.269531	89.005913
30887.037074	1188.969000	629.042969	87.138145
30887.037074	1188.969000	627.817383	132.702301
30887.037074	1188.969000	626.590820	48.903076
30887.037074	1188.969000	625.365234	55.655540
30887.037074	1188.969000	624.137695	180.907959
30887.037074	1188.969000	622.911133	-6.259937
30887.037074	1188.969000	621.683594	84.489388
30887.037074	1188.969000	620.456055	41.692520
30887.037074	1188.969000	619.228516	52.737499
30887.037074	1188.969000	618.000977	-35.233231
30887.037074	1188.969000	616.772461	-30.630533
30887.037074	1188.969000	615.543945	-4.511563
30887.037074	1188.969000	614.314453	-34.328667
30887.037074	1188.969000	613.085938	-175.957764
30887.037074	1188.969000	611.856445	-70.255089
30887.037074	1188.969000	610.626953	-11.884218
30887.037074	1188.969000	609.397461	-0.813039
30887.037074	1188.969000	608.166992	-71.393745
30887.037074	1188.969000	606.936523	66.452255
30887.037074	1188.969000	605.706055	0.202891
30887.037074	1188.969000	604.474609	140.142242
30887.037074	1188.969000	603.244141	151.219482
30887.037074	1188.969000	602.012695	147.277771
30887.037074	1188.969000	600.780273	-105.590645
30887.037074	1188.969000	599.548828	42.889030
30887.037074	1188.969000	598.316406	30.435513
30887.037074	1188.969000	597.083984	279.653687
30887.037074	1188.969000	595.851563	159.978561
30887.037074	1188.969000	594.618164	192.578079
30887.037074	1188.969000	593.384766	124.448227
30887.037074	1188.969000	592.151367	103.510307
30887.037074	1188.969000	590.917969	172.583084
30887.037074	1188.969000	589.683594	-15.385102
30887.037074	1188.969000	588.449219	-6.234316
30887.037074	1188.969000	587.214844	60.744835
30887.037074	1188.969000	585.979492	18.549566
30887.037074	1188.969000	584.745117	-32.160492
30887.037074	1188.969000	583.509766	24.158989
30887.037074	1188.969000	582.273438	-32.896805
30887.037074	1188.969000	581.038086	-72.788010
30887.037074	1188.969000	579.801758	-48.485802
30887.037074	1188.969000	578.565430	-56.230820
30887.037074	1188.969000	577.329102	10.866960
30887.037074	1188.969000	576.091797	-13.921173
30887.037074	1188.969000	574.854492	-13.027356
30887.037074	1188.969000	573.617188	13.531671
30887.037074	1188.969000	572.378906	1.672775
30887.037074	1188.969000	571.141602	17.612587
30887.037074	1188.969000	569.903320	-58.208553
30887.037074	1188.969000	568.664063	134.945114
30887.037074	1188.969000	567.425781	-68.816452
30887.037074	1188.969000	566.186523	-193.522949
30887.037074	1188.969000	564.947266	-106.987694
30887.037074	1188.969000	563.708008	49.919476
30887.037074	1188.969000	562.467773	125.786972
30887.037074	1188.969000	561.227539	16.228617
30887.037074	1188.969000	559.987305	117.728523
30887.037074	1188.969000	558.747070	48.785454
30887.037074	1188.969000	557.505859	80.028923
30887.037074	1188.969000	556.264648	60.193153
30887.037074	1188.969000	555.023438	40.411625
30887.037074	1188.969000	553.781250	-45.305710
30887.037074	1188.969000	552.539063	145.734192
30887.037074	1188.969000	551.296875	175.027557
30887.037074	1188.969000	550.054688	49.059826
30887.037074	1188.969000	548.811523	123.122292
30887.037074	1188.969000	547.569336	127.031555
30887.037074	1188.969000	546.325195	-60.351280
30887.037074	1188.969000	545.082031	-45.676811
30887.037074	1188.969000	543.837891	136.922745
30887.037074	1188.969000	542.593750	58.167767
30887.037074	1188.969000	541.349609	-18.376841
30887.037074	1188.969000	540.105469	9.225853
30887.037074	1188.969000	538.860352	-88.402641
30887.037074	1188.969000	537.615234	87.905067
30887.037074	1188.969000	536.369141	-98.729950
30887.037074	1188.969000	535.124023	13.956553
30887.037074	1188.969000	533.877930	-36.701851
30887.037074	1188.969000	532.631836	-106.372528
30887.037074	1188.969000	531.384766	67.902069
30887.037074	1188.969000	530.138672	11.070288
30887.037074	1188.969000	528.891602	51.819927
30887.037074	1188.969000	527.643555	16.318712
30887.037074	1188.969000	526.396484	-89.029312
30887.037074	1188.969000	525.148438	26.022404
30887.037074	1188.969000	523.900391	28.837204
30887.037074	1188.969000	522.652344	-63.573227
30887.037074	1188.969000	521.403320	-111.433411
30887.037074	1188.969000	520.154297	-83.025269
30887.037074	1188.969000	518.905273	-58.805984
30887.037074	1188.969000	517.656250	-70.504761
30887.037074	1188.969000	516.406250	-63.107334
30887.037074	1188.969000	515.156250	43.729023
30887.037074	1188.969000	513.906250	44.866779
30887.037074	1188.969000	512.655273	103.129265
30887.037074	1188.969000	511.404297	2.926333
30887.037074	1188.969000	510.153320	-69.712708
30887.037074	1188.969000	508.902344	151.348846
30887.037074	1188.969000	507.650391	-37.338177
30887.037074	1188.969000	506.398438	8.477993
30887.037074	1188.969000	505.146484	85.990532
30887.037074	1188.969000	503.893555	133.974365
30887.037074	1188.969000	502.641602	51.162109
30887.037074	1188.969000	501.388672	208.932892
30887.037074	1188.969000	500.134766	46.091595
30887.037074	1188.969000	498.881836	30.976871
30887.037074	1188.969000	497.627930	-32.573116
30887.037074	1188.969000	496.374023	304.432861
30887.037074	1188.969000	495.119141	80.783707
30887.037074	1188.969000	493.865234	11.076358
30887.037074	1188.969000	492.610352	8.849190
30887.037074	1188.969000	491.355469	17.193117
30887.037074	1188.969000	490.099609	132.957001
30887.037074	1188.969000	488.843750	158.190521
30887.037074	1188.969000	487.587891	238.169983
30887.037074	1188.969000	486.332031	236.087112
30887.037074	1188.969000	485.075195	301.358978
30887.037074	1188.969000	483.818359	61.659824
30887.037074	1188.969000	482.561523	202.704147
30887.037074	1188.969000	481.304688	406.785919
30887.037074	1188.969000	480.046875	137.877136
30887.037074	1188.969000	478.789063	182.225388
30887.037074	1188.969000	477.531250	266.495514
30887.037074	1188.969000	476.272461	130.192047
30887.037074	1188.969000	475.013672	191.373764
30887.037074	1188.969000	473.754883	179.056320
30887.037074	1188.969000	472.496094	294.807526
30887.037074	1188.969000	471.236328	381.136963
30887.037074	1188.969000	469.976563	245.018036
30887.037074	1188.969000	468.716797	539.018311
30887.037074	1188.969000	467.456055	239.335083
30887.037074	1188.969000	466.196289	164.149490
30887.037074	1188.969000	464.935547	346.860260
30887.037074	1188.969000	463.673828	361.803070
30887.037074	1188.969000	462.413086	246.801910
30887.037074	1188.969000	461.151367	349.729736
30887.037074	1188.969000	459.889648	379.281372
30887.037074	1188.969000	458.626953	369.010193
30887.037074	1188.969000	457.364258	444.562073
30887.037074	1188.969000	456.101563	310.721222
30887.037074	1188.969000	454.838867	350.612183
30887.037074	1188.969000	453.575195	566.212097
30887.037074	1188.969000	452.312500	446.963593
30887.037074	1188.969000	451.047852	384.194061
30887.037074	1188.969000	449.784180	392.496155
30887.037074	1188.969000	448.519531	317.116638
30887.037074	1188.969000	447.254883	542.691772
30887.037074	1188.969000	445.990234	345.986908
30887.037074	1188.969000	444.725586	343.597656
30887.037074	1188.969000	443.459961	249.229401
30887.037074	1188.969000	442.194336	257.151367
30887.037074	1188.969000	440.927734	409.049500
30887.037074	1188.969000	439.662109	281.075470
30887.037074	1188.969000	438.395508	299.149963
30887.037074	1188.969000	437.127930	569.585388
30887.037074	1188.969000	435.861328	508.109741
30887.037074	1188.969000	434.593750	650.938599
30887.037074	1188.969000	433.326172	695.582520
30887.037074	1188.969000	432.058594	512.846130
30887.037074	1188.969000	430.790039	586.421936
30887.037074	1188.969000	429.521484	672.328918
30887.037074	1188.969000	428.252930	539.299072
30887.037074	1188.969000	426.984375	474.909576
30887.037074	1188.969000	425.714844	624.881470
30887.037074	1188.969000	424.445313	645.535400
30887.037074	1188.969000	423.174805	518.213318
30887.037074	1188.969000	421.905273	471.927612
30887.037074	1188.969000	420.634766	623.132813
30887.037074	1188.969000	419.364258	526.529358
30887.037074	1188.969000	418.092773	485.912048
30887.037074	1188.969000	416.822266	378.560791
30887.037074	1188.969000	415.550781	566.228577
30887.037074	1188.969000	414.278320	445.976166
30887.037074	1188.969000	413.006836	552.032654
30887.037074	1188.969000	411.734375	477.047791
30887.037074	1188.969000	410.461914	584.615906
30887.037074	1188.969000	409.188477	498.740753
30887.037074	1188.969000	407.916016	728.201477
30887.037074	1188.969000	406.642578	672.898926
30887.037074	1188.969000	405.368164	669.199097
30887.037074	1188.969000	404.094727	665.193909
30887.037074	1188.969000	402.820313	611.082520
30887.037074	1188.969000	401.545898	581.549744
30887.037074	1188.969000	400.270508	506.067749
30887.037074	1188.969000	398.996094	712.197021
30887.037074	1188.969000	397.720703	486.777496
30887.037074	1188.969000	396.444336	507.653839
30887.037074	1188.969000	395.168945	588.215698
30887.037074	1188.969000	393.892578	631.055359
30887.037074	1188.969000	392.616211	557.501526
30887.037074	1188.969000	391.339844	442.148407
30887.037074	1188.969000	390.062500	560.293701
30887.037074	1188.969000	388.785156	516.523132
30887.037074	1188.969000	387.507813	629.546936
30887.037074	1188.969000	386.229492	560.008789
30887.037074	1188.969000	384.951172	452.783600
30887.037074	1188.969000	383.672852	475.357361
30887.037074	1188.969000	382.394531	561.483765
30887.037074	1188.969000	381.115234	543.693604
30887.037074	1188.969000	379.835938	554.288635
30887.037074	1188.969000	378.556641	572.578003
30887.037074	1188.969000	377.277344	643.979004
30887.037074	1188.969000	375.997070	452.500092
30887.037074	1188.969000	374.716797	665.125854
30887.037074	1188.969000	373.435547	383.722565
30887.037074	1188.969000	372.155273	448.487061
30887.037074	1188.969000	370.874023	442.404358
30887.037074	1188.969000	369.591797	394.379852
30887.037074	1188.969000	368.310547	283.828735
30887.037074	1188.969000	367.028320	490.109619
30887.037074	1188.969000	365.746094	365.760315
30887.037074	1188.969000	364.463867	316.968384
30887.037074	1188.969000	363.180664	279.777222
30887.037074	1188.969000	361.897461	350.993927
30887.037074	1188.969000	360.614258	174.232468
30887.037074	1188.969000	359.330078	239.675583
30887.037074	1188.969000	358.045898	246.603943
30887.037074	1188.969000	356.761719	242.373703
30887.037074	1188.969000	355.477539	457.437378
30887.037074	1188.969000	354.192383	235.339661
30887.037074	1188.969000	352.907227	296.253113
30887.037074	1188.969000	351.622070	304.783173
30887.037074	1188.969000	350.336914	139.642319
30887.037074	1188.969000	349.050781	267.492645
30887.037074	1188.969000	347.764648	178.494614
30887.037074	1188.969000	346.477539	18.618095
30887.037074	1188.969000	345.191406	188.491867
30887.037074	1188.969000	343.904297	190.834427
30887.037074	1188.969000	342.616211	95.538437
30887.037074	1188.969000	341.329102	101.820007
30887.037074	1188.969000	340.041016	26.873568
30887.037074	1188.969000	338.752930	39.010147
30887.037074	1188.969000	337.463867	172.991592
30887.037074	1188.969000	336.175781	106.767128
30887.037074	1188.969000	334.886719	90.546127
30887.037074	1188.969000	333.596680	68.914200
30887.037074	1188.969000	332.307617	84.958435
30887.037074	1188.969000	331.017578	-27.428713
30887.037074	1188.969000	329.727539	-85.815674
30887.037074	1188.969000	328.436523	-10.419292
30887.037074	1188.969000	327.146484	30.795021
30887.037074	1188.969000	325.855469	11.126506
30887.037074	1188.969000	324.563477	-186.094696
30887.037074	1188.969000	323.272461	-18.369194
30887.037074	1188.969000	321.980469	-56.906013
30887.037074	1188.969000	320.688477	-133.818237
30887.037074	1188.969000	319.395508	-63.043793
30887.037074	1188.969000	318.103516	-75.675720
30887.037074	1188.969000	316.810547	-30.727514
30887.037074	1188.969000	315.516602	-165.358597
30887.037074	1188.969000	314.223633	39.637146
30887.037074	1188.969000	312.929688	28.221817
30887.037074	1188.969000	311.635742	-50.343452
30887.037074	1188.969000	310.340820	-22.528072
30887.037074	1188.969000	309.045898	-84.378738
30887.037074	1188.969000	307.750977	115.210007
30887.037074	1188.969000	306.456055	178.090286
30887.037074	1188.969000	305.160156	-58.964775
30887.037074	1188.969000	303.865234	4.035135
30887.037074	1188.969000	302.568359	160.690887
30887.037074	1188.969000	301.272461	143.992416
30887.037074	1188.969000	299.975586	335.083893
30887.037074	1188.969000	298.678711	354.779144
