#X		#Y		#Wave		#Intensity
-28884.008777	18694.425500	2000.043945	86.930809
-28884.008777	18694.425500	1999.080078	66.854279
-28884.008777	18694.425500	1998.116211	338.449188
-28884.008777	18694.425500	1997.151367	62.427803
-28884.008777	18694.425500	1996.186523	71.603256
-28884.008777	18694.425500	1995.222656	-320.379913
-28884.008777	18694.425500	1994.256836	-82.971146
-28884.008777	18694.425500	1993.291992	-85.705276
-28884.008777	18694.425500	1992.327148	80.064255
-28884.008777	18694.425500	1991.361328	28.072554
-28884.008777	18694.425500	1990.395508	124.733727
-28884.008777	18694.425500	1989.429688	21.059839
-28884.008777	18694.425500	1988.463867	36.303249
-28884.008777	18694.425500	1987.497070	214.922501
-28884.008777	18694.425500	1986.531250	-49.085789
-28884.008777	18694.425500	1985.564453	122.306564
-28884.008777	18694.425500	1984.597656	-25.162550
-28884.008777	18694.425500	1983.630859	151.333740
-28884.008777	18694.425500	1982.664063	-287.471375
-28884.008777	18694.425500	1981.696289	39.944202
-28884.008777	18694.425500	1980.728516	-173.666290
-28884.008777	18694.425500	1979.761719	129.112183
-28884.008777	18694.425500	1978.792969	204.688721
-28884.008777	18694.425500	1977.825195	240.826172
-28884.008777	18694.425500	1976.857422	230.142761
-28884.008777	18694.425500	1975.888672	-175.336533
-28884.008777	18694.425500	1974.919922	58.531841
-28884.008777	18694.425500	1973.951172	171.506958
-28884.008777	18694.425500	1972.982422	-68.214577
-28884.008777	18694.425500	1972.013672	237.268951
-28884.008777	18694.425500	1971.043945	10.110100
-28884.008777	18694.425500	1970.075195	263.845947
-28884.008777	18694.425500	1969.105469	88.674911
-28884.008777	18694.425500	1968.135742	137.900467
-28884.008777	18694.425500	1967.165039	96.009598
-28884.008777	18694.425500	1966.195313	-125.636765
-28884.008777	18694.425500	1965.224609	197.193710
-28884.008777	18694.425500	1964.253906	-19.338198
-28884.008777	18694.425500	1963.283203	35.103256
-28884.008777	18694.425500	1962.312500	40.346016
-28884.008777	18694.425500	1961.341797	-116.795601
-28884.008777	18694.425500	1960.370117	188.791122
-28884.008777	18694.425500	1959.399414	361.460663
-28884.008777	18694.425500	1958.427734	2.794112
-28884.008777	18694.425500	1957.455078	165.693985
-28884.008777	18694.425500	1956.483398	173.666931
-28884.008777	18694.425500	1955.511719	211.181412
-28884.008777	18694.425500	1954.539063	238.891647
-28884.008777	18694.425500	1953.566406	138.841049
-28884.008777	18694.425500	1952.593750	29.037661
-28884.008777	18694.425500	1951.621094	-85.604240
-28884.008777	18694.425500	1950.647461	-94.549294
-28884.008777	18694.425500	1949.674805	70.892433
-28884.008777	18694.425500	1948.701172	-11.673368
-28884.008777	18694.425500	1947.727539	45.745930
-28884.008777	18694.425500	1946.753906	-218.347321
-28884.008777	18694.425500	1945.780273	158.146912
-28884.008777	18694.425500	1944.805664	240.119812
-28884.008777	18694.425500	1943.831055	-124.355904
-28884.008777	18694.425500	1942.856445	-147.773880
-28884.008777	18694.425500	1941.881836	-195.682373
-28884.008777	18694.425500	1940.907227	-201.877716
-28884.008777	18694.425500	1939.932617	196.386810
-28884.008777	18694.425500	1938.957031	57.822983
-28884.008777	18694.425500	1937.981445	44.286743
-28884.008777	18694.425500	1937.005859	50.368614
-28884.008777	18694.425500	1936.030273	110.346649
-28884.008777	18694.425500	1935.054688	136.030167
-28884.008777	18694.425500	1934.078125	269.447571
-28884.008777	18694.425500	1933.101563	304.906006
-28884.008777	18694.425500	1932.125000	14.843760
-28884.008777	18694.425500	1931.148438	18.540991
-28884.008777	18694.425500	1930.171875	54.049316
-28884.008777	18694.425500	1929.194336	87.106262
-28884.008777	18694.425500	1928.217773	98.139824
-28884.008777	18694.425500	1927.240234	94.505074
-28884.008777	18694.425500	1926.262695	291.343262
-28884.008777	18694.425500	1925.284180	-37.412682
-28884.008777	18694.425500	1924.306641	37.186787
-28884.008777	18694.425500	1923.328125	38.455818
-28884.008777	18694.425500	1922.350586	166.754166
-28884.008777	18694.425500	1921.372070	153.341324
-28884.008777	18694.425500	1920.392578	115.511314
-28884.008777	18694.425500	1919.414063	-10.206129
-28884.008777	18694.425500	1918.434570	-216.438187
-28884.008777	18694.425500	1917.456055	373.051971
-28884.008777	18694.425500	1916.476563	176.574692
-28884.008777	18694.425500	1915.497070	150.943283
-28884.008777	18694.425500	1914.516602	0.913114
-28884.008777	18694.425500	1913.537109	236.260193
-28884.008777	18694.425500	1912.556641	108.195259
-28884.008777	18694.425500	1911.576172	-34.460457
-28884.008777	18694.425500	1910.595703	27.673197
-28884.008777	18694.425500	1909.615234	114.142380
-28884.008777	18694.425500	1908.633789	-72.328773
-28884.008777	18694.425500	1907.653320	140.776215
-28884.008777	18694.425500	1906.671875	-101.675751
-28884.008777	18694.425500	1905.690430	130.808640
-28884.008777	18694.425500	1904.708984	68.588104
-28884.008777	18694.425500	1903.727539	91.576103
-28884.008777	18694.425500	1902.745117	-46.095047
-28884.008777	18694.425500	1901.762695	-81.527649
-28884.008777	18694.425500	1900.780273	187.146851
-28884.008777	18694.425500	1899.797852	42.185699
-28884.008777	18694.425500	1898.815430	128.299286
-28884.008777	18694.425500	1897.832031	85.490974
-28884.008777	18694.425500	1896.849609	-52.138245
-28884.008777	18694.425500	1895.866211	-243.206070
-28884.008777	18694.425500	1894.882813	-135.312622
-28884.008777	18694.425500	1893.898438	251.939957
-28884.008777	18694.425500	1892.915039	-135.917465
-28884.008777	18694.425500	1891.930664	0.975824
-28884.008777	18694.425500	1890.947266	196.074631
-28884.008777	18694.425500	1889.962891	2.610675
-28884.008777	18694.425500	1888.977539	-54.865765
-28884.008777	18694.425500	1887.993164	246.850281
-28884.008777	18694.425500	1887.007813	182.021667
-28884.008777	18694.425500	1886.023438	282.162109
-28884.008777	18694.425500	1885.038086	163.934738
-28884.008777	18694.425500	1884.051758	-36.731186
-28884.008777	18694.425500	1883.066406	-162.183151
-28884.008777	18694.425500	1882.081055	-42.761654
-28884.008777	18694.425500	1881.094727	-388.787750
-28884.008777	18694.425500	1880.108398	-269.423615
-28884.008777	18694.425500	1879.122070	237.533569
-28884.008777	18694.425500	1878.135742	29.643967
-28884.008777	18694.425500	1877.148438	250.502457
-28884.008777	18694.425500	1876.162109	52.316719
-28884.008777	18694.425500	1875.174805	96.286568
-28884.008777	18694.425500	1874.187500	62.750072
-28884.008777	18694.425500	1873.199219	-67.612045
-28884.008777	18694.425500	1872.211914	-74.548882
-28884.008777	18694.425500	1871.223633	34.609875
-28884.008777	18694.425500	1870.236328	-18.365206
-28884.008777	18694.425500	1869.248047	243.039841
-28884.008777	18694.425500	1868.258789	163.385193
-28884.008777	18694.425500	1867.270508	139.330307
-28884.008777	18694.425500	1866.282227	-155.453964
-28884.008777	18694.425500	1865.292969	-131.173798
-28884.008777	18694.425500	1864.303711	-259.150909
-28884.008777	18694.425500	1863.314453	91.186699
-28884.008777	18694.425500	1862.324219	-70.664093
-28884.008777	18694.425500	1861.334961	81.429222
-28884.008777	18694.425500	1860.344727	257.575806
-28884.008777	18694.425500	1859.354492	23.268564
-28884.008777	18694.425500	1858.364258	23.110815
-28884.008777	18694.425500	1857.374023	225.608200
-28884.008777	18694.425500	1856.383789	66.117950
-28884.008777	18694.425500	1855.392578	-4.099614
-28884.008777	18694.425500	1854.401367	395.931061
-28884.008777	18694.425500	1853.410156	16.981232
-28884.008777	18694.425500	1852.418945	60.005840
-28884.008777	18694.425500	1851.426758	124.671318
-28884.008777	18694.425500	1850.435547	95.292641
-28884.008777	18694.425500	1849.443359	27.341537
-28884.008777	18694.425500	1848.451172	123.180504
-28884.008777	18694.425500	1847.458984	132.242981
-28884.008777	18694.425500	1846.466797	114.778816
-28884.008777	18694.425500	1845.473633	-64.018387
-28884.008777	18694.425500	1844.480469	221.772629
-28884.008777	18694.425500	1843.487305	382.276733
-28884.008777	18694.425500	1842.494141	68.671501
-28884.008777	18694.425500	1841.500977	291.616974
-28884.008777	18694.425500	1840.506836	-70.035210
-28884.008777	18694.425500	1839.513672	8.487795
-28884.008777	18694.425500	1838.519531	103.772209
-28884.008777	18694.425500	1837.525391	343.214172
-28884.008777	18694.425500	1836.530273	-126.483223
-28884.008777	18694.425500	1835.536133	225.775421
-28884.008777	18694.425500	1834.541016	138.199112
-28884.008777	18694.425500	1833.545898	93.854057
-28884.008777	18694.425500	1832.550781	167.165955
-28884.008777	18694.425500	1831.555664	223.603455
-28884.008777	18694.425500	1830.560547	248.769974
-28884.008777	18694.425500	1829.564453	-50.149200
-28884.008777	18694.425500	1828.568359	-109.015381
-28884.008777	18694.425500	1827.572266	256.788544
-28884.008777	18694.425500	1826.576172	-6.098843
-28884.008777	18694.425500	1825.580078	-151.404160
-28884.008777	18694.425500	1824.583008	-131.231384
-28884.008777	18694.425500	1823.585938	157.415802
-28884.008777	18694.425500	1822.588867	4.849865
-28884.008777	18694.425500	1821.591797	137.502365
-28884.008777	18694.425500	1820.594727	-10.292771
-28884.008777	18694.425500	1819.596680	-203.590851
-28884.008777	18694.425500	1818.599609	185.197052
-28884.008777	18694.425500	1817.601563	-0.963466
-28884.008777	18694.425500	1816.603516	-50.612915
-28884.008777	18694.425500	1815.604492	354.560425
-28884.008777	18694.425500	1814.606445	173.136108
-28884.008777	18694.425500	1813.607422	-5.867921
-28884.008777	18694.425500	1812.608398	219.500229
-28884.008777	18694.425500	1811.609375	205.529587
-28884.008777	18694.425500	1810.610352	248.923264
-28884.008777	18694.425500	1809.610352	165.522049
-28884.008777	18694.425500	1808.611328	-80.459282
-28884.008777	18694.425500	1807.611328	204.260483
-28884.008777	18694.425500	1806.611328	61.043617
-28884.008777	18694.425500	1805.610352	187.842117
-28884.008777	18694.425500	1804.610352	142.546860
-28884.008777	18694.425500	1803.609375	266.809845
-28884.008777	18694.425500	1802.608398	178.448593
-28884.008777	18694.425500	1801.607422	355.101776
-28884.008777	18694.425500	1800.606445	347.833893
-28884.008777	18694.425500	1799.605469	-31.796520
-28884.008777	18694.425500	1798.603516	237.732620
-28884.008777	18694.425500	1797.601563	20.414835
-28884.008777	18694.425500	1796.599609	125.160286
-28884.008777	18694.425500	1795.597656	-108.831779
-28884.008777	18694.425500	1794.595703	-37.569164
-28884.008777	18694.425500	1793.592773	55.079384
-28884.008777	18694.425500	1792.589844	28.474781
-28884.008777	18694.425500	1791.587891	32.817947
-28884.008777	18694.425500	1790.583984	20.437881
-28884.008777	18694.425500	1789.581055	170.009567
-28884.008777	18694.425500	1788.577148	-21.107153
-28884.008777	18694.425500	1787.574219	99.757332
-28884.008777	18694.425500	1786.570313	111.013512
-28884.008777	18694.425500	1785.566406	136.506973
-28884.008777	18694.425500	1784.561523	26.288553
-28884.008777	18694.425500	1783.557617	63.600437
-28884.008777	18694.425500	1782.552734	53.274696
-28884.008777	18694.425500	1781.547852	42.910992
-28884.008777	18694.425500	1780.542969	-86.398819
-28884.008777	18694.425500	1779.538086	335.921509
-28884.008777	18694.425500	1778.532227	49.623753
-28884.008777	18694.425500	1777.527344	112.780685
-28884.008777	18694.425500	1776.521484	190.130173
-28884.008777	18694.425500	1775.515625	89.215469
-28884.008777	18694.425500	1774.508789	-59.213707
-28884.008777	18694.425500	1773.502930	124.872742
-28884.008777	18694.425500	1772.496094	-54.457531
-28884.008777	18694.425500	1771.489258	212.563522
-28884.008777	18694.425500	1770.482422	90.168411
-28884.008777	18694.425500	1769.475586	-60.697449
-28884.008777	18694.425500	1768.467773	277.227142
-28884.008777	18694.425500	1767.460938	2.941541
-28884.008777	18694.425500	1766.453125	77.374260
-28884.008777	18694.425500	1765.445313	-189.739594
-28884.008777	18694.425500	1764.437500	69.549301
-28884.008777	18694.425500	1763.428711	243.359421
-28884.008777	18694.425500	1762.420898	168.215851
-28884.008777	18694.425500	1761.412109	-51.486401
-28884.008777	18694.425500	1760.403320	62.898102
-28884.008777	18694.425500	1759.393555	127.454483
-28884.008777	18694.425500	1758.384766	7.227699
-28884.008777	18694.425500	1757.375000	-181.660995
-28884.008777	18694.425500	1756.366211	-105.375481
-28884.008777	18694.425500	1755.356445	323.500275
-28884.008777	18694.425500	1754.345703	-95.006310
-28884.008777	18694.425500	1753.335938	118.321930
-28884.008777	18694.425500	1752.325195	-179.423370
-28884.008777	18694.425500	1751.315430	95.250526
-28884.008777	18694.425500	1750.304688	-48.756302
-28884.008777	18694.425500	1749.292969	-62.723095
-28884.008777	18694.425500	1748.282227	-3.443993
-28884.008777	18694.425500	1747.270508	-208.915604
-28884.008777	18694.425500	1746.259766	-85.914352
-28884.008777	18694.425500	1745.248047	6.285683
-28884.008777	18694.425500	1744.235352	294.448242
-28884.008777	18694.425500	1743.223633	-14.982163
-28884.008777	18694.425500	1742.211914	62.872116
-28884.008777	18694.425500	1741.199219	-3.337970
-28884.008777	18694.425500	1740.186523	182.969360
-28884.008777	18694.425500	1739.173828	104.886108
-28884.008777	18694.425500	1738.160156	-22.749374
-28884.008777	18694.425500	1737.147461	38.328171
-28884.008777	18694.425500	1736.133789	-9.140309
-28884.008777	18694.425500	1735.120117	-49.553310
-28884.008777	18694.425500	1734.106445	-181.926254
-28884.008777	18694.425500	1733.091797	8.612297
-28884.008777	18694.425500	1732.078125	-46.029495
-28884.008777	18694.425500	1731.063477	76.012062
-28884.008777	18694.425500	1730.048828	278.061310
-28884.008777	18694.425500	1729.034180	39.585258
-28884.008777	18694.425500	1728.019531	8.377134
-28884.008777	18694.425500	1727.003906	-6.377371
-28884.008777	18694.425500	1725.988281	-65.885025
-28884.008777	18694.425500	1724.972656	-64.215897
-28884.008777	18694.425500	1723.957031	106.825584
-28884.008777	18694.425500	1722.941406	-197.428299
-28884.008777	18694.425500	1721.924805	-68.836922
-28884.008777	18694.425500	1720.909180	94.950043
-28884.008777	18694.425500	1719.892578	63.494858
-28884.008777	18694.425500	1718.875977	-381.696106
-28884.008777	18694.425500	1717.858398	80.421951
-28884.008777	18694.425500	1716.841797	156.975021
-28884.008777	18694.425500	1715.824219	458.995850
-28884.008777	18694.425500	1714.806641	157.211594
-28884.008777	18694.425500	1713.789063	-113.957504
-28884.008777	18694.425500	1712.770508	-124.437439
-28884.008777	18694.425500	1711.752930	-111.467194
-28884.008777	18694.425500	1710.734375	4.733757
-28884.008777	18694.425500	1709.715820	-99.722458
-28884.008777	18694.425500	1708.697266	11.676176
-28884.008777	18694.425500	1707.678711	-64.654015
-28884.008777	18694.425500	1706.659180	236.595215
-28884.008777	18694.425500	1705.640625	-86.013985
-28884.008777	18694.425500	1704.621094	22.827909
-28884.008777	18694.425500	1703.600586	2.677776
-28884.008777	18694.425500	1702.581055	-15.144251
-28884.008777	18694.425500	1701.561523	198.966919
-28884.008777	18694.425500	1700.541016	68.608444
-28884.008777	18694.425500	1699.520508	-40.648243
-28884.008777	18694.425500	1698.500000	299.703033
-28884.008777	18694.425500	1697.478516	211.454727
-28884.008777	18694.425500	1696.458008	163.007355
-28884.008777	18694.425500	1695.436523	210.502029
-28884.008777	18694.425500	1694.415039	377.281830
-28884.008777	18694.425500	1693.393555	111.182999
-28884.008777	18694.425500	1692.372070	72.037956
-28884.008777	18694.425500	1691.349609	224.637070
-28884.008777	18694.425500	1690.327148	344.417206
-28884.008777	18694.425500	1689.304688	209.327972
-28884.008777	18694.425500	1688.282227	151.391205
-28884.008777	18694.425500	1687.259766	387.878784
-28884.008777	18694.425500	1686.236328	224.745056
-28884.008777	18694.425500	1685.213867	255.529709
-28884.008777	18694.425500	1684.190430	15.371511
-28884.008777	18694.425500	1683.166016	146.528610
-28884.008777	18694.425500	1682.142578	74.519348
-28884.008777	18694.425500	1681.119141	133.219925
-28884.008777	18694.425500	1680.094727	-111.489632
-28884.008777	18694.425500	1679.070313	206.152054
-28884.008777	18694.425500	1678.045898	337.035980
-28884.008777	18694.425500	1677.020508	199.641800
-28884.008777	18694.425500	1675.996094	386.400146
-28884.008777	18694.425500	1674.970703	414.531555
-28884.008777	18694.425500	1673.945313	365.715454
-28884.008777	18694.425500	1672.919922	633.835083
-28884.008777	18694.425500	1671.893555	417.194214
-28884.008777	18694.425500	1670.868164	631.584961
-28884.008777	18694.425500	1669.841797	389.374298
-28884.008777	18694.425500	1668.815430	361.472107
-28884.008777	18694.425500	1667.789063	436.001923
-28884.008777	18694.425500	1666.761719	468.583862
-28884.008777	18694.425500	1665.735352	524.414551
-28884.008777	18694.425500	1664.708008	140.434937
-28884.008777	18694.425500	1663.680664	307.935974
-28884.008777	18694.425500	1662.653320	470.707153
-28884.008777	18694.425500	1661.625000	465.962341
-28884.008777	18694.425500	1660.597656	503.062317
-28884.008777	18694.425500	1659.569336	447.145233
-28884.008777	18694.425500	1658.541016	484.201324
-28884.008777	18694.425500	1657.512695	565.381409
-28884.008777	18694.425500	1656.483398	453.684479
-28884.008777	18694.425500	1655.455078	790.321045
-28884.008777	18694.425500	1654.425781	509.073730
-28884.008777	18694.425500	1653.396484	685.331177
-28884.008777	18694.425500	1652.366211	719.901062
-28884.008777	18694.425500	1651.336914	466.650055
-28884.008777	18694.425500	1650.306641	475.702606
-28884.008777	18694.425500	1649.276367	436.021698
-28884.008777	18694.425500	1648.246094	308.203491
-28884.008777	18694.425500	1647.215820	502.791443
-28884.008777	18694.425500	1646.185547	488.612274
-28884.008777	18694.425500	1645.154297	690.026184
-28884.008777	18694.425500	1644.123047	603.943481
-28884.008777	18694.425500	1643.091797	603.634155
-28884.008777	18694.425500	1642.060547	547.712097
-28884.008777	18694.425500	1641.028320	728.084351
-28884.008777	18694.425500	1639.997070	767.108093
-28884.008777	18694.425500	1638.964844	657.911621
-28884.008777	18694.425500	1637.931641	673.764954
-28884.008777	18694.425500	1636.899414	696.560364
-28884.008777	18694.425500	1635.867188	791.085938
-28884.008777	18694.425500	1634.833984	582.459778
-28884.008777	18694.425500	1633.800781	478.015961
-28884.008777	18694.425500	1632.767578	732.110535
-28884.008777	18694.425500	1631.734375	842.734192
-28884.008777	18694.425500	1630.700195	840.022705
-28884.008777	18694.425500	1629.666016	809.575745
-28884.008777	18694.425500	1628.631836	737.540466
-28884.008777	18694.425500	1627.597656	563.868408
-28884.008777	18694.425500	1626.563477	697.523132
-28884.008777	18694.425500	1625.528320	791.859070
-28884.008777	18694.425500	1624.493164	676.013123
-28884.008777	18694.425500	1623.458008	798.030640
-28884.008777	18694.425500	1622.422852	733.023621
-28884.008777	18694.425500	1621.387695	827.297180
-28884.008777	18694.425500	1620.351563	847.694214
-28884.008777	18694.425500	1619.315430	632.769531
-28884.008777	18694.425500	1618.279297	819.287292
-28884.008777	18694.425500	1617.243164	604.466858
-28884.008777	18694.425500	1616.207031	636.449341
-28884.008777	18694.425500	1615.169922	887.423401
-28884.008777	18694.425500	1614.132813	691.174133
-28884.008777	18694.425500	1613.095703	688.579163
-28884.008777	18694.425500	1612.058594	801.191772
-28884.008777	18694.425500	1611.020508	992.083374
-28884.008777	18694.425500	1609.983398	809.829529
-28884.008777	18694.425500	1608.945313	1336.846069
-28884.008777	18694.425500	1607.907227	1018.789307
-28884.008777	18694.425500	1606.868164	714.675964
-28884.008777	18694.425500	1605.830078	1195.417480
-28884.008777	18694.425500	1604.791016	900.619263
-28884.008777	18694.425500	1603.751953	1208.638550
-28884.008777	18694.425500	1602.712891	913.983948
-28884.008777	18694.425500	1601.673828	1139.130371
-28884.008777	18694.425500	1600.633789	1198.677002
-28884.008777	18694.425500	1599.594727	1163.980225
-28884.008777	18694.425500	1598.554688	1202.850830
-28884.008777	18694.425500	1597.513672	954.513977
-28884.008777	18694.425500	1596.473633	979.663940
-28884.008777	18694.425500	1595.433594	1085.210327
-28884.008777	18694.425500	1594.392578	1215.990479
-28884.008777	18694.425500	1593.351563	1314.598022
-28884.008777	18694.425500	1592.310547	1224.966919
-28884.008777	18694.425500	1591.268555	1165.221802
-28884.008777	18694.425500	1590.227539	1075.697388
-28884.008777	18694.425500	1589.185547	1149.107056
-28884.008777	18694.425500	1588.143555	1215.630127
-28884.008777	18694.425500	1587.100586	1071.176392
-28884.008777	18694.425500	1586.058594	1137.738525
-28884.008777	18694.425500	1585.015625	1133.233276
-28884.008777	18694.425500	1583.972656	1490.865234
-28884.008777	18694.425500	1582.929688	1548.213135
-28884.008777	18694.425500	1581.886719	1074.076294
-28884.008777	18694.425500	1580.843750	1255.224976
-28884.008777	18694.425500	1579.799805	1063.055298
-28884.008777	18694.425500	1578.755859	1063.312988
-28884.008777	18694.425500	1577.711914	875.892944
-28884.008777	18694.425500	1576.666992	1004.408508
-28884.008777	18694.425500	1575.623047	1194.691528
-28884.008777	18694.425500	1574.578125	1183.602661
-28884.008777	18694.425500	1573.533203	1318.938110
-28884.008777	18694.425500	1572.488281	1257.583252
-28884.008777	18694.425500	1571.443359	974.503357
-28884.008777	18694.425500	1570.397461	1244.768921
-28884.008777	18694.425500	1569.351563	824.734558
-28884.008777	18694.425500	1568.305664	1101.849976
-28884.008777	18694.425500	1567.259766	1248.668579
-28884.008777	18694.425500	1566.213867	1224.149780
-28884.008777	18694.425500	1565.166992	1055.799805
-28884.008777	18694.425500	1564.120117	1081.633179
-28884.008777	18694.425500	1563.073242	1363.171997
-28884.008777	18694.425500	1562.026367	1115.123779
-28884.008777	18694.425500	1560.978516	864.926575
-28884.008777	18694.425500	1559.930664	1059.760742
-28884.008777	18694.425500	1558.883789	885.031006
-28884.008777	18694.425500	1557.834961	977.234253
-28884.008777	18694.425500	1556.787109	811.788757
-28884.008777	18694.425500	1555.739258	815.148315
-28884.008777	18694.425500	1554.690430	902.880005
-28884.008777	18694.425500	1553.641602	703.488220
-28884.008777	18694.425500	1552.592773	800.407043
-28884.008777	18694.425500	1551.542969	806.211548
-28884.008777	18694.425500	1550.494141	595.704468
-28884.008777	18694.425500	1549.444336	658.562683
-28884.008777	18694.425500	1548.394531	680.464294
-28884.008777	18694.425500	1547.344727	570.390137
-28884.008777	18694.425500	1546.293945	701.624573
-28884.008777	18694.425500	1545.244141	471.096741
-28884.008777	18694.425500	1544.193359	584.196960
-28884.008777	18694.425500	1543.142578	610.876404
-28884.008777	18694.425500	1542.090820	444.312134
-28884.008777	18694.425500	1541.040039	682.538269
-28884.008777	18694.425500	1539.988281	554.765930
-28884.008777	18694.425500	1538.936523	452.094482
-28884.008777	18694.425500	1537.884766	417.678680
-28884.008777	18694.425500	1536.833008	580.958496
-28884.008777	18694.425500	1535.780273	878.226501
-28884.008777	18694.425500	1534.727539	680.408020
-28884.008777	18694.425500	1533.674805	634.829712
-28884.008777	18694.425500	1532.622070	922.992065
-28884.008777	18694.425500	1531.569336	675.518616
-28884.008777	18694.425500	1530.515625	714.083008
-28884.008777	18694.425500	1529.461914	857.039978
-28884.008777	18694.425500	1528.408203	689.272888
-28884.008777	18694.425500	1527.354492	625.938354
-28884.008777	18694.425500	1526.299805	655.638123
-28884.008777	18694.425500	1525.246094	907.521790
-28884.008777	18694.425500	1524.191406	563.339233
-28884.008777	18694.425500	1523.136719	631.727905
-28884.008777	18694.425500	1522.081055	194.969421
-28884.008777	18694.425500	1521.026367	363.179810
-28884.008777	18694.425500	1519.970703	302.671783
-28884.008777	18694.425500	1518.915039	380.352142
-28884.008777	18694.425500	1517.859375	279.240906
-28884.008777	18694.425500	1516.802734	519.963623
-28884.008777	18694.425500	1515.747070	29.809582
-28884.008777	18694.425500	1514.690430	150.713104
-28884.008777	18694.425500	1513.633789	61.285847
-28884.008777	18694.425500	1512.577148	-9.950315
-28884.008777	18694.425500	1511.519531	95.251549
-28884.008777	18694.425500	1510.461914	-66.252968
-28884.008777	18694.425500	1509.405273	-15.188614
-28884.008777	18694.425500	1508.346680	316.100922
-28884.008777	18694.425500	1507.289063	21.559734
-28884.008777	18694.425500	1506.231445	7.272737
-28884.008777	18694.425500	1505.172852	-198.889755
-28884.008777	18694.425500	1504.114258	-192.674103
-28884.008777	18694.425500	1503.055664	298.925903
-28884.008777	18694.425500	1501.996094	246.497589
-28884.008777	18694.425500	1500.937500	-85.634430
-28884.008777	18694.425500	1499.877930	-113.010719
-28884.008777	18694.425500	1498.818359	-120.008850
-28884.008777	18694.425500	1497.757813	-115.658485
-28884.008777	18694.425500	1496.698242	170.587128
-28884.008777	18694.425500	1495.637695	21.734818
-28884.008777	18694.425500	1494.577148	-266.716339
-28884.008777	18694.425500	1493.516602	166.066025
-28884.008777	18694.425500	1492.456055	69.334183
-28884.008777	18694.425500	1491.394531	-94.859093
-28884.008777	18694.425500	1490.333008	-76.507187
-28884.008777	18694.425500	1489.271484	16.208561
-28884.008777	18694.425500	1488.209961	-235.445908
-28884.008777	18694.425500	1487.148438	-30.058182
-28884.008777	18694.425500	1486.085938	22.311535
-28884.008777	18694.425500	1485.023438	243.462463
-28884.008777	18694.425500	1483.960938	174.449554
-28884.008777	18694.425500	1482.898438	60.564129
-28884.008777	18694.425500	1481.834961	119.925926
-28884.008777	18694.425500	1480.772461	-108.369675
-28884.008777	18694.425500	1479.708984	88.246689
-28884.008777	18694.425500	1478.644531	-22.962801
-28884.008777	18694.425500	1477.581055	234.356567
-28884.008777	18694.425500	1476.517578	132.328568
-28884.008777	18694.425500	1475.453125	10.217862
-28884.008777	18694.425500	1474.388672	177.928375
-28884.008777	18694.425500	1473.323242	82.797173
-28884.008777	18694.425500	1472.258789	50.973137
-28884.008777	18694.425500	1471.193359	252.284546
-28884.008777	18694.425500	1470.127930	186.810776
-28884.008777	18694.425500	1469.062500	444.063751
-28884.008777	18694.425500	1467.997070	472.885498
-28884.008777	18694.425500	1466.930664	522.082214
-28884.008777	18694.425500	1465.865234	481.676849
-28884.008777	18694.425500	1464.798828	552.945801
-28884.008777	18694.425500	1463.731445	575.207886
-28884.008777	18694.425500	1462.665039	624.315552
-28884.008777	18694.425500	1461.597656	497.254761
-28884.008777	18694.425500	1460.530273	582.395081
-28884.008777	18694.425500	1459.462891	289.680023
-28884.008777	18694.425500	1458.395508	382.117584
-28884.008777	18694.425500	1457.327148	210.307587
-28884.008777	18694.425500	1456.259766	271.414154
-28884.008777	18694.425500	1455.191406	475.101654
-28884.008777	18694.425500	1454.123047	616.864319
-28884.008777	18694.425500	1453.053711	353.419434
-28884.008777	18694.425500	1451.985352	454.416809
-28884.008777	18694.425500	1450.916016	642.804626
-28884.008777	18694.425500	1449.846680	416.692017
-28884.008777	18694.425500	1448.776367	239.718369
-28884.008777	18694.425500	1447.707031	323.778992
-28884.008777	18694.425500	1446.636719	335.353943
-28884.008777	18694.425500	1445.566406	455.245270
-28884.008777	18694.425500	1444.496094	403.527313
-28884.008777	18694.425500	1443.425781	117.137627
-28884.008777	18694.425500	1442.354492	293.276581
-28884.008777	18694.425500	1441.283203	258.982330
-28884.008777	18694.425500	1440.211914	288.946289
-28884.008777	18694.425500	1439.140625	356.666565
-28884.008777	18694.425500	1438.069336	431.324768
-28884.008777	18694.425500	1436.997070	433.402954
-28884.008777	18694.425500	1435.924805	61.005222
-28884.008777	18694.425500	1434.852539	4.106165
-28884.008777	18694.425500	1433.780273	208.594467
-28884.008777	18694.425500	1432.707031	37.022709
-28884.008777	18694.425500	1431.633789	84.813042
-28884.008777	18694.425500	1430.560547	230.238861
-28884.008777	18694.425500	1429.487305	295.233765
-28884.008777	18694.425500	1428.413086	-274.459961
-28884.008777	18694.425500	1427.339844	123.012825
-28884.008777	18694.425500	1426.265625	-37.126759
-28884.008777	18694.425500	1425.191406	42.124935
-28884.008777	18694.425500	1424.116211	104.018341
-28884.008777	18694.425500	1423.041992	-61.955349
-28884.008777	18694.425500	1421.966797	-63.443577
-28884.008777	18694.425500	1420.891602	64.383148
-28884.008777	18694.425500	1419.816406	-163.483078
-28884.008777	18694.425500	1418.740234	-18.580542
-28884.008777	18694.425500	1417.665039	94.338974
-28884.008777	18694.425500	1416.588867	314.976410
-28884.008777	18694.425500	1415.512695	204.262375
-28884.008777	18694.425500	1414.435547	279.219452
-28884.008777	18694.425500	1413.359375	71.282700
-28884.008777	18694.425500	1412.282227	-30.201841
-28884.008777	18694.425500	1411.205078	79.541855
-28884.008777	18694.425500	1410.127930	249.097610
-28884.008777	18694.425500	1409.049805	71.400406
-28884.008777	18694.425500	1407.972656	485.370880
-28884.008777	18694.425500	1406.894531	167.945633
-28884.008777	18694.425500	1405.816406	228.794785
-28884.008777	18694.425500	1404.737305	392.216919
-28884.008777	18694.425500	1403.659180	368.104614
-28884.008777	18694.425500	1402.580078	289.959564
-28884.008777	18694.425500	1401.500977	365.693756
-28884.008777	18694.425500	1400.421875	553.787415
-28884.008777	18694.425500	1399.341797	600.082397
-28884.008777	18694.425500	1398.262695	557.247925
-28884.008777	18694.425500	1397.182617	602.182861
-28884.008777	18694.425500	1396.102539	384.335846
-28884.008777	18694.425500	1395.021484	543.550964
-28884.008777	18694.425500	1393.941406	371.113983
-28884.008777	18694.425500	1392.860352	400.670410
-28884.008777	18694.425500	1391.779297	531.719421
-28884.008777	18694.425500	1390.698242	433.106415
-28884.008777	18694.425500	1389.616211	118.939461
-28884.008777	18694.425500	1388.535156	370.050446
-28884.008777	18694.425500	1387.453125	330.220367
-28884.008777	18694.425500	1386.371094	414.963531
-28884.008777	18694.425500	1385.288086	507.069946
-28884.008777	18694.425500	1384.206055	454.857269
-28884.008777	18694.425500	1383.123047	339.702637
-28884.008777	18694.425500	1382.040039	238.268585
-28884.008777	18694.425500	1380.957031	325.507904
-28884.008777	18694.425500	1379.873047	271.568298
-28884.008777	18694.425500	1378.789063	251.406982
-28884.008777	18694.425500	1377.705078	147.576309
-28884.008777	18694.425500	1376.621094	52.935307
-28884.008777	18694.425500	1375.537109	252.733612
-28884.008777	18694.425500	1374.452148	226.900482
-28884.008777	18694.425500	1373.367188	211.566589
-28884.008777	18694.425500	1372.282227	330.348724
-28884.008777	18694.425500	1371.197266	-11.605095
-28884.008777	18694.425500	1370.112305	293.864929
-28884.008777	18694.425500	1369.026367	286.914917
-28884.008777	18694.425500	1367.940430	446.600922
-28884.008777	18694.425500	1366.854492	177.455750
-28884.008777	18694.425500	1365.767578	133.969696
-28884.008777	18694.425500	1364.681641	341.045685
-28884.008777	18694.425500	1363.594727	395.912872
-28884.008777	18694.425500	1362.507813	296.804688
-28884.008777	18694.425500	1361.419922	423.682373
-28884.008777	18694.425500	1360.333008	154.926834
-28884.008777	18694.425500	1359.245117	229.677872
-28884.008777	18694.425500	1358.157227	339.776031
-28884.008777	18694.425500	1357.069336	349.056793
-28884.008777	18694.425500	1355.981445	115.847832
-28884.008777	18694.425500	1354.892578	107.475914
-28884.008777	18694.425500	1353.803711	196.554810
-28884.008777	18694.425500	1352.714844	362.390656
-28884.008777	18694.425500	1351.625000	273.290894
-28884.008777	18694.425500	1350.536133	384.281769
-28884.008777	18694.425500	1349.446289	202.306824
-28884.008777	18694.425500	1348.356445	61.993179
-28884.008777	18694.425500	1347.266602	149.029739
-28884.008777	18694.425500	1346.175781	271.532837
-28884.008777	18694.425500	1345.085938	235.756561
-28884.008777	18694.425500	1343.995117	265.252502
-28884.008777	18694.425500	1342.903320	48.096424
-28884.008777	18694.425500	1341.812500	206.774551
-28884.008777	18694.425500	1340.720703	297.873901
-28884.008777	18694.425500	1339.629883	409.778900
-28884.008777	18694.425500	1338.538086	164.846268
-28884.008777	18694.425500	1337.445313	328.753357
-28884.008777	18694.425500	1336.353516	217.630341
-28884.008777	18694.425500	1335.260742	290.582336
-28884.008777	18694.425500	1334.167969	-29.791750
-28884.008777	18694.425500	1333.075195	349.243835
-28884.008777	18694.425500	1331.981445	340.645905
-28884.008777	18694.425500	1330.888672	58.446396
-28884.008777	18694.425500	1329.794922	467.321228
-28884.008777	18694.425500	1328.701172	268.070221
-28884.008777	18694.425500	1327.606445	274.482391
-28884.008777	18694.425500	1326.512695	383.224060
-28884.008777	18694.425500	1325.417969	141.469528
-28884.008777	18694.425500	1324.323242	100.225471
-28884.008777	18694.425500	1323.227539	242.130661
-28884.008777	18694.425500	1322.132813	182.643967
-28884.008777	18694.425500	1321.037109	314.069031
-28884.008777	18694.425500	1319.941406	273.289185
-28884.008777	18694.425500	1318.845703	390.251099
-28884.008777	18694.425500	1317.750000	135.383789
-28884.008777	18694.425500	1316.653320	47.433708
-28884.008777	18694.425500	1315.556641	171.690292
-28884.008777	18694.425500	1314.459961	262.125549
-28884.008777	18694.425500	1313.363281	283.867676
-28884.008777	18694.425500	1312.265625	233.788330
-28884.008777	18694.425500	1311.167969	172.373993
-28884.008777	18694.425500	1310.070313	297.709930
-28884.008777	18694.425500	1308.972656	120.910706
-28884.008777	18694.425500	1307.874023	235.410553
-28884.008777	18694.425500	1306.776367	198.422958
-28884.008777	18694.425500	1305.677734	280.114014
-28884.008777	18694.425500	1304.579102	100.046112
-28884.008777	18694.425500	1303.479492	141.376328
-28884.008777	18694.425500	1302.380859	282.149841
-28884.008777	18694.425500	1301.281250	410.171692
-28884.008777	18694.425500	1300.181641	146.715073
-28884.008777	18694.425500	1299.081055	-32.515965
-28884.008777	18694.425500	1297.981445	-44.841747
-28884.008777	18694.425500	1296.880859	81.740280
-28884.008777	18694.425500	1295.780273	205.729752
-28884.008777	18694.425500	1294.679688	98.616150
-28884.008777	18694.425500	1293.578125	133.142761
-28884.008777	18694.425500	1292.476563	-140.085464
-28884.008777	18694.425500	1291.375000	-86.748932
-28884.008777	18694.425500	1290.273438	-13.723363
-28884.008777	18694.425500	1289.171875	100.775665
-28884.008777	18694.425500	1288.069336	72.069656
-28884.008777	18694.425500	1286.966797	141.970474
-28884.008777	18694.425500	1285.864258	5.975403
-28884.008777	18694.425500	1284.761719	91.390366
-28884.008777	18694.425500	1283.658203	-205.095856
-28884.008777	18694.425500	1282.554688	-219.071915
-28884.008777	18694.425500	1281.451172	-129.653793
-28884.008777	18694.425500	1280.347656	-150.303162
-28884.008777	18694.425500	1279.244141	-55.803986
-28884.008777	18694.425500	1278.139648	-73.813065
-28884.008777	18694.425500	1277.035156	-114.446526
-28884.008777	18694.425500	1275.930664	-71.082077
-28884.008777	18694.425500	1274.825195	-60.173340
-28884.008777	18694.425500	1273.720703	-153.809448
-28884.008777	18694.425500	1272.615234	-37.363663
-28884.008777	18694.425500	1271.508789	38.442600
-28884.008777	18694.425500	1270.403320	-77.349037
-28884.008777	18694.425500	1269.297852	-160.834747
-28884.008777	18694.425500	1268.191406	-108.186806
-28884.008777	18694.425500	1267.084961	31.511675
-28884.008777	18694.425500	1265.977539	0.385326
-28884.008777	18694.425500	1264.871094	45.612316
-28884.008777	18694.425500	1263.763672	-67.471390
-28884.008777	18694.425500	1262.656250	-44.511467
-28884.008777	18694.425500	1261.548828	4.311636
-28884.008777	18694.425500	1260.440430	21.024950
-28884.008777	18694.425500	1259.333008	38.660038
-28884.008777	18694.425500	1258.224609	21.445555
-28884.008777	18694.425500	1257.115234	-139.304779
-28884.008777	18694.425500	1256.006836	16.942511
-28884.008777	18694.425500	1254.897461	196.045029
-28884.008777	18694.425500	1253.788086	-120.336357
-28884.008777	18694.425500	1252.678711	-21.903568
-28884.008777	18694.425500	1251.569336	-56.430798
-28884.008777	18694.425500	1250.458984	-87.588211
-28884.008777	18694.425500	1249.349609	-73.811188
-28884.008777	18694.425500	1248.239258	44.693527
-28884.008777	18694.425500	1247.127930	35.520885
-28884.008777	18694.425500	1246.017578	-66.084816
-28884.008777	18694.425500	1244.906250	-98.347893
-28884.008777	18694.425500	1243.794922	-119.541107
-28884.008777	18694.425500	1242.683594	18.446121
-28884.008777	18694.425500	1241.571289	-94.212601
-28884.008777	18694.425500	1240.459961	-157.481964
-28884.008777	18694.425500	1239.347656	-47.750351
-28884.008777	18694.425500	1238.234375	-152.772400
-28884.008777	18694.425500	1237.122070	-12.934671
-28884.008777	18694.425500	1236.008789	61.583439
-28884.008777	18694.425500	1234.896484	61.448124
-28884.008777	18694.425500	1233.782227	-10.683562
-28884.008777	18694.425500	1232.668945	-70.735779
-28884.008777	18694.425500	1231.555664	-77.318115
-28884.008777	18694.425500	1230.441406	-116.628082
-28884.008777	18694.425500	1229.327148	-60.868088
-28884.008777	18694.425500	1228.211914	-53.655571
-28884.008777	18694.425500	1227.097656	101.691376
-28884.008777	18694.425500	1225.982422	-46.703987
-28884.008777	18694.425500	1224.867188	-72.688553
-28884.008777	18694.425500	1223.751953	-142.206406
-28884.008777	18694.425500	1222.635742	-37.980503
-28884.008777	18694.425500	1221.520508	17.417282
-28884.008777	18694.425500	1220.404297	59.996834
-28884.008777	18694.425500	1219.287109	-46.910557
-28884.008777	18694.425500	1218.170898	-10.380609
-28884.008777	18694.425500	1217.053711	-126.745293
-28884.008777	18694.425500	1215.936523	12.222816
-28884.008777	18694.425500	1214.819336	-23.180103
-28884.008777	18694.425500	1213.702148	21.176115
-28884.008777	18694.425500	1212.583984	99.812561
-28884.008777	18694.425500	1211.465820	147.972366
-28884.008777	18694.425500	1210.347656	89.803268
-28884.008777	18694.425500	1209.229492	103.626862
-28884.008777	18694.425500	1208.110352	3.790350
-28884.008777	18694.425500	1206.992188	182.855103
-28884.008777	18694.425500	1205.873047	133.629456
-28884.008777	18694.425500	1204.752930	437.579468
-28884.008777	18694.425500	1203.633789	284.510834
-28884.008777	18694.425500	1202.513672	88.999290
-28884.008777	18694.425500	1201.393555	-18.688347
-28884.008777	18694.425500	1200.273438	171.271469
-28884.008777	18694.425500	1199.152344	5.534405
-28884.008777	18694.425500	1198.032227	-72.529221
-28884.008777	18694.425500	1196.911133	-58.335979
-28884.008777	18694.425500	1195.790039	-95.261551
-28884.008777	18694.425500	1194.667969	-51.787094
-28884.008777	18694.425500	1193.545898	41.844589
-28884.008777	18694.425500	1192.424805	29.035324
-28884.008777	18694.425500	1191.301758	75.571289
-28884.008777	18694.425500	1190.179688	-228.922806
-28884.008777	18694.425500	1189.056641	19.696669
-28884.008777	18694.425500	1187.933594	-65.846146
-28884.008777	18694.425500	1186.810547	-120.954185
-28884.008777	18694.425500	1185.687500	36.075077
-28884.008777	18694.425500	1184.563477	-94.185028
-28884.008777	18694.425500	1183.440430	10.076061
-28884.008777	18694.425500	1182.316406	-129.111649
-28884.008777	18694.425500	1181.191406	150.952377
-28884.008777	18694.425500	1180.067383	23.264420
-28884.008777	18694.425500	1178.942383	7.020352
-28884.008777	18694.425500	1177.817383	76.048149
-28884.008777	18694.425500	1176.692383	99.944931
-28884.008777	18694.425500	1175.566406	-235.046295
-28884.008777	18694.425500	1174.440430	-156.876724
-28884.008777	18694.425500	1173.314453	-86.001976
-28884.008777	18694.425500	1172.188477	142.309860
-28884.008777	18694.425500	1171.062500	175.175446
-28884.008777	18694.425500	1169.935547	148.335709
-28884.008777	18694.425500	1168.808594	-3.998257
-28884.008777	18694.425500	1167.681641	292.501190
-28884.008777	18694.425500	1166.553711	110.932266
-28884.008777	18694.425500	1165.426758	210.327469
-28884.008777	18694.425500	1164.298828	103.758720
-28884.008777	18694.425500	1163.170898	94.109253
-28884.008777	18694.425500	1162.041992	-51.763077
-28884.008777	18694.425500	1160.914063	13.555403
-28884.008777	18694.425500	1159.785156	62.001583
-28884.008777	18694.425500	1158.656250	-75.783333
-28884.008777	18694.425500	1157.526367	-44.767776
-28884.008777	18694.425500	1156.397461	31.893902
-28884.008777	18694.425500	1155.267578	-20.373426
-28884.008777	18694.425500	1154.137695	104.089211
-28884.008777	18694.425500	1153.006836	-110.389893
-28884.008777	18694.425500	1151.876953	-130.490097
-28884.008777	18694.425500	1150.746094	-153.331787
-28884.008777	18694.425500	1149.615234	-90.570236
-28884.008777	18694.425500	1148.484375	-98.172638
-28884.008777	18694.425500	1147.352539	-74.590172
-28884.008777	18694.425500	1146.220703	-147.401825
-28884.008777	18694.425500	1145.088867	-3.654814
-28884.008777	18694.425500	1143.957031	-63.117104
-28884.008777	18694.425500	1142.825195	-115.244125
-28884.008777	18694.425500	1141.692383	-119.002892
-28884.008777	18694.425500	1140.559570	72.190018
-28884.008777	18694.425500	1139.426758	46.250263
-28884.008777	18694.425500	1138.292969	-201.226776
-28884.008777	18694.425500	1137.159180	-214.212219
-28884.008777	18694.425500	1136.025391	105.031914
-28884.008777	18694.425500	1134.891602	-32.377529
-28884.008777	18694.425500	1133.757813	75.613861
-28884.008777	18694.425500	1132.623047	21.470377
-28884.008777	18694.425500	1131.488281	169.967270
-28884.008777	18694.425500	1130.353516	118.547638
-28884.008777	18694.425500	1129.217773	79.966652
-28884.008777	18694.425500	1128.083008	156.492371
-28884.008777	18694.425500	1126.947266	160.258469
-28884.008777	18694.425500	1125.811523	183.376404
-28884.008777	18694.425500	1124.674805	48.261375
-28884.008777	18694.425500	1123.539063	181.134979
-28884.008777	18694.425500	1122.402344	237.372696
-28884.008777	18694.425500	1121.265625	145.351852
-28884.008777	18694.425500	1120.127930	314.548004
-28884.008777	18694.425500	1118.990234	275.358124
-28884.008777	18694.425500	1117.853516	384.777069
-28884.008777	18694.425500	1116.714844	246.883957
-28884.008777	18694.425500	1115.577148	250.677399
-28884.008777	18694.425500	1114.439453	79.986420
-28884.008777	18694.425500	1113.300781	130.188629
-28884.008777	18694.425500	1112.162109	-47.632114
-28884.008777	18694.425500	1111.022461	48.095093
-28884.008777	18694.425500	1109.883789	171.056076
-28884.008777	18694.425500	1108.744141	-46.385590
-28884.008777	18694.425500	1107.604492	82.661819
-28884.008777	18694.425500	1106.463867	-10.004411
-28884.008777	18694.425500	1105.324219	174.018784
-28884.008777	18694.425500	1104.183594	208.547729
-28884.008777	18694.425500	1103.042969	-37.891838
-28884.008777	18694.425500	1101.902344	184.862106
-28884.008777	18694.425500	1100.760742	171.810715
-28884.008777	18694.425500	1099.619141	280.227966
-28884.008777	18694.425500	1098.477539	287.163574
-28884.008777	18694.425500	1097.335938	301.302063
-28884.008777	18694.425500	1096.193359	268.184418
-28884.008777	18694.425500	1095.051758	240.474548
-28884.008777	18694.425500	1093.909180	40.015202
-28884.008777	18694.425500	1092.765625	227.935104
-28884.008777	18694.425500	1091.623047	362.306671
-28884.008777	18694.425500	1090.479492	250.685242
-28884.008777	18694.425500	1089.335938	109.317055
-28884.008777	18694.425500	1088.192383	307.152283
-28884.008777	18694.425500	1087.047852	108.670044
-28884.008777	18694.425500	1085.903320	300.910675
-28884.008777	18694.425500	1084.758789	497.521637
-28884.008777	18694.425500	1083.614258	3.402411
-28884.008777	18694.425500	1082.469727	222.651627
-28884.008777	18694.425500	1081.324219	-0.770361
-28884.008777	18694.425500	1080.178711	195.630188
-28884.008777	18694.425500	1079.033203	2.218586
-28884.008777	18694.425500	1077.886719	212.314377
-28884.008777	18694.425500	1076.740234	193.358795
-28884.008777	18694.425500	1075.593750	397.702484
-28884.008777	18694.425500	1074.447266	139.050613
-28884.008777	18694.425500	1073.300781	247.907196
-28884.008777	18694.425500	1072.153320	74.123787
-28884.008777	18694.425500	1071.005859	242.850876
-28884.008777	18694.425500	1069.858398	94.115929
-28884.008777	18694.425500	1068.709961	92.117043
-28884.008777	18694.425500	1067.561523	154.641617
-28884.008777	18694.425500	1066.413086	202.655609
-28884.008777	18694.425500	1065.264648	167.395508
-28884.008777	18694.425500	1064.116211	7.490339
-28884.008777	18694.425500	1062.966797	-33.156925
-28884.008777	18694.425500	1061.817383	204.680862
-28884.008777	18694.425500	1060.667969	305.258759
-28884.008777	18694.425500	1059.517578	12.256894
-28884.008777	18694.425500	1058.368164	149.762741
-28884.008777	18694.425500	1057.217773	156.653976
-28884.008777	18694.425500	1056.067383	189.335754
-28884.008777	18694.425500	1054.916016	24.761503
-28884.008777	18694.425500	1053.764648	123.597267
-28884.008777	18694.425500	1052.613281	239.058105
-28884.008777	18694.425500	1051.461914	209.898132
-28884.008777	18694.425500	1050.310547	150.565842
-28884.008777	18694.425500	1049.158203	137.490982
-28884.008777	18694.425500	1048.005859	107.635780
-28884.008777	18694.425500	1046.853516	245.380356
-28884.008777	18694.425500	1045.700195	206.174850
-28884.008777	18694.425500	1044.547852	252.093353
-28884.008777	18694.425500	1043.394531	149.206726
-28884.008777	18694.425500	1042.240234	68.803177
-28884.008777	18694.425500	1041.086914	24.945415
-28884.008777	18694.425500	1039.932617	61.638580
-28884.008777	18694.425500	1038.778320	70.673477
-28884.008777	18694.425500	1037.624023	238.276962
-28884.008777	18694.425500	1036.469727	210.327271
-28884.008777	18694.425500	1035.314453	140.403046
-28884.008777	18694.425500	1034.159180	142.110733
-28884.008777	18694.425500	1033.003906	184.155731
-28884.008777	18694.425500	1031.847656	117.630234
-28884.008777	18694.425500	1030.692383	100.405464
-28884.008777	18694.425500	1029.536133	47.088303
-28884.008777	18694.425500	1028.378906	52.262928
-28884.008777	18694.425500	1027.222656	53.197361
-28884.008777	18694.425500	1026.065430	179.480621
-28884.008777	18694.425500	1024.908203	178.315292
-28884.008777	18694.425500	1023.750977	19.016178
-28884.008777	18694.425500	1022.593750	267.394196
-28884.008777	18694.425500	1021.435547	46.616337
-28884.008777	18694.425500	1020.277344	-67.792328
-28884.008777	18694.425500	1019.119141	96.988869
-28884.008777	18694.425500	1017.959961	92.455933
-28884.008777	18694.425500	1016.800781	330.268829
-28884.008777	18694.425500	1015.641602	175.738464
-28884.008777	18694.425500	1014.482422	302.410156
-28884.008777	18694.425500	1013.323242	116.835114
-28884.008777	18694.425500	1012.163086	-114.976234
-28884.008777	18694.425500	1011.002930	232.372635
-28884.008777	18694.425500	1009.842773	-81.695999
-28884.008777	18694.425500	1008.681641	52.536213
-28884.008777	18694.425500	1007.520508	52.377060
-28884.008777	18694.425500	1006.359375	-195.126175
-28884.008777	18694.425500	1005.198242	-62.706455
-28884.008777	18694.425500	1004.037109	-5.958090
-28884.008777	18694.425500	1002.875000	41.856617
-28884.008777	18694.425500	1001.712891	191.006607
-28884.008777	18694.425500	1000.550781	296.727661
-28884.008777	18694.425500	999.387695	254.793533
-28884.008777	18694.425500	998.224609	33.616795
-28884.008777	18694.425500	997.061523	120.718430
-28884.008777	18694.425500	995.898438	132.769775
-28884.008777	18694.425500	994.734375	66.772919
-28884.008777	18694.425500	993.571289	137.183960
-28884.008777	18694.425500	992.407227	-47.791229
-28884.008777	18694.425500	991.242188	56.917030
-28884.008777	18694.425500	990.078125	77.958405
-28884.008777	18694.425500	988.913086	-90.465347
-28884.008777	18694.425500	987.748047	64.630035
-28884.008777	18694.425500	986.583008	13.952049
-28884.008777	18694.425500	985.416992	-97.455482
-28884.008777	18694.425500	984.250977	-161.941193
-28884.008777	18694.425500	983.084961	-266.876678
-28884.008777	18694.425500	981.918945	6.044169
-28884.008777	18694.425500	980.751953	-143.354660
-28884.008777	18694.425500	979.584961	57.426968
-28884.008777	18694.425500	978.417969	-40.199348
-28884.008777	18694.425500	977.250977	-240.955795
-28884.008777	18694.425500	976.083008	-5.904260
-28884.008777	18694.425500	974.915039	-17.764204
-28884.008777	18694.425500	973.747070	-74.908203
-28884.008777	18694.425500	972.579102	-0.464694
-28884.008777	18694.425500	971.410156	-160.949783
-28884.008777	18694.425500	970.242188	-137.312302
-28884.008777	18694.425500	969.072266	99.606430
-28884.008777	18694.425500	967.903320	-73.574966
-28884.008777	18694.425500	966.733398	-252.196915
-28884.008777	18694.425500	965.563477	-47.193493
-28884.008777	18694.425500	964.393555	-14.184345
-28884.008777	18694.425500	963.223633	-12.855525
-28884.008777	18694.425500	962.052734	-98.063210
-28884.008777	18694.425500	960.881836	-2.214013
-28884.008777	18694.425500	959.710938	199.314606
-28884.008777	18694.425500	958.540039	104.624657
-28884.008777	18694.425500	957.368164	-94.264137
-28884.008777	18694.425500	956.196289	-225.496597
-28884.008777	18694.425500	955.024414	61.994152
-28884.008777	18694.425500	953.851563	160.955276
-28884.008777	18694.425500	952.679688	34.409420
-28884.008777	18694.425500	951.506836	51.684410
-28884.008777	18694.425500	950.333984	-52.613464
-28884.008777	18694.425500	949.160156	-16.243975
-28884.008777	18694.425500	947.986328	34.032017
-28884.008777	18694.425500	946.812500	108.629028
-28884.008777	18694.425500	945.638672	-23.159540
-28884.008777	18694.425500	944.464844	-25.615463
-28884.008777	18694.425500	943.290039	-37.200783
-28884.008777	18694.425500	942.115234	59.624519
-28884.008777	18694.425500	940.940430	113.756386
-28884.008777	18694.425500	939.764648	-120.125687
-28884.008777	18694.425500	938.588867	31.287897
-28884.008777	18694.425500	937.413086	-27.728992
-28884.008777	18694.425500	936.237305	-53.058754
-28884.008777	18694.425500	935.060547	134.852051
-28884.008777	18694.425500	933.883789	-26.429115
-28884.008777	18694.425500	932.707031	-47.229954
-28884.008777	18694.425500	931.530273	27.112041
-28884.008777	18694.425500	930.352539	-73.211105
-28884.008777	18694.425500	929.175781	-7.934798
-28884.008777	18694.425500	927.998047	-35.619755
-28884.008777	18694.425500	926.819336	65.806633
-28884.008777	18694.425500	925.641602	24.402987
-28884.008777	18694.425500	924.462891	-127.897377
-28884.008777	18694.425500	923.284180	122.889153
-28884.008777	18694.425500	922.104492	110.934914
-28884.008777	18694.425500	920.924805	-116.087975
-28884.008777	18694.425500	919.746094	-113.619682
-28884.008777	18694.425500	919.551758	-188.731216
-28884.008777	18694.425500	918.386719	131.934128
-28884.008777	18694.425500	917.220703	-38.479359
-28884.008777	18694.425500	916.054688	64.852806
-28884.008777	18694.425500	914.887695	-164.303406
-28884.008777	18694.425500	913.721680	11.334485
-28884.008777	18694.425500	912.554688	195.929916
-28884.008777	18694.425500	911.387695	362.356201
-28884.008777	18694.425500	910.220703	36.104897
-28884.008777	18694.425500	909.052734	204.729935
-28884.008777	18694.425500	907.885742	140.625229
-28884.008777	18694.425500	906.717773	-72.506874
-28884.008777	18694.425500	905.548828	95.998924
-28884.008777	18694.425500	904.380859	9.347109
-28884.008777	18694.425500	903.211914	107.780975
-28884.008777	18694.425500	902.042969	194.880905
-28884.008777	18694.425500	900.874023	-108.342079
-28884.008777	18694.425500	899.704102	238.124847
-28884.008777	18694.425500	898.535156	119.905151
-28884.008777	18694.425500	897.365234	73.869965
-28884.008777	18694.425500	896.194336	-93.877014
-28884.008777	18694.425500	895.024414	65.209618
-28884.008777	18694.425500	893.853516	25.942295
-28884.008777	18694.425500	892.682617	164.646561
-28884.008777	18694.425500	891.511719	24.004227
-28884.008777	18694.425500	890.340820	86.070190
-28884.008777	18694.425500	889.168945	211.141327
-28884.008777	18694.425500	887.997070	18.778519
-28884.008777	18694.425500	886.825195	-24.987795
-28884.008777	18694.425500	885.653320	241.747818
-28884.008777	18694.425500	884.480469	47.221630
-28884.008777	18694.425500	883.307617	169.879288
-28884.008777	18694.425500	882.134766	11.406485
-28884.008777	18694.425500	880.961914	-93.056038
-28884.008777	18694.425500	879.788086	20.541412
-28884.008777	18694.425500	878.614258	-176.030319
-28884.008777	18694.425500	877.440430	-228.738907
-28884.008777	18694.425500	876.266602	-18.618437
-28884.008777	18694.425500	875.091797	222.850449
-28884.008777	18694.425500	873.916992	127.408318
-28884.008777	18694.425500	872.742188	211.589417
-28884.008777	18694.425500	871.567383	78.016853
-28884.008777	18694.425500	870.391602	-194.633820
-28884.008777	18694.425500	869.215820	318.052734
-28884.008777	18694.425500	868.040039	337.047302
-28884.008777	18694.425500	866.864258	33.091061
-28884.008777	18694.425500	865.687500	-66.711754
-28884.008777	18694.425500	864.510742	33.028816
-28884.008777	18694.425500	863.333984	130.478775
-28884.008777	18694.425500	862.157227	-7.398979
-28884.008777	18694.425500	860.979492	-69.055984
-28884.008777	18694.425500	859.802734	-173.254303
-28884.008777	18694.425500	858.625000	11.465339
-28884.008777	18694.425500	857.446289	68.483711
-28884.008777	18694.425500	856.268555	-167.770782
-28884.008777	18694.425500	855.089844	-95.088974
-28884.008777	18694.425500	853.911133	17.830212
-28884.008777	18694.425500	852.731445	59.109352
-28884.008777	18694.425500	851.552734	-132.247940
-28884.008777	18694.425500	850.373047	-82.026741
-28884.008777	18694.425500	849.193359	-47.484570
-28884.008777	18694.425500	848.013672	-109.081505
-28884.008777	18694.425500	846.833008	-18.694077
-28884.008777	18694.425500	845.652344	76.116470
-28884.008777	18694.425500	844.471680	-88.251587
-28884.008777	18694.425500	843.291016	-107.389206
-28884.008777	18694.425500	842.110352	9.682926
-28884.008777	18694.425500	840.928711	-65.297531
-28884.008777	18694.425500	839.747070	-104.543205
-28884.008777	18694.425500	838.564453	-119.234459
-28884.008777	18694.425500	837.382813	-140.624466
-28884.008777	18694.425500	836.200195	-126.323746
-28884.008777	18694.425500	835.017578	-33.983437
-28884.008777	18694.425500	833.834961	-33.110588
-28884.008777	18694.425500	832.651367	-382.246002
-28884.008777	18694.425500	831.467773	8.720925
-28884.008777	18694.425500	830.284180	-70.670029
-28884.008777	18694.425500	829.100586	19.281073
-28884.008777	18694.425500	827.916992	-17.781525
-28884.008777	18694.425500	826.732422	-70.429955
-28884.008777	18694.425500	825.547852	-123.069237
-28884.008777	18694.425500	824.363281	26.873558
-28884.008777	18694.425500	823.177734	-5.758723
-28884.008777	18694.425500	821.992188	-2.789071
-28884.008777	18694.425500	820.806641	-220.079147
-28884.008777	18694.425500	819.621094	18.674417
-28884.008777	18694.425500	818.434570	103.874939
-28884.008777	18694.425500	817.249023	37.838741
-28884.008777	18694.425500	816.062500	227.444061
-28884.008777	18694.425500	814.875000	-5.300728
-28884.008777	18694.425500	813.688477	95.325050
-28884.008777	18694.425500	812.500977	-37.361992
-28884.008777	18694.425500	811.313477	-12.318625
-28884.008777	18694.425500	810.125977	74.872711
-28884.008777	18694.425500	808.937500	-157.684647
-28884.008777	18694.425500	807.749023	38.227352
-28884.008777	18694.425500	806.560547	-21.167114
-28884.008777	18694.425500	805.372070	14.849283
-28884.008777	18694.425500	804.182617	206.110245
-28884.008777	18694.425500	802.994141	259.767303
-28884.008777	18694.425500	801.803711	142.646606
-28884.008777	18694.425500	800.614258	27.768717
-28884.008777	18694.425500	799.424805	243.165527
-28884.008777	18694.425500	798.234375	145.999710
-28884.008777	18694.425500	797.043945	106.454239
-28884.008777	18694.425500	795.852539	-103.656891
-28884.008777	18694.425500	794.662109	29.556320
-28884.008777	18694.425500	793.470703	182.619781
-28884.008777	18694.425500	792.279297	200.559296
-28884.008777	18694.425500	791.087891	76.818649
-28884.008777	18694.425500	789.895508	99.147255
-28884.008777	18694.425500	788.703125	8.612924
-28884.008777	18694.425500	787.510742	190.145767
-28884.008777	18694.425500	786.318359	143.801849
-28884.008777	18694.425500	785.125000	128.402740
-28884.008777	18694.425500	783.931641	44.455765
-28884.008777	18694.425500	782.738281	-161.036743
-28884.008777	18694.425500	781.544922	137.304535
-28884.008777	18694.425500	780.350586	101.919159
-28884.008777	18694.425500	779.156250	-81.463760
-28884.008777	18694.425500	777.961914	66.425659
-28884.008777	18694.425500	776.767578	-39.667099
-28884.008777	18694.425500	775.572266	-108.226387
-28884.008777	18694.425500	774.376953	-55.415638
-28884.008777	18694.425500	773.181641	-29.138788
-28884.008777	18694.425500	771.986328	72.092781
-28884.008777	18694.425500	770.790039	107.082657
-28884.008777	18694.425500	769.593750	-118.164513
-28884.008777	18694.425500	768.397461	-81.018524
-28884.008777	18694.425500	767.201172	39.827599
-28884.008777	18694.425500	766.003906	-154.529739
-28884.008777	18694.425500	764.806641	-113.109215
-28884.008777	18694.425500	763.609375	135.306274
-28884.008777	18694.425500	762.412109	117.107651
-28884.008777	18694.425500	761.213867	123.095314
-28884.008777	18694.425500	760.015625	16.771170
-28884.008777	18694.425500	758.817383	174.549591
-28884.008777	18694.425500	757.618164	2.161503
-28884.008777	18694.425500	756.419922	-60.203705
-28884.008777	18694.425500	755.220703	31.374474
-28884.008777	18694.425500	754.021484	248.213547
-28884.008777	18694.425500	752.821289	-40.752575
-28884.008777	18694.425500	751.621094	46.229218
-28884.008777	18694.425500	750.420898	45.220749
-28884.008777	18694.425500	749.220703	85.909790
-28884.008777	18694.425500	748.020508	73.812263
-28884.008777	18694.425500	746.819336	215.406784
-28884.008777	18694.425500	745.618164	341.520874
-28884.008777	18694.425500	744.416992	81.148987
-28884.008777	18694.425500	743.214844	262.006897
-28884.008777	18694.425500	742.012695	214.514053
-28884.008777	18694.425500	740.810547	88.004723
-28884.008777	18694.425500	739.608398	117.232124
-28884.008777	18694.425500	738.406250	10.423110
-28884.008777	18694.425500	737.203125	120.669243
-28884.008777	18694.425500	736.000000	191.354050
-28884.008777	18694.425500	734.795898	112.916656
-28884.008777	18694.425500	733.592773	21.306789
-28884.008777	18694.425500	732.388672	-50.608372
-28884.008777	18694.425500	731.184570	159.997269
-28884.008777	18694.425500	729.979492	26.646671
-28884.008777	18694.425500	728.775391	20.276239
-28884.008777	18694.425500	727.570313	44.491081
-28884.008777	18694.425500	726.365234	44.559887
-28884.008777	18694.425500	725.160156	70.820862
-28884.008777	18694.425500	723.954102	403.264465
-28884.008777	18694.425500	722.748047	258.715240
-28884.008777	18694.425500	721.541992	313.146179
-28884.008777	18694.425500	720.334961	129.192093
-28884.008777	18694.425500	719.128906	21.750259
-28884.008777	18694.425500	717.921875	272.669128
-28884.008777	18694.425500	716.714844	95.190483
-28884.008777	18694.425500	715.506836	107.754669
-28884.008777	18694.425500	714.298828	113.692459
-28884.008777	18694.425500	713.090820	23.485666
-28884.008777	18694.425500	711.882813	55.493069
-28884.008777	18694.425500	710.674805	-130.837692
-28884.008777	18694.425500	709.465820	-33.494251
-28884.008777	18694.425500	708.256836	57.190414
-28884.008777	18694.425500	707.047852	80.147377
-28884.008777	18694.425500	705.837891	144.451355
-28884.008777	18694.425500	704.627930	287.143585
-28884.008777	18694.425500	703.417969	72.214729
-28884.008777	18694.425500	702.208008	-77.320114
-28884.008777	18694.425500	700.998047	-102.672409
-28884.008777	18694.425500	699.787109	57.071175
-28884.008777	18694.425500	698.576172	99.060623
-28884.008777	18694.425500	697.364258	341.282410
-28884.008777	18694.425500	696.153320	252.414398
-28884.008777	18694.425500	694.941406	207.034485
-28884.008777	18694.425500	693.729492	252.990204
-28884.008777	18694.425500	692.516602	105.210205
-28884.008777	18694.425500	691.304688	209.738144
-28884.008777	18694.425500	690.091797	122.758865
-28884.008777	18694.425500	688.878906	292.302826
-28884.008777	18694.425500	687.665039	161.698898
-28884.008777	18694.425500	686.451172	283.180756
-28884.008777	18694.425500	685.237305	152.467804
-28884.008777	18694.425500	684.023438	286.768646
-28884.008777	18694.425500	682.809570	575.140564
-28884.008777	18694.425500	681.594727	190.122101
-28884.008777	18694.425500	680.379883	354.468872
-28884.008777	18694.425500	679.165039	399.275299
-28884.008777	18694.425500	677.949219	459.165710
-28884.008777	18694.425500	676.733398	35.096169
-28884.008777	18694.425500	675.517578	231.529312
-28884.008777	18694.425500	674.301758	295.496155
-28884.008777	18694.425500	673.084961	31.924524
-28884.008777	18694.425500	671.869141	342.873108
-28884.008777	18694.425500	670.651367	358.823914
-28884.008777	18694.425500	669.434570	51.803379
-28884.008777	18694.425500	668.216797	245.288208
-28884.008777	18694.425500	667.000000	475.431458
-28884.008777	18694.425500	665.781250	244.104965
-28884.008777	18694.425500	664.563477	398.190613
-28884.008777	18694.425500	663.344727	361.624573
-28884.008777	18694.425500	662.125977	357.448853
-28884.008777	18694.425500	660.907227	143.299225
-28884.008777	18694.425500	659.688477	346.673676
-28884.008777	18694.425500	658.468750	247.066833
-28884.008777	18694.425500	657.249023	428.526947
-28884.008777	18694.425500	656.029297	337.414459
-28884.008777	18694.425500	654.808594	267.862457
-28884.008777	18694.425500	653.587891	165.835495
-28884.008777	18694.425500	652.367188	565.019226
-28884.008777	18694.425500	651.146484	281.343506
-28884.008777	18694.425500	649.924805	176.947113
-28884.008777	18694.425500	648.704102	331.618256
-28884.008777	18694.425500	647.482422	82.441078
-28884.008777	18694.425500	646.259766	292.995636
-28884.008777	18694.425500	645.037109	307.007874
-28884.008777	18694.425500	643.815430	234.636551
-28884.008777	18694.425500	642.591797	339.066498
-28884.008777	18694.425500	641.369141	163.026611
-28884.008777	18694.425500	640.145508	301.748749
-28884.008777	18694.425500	638.921875	349.791321
-28884.008777	18694.425500	637.698242	216.696655
-28884.008777	18694.425500	636.474609	262.409515
-28884.008777	18694.425500	635.250000	124.904144
-28884.008777	18694.425500	634.025391	344.893585
-28884.008777	18694.425500	632.800781	-38.217411
-28884.008777	18694.425500	631.575195	166.467163
-28884.008777	18694.425500	630.349609	304.257294
-28884.008777	18694.425500	629.124023	179.371323
-28884.008777	18694.425500	627.898438	-7.938259
-28884.008777	18694.425500	626.671875	181.169724
-28884.008777	18694.425500	625.445313	-21.285427
-28884.008777	18694.425500	624.218750	-30.227850
-28884.008777	18694.425500	622.992188	18.793320
-28884.008777	18694.425500	621.764648	-7.514710
-28884.008777	18694.425500	620.537109	-53.229923
-28884.008777	18694.425500	619.309570	68.560539
-28884.008777	18694.425500	618.081055	48.458313
-28884.008777	18694.425500	616.852539	47.613209
-28884.008777	18694.425500	615.624023	-41.331379
-28884.008777	18694.425500	614.395508	-91.677338
-28884.008777	18694.425500	613.166992	-139.931610
-28884.008777	18694.425500	611.937500	-8.022014
-28884.008777	18694.425500	610.708008	-234.470215
-28884.008777	18694.425500	609.477539	0.192414
-28884.008777	18694.425500	608.248047	-157.692200
-28884.008777	18694.425500	607.017578	-109.791306
-28884.008777	18694.425500	605.787109	-233.440689
-28884.008777	18694.425500	604.555664	-155.690414
-28884.008777	18694.425500	603.325195	-101.600365
-28884.008777	18694.425500	602.093750	-90.444557
-28884.008777	18694.425500	600.861328	-90.073593
-28884.008777	18694.425500	599.629883	111.491089
-28884.008777	18694.425500	598.397461	-40.287437
-28884.008777	18694.425500	597.165039	195.289719
-28884.008777	18694.425500	595.932617	-136.293823
-28884.008777	18694.425500	594.699219	-125.538506
-28884.008777	18694.425500	593.465820	-110.568489
-28884.008777	18694.425500	592.232422	-63.589535
-28884.008777	18694.425500	590.999023	-187.710739
-28884.008777	18694.425500	589.764648	38.681656
-28884.008777	18694.425500	588.530273	-74.840958
-28884.008777	18694.425500	587.295898	85.094833
-28884.008777	18694.425500	586.061523	142.383942
-28884.008777	18694.425500	584.826172	-58.807266
-28884.008777	18694.425500	583.590820	85.919052
-28884.008777	18694.425500	582.355469	-51.231617
-28884.008777	18694.425500	581.119141	-32.585106
-28884.008777	18694.425500	579.882813	139.635452
-28884.008777	18694.425500	578.646484	-108.509888
-28884.008777	18694.425500	577.410156	-81.462059
-28884.008777	18694.425500	576.172852	3.099532
-28884.008777	18694.425500	574.935547	-16.876188
-28884.008777	18694.425500	573.698242	419.243134
-28884.008777	18694.425500	572.460938	230.767624
-28884.008777	18694.425500	571.222656	142.463120
-28884.008777	18694.425500	569.984375	5.172237
-28884.008777	18694.425500	568.746094	-276.904236
-28884.008777	18694.425500	567.506836	107.524887
-28884.008777	18694.425500	566.267578	-238.380280
-28884.008777	18694.425500	565.028320	77.717758
-28884.008777	18694.425500	563.789063	185.133072
-28884.008777	18694.425500	562.548828	103.137306
-28884.008777	18694.425500	561.309570	216.835434
-28884.008777	18694.425500	560.068359	168.839981
-28884.008777	18694.425500	558.828125	31.563053
-28884.008777	18694.425500	557.586914	-10.032786
-28884.008777	18694.425500	556.345703	27.000790
-28884.008777	18694.425500	555.104492	-103.840508
-28884.008777	18694.425500	553.863281	54.246647
-28884.008777	18694.425500	552.621094	33.856079
-28884.008777	18694.425500	551.378906	-205.229874
-28884.008777	18694.425500	550.136719	63.125080
-28884.008777	18694.425500	548.893555	2.387801
-28884.008777	18694.425500	547.650391	15.937275
-28884.008777	18694.425500	546.407227	-133.871475
-28884.008777	18694.425500	545.164063	-14.255684
-28884.008777	18694.425500	543.919922	-28.292515
-28884.008777	18694.425500	542.675781	-163.166504
-28884.008777	18694.425500	541.431641	125.942139
-28884.008777	18694.425500	540.186523	-258.969543
-28884.008777	18694.425500	538.941406	-1.744376
-28884.008777	18694.425500	537.696289	13.897336
-28884.008777	18694.425500	536.451172	254.024323
-28884.008777	18694.425500	535.205078	79.053482
-28884.008777	18694.425500	533.959961	60.823906
-28884.008777	18694.425500	532.712891	87.043587
-28884.008777	18694.425500	531.466797	-58.121899
-28884.008777	18694.425500	530.219727	35.835648
-28884.008777	18694.425500	528.972656	218.601379
-28884.008777	18694.425500	527.725586	217.333603
-28884.008777	18694.425500	526.478516	139.973846
-28884.008777	18694.425500	525.230469	227.526688
-28884.008777	18694.425500	523.982422	346.761047
-28884.008777	18694.425500	522.734375	98.336006
-28884.008777	18694.425500	521.485352	-160.530014
-28884.008777	18694.425500	520.236328	41.129875
-28884.008777	18694.425500	518.987305	113.928741
-28884.008777	18694.425500	517.737305	207.821182
-28884.008777	18694.425500	516.488281	-38.089264
-28884.008777	18694.425500	515.238281	309.054077
-28884.008777	18694.425500	513.988281	236.258667
-28884.008777	18694.425500	512.737305	64.381317
-28884.008777	18694.425500	511.486328	213.129501
-28884.008777	18694.425500	510.235352	136.255432
-28884.008777	18694.425500	508.984375	192.233871
-28884.008777	18694.425500	507.732422	269.281738
-28884.008777	18694.425500	506.480469	53.461540
-28884.008777	18694.425500	505.228516	126.345451
-28884.008777	18694.425500	503.976563	64.439125
-28884.008777	18694.425500	502.723633	248.929901
-28884.008777	18694.425500	501.470703	140.756760
-28884.008777	18694.425500	500.217773	95.796127
-28884.008777	18694.425500	498.963867	562.190186
-28884.008777	18694.425500	497.709961	481.434113
-28884.008777	18694.425500	496.456055	318.710693
-28884.008777	18694.425500	495.202148	372.669312
-28884.008777	18694.425500	493.947266	46.088432
-28884.008777	18694.425500	492.692383	335.533020
-28884.008777	18694.425500	491.437500	175.154037
-28884.008777	18694.425500	490.181641	523.303833
-28884.008777	18694.425500	488.926758	278.964447
-28884.008777	18694.425500	487.670898	290.951202
-28884.008777	18694.425500	486.414063	481.410583
-28884.008777	18694.425500	485.158203	531.156189
-28884.008777	18694.425500	483.901367	473.842712
-28884.008777	18694.425500	482.644531	355.709534
-28884.008777	18694.425500	481.386719	455.799377
-28884.008777	18694.425500	480.128906	811.728149
-28884.008777	18694.425500	478.871094	469.215546
-28884.008777	18694.425500	477.613281	514.695862
-28884.008777	18694.425500	476.355469	591.587708
-28884.008777	18694.425500	475.096680	831.881958
-28884.008777	18694.425500	473.837891	676.072449
-28884.008777	18694.425500	472.578125	710.919373
-28884.008777	18694.425500	471.319336	892.329773
-28884.008777	18694.425500	470.059570	365.923035
-28884.008777	18694.425500	468.799805	559.817139
-28884.008777	18694.425500	467.539063	680.329834
-28884.008777	18694.425500	466.278320	537.100159
-28884.008777	18694.425500	465.017578	588.435120
-28884.008777	18694.425500	463.756836	867.669067
-28884.008777	18694.425500	462.495117	960.606750
-28884.008777	18694.425500	461.233398	1070.163574
-28884.008777	18694.425500	459.971680	895.331299
-28884.008777	18694.425500	458.709961	661.983948
-28884.008777	18694.425500	457.447266	606.227722
-28884.008777	18694.425500	456.184570	855.369751
-28884.008777	18694.425500	454.921875	830.722717
-28884.008777	18694.425500	453.658203	760.032349
-28884.008777	18694.425500	452.394531	910.524841
-28884.008777	18694.425500	451.130859	1244.480713
-28884.008777	18694.425500	449.867188	722.664612
-28884.008777	18694.425500	448.602539	1006.158264
-28884.008777	18694.425500	447.337891	832.610779
-28884.008777	18694.425500	446.073242	861.238770
-28884.008777	18694.425500	444.807617	872.991821
-28884.008777	18694.425500	443.542969	836.621033
-28884.008777	18694.425500	442.276367	1189.728638
-28884.008777	18694.425500	441.010742	854.959534
-28884.008777	18694.425500	439.744141	901.283020
-28884.008777	18694.425500	438.478516	1032.742920
-28884.008777	18694.425500	437.210938	1303.375366
-28884.008777	18694.425500	435.944336	1307.194702
-28884.008777	18694.425500	434.676758	994.391602
-28884.008777	18694.425500	433.409180	1168.319458
-28884.008777	18694.425500	432.141602	1090.155396
-28884.008777	18694.425500	430.873047	1161.441406
-28884.008777	18694.425500	429.604492	1074.331177
-28884.008777	18694.425500	428.335938	1161.533081
-28884.008777	18694.425500	427.067383	1138.171387
-28884.008777	18694.425500	425.797852	1189.230713
-28884.008777	18694.425500	424.528320	1160.918091
-28884.008777	18694.425500	423.258789	1167.506348
-28884.008777	18694.425500	421.988281	1341.846802
-28884.008777	18694.425500	420.717773	1133.630005
-28884.008777	18694.425500	419.447266	1132.597778
-28884.008777	18694.425500	418.175781	1228.590942
-28884.008777	18694.425500	416.905273	1294.985596
-28884.008777	18694.425500	415.633789	1377.389771
-28884.008777	18694.425500	414.362305	1031.955688
-28884.008777	18694.425500	413.089844	974.283325
-28884.008777	18694.425500	411.817383	1396.969849
-28884.008777	18694.425500	410.544922	1300.684692
-28884.008777	18694.425500	409.272461	1017.283936
-28884.008777	18694.425500	407.999023	1048.196899
-28884.008777	18694.425500	406.725586	933.392883
-28884.008777	18694.425500	405.452148	1149.222168
-28884.008777	18694.425500	404.177734	1206.821045
-28884.008777	18694.425500	402.903320	963.457275
-28884.008777	18694.425500	401.628906	1276.052856
-28884.008777	18694.425500	400.354492	1140.745972
-28884.008777	18694.425500	399.079102	1279.702637
-28884.008777	18694.425500	397.803711	1095.049072
-28884.008777	18694.425500	396.528320	1099.741333
-28884.008777	18694.425500	395.251953	1117.888062
-28884.008777	18694.425500	393.976563	1064.755493
-28884.008777	18694.425500	392.700195	1022.958496
-28884.008777	18694.425500	391.422852	1234.156128
-28884.008777	18694.425500	390.145508	1268.563843
-28884.008777	18694.425500	388.869141	1130.420776
-28884.008777	18694.425500	387.590820	1112.872192
-28884.008777	18694.425500	386.313477	1104.427734
-28884.008777	18694.425500	385.035156	1191.651001
-28884.008777	18694.425500	383.756836	1062.930786
-28884.008777	18694.425500	382.478516	1345.427979
-28884.008777	18694.425500	381.199219	1013.849670
-28884.008777	18694.425500	379.919922	1202.586670
-28884.008777	18694.425500	378.640625	1076.394165
-28884.008777	18694.425500	377.360352	1113.529541
-28884.008777	18694.425500	376.080078	1231.451782
-28884.008777	18694.425500	374.799805	1427.998779
-28884.008777	18694.425500	373.519531	930.728394
-28884.008777	18694.425500	372.238281	1026.952515
-28884.008777	18694.425500	370.957031	944.265198
-28884.008777	18694.425500	369.675781	1160.242065
-28884.008777	18694.425500	368.394531	1158.125488
-28884.008777	18694.425500	367.112305	944.123169
-28884.008777	18694.425500	365.830078	960.595215
-28884.008777	18694.425500	364.546875	999.577576
-28884.008777	18694.425500	363.264648	773.256348
-28884.008777	18694.425500	361.981445	877.747375
-28884.008777	18694.425500	360.698242	671.630615
-28884.008777	18694.425500	359.414063	898.769470
-28884.008777	18694.425500	358.129883	899.470947
-28884.008777	18694.425500	356.845703	842.219360
-28884.008777	18694.425500	355.561523	616.108826
-28884.008777	18694.425500	354.276367	387.391815
-28884.008777	18694.425500	352.991211	718.421692
-28884.008777	18694.425500	351.706055	796.178711
-28884.008777	18694.425500	350.420898	1000.286255
-28884.008777	18694.425500	349.134766	608.528931
-28884.008777	18694.425500	347.848633	825.006104
-28884.008777	18694.425500	346.561523	562.564758
-28884.008777	18694.425500	345.275391	293.030518
-28884.008777	18694.425500	343.988281	596.111694
-28884.008777	18694.425500	342.700195	666.144653
-28884.008777	18694.425500	341.413086	503.369080
-28884.008777	18694.425500	340.125000	523.400513
-28884.008777	18694.425500	338.836914	120.055817
-28884.008777	18694.425500	337.548828	237.210953
-28884.008777	18694.425500	336.259766	155.970642
-28884.008777	18694.425500	334.970703	154.738220
-28884.008777	18694.425500	333.681641	255.868271
-28884.008777	18694.425500	332.391602	37.755371
-28884.008777	18694.425500	331.101563	222.430618
-28884.008777	18694.425500	329.811523	318.877441
-28884.008777	18694.425500	328.521484	386.319427
-28884.008777	18694.425500	327.230469	109.844757
-28884.008777	18694.425500	325.939453	39.262352
-28884.008777	18694.425500	324.648438	-132.065964
-28884.008777	18694.425500	323.356445	-22.444304
-28884.008777	18694.425500	322.064453	29.031822
-28884.008777	18694.425500	320.772461	65.143349
-28884.008777	18694.425500	319.480469	-81.567299
-28884.008777	18694.425500	318.187500	-68.475739
-28884.008777	18694.425500	316.894531	6.414239
-28884.008777	18694.425500	315.601563	-252.729218
-28884.008777	18694.425500	314.307617	-326.030121
-28884.008777	18694.425500	313.013672	-187.090973
-28884.008777	18694.425500	311.719727	-99.106483
-28884.008777	18694.425500	310.425781	-111.088272
-28884.008777	18694.425500	309.130859	-11.423162
-28884.008777	18694.425500	307.835938	-77.163231
-28884.008777	18694.425500	306.541016	-169.876816
-28884.008777	18694.425500	305.245117	9.385715
-28884.008777	18694.425500	303.949219	425.871399
-28884.008777	18694.425500	302.653320	200.146271
-28884.008777	18694.425500	301.356445	398.368011
-28884.008777	18694.425500	300.060547	654.375427
-28884.008777	18694.425500	298.763672	768.233582
