#X		#Y		#Wave		#Intensity
31176.853936	1126.981000	1999.980469	-26.557196
31176.853936	1126.981000	1999.016602	-44.091850
31176.853936	1126.981000	1998.052734	-86.421188
31176.853936	1126.981000	1997.087891	79.125351
31176.853936	1126.981000	1996.123047	83.260109
31176.853936	1126.981000	1995.158203	-108.599365
31176.853936	1126.981000	1994.193359	-57.947788
31176.853936	1126.981000	1993.228516	-10.067188
31176.853936	1126.981000	1992.262695	-7.028579
31176.853936	1126.981000	1991.297852	-135.448105
31176.853936	1126.981000	1990.332031	-14.098312
31176.853936	1126.981000	1989.366211	57.476135
31176.853936	1126.981000	1988.399414	-51.805256
31176.853936	1126.981000	1987.433594	-25.232113
31176.853936	1126.981000	1986.466797	109.933136
31176.853936	1126.981000	1985.500977	289.341858
31176.853936	1126.981000	1984.534180	-23.474663
31176.853936	1126.981000	1983.567383	4.724503
31176.853936	1126.981000	1982.599609	40.140842
31176.853936	1126.981000	1981.632813	63.005814
31176.853936	1126.981000	1980.665039	-8.182709
31176.853936	1126.981000	1979.697266	63.739231
31176.853936	1126.981000	1978.729492	189.799683
31176.853936	1126.981000	1977.761719	-22.587715
31176.853936	1126.981000	1976.792969	38.958294
31176.853936	1126.981000	1975.825195	147.228882
31176.853936	1126.981000	1974.856445	129.476929
31176.853936	1126.981000	1973.887695	190.547165
31176.853936	1126.981000	1972.918945	24.537127
31176.853936	1126.981000	1971.949219	53.298374
31176.853936	1126.981000	1970.980469	269.328796
31176.853936	1126.981000	1970.010742	6.905684
31176.853936	1126.981000	1969.041016	141.311264
31176.853936	1126.981000	1968.071289	-27.550962
31176.853936	1126.981000	1967.101563	-1.795217
31176.853936	1126.981000	1966.130859	161.813477
31176.853936	1126.981000	1965.161133	-103.286110
31176.853936	1126.981000	1964.190430	42.876709
31176.853936	1126.981000	1963.219727	60.878937
31176.853936	1126.981000	1962.249023	201.883102
31176.853936	1126.981000	1961.277344	116.339989
31176.853936	1126.981000	1960.306641	-114.417870
31176.853936	1126.981000	1959.334961	183.803497
31176.853936	1126.981000	1958.363281	189.141449
31176.853936	1126.981000	1957.391602	-4.781126
31176.853936	1126.981000	1956.419922	20.159552
31176.853936	1126.981000	1955.447266	246.633987
31176.853936	1126.981000	1954.474609	-87.432556
31176.853936	1126.981000	1953.501953	183.131210
31176.853936	1126.981000	1952.529297	1.462300
31176.853936	1126.981000	1951.556641	31.095116
31176.853936	1126.981000	1950.583984	92.615685
31176.853936	1126.981000	1949.610352	181.099991
31176.853936	1126.981000	1948.636719	-30.010519
31176.853936	1126.981000	1947.663086	73.146301
31176.853936	1126.981000	1946.689453	58.438335
31176.853936	1126.981000	1945.715820	237.574188
31176.853936	1126.981000	1944.741211	26.540434
31176.853936	1126.981000	1943.767578	-184.426590
31176.853936	1126.981000	1942.792969	-64.239250
31176.853936	1126.981000	1941.818359	122.101067
31176.853936	1126.981000	1940.842773	-32.400909
31176.853936	1126.981000	1939.868164	6.789725
31176.853936	1126.981000	1938.892578	222.411606
31176.853936	1126.981000	1937.916992	104.727661
31176.853936	1126.981000	1936.941406	-12.909698
31176.853936	1126.981000	1935.965820	9.110616
31176.853936	1126.981000	1934.990234	36.026581
31176.853936	1126.981000	1934.013672	-3.165400
31176.853936	1126.981000	1933.037109	23.760113
31176.853936	1126.981000	1932.060547	109.424660
31176.853936	1126.981000	1931.083984	155.918472
31176.853936	1126.981000	1930.107422	26.256514
31176.853936	1126.981000	1929.129883	104.574532
31176.853936	1126.981000	1928.153320	-34.781128
31176.853936	1126.981000	1927.175781	119.352295
31176.853936	1126.981000	1926.198242	275.892059
31176.853936	1126.981000	1925.219727	92.638794
31176.853936	1126.981000	1924.242188	29.219660
31176.853936	1126.981000	1923.263672	-9.720241
31176.853936	1126.981000	1922.285156	46.648136
31176.853936	1126.981000	1921.306641	15.090149
31176.853936	1126.981000	1920.328125	56.826180
31176.853936	1126.981000	1919.349609	54.622452
31176.853936	1126.981000	1918.370117	-23.230438
31176.853936	1126.981000	1917.391602	-32.690994
31176.853936	1126.981000	1916.412109	143.329163
31176.853936	1126.981000	1915.431641	102.174240
31176.853936	1126.981000	1914.452148	78.135422
31176.853936	1126.981000	1913.472656	-9.276193
31176.853936	1126.981000	1912.492188	-191.725250
31176.853936	1126.981000	1911.511719	-66.906021
31176.853936	1126.981000	1910.531250	-83.476570
31176.853936	1126.981000	1909.550781	-82.956337
31176.853936	1126.981000	1908.569336	-89.718056
31176.853936	1126.981000	1907.588867	-218.254440
31176.853936	1126.981000	1906.607422	-76.362801
31176.853936	1126.981000	1905.625977	140.993607
31176.853936	1126.981000	1904.644531	-194.383591
31176.853936	1126.981000	1903.662109	-132.825180
31176.853936	1126.981000	1902.680664	189.152161
31176.853936	1126.981000	1901.698242	29.233662
31176.853936	1126.981000	1900.715820	-106.269882
31176.853936	1126.981000	1899.733398	1.545520
31176.853936	1126.981000	1898.750000	7.203490
31176.853936	1126.981000	1897.767578	-130.575745
31176.853936	1126.981000	1896.784180	200.917480
31176.853936	1126.981000	1895.800781	17.020079
31176.853936	1126.981000	1894.817383	22.767673
31176.853936	1126.981000	1893.833984	13.957603
31176.853936	1126.981000	1892.850586	-2.113809
31176.853936	1126.981000	1891.866211	-44.873188
31176.853936	1126.981000	1890.881836	45.962368
31176.853936	1126.981000	1889.897461	158.636368
31176.853936	1126.981000	1888.913086	-129.237595
31176.853936	1126.981000	1887.927734	116.950920
31176.853936	1126.981000	1886.943359	54.895939
31176.853936	1126.981000	1885.958008	-94.454422
31176.853936	1126.981000	1884.972656	44.915867
31176.853936	1126.981000	1883.987305	-97.068207
31176.853936	1126.981000	1883.001953	122.297630
31176.853936	1126.981000	1882.015625	-58.404533
31176.853936	1126.981000	1881.029297	-42.696922
31176.853936	1126.981000	1880.042969	-77.872406
31176.853936	1126.981000	1879.056641	-113.022682
31176.853936	1126.981000	1878.070313	-80.320557
31176.853936	1126.981000	1877.083984	-125.123390
31176.853936	1126.981000	1876.096680	-165.056168
31176.853936	1126.981000	1875.109375	-23.385458
31176.853936	1126.981000	1874.122070	79.510818
31176.853936	1126.981000	1873.134766	29.904129
31176.853936	1126.981000	1872.146484	-34.195789
31176.853936	1126.981000	1871.159180	-37.787045
31176.853936	1126.981000	1870.170898	-145.381393
31176.853936	1126.981000	1869.182617	73.545494
31176.853936	1126.981000	1868.194336	84.452522
31176.853936	1126.981000	1867.205078	-114.962158
31176.853936	1126.981000	1866.216797	-48.434029
31176.853936	1126.981000	1865.227539	44.650101
31176.853936	1126.981000	1864.238281	-45.926720
31176.853936	1126.981000	1863.249023	8.464288
31176.853936	1126.981000	1862.259766	38.678436
31176.853936	1126.981000	1861.269531	18.166748
31176.853936	1126.981000	1860.279297	144.925140
31176.853936	1126.981000	1859.290039	114.728851
31176.853936	1126.981000	1858.298828	38.681168
31176.853936	1126.981000	1857.308594	42.276100
31176.853936	1126.981000	1856.318359	-94.064674
31176.853936	1126.981000	1855.327148	85.605843
31176.853936	1126.981000	1854.335938	-168.885345
31176.853936	1126.981000	1853.344727	189.123657
31176.853936	1126.981000	1852.353516	175.741058
31176.853936	1126.981000	1851.362305	10.502787
31176.853936	1126.981000	1850.370117	-55.892307
31176.853936	1126.981000	1849.377930	-28.321272
31176.853936	1126.981000	1848.385742	-44.140762
31176.853936	1126.981000	1847.393555	50.808186
31176.853936	1126.981000	1846.401367	39.748997
31176.853936	1126.981000	1845.408203	26.261269
31176.853936	1126.981000	1844.415039	125.882111
31176.853936	1126.981000	1843.421875	93.076157
31176.853936	1126.981000	1842.428711	-7.117738
31176.853936	1126.981000	1841.435547	231.894943
31176.853936	1126.981000	1840.441406	237.480759
31176.853936	1126.981000	1839.448242	91.531914
31176.853936	1126.981000	1838.454102	-95.269058
31176.853936	1126.981000	1837.459961	-51.263748
31176.853936	1126.981000	1836.464844	168.136963
31176.853936	1126.981000	1835.470703	91.854813
31176.853936	1126.981000	1834.475586	277.435394
31176.853936	1126.981000	1833.480469	16.125134
31176.853936	1126.981000	1832.485352	124.718796
31176.853936	1126.981000	1831.490234	101.165421
31176.853936	1126.981000	1830.495117	188.009766
31176.853936	1126.981000	1829.499023	197.969620
31176.853936	1126.981000	1828.502930	109.488892
31176.853936	1126.981000	1827.506836	102.572342
31176.853936	1126.981000	1826.510742	47.631939
31176.853936	1126.981000	1825.513672	119.780800
31176.853936	1126.981000	1824.517578	23.993429
31176.853936	1126.981000	1823.520508	-9.473567
31176.853936	1126.981000	1822.523438	-74.142723
31176.853936	1126.981000	1821.526367	86.441917
31176.853936	1126.981000	1820.529297	100.744141
31176.853936	1126.981000	1819.531250	150.921707
31176.853936	1126.981000	1818.533203	47.725788
31176.853936	1126.981000	1817.535156	-0.409124
31176.853936	1126.981000	1816.537109	308.176117
31176.853936	1126.981000	1815.539063	195.255844
31176.853936	1126.981000	1814.540039	103.857765
31176.853936	1126.981000	1813.541992	-11.496447
31176.853936	1126.981000	1812.542969	165.019028
31176.853936	1126.981000	1811.543945	128.507370
31176.853936	1126.981000	1810.543945	173.259705
31176.853936	1126.981000	1809.544922	-42.711498
31176.853936	1126.981000	1808.544922	140.586105
31176.853936	1126.981000	1807.544922	79.935692
31176.853936	1126.981000	1806.544922	291.680084
31176.853936	1126.981000	1805.544922	199.823257
31176.853936	1126.981000	1804.544922	105.540138
31176.853936	1126.981000	1803.543945	159.306015
31176.853936	1126.981000	1802.542969	41.040199
31176.853936	1126.981000	1801.541992	66.000618
31176.853936	1126.981000	1800.541016	181.586838
31176.853936	1126.981000	1799.539063	79.864769
31176.853936	1126.981000	1798.538086	30.603394
31176.853936	1126.981000	1797.536133	71.942131
31176.853936	1126.981000	1796.534180	208.598648
31176.853936	1126.981000	1795.532227	132.870987
31176.853936	1126.981000	1794.529297	145.315002
31176.853936	1126.981000	1793.527344	109.995422
31176.853936	1126.981000	1792.524414	-127.993942
31176.853936	1126.981000	1791.521484	39.147038
31176.853936	1126.981000	1790.518555	125.132530
31176.853936	1126.981000	1789.514648	149.063934
31176.853936	1126.981000	1788.511719	15.710963
31176.853936	1126.981000	1787.507813	77.583694
31176.853936	1126.981000	1786.503906	-55.878597
31176.853936	1126.981000	1785.500000	201.002197
31176.853936	1126.981000	1784.496094	-56.361446
31176.853936	1126.981000	1783.491211	-49.598976
31176.853936	1126.981000	1782.486328	185.457794
31176.853936	1126.981000	1781.481445	23.117876
31176.853936	1126.981000	1780.476563	43.863167
31176.853936	1126.981000	1779.471680	-51.993378
31176.853936	1126.981000	1778.465820	-90.855972
31176.853936	1126.981000	1777.460938	-63.241978
31176.853936	1126.981000	1776.455078	66.446877
31176.853936	1126.981000	1775.449219	179.363846
31176.853936	1126.981000	1774.442383	78.355415
31176.853936	1126.981000	1773.436523	50.918663
31176.853936	1126.981000	1772.429688	-195.058746
31176.853936	1126.981000	1771.422852	157.222366
31176.853936	1126.981000	1770.416016	93.896423
31176.853936	1126.981000	1769.409180	-0.351405
31176.853936	1126.981000	1768.402344	-28.223587
31176.853936	1126.981000	1767.394531	128.849472
31176.853936	1126.981000	1766.386719	74.676285
31176.853936	1126.981000	1765.378906	-72.053986
31176.853936	1126.981000	1764.371094	-166.666794
31176.853936	1126.981000	1763.362305	63.405193
31176.853936	1126.981000	1762.354492	120.287216
31176.853936	1126.981000	1761.345703	226.805557
31176.853936	1126.981000	1760.336914	-0.855612
31176.853936	1126.981000	1759.328125	-84.042191
31176.853936	1126.981000	1758.318359	145.299118
31176.853936	1126.981000	1757.308594	64.281532
31176.853936	1126.981000	1756.299805	-151.733337
31176.853936	1126.981000	1755.290039	141.097366
31176.853936	1126.981000	1754.279297	163.944183
31176.853936	1126.981000	1753.269531	49.464436
31176.853936	1126.981000	1752.258789	65.023895
31176.853936	1126.981000	1751.249023	-238.794891
31176.853936	1126.981000	1750.238281	67.456520
31176.853936	1126.981000	1749.226563	144.165543
31176.853936	1126.981000	1748.215820	26.929972
31176.853936	1126.981000	1747.204102	129.412582
31176.853936	1126.981000	1746.193359	205.772156
31176.853936	1126.981000	1745.181641	3.240435
31176.853936	1126.981000	1744.168945	-33.988430
31176.853936	1126.981000	1743.157227	-61.851753
31176.853936	1126.981000	1742.144531	-281.049896
31176.853936	1126.981000	1741.132813	52.105194
31176.853936	1126.981000	1740.120117	87.656982
31176.853936	1126.981000	1739.106445	-188.382935
31176.853936	1126.981000	1738.093750	47.531548
31176.853936	1126.981000	1737.080078	49.734379
31176.853936	1126.981000	1736.067383	-195.773819
31176.853936	1126.981000	1735.053711	-193.723892
31176.853936	1126.981000	1734.040039	-243.636841
31176.853936	1126.981000	1733.025391	-213.501297
31176.853936	1126.981000	1732.011719	-162.260193
31176.853936	1126.981000	1730.997070	-9.836440
31176.853936	1126.981000	1729.982422	-97.838493
31176.853936	1126.981000	1728.967773	23.701750
31176.853936	1126.981000	1727.952148	147.443680
31176.853936	1126.981000	1726.937500	2.667093
31176.853936	1126.981000	1725.921875	-170.404343
31176.853936	1126.981000	1724.906250	35.378326
31176.853936	1126.981000	1723.890625	10.403172
31176.853936	1126.981000	1722.875000	20.628624
31176.853936	1126.981000	1721.858398	16.632589
31176.853936	1126.981000	1720.841797	-297.857452
31176.853936	1126.981000	1719.825195	-33.960194
31176.853936	1126.981000	1718.808594	95.756485
31176.853936	1126.981000	1717.791992	-80.193245
31176.853936	1126.981000	1716.774414	21.088461
31176.853936	1126.981000	1715.756836	-18.719227
31176.853936	1126.981000	1714.739258	180.976028
31176.853936	1126.981000	1713.721680	122.180611
31176.853936	1126.981000	1712.704102	-162.085373
31176.853936	1126.981000	1711.685547	114.702560
31176.853936	1126.981000	1710.667969	11.085979
31176.853936	1126.981000	1709.649414	184.303635
31176.853936	1126.981000	1708.630859	183.752151
31176.853936	1126.981000	1707.611328	206.557327
31176.853936	1126.981000	1706.592773	58.074905
31176.853936	1126.981000	1705.573242	73.683670
31176.853936	1126.981000	1704.553711	77.477913
31176.853936	1126.981000	1703.534180	226.504227
31176.853936	1126.981000	1702.513672	155.094086
31176.853936	1126.981000	1701.494141	93.008446
31176.853936	1126.981000	1700.473633	208.882172
31176.853936	1126.981000	1699.453125	120.866669
31176.853936	1126.981000	1698.432617	437.902130
31176.853936	1126.981000	1697.412109	199.874130
31176.853936	1126.981000	1696.390625	181.873489
31176.853936	1126.981000	1695.369141	63.166245
31176.853936	1126.981000	1694.347656	45.035431
31176.853936	1126.981000	1693.326172	120.406662
31176.853936	1126.981000	1692.304688	230.753418
31176.853936	1126.981000	1691.282227	29.950476
31176.853936	1126.981000	1690.260742	-98.362526
31176.853936	1126.981000	1689.238281	165.997620
31176.853936	1126.981000	1688.214844	177.760101
31176.853936	1126.981000	1687.192383	273.573822
31176.853936	1126.981000	1686.168945	224.418472
31176.853936	1126.981000	1685.146484	310.695190
31176.853936	1126.981000	1684.123047	254.399078
31176.853936	1126.981000	1683.099609	128.006104
31176.853936	1126.981000	1682.075195	195.337814
31176.853936	1126.981000	1681.051758	201.900375
31176.853936	1126.981000	1680.027344	238.716736
31176.853936	1126.981000	1679.002930	305.779785
31176.853936	1126.981000	1677.978516	230.458664
31176.853936	1126.981000	1676.953125	283.358826
31176.853936	1126.981000	1675.928711	347.842621
31176.853936	1126.981000	1674.903320	402.901123
31176.853936	1126.981000	1673.877930	215.467087
31176.853936	1126.981000	1672.852539	412.557129
31176.853936	1126.981000	1671.826172	390.482513
31176.853936	1126.981000	1670.800781	389.333740
31176.853936	1126.981000	1669.774414	441.681549
31176.853936	1126.981000	1668.748047	226.162964
31176.853936	1126.981000	1667.721680	399.468567
31176.853936	1126.981000	1666.694336	356.164337
31176.853936	1126.981000	1665.667969	275.597076
31176.853936	1126.981000	1664.640625	334.601776
31176.853936	1126.981000	1663.613281	456.341156
31176.853936	1126.981000	1662.585938	184.905212
31176.853936	1126.981000	1661.557617	420.457397
31176.853936	1126.981000	1660.530273	525.681030
31176.853936	1126.981000	1659.501953	693.565796
31176.853936	1126.981000	1658.473633	640.547302
31176.853936	1126.981000	1657.444336	517.781006
31176.853936	1126.981000	1656.416016	527.451538
31176.853936	1126.981000	1655.386719	876.182129
31176.853936	1126.981000	1654.358398	790.477966
31176.853936	1126.981000	1653.328125	869.588989
31176.853936	1126.981000	1652.298828	853.464844
31176.853936	1126.981000	1651.269531	728.220886
31176.853936	1126.981000	1650.239258	572.808289
31176.853936	1126.981000	1649.208984	818.787109
31176.853936	1126.981000	1648.178711	881.384949
31176.853936	1126.981000	1647.148438	878.986877
31176.853936	1126.981000	1646.117188	962.335022
31176.853936	1126.981000	1645.086914	989.992676
31176.853936	1126.981000	1644.055664	989.780762
31176.853936	1126.981000	1643.024414	1079.915649
31176.853936	1126.981000	1641.992188	1088.881592
31176.853936	1126.981000	1640.960938	1109.411133
31176.853936	1126.981000	1639.928711	1148.420532
31176.853936	1126.981000	1638.896484	1168.864746
31176.853936	1126.981000	1637.864258	1307.346436
31176.853936	1126.981000	1636.832031	1554.541870
31176.853936	1126.981000	1635.798828	1218.423218
31176.853936	1126.981000	1634.766602	1514.085693
31176.853936	1126.981000	1633.733398	1434.842896
31176.853936	1126.981000	1632.699219	1214.514526
31176.853936	1126.981000	1631.666016	1394.316772
31176.853936	1126.981000	1630.632813	1340.524658
31176.853936	1126.981000	1629.598633	1404.612671
31176.853936	1126.981000	1628.564453	1438.618774
31176.853936	1126.981000	1627.530273	1537.296997
31176.853936	1126.981000	1626.495117	1633.603394
31176.853936	1126.981000	1625.460938	1692.920044
31176.853936	1126.981000	1624.425781	1791.450317
31176.853936	1126.981000	1623.390625	1624.419800
31176.853936	1126.981000	1622.355469	1600.568848
31176.853936	1126.981000	1621.319336	1666.718506
31176.853936	1126.981000	1620.284180	2203.579346
31176.853936	1126.981000	1619.248047	1826.629883
31176.853936	1126.981000	1618.211914	2051.846924
31176.853936	1126.981000	1617.174805	1921.817627
31176.853936	1126.981000	1616.138672	1817.217529
31176.853936	1126.981000	1615.101563	1922.424805
31176.853936	1126.981000	1614.065430	2009.171265
31176.853936	1126.981000	1613.027344	1955.297363
31176.853936	1126.981000	1611.990234	2007.445801
31176.853936	1126.981000	1610.953125	2050.368164
31176.853936	1126.981000	1609.915039	2067.937256
31176.853936	1126.981000	1608.876953	2189.125732
31176.853936	1126.981000	1607.838867	2220.497559
31176.853936	1126.981000	1606.800781	2136.788086
31176.853936	1126.981000	1605.761719	2329.258057
31176.853936	1126.981000	1604.723633	1955.696655
31176.853936	1126.981000	1603.684570	2175.764648
31176.853936	1126.981000	1602.644531	2131.270020
31176.853936	1126.981000	1601.605469	2128.214844
31176.853936	1126.981000	1600.566406	2196.449219
31176.853936	1126.981000	1599.526367	2430.161377
31176.853936	1126.981000	1598.486328	2252.451904
31176.853936	1126.981000	1597.446289	2380.420898
31176.853936	1126.981000	1596.405273	2138.510010
31176.853936	1126.981000	1595.365234	2404.308838
31176.853936	1126.981000	1594.324219	2364.616943
31176.853936	1126.981000	1593.283203	2127.531494
31176.853936	1126.981000	1592.242188	2365.710938
31176.853936	1126.981000	1591.200195	2257.285645
31176.853936	1126.981000	1590.159180	2431.169922
31176.853936	1126.981000	1589.117188	2375.607422
31176.853936	1126.981000	1588.075195	2400.378174
31176.853936	1126.981000	1587.032227	2074.317139
31176.853936	1126.981000	1585.990234	2532.531494
31176.853936	1126.981000	1584.947266	2186.022705
31176.853936	1126.981000	1583.904297	2284.296875
31176.853936	1126.981000	1582.861328	2334.458740
31176.853936	1126.981000	1581.818359	2254.064453
31176.853936	1126.981000	1580.775391	2107.325684
31176.853936	1126.981000	1579.731445	2038.538330
31176.853936	1126.981000	1578.687500	1940.062744
31176.853936	1126.981000	1577.643555	1724.932129
31176.853936	1126.981000	1576.598633	1979.096680
31176.853936	1126.981000	1575.554688	1727.533813
31176.853936	1126.981000	1574.509766	1926.797974
31176.853936	1126.981000	1573.464844	1833.264526
31176.853936	1126.981000	1572.419922	1982.229736
31176.853936	1126.981000	1571.374023	1913.973877
31176.853936	1126.981000	1570.329102	1560.070679
31176.853936	1126.981000	1569.283203	1752.589478
31176.853936	1126.981000	1568.237305	1748.578491
31176.853936	1126.981000	1567.191406	1756.054321
31176.853936	1126.981000	1566.144531	1957.733521
31176.853936	1126.981000	1565.098633	1599.898682
31176.853936	1126.981000	1564.051758	1468.302612
31176.853936	1126.981000	1563.004883	1768.276367
31176.853936	1126.981000	1561.957031	1561.504150
31176.853936	1126.981000	1560.910156	1713.153931
31176.853936	1126.981000	1559.862305	1755.292480
31176.853936	1126.981000	1558.814453	1813.454590
31176.853936	1126.981000	1557.766602	1424.672485
31176.853936	1126.981000	1556.718750	1540.025513
31176.853936	1126.981000	1555.669922	1710.108521
31176.853936	1126.981000	1554.621094	1501.849243
31176.853936	1126.981000	1553.573242	1601.395264
31176.853936	1126.981000	1552.523438	1527.805786
31176.853936	1126.981000	1551.474609	1486.224609
31176.853936	1126.981000	1550.424805	1262.535645
31176.853936	1126.981000	1549.375000	1592.324219
31176.853936	1126.981000	1548.325195	1145.766357
31176.853936	1126.981000	1547.275391	1202.483154
31176.853936	1126.981000	1546.225586	1418.557617
31176.853936	1126.981000	1545.174805	1582.293335
31176.853936	1126.981000	1544.124023	984.011047
31176.853936	1126.981000	1543.073242	1257.109009
31176.853936	1126.981000	1542.022461	1239.135254
31176.853936	1126.981000	1540.970703	1334.919922
31176.853936	1126.981000	1539.919922	1139.828003
31176.853936	1126.981000	1538.868164	1310.770020
31176.853936	1126.981000	1537.815430	1136.375122
31176.853936	1126.981000	1536.763672	1346.054565
31176.853936	1126.981000	1535.710938	1467.161743
31176.853936	1126.981000	1534.659180	1372.608643
31176.853936	1126.981000	1533.606445	1371.260620
31176.853936	1126.981000	1532.552734	1354.115234
31176.853936	1126.981000	1531.500000	1232.691772
31176.853936	1126.981000	1530.446289	1449.477783
31176.853936	1126.981000	1529.393555	1346.432495
31176.853936	1126.981000	1528.338867	1300.213135
31176.853936	1126.981000	1527.285156	1272.263916
31176.853936	1126.981000	1526.231445	1097.065552
31176.853936	1126.981000	1525.176758	1221.235596
31176.853936	1126.981000	1524.122070	697.318420
31176.853936	1126.981000	1523.067383	923.688843
31176.853936	1126.981000	1522.012695	1036.811523
31176.853936	1126.981000	1520.957031	807.990051
31176.853936	1126.981000	1519.901367	722.029053
31176.853936	1126.981000	1518.845703	606.778809
31176.853936	1126.981000	1517.790039	611.653198
31176.853936	1126.981000	1516.734375	630.215454
31176.853936	1126.981000	1515.677734	630.773621
31176.853936	1126.981000	1514.621094	579.414856
31176.853936	1126.981000	1513.564453	534.974792
31176.853936	1126.981000	1512.507813	560.767639
31176.853936	1126.981000	1511.450195	604.745422
31176.853936	1126.981000	1510.393555	429.568695
31176.853936	1126.981000	1509.335938	424.069641
31176.853936	1126.981000	1508.278320	380.278076
31176.853936	1126.981000	1507.219727	309.506683
31176.853936	1126.981000	1506.162109	229.854675
31176.853936	1126.981000	1505.103516	297.128632
31176.853936	1126.981000	1504.044922	179.363754
31176.853936	1126.981000	1502.986328	391.328156
31176.853936	1126.981000	1501.926758	406.980652
31176.853936	1126.981000	1500.868164	503.985596
31176.853936	1126.981000	1499.808594	382.243469
31176.853936	1126.981000	1498.749023	57.680393
31176.853936	1126.981000	1497.688477	76.130569
31176.853936	1126.981000	1496.628906	133.031815
31176.853936	1126.981000	1495.568359	61.544247
31176.853936	1126.981000	1494.507813	98.389412
31176.853936	1126.981000	1493.447266	209.704514
31176.853936	1126.981000	1492.386719	10.215601
31176.853936	1126.981000	1491.325195	405.550507
31176.853936	1126.981000	1490.263672	-18.835428
31176.853936	1126.981000	1489.202148	209.997726
31176.853936	1126.981000	1488.140625	51.696861
31176.853936	1126.981000	1487.079102	-140.170212
31176.853936	1126.981000	1486.016602	-84.320854
31176.853936	1126.981000	1484.954102	183.104935
31176.853936	1126.981000	1483.891602	29.953243
31176.853936	1126.981000	1482.829102	70.389465
31176.853936	1126.981000	1481.765625	-8.217355
31176.853936	1126.981000	1480.702148	-181.065384
31176.853936	1126.981000	1479.638672	-203.130859
31176.853936	1126.981000	1478.575195	8.602172
31176.853936	1126.981000	1477.511719	9.263893
31176.853936	1126.981000	1476.447266	-23.673546
31176.853936	1126.981000	1475.382813	197.239441
31176.853936	1126.981000	1474.318359	166.887878
31176.853936	1126.981000	1473.253906	-40.674255
31176.853936	1126.981000	1472.189453	21.268131
31176.853936	1126.981000	1471.124023	121.375252
31176.853936	1126.981000	1470.058594	152.106750
31176.853936	1126.981000	1468.993164	398.198181
31176.853936	1126.981000	1467.927734	218.469055
31176.853936	1126.981000	1466.861328	312.527374
31176.853936	1126.981000	1465.794922	399.582153
31176.853936	1126.981000	1464.728516	511.713654
31176.853936	1126.981000	1463.662109	500.437683
31176.853936	1126.981000	1462.594727	567.664368
31176.853936	1126.981000	1461.528320	521.088562
31176.853936	1126.981000	1460.460938	472.500275
31176.853936	1126.981000	1459.393555	806.246460
31176.853936	1126.981000	1458.326172	762.733398
31176.853936	1126.981000	1457.257813	669.123840
31176.853936	1126.981000	1456.189453	731.443909
31176.853936	1126.981000	1455.121094	894.956421
31176.853936	1126.981000	1454.052734	827.086182
31176.853936	1126.981000	1452.984375	821.358582
31176.853936	1126.981000	1451.915039	1180.538452
31176.853936	1126.981000	1450.845703	876.308594
31176.853936	1126.981000	1449.776367	956.080078
31176.853936	1126.981000	1448.707031	818.169250
31176.853936	1126.981000	1447.636719	1011.480103
31176.853936	1126.981000	1446.567383	960.163757
31176.853936	1126.981000	1445.497070	862.387573
31176.853936	1126.981000	1444.425781	946.846252
31176.853936	1126.981000	1443.355469	907.072876
31176.853936	1126.981000	1442.285156	783.039917
31176.853936	1126.981000	1441.213867	907.893311
31176.853936	1126.981000	1440.142578	862.900330
31176.853936	1126.981000	1439.070313	693.673767
31176.853936	1126.981000	1437.999023	931.506165
31176.853936	1126.981000	1436.926758	857.954651
31176.853936	1126.981000	1435.854492	883.827881
31176.853936	1126.981000	1434.782227	760.652954
31176.853936	1126.981000	1433.709961	880.005920
31176.853936	1126.981000	1432.636719	782.080444
31176.853936	1126.981000	1431.563477	929.438599
31176.853936	1126.981000	1430.490234	658.717834
31176.853936	1126.981000	1429.416992	707.823120
31176.853936	1126.981000	1428.343750	758.055969
31176.853936	1126.981000	1427.269531	882.930115
31176.853936	1126.981000	1426.195313	827.312439
31176.853936	1126.981000	1425.121094	770.176270
31176.853936	1126.981000	1424.046875	817.113220
31176.853936	1126.981000	1422.971680	741.687073
31176.853936	1126.981000	1421.896484	709.716431
31176.853936	1126.981000	1420.821289	667.556458
31176.853936	1126.981000	1419.746094	755.635498
31176.853936	1126.981000	1418.669922	521.852844
31176.853936	1126.981000	1417.594727	526.413818
31176.853936	1126.981000	1416.518555	703.014099
31176.853936	1126.981000	1415.442383	644.906799
31176.853936	1126.981000	1414.365234	720.301392
31176.853936	1126.981000	1413.289063	789.849365
31176.853936	1126.981000	1412.211914	583.426880
31176.853936	1126.981000	1411.134766	782.400085
31176.853936	1126.981000	1410.057617	623.267395
31176.853936	1126.981000	1408.979492	767.905884
31176.853936	1126.981000	1407.902344	875.522278
31176.853936	1126.981000	1406.824219	708.201111
31176.853936	1126.981000	1405.746094	744.870239
31176.853936	1126.981000	1404.666992	812.321960
31176.853936	1126.981000	1403.588867	855.522888
31176.853936	1126.981000	1402.509766	969.418823
31176.853936	1126.981000	1401.430664	776.063965
31176.853936	1126.981000	1400.351563	960.789856
31176.853936	1126.981000	1399.271484	864.462646
31176.853936	1126.981000	1398.192383	880.842590
31176.853936	1126.981000	1397.112305	1135.428345
31176.853936	1126.981000	1396.031250	1007.995056
31176.853936	1126.981000	1394.951172	832.512268
31176.853936	1126.981000	1393.871094	871.402954
31176.853936	1126.981000	1392.790039	905.700928
31176.853936	1126.981000	1391.708984	756.514038
31176.853936	1126.981000	1390.626953	818.031494
31176.853936	1126.981000	1389.545898	641.097595
31176.853936	1126.981000	1388.463867	743.542847
31176.853936	1126.981000	1387.381836	826.946228
31176.853936	1126.981000	1386.299805	945.094116
31176.853936	1126.981000	1385.217773	851.591431
31176.853936	1126.981000	1384.134766	834.261780
31176.853936	1126.981000	1383.051758	814.632935
31176.853936	1126.981000	1381.968750	823.379944
31176.853936	1126.981000	1380.885742	797.099854
31176.853936	1126.981000	1379.802734	853.573059
31176.853936	1126.981000	1378.718750	903.704895
31176.853936	1126.981000	1377.634766	976.996155
31176.853936	1126.981000	1376.550781	790.998779
31176.853936	1126.981000	1375.465820	824.649597
31176.853936	1126.981000	1374.381836	478.607056
31176.853936	1126.981000	1373.296875	1071.900879
31176.853936	1126.981000	1372.211914	850.286072
31176.853936	1126.981000	1371.126953	813.957153
31176.853936	1126.981000	1370.041016	761.828064
31176.853936	1126.981000	1368.955078	763.189636
31176.853936	1126.981000	1367.869141	915.425720
31176.853936	1126.981000	1366.783203	1067.451660
31176.853936	1126.981000	1365.697266	997.531250
31176.853936	1126.981000	1364.610352	833.253540
31176.853936	1126.981000	1363.523438	625.665771
31176.853936	1126.981000	1362.436523	1014.868652
31176.853936	1126.981000	1361.349609	915.032166
31176.853936	1126.981000	1360.261719	674.153992
31176.853936	1126.981000	1359.174805	685.988403
31176.853936	1126.981000	1358.086914	848.029602
31176.853936	1126.981000	1356.998047	578.437195
31176.853936	1126.981000	1355.910156	774.899292
31176.853936	1126.981000	1354.821289	880.388367
31176.853936	1126.981000	1353.732422	1004.985718
31176.853936	1126.981000	1352.643555	923.438538
31176.853936	1126.981000	1351.554688	856.243958
31176.853936	1126.981000	1350.464844	1061.405273
31176.853936	1126.981000	1349.375000	922.022034
31176.853936	1126.981000	1348.285156	1002.474182
31176.853936	1126.981000	1347.195313	828.093811
31176.853936	1126.981000	1346.105469	1104.612305
31176.853936	1126.981000	1345.014648	1259.006226
31176.853936	1126.981000	1343.923828	1345.060181
31176.853936	1126.981000	1342.833008	1446.190918
31176.853936	1126.981000	1341.741211	1798.505249
31176.853936	1126.981000	1340.650391	1697.173950
31176.853936	1126.981000	1339.558594	1783.075073
31176.853936	1126.981000	1338.466797	1732.689209
31176.853936	1126.981000	1337.374023	1726.996094
31176.853936	1126.981000	1336.282227	1651.546875
31176.853936	1126.981000	1335.189453	1535.095215
31176.853936	1126.981000	1334.096680	1413.228760
31176.853936	1126.981000	1333.003906	1354.524536
31176.853936	1126.981000	1331.910156	1479.472656
31176.853936	1126.981000	1330.817383	1271.156494
31176.853936	1126.981000	1329.723633	1203.811035
31176.853936	1126.981000	1328.629883	1259.651245
31176.853936	1126.981000	1327.535156	1223.366699
31176.853936	1126.981000	1326.441406	1013.314758
31176.853936	1126.981000	1325.346680	1088.326538
31176.853936	1126.981000	1324.251953	1056.388306
31176.853936	1126.981000	1323.156250	1030.713257
31176.853936	1126.981000	1322.061523	855.132629
31176.853936	1126.981000	1320.965820	1004.941162
31176.853936	1126.981000	1319.870117	965.430420
31176.853936	1126.981000	1318.774414	1043.703857
31176.853936	1126.981000	1317.678711	1024.832764
31176.853936	1126.981000	1316.582031	1058.391846
31176.853936	1126.981000	1315.485352	998.418579
31176.853936	1126.981000	1314.388672	1084.916870
31176.853936	1126.981000	1313.291016	1133.588623
31176.853936	1126.981000	1312.194336	968.446777
31176.853936	1126.981000	1311.096680	908.318176
31176.853936	1126.981000	1309.999023	1102.709717
31176.853936	1126.981000	1308.901367	936.012878
31176.853936	1126.981000	1307.802734	1085.832275
31176.853936	1126.981000	1306.705078	993.142029
31176.853936	1126.981000	1305.606445	935.258972
31176.853936	1126.981000	1304.506836	981.687012
31176.853936	1126.981000	1303.408203	1023.258484
31176.853936	1126.981000	1302.308594	851.510071
31176.853936	1126.981000	1301.208984	884.367188
31176.853936	1126.981000	1300.109375	773.039612
31176.853936	1126.981000	1299.009766	851.635742
31176.853936	1126.981000	1297.909180	1021.678467
31176.853936	1126.981000	1296.808594	819.890808
31176.853936	1126.981000	1295.708008	1047.030518
31176.853936	1126.981000	1294.607422	857.913757
31176.853936	1126.981000	1293.506836	983.120605
31176.853936	1126.981000	1292.405273	579.616699
31176.853936	1126.981000	1291.303711	631.294617
31176.853936	1126.981000	1290.202148	715.453064
31176.853936	1126.981000	1289.099609	686.666199
31176.853936	1126.981000	1287.998047	443.702484
31176.853936	1126.981000	1286.895508	517.487671
31176.853936	1126.981000	1285.792969	382.880920
31176.853936	1126.981000	1284.689453	499.573792
31176.853936	1126.981000	1283.586914	316.309021
31176.853936	1126.981000	1282.483398	361.678619
31176.853936	1126.981000	1281.379883	366.947968
31176.853936	1126.981000	1280.276367	536.792725
31176.853936	1126.981000	1279.171875	348.483612
31176.853936	1126.981000	1278.067383	384.324951
31176.853936	1126.981000	1276.962891	356.835205
31176.853936	1126.981000	1275.858398	346.320892
31176.853936	1126.981000	1274.753906	508.077820
31176.853936	1126.981000	1273.648438	267.708862
31176.853936	1126.981000	1272.542969	198.509430
31176.853936	1126.981000	1271.437500	144.783112
31176.853936	1126.981000	1270.331055	77.530350
31176.853936	1126.981000	1269.225586	327.969757
31176.853936	1126.981000	1268.119141	345.334717
31176.853936	1126.981000	1267.012695	122.611893
31176.853936	1126.981000	1265.906250	136.458466
31176.853936	1126.981000	1264.798828	180.459900
31176.853936	1126.981000	1263.691406	83.923157
31176.853936	1126.981000	1262.583984	149.421371
31176.853936	1126.981000	1261.476563	127.859764
31176.853936	1126.981000	1260.368164	80.840477
31176.853936	1126.981000	1259.260742	46.014435
31176.853936	1126.981000	1258.152344	60.622200
31176.853936	1126.981000	1257.043945	237.792908
31176.853936	1126.981000	1255.934570	69.474457
31176.853936	1126.981000	1254.825195	43.016689
31176.853936	1126.981000	1253.716797	-73.673004
31176.853936	1126.981000	1252.606445	111.888000
31176.853936	1126.981000	1251.497070	-108.336739
31176.853936	1126.981000	1250.387695	23.666145
31176.853936	1126.981000	1249.277344	-64.877029
31176.853936	1126.981000	1248.166992	79.318077
31176.853936	1126.981000	1247.055664	146.717056
31176.853936	1126.981000	1245.945313	69.606407
31176.853936	1126.981000	1244.833984	133.052094
31176.853936	1126.981000	1243.722656	128.507416
31176.853936	1126.981000	1242.611328	194.521179
31176.853936	1126.981000	1241.499023	102.554092
31176.853936	1126.981000	1240.387695	124.123146
31176.853936	1126.981000	1239.275391	-60.133411
31176.853936	1126.981000	1238.162109	52.556866
31176.853936	1126.981000	1237.049805	26.972713
31176.853936	1126.981000	1235.936523	55.818779
31176.853936	1126.981000	1234.823242	-12.890074
31176.853936	1126.981000	1233.709961	-108.053246
31176.853936	1126.981000	1232.596680	-3.628736
31176.853936	1126.981000	1231.482422	-29.221264
31176.853936	1126.981000	1230.369141	43.248795
31176.853936	1126.981000	1229.253906	-5.643152
31176.853936	1126.981000	1228.139648	20.803919
31176.853936	1126.981000	1227.025391	52.047794
31176.853936	1126.981000	1225.910156	-20.332689
31176.853936	1126.981000	1224.794922	-8.810829
31176.853936	1126.981000	1223.679688	133.846832
31176.853936	1126.981000	1222.563477	20.578474
31176.853936	1126.981000	1221.447266	43.095428
31176.853936	1126.981000	1220.331055	13.717109
31176.853936	1126.981000	1219.214844	100.808823
31176.853936	1126.981000	1218.098633	15.714417
31176.853936	1126.981000	1216.981445	-38.214912
31176.853936	1126.981000	1215.864258	-32.017712
31176.853936	1126.981000	1214.747070	-115.938026
31176.853936	1126.981000	1213.629883	145.844574
31176.853936	1126.981000	1212.511719	-29.094154
31176.853936	1126.981000	1211.393555	-0.889347
31176.853936	1126.981000	1210.275391	-90.938332
31176.853936	1126.981000	1209.157227	-49.077892
31176.853936	1126.981000	1208.038086	-66.067299
31176.853936	1126.981000	1206.918945	59.249454
31176.853936	1126.981000	1205.799805	-64.509315
31176.853936	1126.981000	1204.680664	39.555962
31176.853936	1126.981000	1203.560547	-118.757423
31176.853936	1126.981000	1202.441406	122.582428
31176.853936	1126.981000	1201.321289	-34.908234
31176.853936	1126.981000	1200.200195	-131.842575
31176.853936	1126.981000	1199.080078	20.275354
31176.853936	1126.981000	1197.958984	50.450916
31176.853936	1126.981000	1196.837891	-129.416412
31176.853936	1126.981000	1195.716797	86.342529
31176.853936	1126.981000	1194.594727	6.646911
31176.853936	1126.981000	1193.473633	60.893440
31176.853936	1126.981000	1192.351563	36.097916
31176.853936	1126.981000	1191.229492	-27.203255
31176.853936	1126.981000	1190.106445	-30.942593
31176.853936	1126.981000	1188.984375	-197.900803
31176.853936	1126.981000	1187.861328	45.871254
31176.853936	1126.981000	1186.738281	-89.154305
31176.853936	1126.981000	1185.614258	-90.477493
31176.853936	1126.981000	1184.491211	-86.832794
31176.853936	1126.981000	1183.367188	-11.288922
31176.853936	1126.981000	1182.243164	-155.385284
31176.853936	1126.981000	1181.119141	-148.170395
31176.853936	1126.981000	1179.994141	-228.495026
31176.853936	1126.981000	1178.869141	-153.958008
31176.853936	1126.981000	1177.744141	-129.771896
31176.853936	1126.981000	1176.619141	-48.962711
31176.853936	1126.981000	1175.493164	-199.820801
31176.853936	1126.981000	1174.368164	44.317631
31176.853936	1126.981000	1173.242188	-84.159775
31176.853936	1126.981000	1172.115234	-72.380699
31176.853936	1126.981000	1170.989258	-102.005257
31176.853936	1126.981000	1169.862305	-74.384346
31176.853936	1126.981000	1168.735352	-131.266724
31176.853936	1126.981000	1167.608398	-1.421523
31176.853936	1126.981000	1166.481445	-110.915672
31176.853936	1126.981000	1165.353516	-19.789896
31176.853936	1126.981000	1164.225586	71.497314
31176.853936	1126.981000	1163.097656	-165.132706
31176.853936	1126.981000	1161.968750	-64.904350
31176.853936	1126.981000	1160.840820	-33.381123
31176.853936	1126.981000	1159.711914	28.516947
31176.853936	1126.981000	1158.583008	80.926361
31176.853936	1126.981000	1157.453125	19.567844
31176.853936	1126.981000	1156.324219	-97.460503
31176.853936	1126.981000	1155.194336	28.260733
31176.853936	1126.981000	1154.064453	-111.132668
31176.853936	1126.981000	1152.933594	35.181408
31176.853936	1126.981000	1151.803711	-55.749275
31176.853936	1126.981000	1150.672852	4.356626
31176.853936	1126.981000	1149.541992	-74.518188
31176.853936	1126.981000	1148.411133	-10.735458
31176.853936	1126.981000	1147.279297	-2.837554
31176.853936	1126.981000	1146.147461	-41.398232
31176.853936	1126.981000	1145.015625	-140.400299
31176.853936	1126.981000	1143.883789	-38.854847
31176.853936	1126.981000	1142.750977	-100.665794
31176.853936	1126.981000	1141.619141	-24.105572
31176.853936	1126.981000	1140.486328	36.439247
31176.853936	1126.981000	1139.352539	-85.291603
31176.853936	1126.981000	1138.219727	-44.127819
31176.853936	1126.981000	1137.085938	-78.060776
31176.853936	1126.981000	1135.952148	54.766048
31176.853936	1126.981000	1134.818359	122.271301
31176.853936	1126.981000	1133.683594	199.781174
31176.853936	1126.981000	1132.549805	298.416779
31176.853936	1126.981000	1131.415039	354.164734
31176.853936	1126.981000	1130.279297	414.347839
31176.853936	1126.981000	1129.144531	466.912781
31176.853936	1126.981000	1128.008789	352.268707
31176.853936	1126.981000	1126.873047	262.047089
31176.853936	1126.981000	1125.737305	347.412750
31176.853936	1126.981000	1124.601563	438.775604
31176.853936	1126.981000	1123.464844	367.259247
31176.853936	1126.981000	1122.328125	183.252243
31176.853936	1126.981000	1121.191406	289.872620
31176.853936	1126.981000	1120.054688	148.346710
31176.853936	1126.981000	1118.916992	172.871155
31176.853936	1126.981000	1117.779297	167.956879
31176.853936	1126.981000	1116.641602	78.693581
31176.853936	1126.981000	1115.503906	62.598682
31176.853936	1126.981000	1114.365234	145.198669
31176.853936	1126.981000	1113.226563	119.966682
31176.853936	1126.981000	1112.087891	126.910416
31176.853936	1126.981000	1110.949219	-24.463421
31176.853936	1126.981000	1109.809570	-27.356083
31176.853936	1126.981000	1108.669922	129.188263
31176.853936	1126.981000	1107.530273	115.425392
31176.853936	1126.981000	1106.390625	268.926514
31176.853936	1126.981000	1105.250000	216.933517
31176.853936	1126.981000	1104.109375	150.234543
31176.853936	1126.981000	1102.968750	304.927185
31176.853936	1126.981000	1101.828125	176.428436
31176.853936	1126.981000	1100.686523	129.616638
31176.853936	1126.981000	1099.544922	244.585892
31176.853936	1126.981000	1098.403320	196.167267
31176.853936	1126.981000	1097.261719	244.557999
31176.853936	1126.981000	1096.120117	218.937775
31176.853936	1126.981000	1094.977539	326.612457
31176.853936	1126.981000	1093.834961	331.129608
31176.853936	1126.981000	1092.691406	174.336945
31176.853936	1126.981000	1091.548828	245.975601
31176.853936	1126.981000	1090.405273	306.869843
31176.853936	1126.981000	1089.261719	408.151489
31176.853936	1126.981000	1088.118164	171.519867
31176.853936	1126.981000	1086.973633	273.532349
31176.853936	1126.981000	1085.829102	199.690186
31176.853936	1126.981000	1084.684570	238.346939
31176.853936	1126.981000	1083.540039	132.186295
31176.853936	1126.981000	1082.395508	64.617546
31176.853936	1126.981000	1081.250000	186.150955
31176.853936	1126.981000	1080.104492	284.746094
31176.853936	1126.981000	1078.958984	273.639374
31176.853936	1126.981000	1077.812500	217.823380
31176.853936	1126.981000	1076.666016	167.971710
31176.853936	1126.981000	1075.519531	184.660690
31176.853936	1126.981000	1074.373047	227.357269
31176.853936	1126.981000	1073.226563	224.504974
31176.853936	1126.981000	1072.079102	190.895874
31176.853936	1126.981000	1070.931641	483.130676
31176.853936	1126.981000	1069.784180	328.150024
31176.853936	1126.981000	1068.635742	328.744843
31176.853936	1126.981000	1067.487305	406.568787
31176.853936	1126.981000	1066.338867	503.376007
31176.853936	1126.981000	1065.190430	475.191101
31176.853936	1126.981000	1064.041992	325.538696
31176.853936	1126.981000	1062.892578	422.072723
31176.853936	1126.981000	1061.743164	486.002899
31176.853936	1126.981000	1060.593750	841.740601
31176.853936	1126.981000	1059.443359	470.116272
31176.853936	1126.981000	1058.292969	418.336975
31176.853936	1126.981000	1057.142578	412.378510
31176.853936	1126.981000	1055.992188	400.778259
31176.853936	1126.981000	1054.841797	198.185913
31176.853936	1126.981000	1053.690430	358.730560
31176.853936	1126.981000	1052.539063	312.495453
31176.853936	1126.981000	1051.387695	214.812927
31176.853936	1126.981000	1050.235352	202.749420
31176.853936	1126.981000	1049.083984	14.226591
31176.853936	1126.981000	1047.931641	66.809608
31176.853936	1126.981000	1046.778320	-142.122482
31176.853936	1126.981000	1045.625977	-12.538291
31176.853936	1126.981000	1044.472656	107.062576
31176.853936	1126.981000	1043.319336	131.507050
31176.853936	1126.981000	1042.166016	101.950745
31176.853936	1126.981000	1041.012695	253.754349
31176.853936	1126.981000	1039.858398	21.385202
31176.853936	1126.981000	1038.704102	87.679291
31176.853936	1126.981000	1037.549805	124.502205
31176.853936	1126.981000	1036.394531	84.213715
31176.853936	1126.981000	1035.239258	272.771088
31176.853936	1126.981000	1034.083984	186.371918
31176.853936	1126.981000	1032.928711	126.473663
31176.853936	1126.981000	1031.773438	34.346210
31176.853936	1126.981000	1030.617188	44.821754
31176.853936	1126.981000	1029.460938	61.572678
31176.853936	1126.981000	1028.304688	58.737072
31176.853936	1126.981000	1027.147461	103.677254
31176.853936	1126.981000	1025.991211	77.979309
31176.853936	1126.981000	1024.833984	182.938721
31176.853936	1126.981000	1023.675781	31.811602
31176.853936	1126.981000	1022.518555	-101.204315
31176.853936	1126.981000	1021.360352	-18.872438
31176.853936	1126.981000	1020.202148	154.515228
31176.853936	1126.981000	1019.043945	-73.509636
31176.853936	1126.981000	1017.884766	8.636585
31176.853936	1126.981000	1016.726563	155.124802
31176.853936	1126.981000	1015.567383	-22.613560
31176.853936	1126.981000	1014.407227	81.885658
31176.853936	1126.981000	1013.248047	141.452850
31176.853936	1126.981000	1012.087891	182.874634
31176.853936	1126.981000	1010.927734	-15.139622
31176.853936	1126.981000	1009.767578	-2.211517
31176.853936	1126.981000	1008.606445	145.592804
31176.853936	1126.981000	1007.446289	95.417671
31176.853936	1126.981000	1006.285156	112.213318
31176.853936	1126.981000	1005.123047	149.063080
31176.853936	1126.981000	1003.961914	-25.463604
31176.853936	1126.981000	1002.799805	127.822472
31176.853936	1126.981000	1001.637695	184.729721
31176.853936	1126.981000	1000.475586	99.764473
31176.853936	1126.981000	999.312500	82.556534
31176.853936	1126.981000	998.149414	89.125389
31176.853936	1126.981000	996.986328	222.051605
31176.853936	1126.981000	995.823242	51.287781
31176.853936	1126.981000	994.659180	60.040722
31176.853936	1126.981000	993.496094	341.784943
31176.853936	1126.981000	992.332031	323.860291
31176.853936	1126.981000	991.166992	342.555206
31176.853936	1126.981000	990.002930	449.247772
31176.853936	1126.981000	988.837891	311.007050
31176.853936	1126.981000	987.672852	482.979889
31176.853936	1126.981000	986.506836	433.025146
31176.853936	1126.981000	985.341797	283.409912
31176.853936	1126.981000	984.175781	233.035950
31176.853936	1126.981000	983.009766	87.616653
31176.853936	1126.981000	981.843750	9.777526
31176.853936	1126.981000	980.676758	35.899685
31176.853936	1126.981000	979.509766	50.796253
31176.853936	1126.981000	978.342773	188.778259
31176.853936	1126.981000	977.175781	103.358894
31176.853936	1126.981000	976.007813	-102.411919
31176.853936	1126.981000	974.839844	-110.646690
31176.853936	1126.981000	973.671875	-189.133041
31176.853936	1126.981000	972.503906	-92.603859
31176.853936	1126.981000	971.334961	-68.476173
31176.853936	1126.981000	970.166016	-241.325241
31176.853936	1126.981000	968.997070	72.284966
31176.853936	1126.981000	967.828125	-53.606991
31176.853936	1126.981000	966.658203	209.909866
31176.853936	1126.981000	965.488281	7.533839
31176.853936	1126.981000	964.318359	144.458771
31176.853936	1126.981000	963.148438	60.860889
31176.853936	1126.981000	961.977539	48.104195
31176.853936	1126.981000	960.806641	82.202530
31176.853936	1126.981000	959.635742	18.674921
31176.853936	1126.981000	958.463867	-94.225105
31176.853936	1126.981000	957.292969	150.155914
31176.853936	1126.981000	956.121094	66.279648
31176.853936	1126.981000	954.948242	-15.934607
31176.853936	1126.981000	953.776367	176.973434
31176.853936	1126.981000	952.603516	133.184006
31176.853936	1126.981000	951.430664	108.166222
31176.853936	1126.981000	950.257813	68.855125
31176.853936	1126.981000	949.084961	192.000168
31176.853936	1126.981000	947.911133	-29.430542
31176.853936	1126.981000	946.737305	127.229507
31176.853936	1126.981000	945.563477	72.931915
31176.853936	1126.981000	944.388672	46.082199
31176.853936	1126.981000	943.213867	69.640892
31176.853936	1126.981000	942.039063	199.263672
31176.853936	1126.981000	940.864258	17.236137
31176.853936	1126.981000	939.688477	180.897278
31176.853936	1126.981000	938.513672	106.866196
31176.853936	1126.981000	937.337891	121.924957
31176.853936	1126.981000	936.161133	100.924469
31176.853936	1126.981000	934.985352	260.231049
31176.853936	1126.981000	933.808594	205.297501
31176.853936	1126.981000	932.631836	358.051331
31176.853936	1126.981000	931.454102	296.733643
31176.853936	1126.981000	930.277344	360.437531
31176.853936	1126.981000	929.099609	324.367554
31176.853936	1126.981000	927.921875	398.541077
31176.853936	1126.981000	926.743164	540.482361
31176.853936	1126.981000	925.565430	430.269043
31176.853936	1126.981000	924.386719	237.489182
31176.853936	1126.981000	923.208008	116.735504
31176.853936	1126.981000	922.028320	231.003830
31176.853936	1126.981000	920.849609	192.809372
31176.853936	1126.981000	919.669922	196.763535
31176.853936	1126.981000	919.474609	311.866394
31176.853936	1126.981000	918.309570	42.956867
31176.853936	1126.981000	917.143555	-48.169086
31176.853936	1126.981000	915.977539	-20.840582
31176.853936	1126.981000	914.810547	-78.121513
31176.853936	1126.981000	913.644531	76.008377
31176.853936	1126.981000	912.477539	-89.105385
31176.853936	1126.981000	911.310547	62.815548
31176.853936	1126.981000	910.143555	35.066368
31176.853936	1126.981000	908.975586	-37.046803
31176.853936	1126.981000	907.807617	-121.820793
31176.853936	1126.981000	906.639648	-168.570770
31176.853936	1126.981000	905.471680	61.231853
31176.853936	1126.981000	904.303711	-86.883392
31176.853936	1126.981000	903.134766	-146.323395
31176.853936	1126.981000	901.965820	-20.094877
31176.853936	1126.981000	900.796875	32.237930
31176.853936	1126.981000	899.626953	-160.102036
31176.853936	1126.981000	898.457031	-10.801168
31176.853936	1126.981000	897.287109	102.585075
31176.853936	1126.981000	896.117188	-167.683334
31176.853936	1126.981000	894.947266	72.089104
31176.853936	1126.981000	893.776367	52.616440
31176.853936	1126.981000	892.605469	26.815826
31176.853936	1126.981000	891.434570	91.566353
31176.853936	1126.981000	890.262695	99.428665
31176.853936	1126.981000	889.091797	88.323929
31176.853936	1126.981000	887.919922	62.479713
31176.853936	1126.981000	886.748047	70.297585
31176.853936	1126.981000	885.575195	61.270741
31176.853936	1126.981000	884.403320	-164.415924
31176.853936	1126.981000	883.230469	171.458206
31176.853936	1126.981000	882.057617	95.092560
31176.853936	1126.981000	880.883789	8.235139
31176.853936	1126.981000	879.710938	-91.212280
31176.853936	1126.981000	878.537109	-1.523369
31176.853936	1126.981000	877.362305	-25.324055
31176.853936	1126.981000	876.188477	-55.432240
31176.853936	1126.981000	875.013672	11.056042
31176.853936	1126.981000	873.839844	-105.154617
31176.853936	1126.981000	872.664063	-97.481850
31176.853936	1126.981000	871.489258	-123.407326
31176.853936	1126.981000	870.313477	58.387821
31176.853936	1126.981000	869.138672	-82.963036
31176.853936	1126.981000	867.962891	27.412636
31176.853936	1126.981000	866.786133	68.534340
31176.853936	1126.981000	865.610352	-26.649071
31176.853936	1126.981000	864.433594	-73.594276
31176.853936	1126.981000	863.256836	1.010556
31176.853936	1126.981000	862.079102	-87.850571
31176.853936	1126.981000	860.902344	-17.490469
31176.853936	1126.981000	859.724609	-116.811241
31176.853936	1126.981000	858.546875	43.538006
31176.853936	1126.981000	857.368164	-39.032040
31176.853936	1126.981000	856.190430	-173.911270
31176.853936	1126.981000	855.011719	-137.152313
31176.853936	1126.981000	853.833008	33.476612
31176.853936	1126.981000	852.654297	-136.933762
31176.853936	1126.981000	851.474609	-77.241409
31176.853936	1126.981000	850.294922	-203.677414
31176.853936	1126.981000	849.115234	-83.402054
31176.853936	1126.981000	847.935547	-117.852928
31176.853936	1126.981000	846.754883	29.493740
31176.853936	1126.981000	845.575195	-238.984207
31176.853936	1126.981000	844.393555	115.084579
31176.853936	1126.981000	843.212891	-190.917618
31176.853936	1126.981000	842.032227	-60.441681
31176.853936	1126.981000	840.850586	-69.892624
31176.853936	1126.981000	839.668945	16.647900
31176.853936	1126.981000	838.486328	-243.235931
31176.853936	1126.981000	837.304688	-104.573364
31176.853936	1126.981000	836.122070	-20.211529
31176.853936	1126.981000	834.939453	-40.166615
31176.853936	1126.981000	833.756836	-51.790386
31176.853936	1126.981000	832.573242	-30.072996
31176.853936	1126.981000	831.389648	-62.566750
31176.853936	1126.981000	830.206055	-80.479881
31176.853936	1126.981000	829.022461	-90.070442
31176.853936	1126.981000	827.838867	-101.757629
31176.853936	1126.981000	826.654297	-67.645943
31176.853936	1126.981000	825.469727	-23.157793
31176.853936	1126.981000	824.284180	62.924534
31176.853936	1126.981000	823.099609	55.304455
31176.853936	1126.981000	821.914063	53.911747
31176.853936	1126.981000	820.728516	-63.989418
31176.853936	1126.981000	819.542969	-73.716728
31176.853936	1126.981000	818.356445	-12.760607
31176.853936	1126.981000	817.169922	-217.947678
31176.853936	1126.981000	815.983398	142.266647
31176.853936	1126.981000	814.796875	122.033432
31176.853936	1126.981000	813.609375	126.719551
31176.853936	1126.981000	812.422852	77.374382
31176.853936	1126.981000	811.235352	-55.040443
31176.853936	1126.981000	810.046875	-10.936479
31176.853936	1126.981000	808.859375	-2.165622
31176.853936	1126.981000	807.670898	-70.211693
31176.853936	1126.981000	806.482422	-15.827988
31176.853936	1126.981000	805.293945	-54.846909
31176.853936	1126.981000	804.104492	84.504478
31176.853936	1126.981000	802.915039	-58.253639
31176.853936	1126.981000	801.725586	4.276778
31176.853936	1126.981000	800.536133	-76.270882
31176.853936	1126.981000	799.345703	17.273651
31176.853936	1126.981000	798.155273	15.439430
31176.853936	1126.981000	796.964844	77.798294
31176.853936	1126.981000	795.774414	237.447464
31176.853936	1126.981000	794.583008	-89.615738
31176.853936	1126.981000	793.392578	-77.045486
31176.853936	1126.981000	792.200195	-21.040445
31176.853936	1126.981000	791.008789	138.382309
31176.853936	1126.981000	789.816406	90.809502
31176.853936	1126.981000	788.625000	130.104706
31176.853936	1126.981000	787.432617	-85.028267
31176.853936	1126.981000	786.239258	-29.231579
31176.853936	1126.981000	785.046875	-97.528221
31176.853936	1126.981000	783.853516	-93.488014
31176.853936	1126.981000	782.660156	86.163452
31176.853936	1126.981000	781.465820	88.031540
31176.853936	1126.981000	780.272461	-23.742472
31176.853936	1126.981000	779.078125	27.642448
31176.853936	1126.981000	777.883789	45.934429
31176.853936	1126.981000	776.688477	-72.058159
31176.853936	1126.981000	775.494141	-53.824707
31176.853936	1126.981000	774.298828	-8.809533
31176.853936	1126.981000	773.103516	69.157463
31176.853936	1126.981000	771.907227	60.426506
31176.853936	1126.981000	770.711914	105.275047
31176.853936	1126.981000	769.515625	207.794617
31176.853936	1126.981000	768.318359	124.718018
31176.853936	1126.981000	767.122070	-24.313860
31176.853936	1126.981000	765.924805	189.312805
31176.853936	1126.981000	764.727539	11.407939
31176.853936	1126.981000	763.530273	-57.307301
31176.853936	1126.981000	762.333008	116.942902
31176.853936	1126.981000	761.134766	122.263329
31176.853936	1126.981000	759.936523	-61.825012
31176.853936	1126.981000	758.738281	128.649979
31176.853936	1126.981000	757.540039	76.222923
31176.853936	1126.981000	756.340820	-2.967389
31176.853936	1126.981000	755.141602	28.883400
31176.853936	1126.981000	753.942383	9.270826
31176.853936	1126.981000	752.742188	28.678305
31176.853936	1126.981000	751.541992	99.412247
31176.853936	1126.981000	750.341797	67.324638
31176.853936	1126.981000	749.141602	63.963741
31176.853936	1126.981000	747.941406	101.634674
31176.853936	1126.981000	746.740234	11.918293
31176.853936	1126.981000	745.539063	176.778442
31176.853936	1126.981000	744.337891	203.986038
31176.853936	1126.981000	743.135742	185.980240
31176.853936	1126.981000	741.933594	-45.464458
31176.853936	1126.981000	740.731445	59.568382
31176.853936	1126.981000	739.529297	182.963943
31176.853936	1126.981000	738.326172	39.676846
31176.853936	1126.981000	737.124023	97.310822
31176.853936	1126.981000	735.919922	158.963058
31176.853936	1126.981000	734.716797	230.780411
31176.853936	1126.981000	733.513672	-72.431015
31176.853936	1126.981000	732.309570	171.358368
31176.853936	1126.981000	731.105469	161.034790
31176.853936	1126.981000	729.900391	232.560364
31176.853936	1126.981000	728.696289	-1.028864
31176.853936	1126.981000	727.491211	41.727947
31176.853936	1126.981000	726.286133	149.887161
31176.853936	1126.981000	725.080078	6.297421
31176.853936	1126.981000	723.874023	99.978081
31176.853936	1126.981000	722.668945	58.587364
31176.853936	1126.981000	721.461914	250.232513
31176.853936	1126.981000	720.255859	237.318954
31176.853936	1126.981000	719.048828	216.171112
31176.853936	1126.981000	717.841797	172.492203
31176.853936	1126.981000	716.634766	169.623535
31176.853936	1126.981000	715.427734	225.922043
31176.853936	1126.981000	714.219727	216.785751
31176.853936	1126.981000	713.011719	256.585114
31176.853936	1126.981000	711.803711	318.752289
31176.853936	1126.981000	710.594727	235.934143
31176.853936	1126.981000	709.385742	228.573593
31176.853936	1126.981000	708.176758	35.517845
31176.853936	1126.981000	706.967773	178.984222
31176.853936	1126.981000	705.758789	173.472275
31176.853936	1126.981000	704.548828	31.304474
31176.853936	1126.981000	703.338867	117.401543
31176.853936	1126.981000	702.127930	246.182526
31176.853936	1126.981000	700.917969	10.160576
31176.853936	1126.981000	699.707031	134.691742
31176.853936	1126.981000	698.496094	210.224335
31176.853936	1126.981000	697.285156	208.283386
31176.853936	1126.981000	696.073242	63.775944
31176.853936	1126.981000	694.861328	240.813629
31176.853936	1126.981000	693.649414	-42.150784
31176.853936	1126.981000	692.436523	-15.854897
31176.853936	1126.981000	691.224609	69.338493
31176.853936	1126.981000	690.011719	-118.064056
31176.853936	1126.981000	688.798828	239.389236
31176.853936	1126.981000	687.584961	90.494766
31176.853936	1126.981000	686.372070	110.260361
31176.853936	1126.981000	685.158203	235.589600
31176.853936	1126.981000	683.943359	135.309189
31176.853936	1126.981000	682.729492	351.817017
31176.853936	1126.981000	681.514648	196.576843
31176.853936	1126.981000	680.299805	380.341766
31176.853936	1126.981000	679.084961	320.396729
31176.853936	1126.981000	677.869141	339.534790
31176.853936	1126.981000	676.653320	283.520905
31176.853936	1126.981000	675.437500	107.780731
31176.853936	1126.981000	674.221680	140.909760
31176.853936	1126.981000	673.004883	447.652039
31176.853936	1126.981000	671.789063	344.723083
31176.853936	1126.981000	670.571289	341.057312
31176.853936	1126.981000	669.354492	381.891907
31176.853936	1126.981000	668.136719	252.460938
31176.853936	1126.981000	666.919922	159.463898
31176.853936	1126.981000	665.701172	248.661621
31176.853936	1126.981000	664.483398	507.800934
31176.853936	1126.981000	663.264648	400.391815
31176.853936	1126.981000	662.045898	365.797821
31176.853936	1126.981000	660.827148	219.861771
31176.853936	1126.981000	659.608398	270.114838
31176.853936	1126.981000	658.388672	253.525146
31176.853936	1126.981000	657.168945	246.971191
31176.853936	1126.981000	655.949219	226.187393
31176.853936	1126.981000	654.728516	373.077240
31176.853936	1126.981000	653.507813	441.018555
31176.853936	1126.981000	652.287109	347.233032
31176.853936	1126.981000	651.066406	273.602692
31176.853936	1126.981000	649.844727	286.752472
31176.853936	1126.981000	648.623047	358.364197
31176.853936	1126.981000	647.401367	258.291534
31176.853936	1126.981000	646.179688	341.826660
31176.853936	1126.981000	644.957031	203.298447
31176.853936	1126.981000	643.734375	302.781647
31176.853936	1126.981000	642.511719	190.378036
31176.853936	1126.981000	641.289063	307.809540
31176.853936	1126.981000	640.065430	427.122650
31176.853936	1126.981000	638.841797	336.691223
31176.853936	1126.981000	637.618164	304.656189
31176.853936	1126.981000	636.393555	272.550201
31176.853936	1126.981000	635.168945	397.490601
31176.853936	1126.981000	633.944336	196.060684
31176.853936	1126.981000	632.719727	191.950317
31176.853936	1126.981000	631.494141	304.510376
31176.853936	1126.981000	630.269531	175.446457
31176.853936	1126.981000	629.042969	28.239990
31176.853936	1126.981000	627.817383	327.618469
31176.853936	1126.981000	626.590820	218.502747
31176.853936	1126.981000	625.365234	171.698624
31176.853936	1126.981000	624.137695	209.264984
31176.853936	1126.981000	622.911133	-52.741760
31176.853936	1126.981000	621.683594	30.926010
31176.853936	1126.981000	620.456055	283.250763
31176.853936	1126.981000	619.228516	161.777008
31176.853936	1126.981000	618.000977	62.372559
31176.853936	1126.981000	616.772461	352.454224
31176.853936	1126.981000	615.543945	341.227417
31176.853936	1126.981000	614.314453	354.013245
31176.853936	1126.981000	613.085938	302.517151
31176.853936	1126.981000	611.856445	220.875763
31176.853936	1126.981000	610.626953	36.907059
31176.853936	1126.981000	609.397461	-20.718288
31176.853936	1126.981000	608.166992	96.030563
31176.853936	1126.981000	606.936523	58.319508
31176.853936	1126.981000	605.706055	6.531163
31176.853936	1126.981000	604.474609	-55.326168
31176.853936	1126.981000	603.244141	12.989170
31176.853936	1126.981000	602.012695	63.181435
31176.853936	1126.981000	600.780273	25.180059
31176.853936	1126.981000	599.548828	163.304184
31176.853936	1126.981000	598.316406	253.266647
31176.853936	1126.981000	597.083984	167.039520
31176.853936	1126.981000	595.851563	30.773144
31176.853936	1126.981000	594.618164	8.509793
31176.853936	1126.981000	593.384766	-11.802675
31176.853936	1126.981000	592.151367	129.782043
31176.853936	1126.981000	590.917969	21.387016
31176.853936	1126.981000	589.683594	0.909880
31176.853936	1126.981000	588.449219	38.329987
31176.853936	1126.981000	587.214844	-38.183643
31176.853936	1126.981000	585.979492	-58.802780
31176.853936	1126.981000	584.745117	182.121063
31176.853936	1126.981000	583.509766	-6.330931
31176.853936	1126.981000	582.273438	34.772888
31176.853936	1126.981000	581.038086	51.872303
31176.853936	1126.981000	579.801758	1.077606
31176.853936	1126.981000	578.565430	28.050211
31176.853936	1126.981000	577.329102	188.580353
31176.853936	1126.981000	576.091797	33.970730
31176.853936	1126.981000	574.854492	202.310623
31176.853936	1126.981000	573.617188	-30.044258
31176.853936	1126.981000	572.378906	313.491943
31176.853936	1126.981000	571.141602	258.429871
31176.853936	1126.981000	569.903320	105.755470
31176.853936	1126.981000	568.664063	156.209152
31176.853936	1126.981000	567.425781	130.962936
31176.853936	1126.981000	566.186523	219.138336
31176.853936	1126.981000	564.947266	140.086655
31176.853936	1126.981000	563.708008	-8.597042
31176.853936	1126.981000	562.467773	202.775528
31176.853936	1126.981000	561.227539	179.364365
31176.853936	1126.981000	559.987305	22.720596
31176.853936	1126.981000	558.747070	90.744972
31176.853936	1126.981000	557.505859	-111.581306
31176.853936	1126.981000	556.264648	23.944847
31176.853936	1126.981000	555.023438	-73.038513
31176.853936	1126.981000	553.781250	-11.116604
31176.853936	1126.981000	552.539063	-76.326530
31176.853936	1126.981000	551.296875	17.296938
31176.853936	1126.981000	550.054688	49.333275
31176.853936	1126.981000	548.811523	-0.030307
31176.853936	1126.981000	547.569336	-47.394634
31176.853936	1126.981000	546.325195	-31.291636
31176.853936	1126.981000	545.082031	-60.812645
31176.853936	1126.981000	543.837891	-173.613937
31176.853936	1126.981000	542.593750	131.895401
31176.853936	1126.981000	541.349609	11.157126
31176.853936	1126.981000	540.105469	-166.997330
31176.853936	1126.981000	538.860352	-131.134720
31176.853936	1126.981000	537.615234	47.314354
31176.853936	1126.981000	536.369141	23.697206
31176.853936	1126.981000	535.124023	-146.406326
31176.853936	1126.981000	533.877930	-57.149632
31176.853936	1126.981000	532.631836	-70.832504
31176.853936	1126.981000	531.384766	50.023201
31176.853936	1126.981000	530.138672	-23.012522
31176.853936	1126.981000	528.891602	70.105156
31176.853936	1126.981000	527.643555	8.957568
31176.853936	1126.981000	526.396484	-220.176407
31176.853936	1126.981000	525.148438	52.790058
31176.853936	1126.981000	523.900391	31.232807
31176.853936	1126.981000	522.652344	-193.783539
31176.853936	1126.981000	521.403320	-225.137329
31176.853936	1126.981000	520.154297	-248.564163
31176.853936	1126.981000	518.905273	-169.305161
31176.853936	1126.981000	517.656250	4.679817
31176.853936	1126.981000	516.406250	-30.581398
31176.853936	1126.981000	515.156250	-144.728851
31176.853936	1126.981000	513.906250	-89.167847
31176.853936	1126.981000	512.655273	-69.116661
31176.853936	1126.981000	511.404297	-49.052406
31176.853936	1126.981000	510.153320	-38.831661
31176.853936	1126.981000	508.902344	152.727066
31176.853936	1126.981000	507.650391	23.037264
31176.853936	1126.981000	506.398438	-37.621597
31176.853936	1126.981000	505.146484	-39.142372
31176.853936	1126.981000	503.893555	-66.242493
31176.853936	1126.981000	502.641602	-53.922680
31176.853936	1126.981000	501.388672	25.334612
31176.853936	1126.981000	500.134766	281.690125
31176.853936	1126.981000	498.881836	-69.982185
31176.853936	1126.981000	497.627930	-187.402069
31176.853936	1126.981000	496.374023	131.850952
31176.853936	1126.981000	495.119141	-58.261044
31176.853936	1126.981000	493.865234	-57.573513
31176.853936	1126.981000	492.610352	-43.107037
31176.853936	1126.981000	491.355469	-77.739334
31176.853936	1126.981000	490.099609	35.004200
31176.853936	1126.981000	488.843750	-32.969189
31176.853936	1126.981000	487.587891	83.702682
31176.853936	1126.981000	486.332031	23.660231
31176.853936	1126.981000	485.075195	197.243103
31176.853936	1126.981000	483.818359	221.636459
31176.853936	1126.981000	482.561523	69.468765
31176.853936	1126.981000	481.304688	15.472878
31176.853936	1126.981000	480.046875	87.033142
31176.853936	1126.981000	478.789063	5.653584
31176.853936	1126.981000	477.531250	194.854904
31176.853936	1126.981000	476.272461	21.416712
31176.853936	1126.981000	475.013672	275.236267
31176.853936	1126.981000	473.754883	109.738205
31176.853936	1126.981000	472.496094	-6.701683
31176.853936	1126.981000	471.236328	229.395096
31176.853936	1126.981000	469.976563	91.476059
31176.853936	1126.981000	468.716797	-11.133204
31176.853936	1126.981000	467.456055	80.045532
31176.853936	1126.981000	466.196289	188.812485
31176.853936	1126.981000	464.935547	367.957550
31176.853936	1126.981000	463.673828	155.899597
31176.853936	1126.981000	462.413086	100.365181
31176.853936	1126.981000	461.151367	410.401672
31176.853936	1126.981000	459.889648	120.312828
31176.853936	1126.981000	458.626953	223.089722
31176.853936	1126.981000	457.364258	269.166687
31176.853936	1126.981000	456.101563	283.968597
31176.853936	1126.981000	454.838867	212.839081
31176.853936	1126.981000	453.575195	137.817444
31176.853936	1126.981000	452.312500	51.108433
31176.853936	1126.981000	451.047852	108.812363
31176.853936	1126.981000	449.784180	281.584473
31176.853936	1126.981000	448.519531	185.070145
31176.853936	1126.981000	447.254883	398.642883
31176.853936	1126.981000	445.990234	333.278015
31176.853936	1126.981000	444.725586	162.639114
31176.853936	1126.981000	443.459961	183.016800
31176.853936	1126.981000	442.194336	199.441147
31176.853936	1126.981000	440.927734	211.902527
31176.853936	1126.981000	439.662109	329.479309
31176.853936	1126.981000	438.395508	406.044403
31176.853936	1126.981000	437.127930	418.256195
31176.853936	1126.981000	435.861328	282.471954
31176.853936	1126.981000	434.593750	331.522644
31176.853936	1126.981000	433.326172	273.461548
31176.853936	1126.981000	432.058594	355.378876
31176.853936	1126.981000	430.790039	273.800812
31176.853936	1126.981000	429.521484	141.599487
31176.853936	1126.981000	428.252930	170.678802
31176.853936	1126.981000	426.984375	327.888733
31176.853936	1126.981000	425.714844	127.382095
31176.853936	1126.981000	424.445313	181.301743
31176.853936	1126.981000	423.174805	440.911041
31176.853936	1126.981000	421.905273	302.205994
31176.853936	1126.981000	420.634766	407.994385
31176.853936	1126.981000	419.364258	397.109741
31176.853936	1126.981000	418.092773	294.837219
31176.853936	1126.981000	416.822266	491.191315
31176.853936	1126.981000	415.550781	281.868103
31176.853936	1126.981000	414.278320	466.071686
31176.853936	1126.981000	413.006836	223.447327
31176.853936	1126.981000	411.734375	540.871887
31176.853936	1126.981000	410.461914	276.529327
31176.853936	1126.981000	409.188477	265.848816
31176.853936	1126.981000	407.916016	293.653503
31176.853936	1126.981000	406.642578	245.624008
31176.853936	1126.981000	405.368164	71.451149
31176.853936	1126.981000	404.094727	290.031494
31176.853936	1126.981000	402.820313	194.645813
31176.853936	1126.981000	401.545898	58.329456
31176.853936	1126.981000	400.270508	215.767227
31176.853936	1126.981000	398.996094	88.459686
31176.853936	1126.981000	397.720703	231.538437
31176.853936	1126.981000	396.444336	327.747070
31176.853936	1126.981000	395.168945	152.906982
31176.853936	1126.981000	393.892578	288.830322
31176.853936	1126.981000	392.616211	234.906052
31176.853936	1126.981000	391.339844	263.603485
31176.853936	1126.981000	390.062500	29.146437
31176.853936	1126.981000	388.785156	-60.897789
31176.853936	1126.981000	387.507813	70.572571
31176.853936	1126.981000	386.229492	114.584404
31176.853936	1126.981000	384.951172	173.456665
31176.853936	1126.981000	383.672852	164.204712
31176.853936	1126.981000	382.394531	71.425476
31176.853936	1126.981000	381.115234	109.173332
31176.853936	1126.981000	379.835938	92.282547
31176.853936	1126.981000	378.556641	128.703003
31176.853936	1126.981000	377.277344	187.546158
31176.853936	1126.981000	375.997070	58.753830
31176.853936	1126.981000	374.716797	154.647400
31176.853936	1126.981000	373.435547	109.139076
31176.853936	1126.981000	372.155273	89.840149
31176.853936	1126.981000	370.874023	94.744728
31176.853936	1126.981000	369.591797	60.297897
31176.853936	1126.981000	368.310547	142.394089
31176.853936	1126.981000	367.028320	-43.849277
31176.853936	1126.981000	365.746094	15.244618
31176.853936	1126.981000	364.463867	198.349762
31176.853936	1126.981000	363.180664	47.792999
31176.853936	1126.981000	361.897461	-51.811256
31176.853936	1126.981000	360.614258	-56.333939
31176.853936	1126.981000	359.330078	157.060150
31176.853936	1126.981000	358.045898	52.334240
31176.853936	1126.981000	356.761719	48.295044
31176.853936	1126.981000	355.477539	260.036652
31176.853936	1126.981000	354.192383	-38.214554
31176.853936	1126.981000	352.907227	-30.524168
31176.853936	1126.981000	351.622070	119.784691
31176.853936	1126.981000	350.336914	73.055145
31176.853936	1126.981000	349.050781	-17.229664
31176.853936	1126.981000	347.764648	-37.922695
31176.853936	1126.981000	346.477539	74.117554
31176.853936	1126.981000	345.191406	-83.642921
31176.853936	1126.981000	343.904297	-24.441381
31176.853936	1126.981000	342.616211	-108.621643
31176.853936	1126.981000	341.329102	-4.704617
31176.853936	1126.981000	340.041016	80.253349
31176.853936	1126.981000	338.752930	8.419655
31176.853936	1126.981000	337.463867	-59.415440
31176.853936	1126.981000	336.175781	-169.135544
31176.853936	1126.981000	334.886719	-196.494324
31176.853936	1126.981000	333.596680	-147.336563
31176.853936	1126.981000	332.307617	108.379425
31176.853936	1126.981000	331.017578	-75.877808
31176.853936	1126.981000	329.727539	-151.205719
31176.853936	1126.981000	328.436523	-217.161835
31176.853936	1126.981000	327.146484	-11.928803
31176.853936	1126.981000	325.855469	-202.544479
31176.853936	1126.981000	324.563477	-122.260712
31176.853936	1126.981000	323.272461	-57.611923
31176.853936	1126.981000	321.980469	-136.673477
31176.853936	1126.981000	320.688477	-38.698231
31176.853936	1126.981000	319.395508	-36.806011
31176.853936	1126.981000	318.103516	23.672966
31176.853936	1126.981000	316.810547	-2.461013
31176.853936	1126.981000	315.516602	-56.103092
31176.853936	1126.981000	314.223633	-93.303841
31176.853936	1126.981000	312.929688	-51.387680
31176.853936	1126.981000	311.635742	29.582209
31176.853936	1126.981000	310.340820	0.817098
31176.853936	1126.981000	309.045898	49.075768
31176.853936	1126.981000	307.750977	138.052536
31176.853936	1126.981000	306.456055	14.410239
31176.853936	1126.981000	305.160156	146.417175
31176.853936	1126.981000	303.865234	341.788391
31176.853936	1126.981000	302.568359	289.968140
31176.853936	1126.981000	301.272461	537.306274
31176.853936	1126.981000	299.975586	499.430420
31176.853936	1126.981000	298.678711	669.045105
