#X		#Y		#Wave		#Intensity
23194.750585	2454.848500	1999.980469	-306.071625
23194.750585	2454.848500	1999.016602	-152.743073
23194.750585	2454.848500	1998.052734	88.254593
23194.750585	2454.848500	1997.087891	-288.352600
23194.750585	2454.848500	1996.123047	13.600299
23194.750585	2454.848500	1995.158203	-118.515320
23194.750585	2454.848500	1994.193359	-45.443581
23194.750585	2454.848500	1993.228516	-44.630058
23194.750585	2454.848500	1992.262695	124.140007
23194.750585	2454.848500	1991.297852	-46.676449
23194.750585	2454.848500	1990.332031	-84.160042
23194.750585	2454.848500	1989.366211	174.937546
23194.750585	2454.848500	1988.399414	116.914520
23194.750585	2454.848500	1987.433594	-35.432232
23194.750585	2454.848500	1986.466797	266.994415
23194.750585	2454.848500	1985.500977	-118.404251
23194.750585	2454.848500	1984.534180	123.959259
23194.750585	2454.848500	1983.567383	165.726578
23194.750585	2454.848500	1982.599609	170.120316
23194.750585	2454.848500	1981.632813	1.275779
23194.750585	2454.848500	1980.665039	131.136536
23194.750585	2454.848500	1979.697266	-18.407438
23194.750585	2454.848500	1978.729492	170.163513
23194.750585	2454.848500	1977.761719	-189.683960
23194.750585	2454.848500	1976.792969	-1.622622
23194.750585	2454.848500	1975.825195	154.060776
23194.750585	2454.848500	1974.856445	13.366066
23194.750585	2454.848500	1973.887695	-70.740318
23194.750585	2454.848500	1972.918945	229.789276
23194.750585	2454.848500	1971.949219	271.065216
23194.750585	2454.848500	1970.980469	196.256851
23194.750585	2454.848500	1970.010742	2.970441
23194.750585	2454.848500	1969.041016	132.482986
23194.750585	2454.848500	1968.071289	195.253281
23194.750585	2454.848500	1967.101563	-37.818657
23194.750585	2454.848500	1966.130859	36.982849
23194.750585	2454.848500	1965.161133	328.365112
23194.750585	2454.848500	1964.190430	-3.511997
23194.750585	2454.848500	1963.219727	157.026840
23194.750585	2454.848500	1962.249023	-110.931793
23194.750585	2454.848500	1961.277344	-26.952976
23194.750585	2454.848500	1960.306641	150.397476
23194.750585	2454.848500	1959.334961	34.812641
23194.750585	2454.848500	1958.363281	145.481186
23194.750585	2454.848500	1957.391602	142.893173
23194.750585	2454.848500	1956.419922	332.017059
23194.750585	2454.848500	1955.447266	-69.026276
23194.750585	2454.848500	1954.474609	26.516026
23194.750585	2454.848500	1953.501953	-40.235733
23194.750585	2454.848500	1952.529297	82.168686
23194.750585	2454.848500	1951.556641	66.903976
23194.750585	2454.848500	1950.583984	191.591934
23194.750585	2454.848500	1949.610352	-152.847015
23194.750585	2454.848500	1948.636719	-13.523786
23194.750585	2454.848500	1947.663086	-28.940065
23194.750585	2454.848500	1946.689453	151.960938
23194.750585	2454.848500	1945.715820	94.739761
23194.750585	2454.848500	1944.741211	-202.920319
23194.750585	2454.848500	1943.767578	68.592117
23194.750585	2454.848500	1942.792969	-251.067490
23194.750585	2454.848500	1941.818359	8.053676
23194.750585	2454.848500	1940.842773	144.485931
23194.750585	2454.848500	1939.868164	258.799316
23194.750585	2454.848500	1938.892578	-156.279053
23194.750585	2454.848500	1937.916992	29.089897
23194.750585	2454.848500	1936.941406	-111.425064
23194.750585	2454.848500	1935.965820	-73.088867
23194.750585	2454.848500	1934.990234	-201.281799
23194.750585	2454.848500	1934.013672	54.970978
23194.750585	2454.848500	1933.037109	154.470856
23194.750585	2454.848500	1932.060547	214.784470
23194.750585	2454.848500	1931.083984	128.271332
23194.750585	2454.848500	1930.107422	-210.191559
23194.750585	2454.848500	1929.129883	43.442398
23194.750585	2454.848500	1928.153320	10.862838
23194.750585	2454.848500	1927.175781	17.436352
23194.750585	2454.848500	1926.198242	-66.423210
23194.750585	2454.848500	1925.219727	-147.788666
23194.750585	2454.848500	1924.242188	32.394253
23194.750585	2454.848500	1923.263672	17.064230
23194.750585	2454.848500	1922.285156	121.470573
23194.750585	2454.848500	1921.306641	-8.610235
23194.750585	2454.848500	1920.328125	-92.212334
23194.750585	2454.848500	1919.349609	-4.846517
23194.750585	2454.848500	1918.370117	231.421783
23194.750585	2454.848500	1917.391602	-20.487005
23194.750585	2454.848500	1916.412109	-242.989868
23194.750585	2454.848500	1915.431641	-326.314606
23194.750585	2454.848500	1914.452148	-148.570572
23194.750585	2454.848500	1913.472656	209.612030
23194.750585	2454.848500	1912.492188	-73.590294
23194.750585	2454.848500	1911.511719	-76.292793
23194.750585	2454.848500	1910.531250	-74.085098
23194.750585	2454.848500	1909.550781	-149.826447
23194.750585	2454.848500	1908.569336	247.181000
23194.750585	2454.848500	1907.588867	-108.667252
23194.750585	2454.848500	1906.607422	22.774311
23194.750585	2454.848500	1905.625977	202.905441
23194.750585	2454.848500	1904.644531	-208.629532
23194.750585	2454.848500	1903.662109	-196.416122
23194.750585	2454.848500	1902.680664	95.715889
23194.750585	2454.848500	1901.698242	49.537060
23194.750585	2454.848500	1900.715820	39.901730
23194.750585	2454.848500	1899.733398	-120.505058
23194.750585	2454.848500	1898.750000	6.152954
23194.750585	2454.848500	1897.767578	84.166420
23194.750585	2454.848500	1896.784180	-20.149105
23194.750585	2454.848500	1895.800781	-182.726837
23194.750585	2454.848500	1894.817383	-150.801926
23194.750585	2454.848500	1893.833984	85.236153
23194.750585	2454.848500	1892.850586	333.359192
23194.750585	2454.848500	1891.866211	54.370090
23194.750585	2454.848500	1890.881836	6.204383
23194.750585	2454.848500	1889.897461	123.179420
23194.750585	2454.848500	1888.913086	24.092989
23194.750585	2454.848500	1887.927734	-45.806755
23194.750585	2454.848500	1886.943359	-69.554543
23194.750585	2454.848500	1885.958008	-88.420616
23194.750585	2454.848500	1884.972656	11.596528
23194.750585	2454.848500	1883.987305	375.937073
23194.750585	2454.848500	1883.001953	100.039177
23194.750585	2454.848500	1882.015625	-27.862762
23194.750585	2454.848500	1881.029297	-70.867081
23194.750585	2454.848500	1880.042969	-307.707581
23194.750585	2454.848500	1879.056641	-8.989163
23194.750585	2454.848500	1878.070313	-32.555088
23194.750585	2454.848500	1877.083984	-109.387283
23194.750585	2454.848500	1876.096680	160.098129
23194.750585	2454.848500	1875.109375	-132.203293
23194.750585	2454.848500	1874.122070	-126.650543
23194.750585	2454.848500	1873.134766	-138.038147
23194.750585	2454.848500	1872.146484	150.623932
23194.750585	2454.848500	1871.159180	-105.155060
23194.750585	2454.848500	1870.170898	-48.813412
23194.750585	2454.848500	1869.182617	-265.768250
23194.750585	2454.848500	1868.194336	-323.066193
23194.750585	2454.848500	1867.205078	-196.623566
23194.750585	2454.848500	1866.216797	-367.526886
23194.750585	2454.848500	1865.227539	29.511959
23194.750585	2454.848500	1864.238281	42.232025
23194.750585	2454.848500	1863.249023	-131.069626
23194.750585	2454.848500	1862.259766	156.978241
23194.750585	2454.848500	1861.269531	-45.288879
23194.750585	2454.848500	1860.279297	78.428566
23194.750585	2454.848500	1859.290039	-51.372543
23194.750585	2454.848500	1858.298828	48.122326
23194.750585	2454.848500	1857.308594	-81.672607
23194.750585	2454.848500	1856.318359	-47.394638
23194.750585	2454.848500	1855.327148	177.387207
23194.750585	2454.848500	1854.335938	107.847549
23194.750585	2454.848500	1853.344727	120.279434
23194.750585	2454.848500	1852.353516	154.366516
23194.750585	2454.848500	1851.362305	-358.707550
23194.750585	2454.848500	1850.370117	15.157954
23194.750585	2454.848500	1849.377930	208.147507
23194.750585	2454.848500	1848.385742	275.761169
23194.750585	2454.848500	1847.393555	155.454071
23194.750585	2454.848500	1846.401367	25.515308
23194.750585	2454.848500	1845.408203	-94.794479
23194.750585	2454.848500	1844.415039	208.529709
23194.750585	2454.848500	1843.421875	112.196907
23194.750585	2454.848500	1842.428711	6.222771
23194.750585	2454.848500	1841.435547	152.830017
23194.750585	2454.848500	1840.441406	130.956757
23194.750585	2454.848500	1839.448242	154.724915
23194.750585	2454.848500	1838.454102	305.850464
23194.750585	2454.848500	1837.459961	48.202049
23194.750585	2454.848500	1836.464844	112.639420
23194.750585	2454.848500	1835.470703	164.972504
23194.750585	2454.848500	1834.475586	176.373825
23194.750585	2454.848500	1833.480469	223.729874
23194.750585	2454.848500	1832.485352	162.925507
23194.750585	2454.848500	1831.490234	147.689331
23194.750585	2454.848500	1830.495117	197.203125
23194.750585	2454.848500	1829.499023	369.029297
23194.750585	2454.848500	1828.502930	423.121185
23194.750585	2454.848500	1827.506836	59.627300
23194.750585	2454.848500	1826.510742	228.739227
23194.750585	2454.848500	1825.513672	-146.744522
23194.750585	2454.848500	1824.517578	10.179054
23194.750585	2454.848500	1823.520508	126.192680
23194.750585	2454.848500	1822.523438	33.527515
23194.750585	2454.848500	1821.526367	-42.419750
23194.750585	2454.848500	1820.529297	231.407745
23194.750585	2454.848500	1819.531250	188.796341
23194.750585	2454.848500	1818.533203	45.502987
23194.750585	2454.848500	1817.535156	230.254501
23194.750585	2454.848500	1816.537109	206.523834
23194.750585	2454.848500	1815.539063	134.819092
23194.750585	2454.848500	1814.540039	82.182053
23194.750585	2454.848500	1813.541992	84.500748
23194.750585	2454.848500	1812.542969	-30.528397
23194.750585	2454.848500	1811.543945	265.815277
23194.750585	2454.848500	1810.543945	33.377823
23194.750585	2454.848500	1809.544922	-141.692001
23194.750585	2454.848500	1808.544922	190.022141
23194.750585	2454.848500	1807.544922	308.758942
23194.750585	2454.848500	1806.544922	307.841156
23194.750585	2454.848500	1805.544922	182.554428
23194.750585	2454.848500	1804.544922	23.746891
23194.750585	2454.848500	1803.543945	-8.534830
23194.750585	2454.848500	1802.542969	104.737701
23194.750585	2454.848500	1801.541992	-37.626362
23194.750585	2454.848500	1800.541016	-175.292450
23194.750585	2454.848500	1799.539063	116.563011
23194.750585	2454.848500	1798.538086	28.773121
23194.750585	2454.848500	1797.536133	-13.791071
23194.750585	2454.848500	1796.534180	98.573547
23194.750585	2454.848500	1795.532227	110.596191
23194.750585	2454.848500	1794.529297	205.928009
23194.750585	2454.848500	1793.527344	-101.797653
23194.750585	2454.848500	1792.524414	81.453133
23194.750585	2454.848500	1791.521484	64.317825
23194.750585	2454.848500	1790.518555	373.465210
23194.750585	2454.848500	1789.514648	-206.200180
23194.750585	2454.848500	1788.511719	-204.643204
23194.750585	2454.848500	1787.507813	237.295837
23194.750585	2454.848500	1786.503906	112.286423
23194.750585	2454.848500	1785.500000	-127.076752
23194.750585	2454.848500	1784.496094	-7.132561
23194.750585	2454.848500	1783.491211	76.917366
23194.750585	2454.848500	1782.486328	148.891602
23194.750585	2454.848500	1781.481445	47.052933
23194.750585	2454.848500	1780.476563	316.085999
23194.750585	2454.848500	1779.471680	130.732132
23194.750585	2454.848500	1778.465820	242.435608
23194.750585	2454.848500	1777.460938	85.379486
23194.750585	2454.848500	1776.455078	284.662018
23194.750585	2454.848500	1775.449219	75.065887
23194.750585	2454.848500	1774.442383	145.683304
23194.750585	2454.848500	1773.436523	334.868530
23194.750585	2454.848500	1772.429688	94.031265
23194.750585	2454.848500	1771.422852	19.310333
23194.750585	2454.848500	1770.416016	-27.060509
23194.750585	2454.848500	1769.409180	64.066589
23194.750585	2454.848500	1768.402344	19.753563
23194.750585	2454.848500	1767.394531	25.103485
23194.750585	2454.848500	1766.386719	-74.072044
23194.750585	2454.848500	1765.378906	-272.968811
23194.750585	2454.848500	1764.371094	165.815063
23194.750585	2454.848500	1763.362305	-204.063171
23194.750585	2454.848500	1762.354492	63.570843
23194.750585	2454.848500	1761.345703	141.363953
23194.750585	2454.848500	1760.336914	-46.375065
23194.750585	2454.848500	1759.328125	38.181614
23194.750585	2454.848500	1758.318359	-194.809402
23194.750585	2454.848500	1757.308594	-217.150116
23194.750585	2454.848500	1756.299805	42.069096
23194.750585	2454.848500	1755.290039	16.987505
23194.750585	2454.848500	1754.279297	171.582993
23194.750585	2454.848500	1753.269531	-66.785400
23194.750585	2454.848500	1752.258789	37.753189
23194.750585	2454.848500	1751.249023	177.570206
23194.750585	2454.848500	1750.238281	54.682411
23194.750585	2454.848500	1749.226563	123.153763
23194.750585	2454.848500	1748.215820	-33.106148
23194.750585	2454.848500	1747.204102	271.340454
23194.750585	2454.848500	1746.193359	-138.047333
23194.750585	2454.848500	1745.181641	-235.633072
23194.750585	2454.848500	1744.168945	70.516472
23194.750585	2454.848500	1743.157227	-268.277252
23194.750585	2454.848500	1742.144531	94.084213
23194.750585	2454.848500	1741.132813	24.174984
23194.750585	2454.848500	1740.120117	-149.733246
23194.750585	2454.848500	1739.106445	365.249908
23194.750585	2454.848500	1738.093750	148.539474
23194.750585	2454.848500	1737.080078	-129.601547
23194.750585	2454.848500	1736.067383	-61.122734
23194.750585	2454.848500	1735.053711	-219.204971
23194.750585	2454.848500	1734.040039	-280.743652
23194.750585	2454.848500	1733.025391	103.016159
23194.750585	2454.848500	1732.011719	118.866508
23194.750585	2454.848500	1730.997070	-141.126617
23194.750585	2454.848500	1729.982422	-61.984806
23194.750585	2454.848500	1728.967773	-138.477066
23194.750585	2454.848500	1727.952148	-186.868622
23194.750585	2454.848500	1726.937500	-61.178276
23194.750585	2454.848500	1725.921875	-58.112904
23194.750585	2454.848500	1724.906250	55.390785
23194.750585	2454.848500	1723.890625	-259.533752
23194.750585	2454.848500	1722.875000	-14.627989
23194.750585	2454.848500	1721.858398	-143.956741
23194.750585	2454.848500	1720.841797	-303.971619
23194.750585	2454.848500	1719.825195	-132.584000
23194.750585	2454.848500	1718.808594	102.042862
23194.750585	2454.848500	1717.791992	-352.182007
23194.750585	2454.848500	1716.774414	-141.437271
23194.750585	2454.848500	1715.756836	-22.554583
23194.750585	2454.848500	1714.739258	-119.968582
23194.750585	2454.848500	1713.721680	-13.193970
23194.750585	2454.848500	1712.704102	-188.368484
23194.750585	2454.848500	1711.685547	-192.282715
23194.750585	2454.848500	1710.667969	38.368015
23194.750585	2454.848500	1709.649414	454.138184
23194.750585	2454.848500	1708.630859	151.681702
23194.750585	2454.848500	1707.611328	154.107925
23194.750585	2454.848500	1706.592773	-17.146395
23194.750585	2454.848500	1705.573242	-66.574677
23194.750585	2454.848500	1704.553711	40.934685
23194.750585	2454.848500	1703.534180	113.097710
23194.750585	2454.848500	1702.513672	-367.982697
23194.750585	2454.848500	1701.494141	41.325066
23194.750585	2454.848500	1700.473633	-69.729515
23194.750585	2454.848500	1699.453125	60.348774
23194.750585	2454.848500	1698.432617	-90.759102
23194.750585	2454.848500	1697.412109	62.401279
23194.750585	2454.848500	1696.390625	266.836517
23194.750585	2454.848500	1695.369141	234.688873
23194.750585	2454.848500	1694.347656	143.918747
23194.750585	2454.848500	1693.326172	120.888824
23194.750585	2454.848500	1692.304688	224.034103
23194.750585	2454.848500	1691.282227	109.509125
23194.750585	2454.848500	1690.260742	144.548050
23194.750585	2454.848500	1689.238281	156.046341
23194.750585	2454.848500	1688.214844	17.811771
23194.750585	2454.848500	1687.192383	381.911316
23194.750585	2454.848500	1686.168945	149.981995
23194.750585	2454.848500	1685.146484	459.938904
23194.750585	2454.848500	1684.123047	445.022156
23194.750585	2454.848500	1683.099609	194.162872
23194.750585	2454.848500	1682.075195	351.784271
23194.750585	2454.848500	1681.051758	434.560211
23194.750585	2454.848500	1680.027344	314.146057
23194.750585	2454.848500	1679.002930	177.330811
23194.750585	2454.848500	1677.978516	343.696228
23194.750585	2454.848500	1676.953125	381.590942
23194.750585	2454.848500	1675.928711	447.363739
23194.750585	2454.848500	1674.903320	708.805786
23194.750585	2454.848500	1673.877930	473.571899
23194.750585	2454.848500	1672.852539	420.091583
23194.750585	2454.848500	1671.826172	438.732635
23194.750585	2454.848500	1670.800781	485.239349
23194.750585	2454.848500	1669.774414	678.331787
23194.750585	2454.848500	1668.748047	591.821533
23194.750585	2454.848500	1667.721680	579.747620
23194.750585	2454.848500	1666.694336	635.059448
23194.750585	2454.848500	1665.667969	578.574524
23194.750585	2454.848500	1664.640625	675.561035
23194.750585	2454.848500	1663.613281	718.914978
23194.750585	2454.848500	1662.585938	678.431274
23194.750585	2454.848500	1661.557617	861.094299
23194.750585	2454.848500	1660.530273	939.001648
23194.750585	2454.848500	1659.501953	612.299683
23194.750585	2454.848500	1658.473633	1119.994263
23194.750585	2454.848500	1657.444336	816.436768
23194.750585	2454.848500	1656.416016	1168.084717
23194.750585	2454.848500	1655.386719	994.554871
23194.750585	2454.848500	1654.358398	1278.537354
23194.750585	2454.848500	1653.328125	1042.194824
23194.750585	2454.848500	1652.298828	1137.857178
23194.750585	2454.848500	1651.269531	1465.512085
23194.750585	2454.848500	1650.239258	1444.874023
23194.750585	2454.848500	1649.208984	1482.183716
23194.750585	2454.848500	1648.178711	1640.035156
23194.750585	2454.848500	1647.148438	1846.467529
23194.750585	2454.848500	1646.117188	1978.540771
23194.750585	2454.848500	1645.086914	1911.162842
23194.750585	2454.848500	1644.055664	1846.048950
23194.750585	2454.848500	1643.024414	2255.969727
23194.750585	2454.848500	1641.992188	2000.703857
23194.750585	2454.848500	1640.960938	2018.856689
23194.750585	2454.848500	1639.928711	2187.473389
23194.750585	2454.848500	1638.896484	2203.154785
23194.750585	2454.848500	1637.864258	2232.682373
23194.750585	2454.848500	1636.832031	2090.872803
23194.750585	2454.848500	1635.798828	2344.789551
23194.750585	2454.848500	1634.766602	2242.277100
23194.750585	2454.848500	1633.733398	2329.440674
23194.750585	2454.848500	1632.699219	2377.196289
23194.750585	2454.848500	1631.666016	2683.922119
23194.750585	2454.848500	1630.632813	2646.020996
23194.750585	2454.848500	1629.598633	2638.134766
23194.750585	2454.848500	1628.564453	2482.323730
23194.750585	2454.848500	1627.530273	2804.853516
23194.750585	2454.848500	1626.495117	2542.740723
23194.750585	2454.848500	1625.460938	2726.519775
23194.750585	2454.848500	1624.425781	2857.074707
23194.750585	2454.848500	1623.390625	2936.776367
23194.750585	2454.848500	1622.355469	2804.068604
23194.750585	2454.848500	1621.319336	2994.493164
23194.750585	2454.848500	1620.284180	3143.330322
23194.750585	2454.848500	1619.248047	3333.611328
23194.750585	2454.848500	1618.211914	3120.167480
23194.750585	2454.848500	1617.174805	3478.707275
23194.750585	2454.848500	1616.138672	3514.342285
23194.750585	2454.848500	1615.101563	3729.756592
23194.750585	2454.848500	1614.065430	3781.479736
23194.750585	2454.848500	1613.027344	3867.714111
23194.750585	2454.848500	1611.990234	4359.439453
23194.750585	2454.848500	1610.953125	4802.618652
23194.750585	2454.848500	1609.915039	4676.779297
23194.750585	2454.848500	1608.876953	4567.128906
23194.750585	2454.848500	1607.838867	5389.895508
23194.750585	2454.848500	1606.800781	5367.664063
23194.750585	2454.848500	1605.761719	5317.830078
23194.750585	2454.848500	1604.723633	5047.198242
23194.750585	2454.848500	1603.684570	5174.634766
23194.750585	2454.848500	1602.644531	5345.729980
23194.750585	2454.848500	1601.605469	5399.551758
23194.750585	2454.848500	1600.566406	5172.920410
23194.750585	2454.848500	1599.526367	4969.379883
23194.750585	2454.848500	1598.486328	4522.369629
23194.750585	2454.848500	1597.446289	4705.127441
23194.750585	2454.848500	1596.405273	4554.750977
23194.750585	2454.848500	1595.365234	4041.628662
23194.750585	2454.848500	1594.324219	3951.249756
23194.750585	2454.848500	1593.283203	3964.275146
23194.750585	2454.848500	1592.242188	4089.826416
23194.750585	2454.848500	1591.200195	3777.036621
23194.750585	2454.848500	1590.159180	3597.534912
23194.750585	2454.848500	1589.117188	3847.128418
23194.750585	2454.848500	1588.075195	3509.538086
23194.750585	2454.848500	1587.032227	3344.109863
23194.750585	2454.848500	1585.990234	3559.427979
23194.750585	2454.848500	1584.947266	3417.125732
23194.750585	2454.848500	1583.904297	3476.633057
23194.750585	2454.848500	1582.861328	3208.536133
23194.750585	2454.848500	1581.818359	3270.510742
23194.750585	2454.848500	1580.775391	3174.508545
23194.750585	2454.848500	1579.731445	3060.284180
23194.750585	2454.848500	1578.687500	3051.513428
23194.750585	2454.848500	1577.643555	3106.930420
23194.750585	2454.848500	1576.598633	2965.573975
23194.750585	2454.848500	1575.554688	3041.768066
23194.750585	2454.848500	1574.509766	3134.020996
23194.750585	2454.848500	1573.464844	2997.609375
23194.750585	2454.848500	1572.419922	2941.390869
23194.750585	2454.848500	1571.374023	2709.224121
23194.750585	2454.848500	1570.329102	2881.890137
23194.750585	2454.848500	1569.283203	2684.323242
23194.750585	2454.848500	1568.237305	2384.116455
23194.750585	2454.848500	1567.191406	2650.722412
23194.750585	2454.848500	1566.144531	2739.153320
23194.750585	2454.848500	1565.098633	2489.696289
23194.750585	2454.848500	1564.051758	2382.000000
23194.750585	2454.848500	1563.004883	2705.918213
23194.750585	2454.848500	1561.957031	2493.455322
23194.750585	2454.848500	1560.910156	2468.338867
23194.750585	2454.848500	1559.862305	2393.146240
23194.750585	2454.848500	1558.814453	2372.857422
23194.750585	2454.848500	1557.766602	2640.060303
23194.750585	2454.848500	1556.718750	2252.897705
23194.750585	2454.848500	1555.669922	2449.597168
23194.750585	2454.848500	1554.621094	2377.409668
23194.750585	2454.848500	1553.573242	2407.956543
23194.750585	2454.848500	1552.523438	2427.199951
23194.750585	2454.848500	1551.474609	2514.935303
23194.750585	2454.848500	1550.424805	2101.726807
23194.750585	2454.848500	1549.375000	2226.199951
23194.750585	2454.848500	1548.325195	2104.905029
23194.750585	2454.848500	1547.275391	1867.730591
23194.750585	2454.848500	1546.225586	1594.391479
23194.750585	2454.848500	1545.174805	1539.714600
23194.750585	2454.848500	1544.124023	1610.330078
23194.750585	2454.848500	1543.073242	1706.093018
23194.750585	2454.848500	1542.022461	1338.114746
23194.750585	2454.848500	1540.970703	1618.345825
23194.750585	2454.848500	1539.919922	1523.610962
23194.750585	2454.848500	1538.868164	1151.817749
23194.750585	2454.848500	1537.815430	1202.923462
23194.750585	2454.848500	1536.763672	1313.259521
23194.750585	2454.848500	1535.710938	1621.298950
23194.750585	2454.848500	1534.659180	1443.474243
23194.750585	2454.848500	1533.606445	1524.690308
23194.750585	2454.848500	1532.552734	1762.650757
23194.750585	2454.848500	1531.500000	1551.380493
23194.750585	2454.848500	1530.446289	1537.752563
23194.750585	2454.848500	1529.393555	1367.802856
23194.750585	2454.848500	1528.338867	1667.555420
23194.750585	2454.848500	1527.285156	1409.567627
23194.750585	2454.848500	1526.231445	1575.822876
23194.750585	2454.848500	1525.176758	1007.781982
23194.750585	2454.848500	1524.122070	1174.415283
23194.750585	2454.848500	1523.067383	1318.517212
23194.750585	2454.848500	1522.012695	905.483704
23194.750585	2454.848500	1520.957031	757.785950
23194.750585	2454.848500	1519.901367	920.573181
23194.750585	2454.848500	1518.845703	766.536194
23194.750585	2454.848500	1517.790039	522.219299
23194.750585	2454.848500	1516.734375	413.985138
23194.750585	2454.848500	1515.677734	505.096924
23194.750585	2454.848500	1514.621094	361.108948
23194.750585	2454.848500	1513.564453	287.499084
23194.750585	2454.848500	1512.507813	331.713898
23194.750585	2454.848500	1511.450195	335.411743
23194.750585	2454.848500	1510.393555	253.436050
23194.750585	2454.848500	1509.335938	81.293915
23194.750585	2454.848500	1508.278320	370.374298
23194.750585	2454.848500	1507.219727	65.408585
23194.750585	2454.848500	1506.162109	49.894714
23194.750585	2454.848500	1505.103516	9.751494
23194.750585	2454.848500	1504.044922	157.236145
23194.750585	2454.848500	1502.986328	268.763794
23194.750585	2454.848500	1501.926758	114.152725
23194.750585	2454.848500	1500.868164	83.935799
23194.750585	2454.848500	1499.808594	92.295532
23194.750585	2454.848500	1498.749023	125.685242
23194.750585	2454.848500	1497.688477	391.547028
23194.750585	2454.848500	1496.628906	120.949074
23194.750585	2454.848500	1495.568359	60.311840
23194.750585	2454.848500	1494.507813	-103.742348
23194.750585	2454.848500	1493.447266	63.726849
23194.750585	2454.848500	1492.386719	-16.447660
23194.750585	2454.848500	1491.325195	-55.824562
23194.750585	2454.848500	1490.263672	-124.227814
23194.750585	2454.848500	1489.202148	-244.152695
23194.750585	2454.848500	1488.140625	-165.703903
23194.750585	2454.848500	1487.079102	-3.781039
23194.750585	2454.848500	1486.016602	-62.203526
23194.750585	2454.848500	1484.954102	142.846054
23194.750585	2454.848500	1483.891602	1.673093
23194.750585	2454.848500	1482.829102	72.178650
23194.750585	2454.848500	1481.765625	-81.940239
23194.750585	2454.848500	1480.702148	85.677773
23194.750585	2454.848500	1479.638672	46.709084
23194.750585	2454.848500	1478.575195	-54.880875
23194.750585	2454.848500	1477.511719	93.146744
23194.750585	2454.848500	1476.447266	-183.177979
23194.750585	2454.848500	1475.382813	-93.073044
23194.750585	2454.848500	1474.318359	-334.981323
23194.750585	2454.848500	1473.253906	56.404305
23194.750585	2454.848500	1472.189453	-14.450871
23194.750585	2454.848500	1471.124023	211.025299
23194.750585	2454.848500	1470.058594	299.937775
23194.750585	2454.848500	1468.993164	523.429443
23194.750585	2454.848500	1467.927734	570.459778
23194.750585	2454.848500	1466.861328	520.722778
23194.750585	2454.848500	1465.794922	500.947357
23194.750585	2454.848500	1464.728516	568.395569
23194.750585	2454.848500	1463.662109	819.899658
23194.750585	2454.848500	1462.594727	1102.213257
23194.750585	2454.848500	1461.528320	815.355469
23194.750585	2454.848500	1460.460938	982.093262
23194.750585	2454.848500	1459.393555	809.806274
23194.750585	2454.848500	1458.326172	1262.279785
23194.750585	2454.848500	1457.257813	757.338745
23194.750585	2454.848500	1456.189453	751.516357
23194.750585	2454.848500	1455.121094	575.424072
23194.750585	2454.848500	1454.052734	793.640015
23194.750585	2454.848500	1452.984375	893.043274
23194.750585	2454.848500	1451.915039	1008.016296
23194.750585	2454.848500	1450.845703	1000.763000
23194.750585	2454.848500	1449.776367	1231.369263
23194.750585	2454.848500	1448.707031	1075.669067
23194.750585	2454.848500	1447.636719	1339.411011
23194.750585	2454.848500	1446.567383	1446.306885
23194.750585	2454.848500	1445.497070	1189.881470
23194.750585	2454.848500	1444.425781	1624.031860
23194.750585	2454.848500	1443.355469	1349.317871
23194.750585	2454.848500	1442.285156	1291.601807
23194.750585	2454.848500	1441.213867	1806.571167
23194.750585	2454.848500	1440.142578	1875.766846
23194.750585	2454.848500	1439.070313	1798.753906
23194.750585	2454.848500	1437.999023	1832.976318
23194.750585	2454.848500	1436.926758	1725.142212
23194.750585	2454.848500	1435.854492	1989.184326
23194.750585	2454.848500	1434.782227	1749.063232
23194.750585	2454.848500	1433.709961	1686.477783
23194.750585	2454.848500	1432.636719	1419.828125
23194.750585	2454.848500	1431.563477	1058.160889
23194.750585	2454.848500	1430.490234	1147.438843
23194.750585	2454.848500	1429.416992	1027.913330
23194.750585	2454.848500	1428.343750	1110.355347
23194.750585	2454.848500	1427.269531	721.263672
23194.750585	2454.848500	1426.195313	616.752319
23194.750585	2454.848500	1425.121094	792.455444
23194.750585	2454.848500	1424.046875	564.798340
23194.750585	2454.848500	1422.971680	819.407593
23194.750585	2454.848500	1421.896484	538.630432
23194.750585	2454.848500	1420.821289	510.313904
23194.750585	2454.848500	1419.746094	593.043335
23194.750585	2454.848500	1418.669922	146.485184
23194.750585	2454.848500	1417.594727	688.507813
23194.750585	2454.848500	1416.518555	716.556396
23194.750585	2454.848500	1415.442383	855.132935
23194.750585	2454.848500	1414.365234	751.976929
23194.750585	2454.848500	1413.289063	574.443298
23194.750585	2454.848500	1412.211914	900.517883
23194.750585	2454.848500	1411.134766	888.174316
23194.750585	2454.848500	1410.057617	768.286865
23194.750585	2454.848500	1408.979492	882.892944
23194.750585	2454.848500	1407.902344	1168.811768
23194.750585	2454.848500	1406.824219	901.765808
23194.750585	2454.848500	1405.746094	1211.758667
23194.750585	2454.848500	1404.666992	1005.295593
23194.750585	2454.848500	1403.588867	1285.027710
23194.750585	2454.848500	1402.509766	1065.355103
23194.750585	2454.848500	1401.430664	1180.237549
23194.750585	2454.848500	1400.351563	1078.960938
23194.750585	2454.848500	1399.271484	1321.414429
23194.750585	2454.848500	1398.192383	944.981201
23194.750585	2454.848500	1397.112305	931.946167
23194.750585	2454.848500	1396.031250	826.384949
23194.750585	2454.848500	1394.951172	815.228638
23194.750585	2454.848500	1393.871094	738.745178
23194.750585	2454.848500	1392.790039	537.193787
23194.750585	2454.848500	1391.708984	669.520386
23194.750585	2454.848500	1390.626953	434.834106
23194.750585	2454.848500	1389.545898	411.975922
23194.750585	2454.848500	1388.463867	544.329346
23194.750585	2454.848500	1387.381836	784.665771
23194.750585	2454.848500	1386.299805	396.249451
23194.750585	2454.848500	1385.217773	544.833069
23194.750585	2454.848500	1384.134766	669.124512
23194.750585	2454.848500	1383.051758	815.284729
23194.750585	2454.848500	1381.968750	747.749939
23194.750585	2454.848500	1380.885742	789.733643
23194.750585	2454.848500	1379.802734	748.933655
23194.750585	2454.848500	1378.718750	979.574341
23194.750585	2454.848500	1377.634766	1048.454346
23194.750585	2454.848500	1376.550781	847.957031
23194.750585	2454.848500	1375.465820	1102.387329
23194.750585	2454.848500	1374.381836	1126.404663
23194.750585	2454.848500	1373.296875	1035.192749
23194.750585	2454.848500	1372.211914	840.734741
23194.750585	2454.848500	1371.126953	946.331909
23194.750585	2454.848500	1370.041016	959.407227
23194.750585	2454.848500	1368.955078	818.683472
23194.750585	2454.848500	1367.869141	830.516479
23194.750585	2454.848500	1366.783203	831.113708
23194.750585	2454.848500	1365.697266	695.198181
23194.750585	2454.848500	1364.610352	590.344116
23194.750585	2454.848500	1363.523438	908.831848
23194.750585	2454.848500	1362.436523	1042.907837
23194.750585	2454.848500	1361.349609	847.265686
23194.750585	2454.848500	1360.261719	788.579956
23194.750585	2454.848500	1359.174805	707.369995
23194.750585	2454.848500	1358.086914	660.035217
23194.750585	2454.848500	1356.998047	1061.900635
23194.750585	2454.848500	1355.910156	998.814697
23194.750585	2454.848500	1354.821289	1152.666138
23194.750585	2454.848500	1353.732422	1113.501221
23194.750585	2454.848500	1352.643555	1111.296631
23194.750585	2454.848500	1351.554688	1384.025391
23194.750585	2454.848500	1350.464844	1205.824219
23194.750585	2454.848500	1349.375000	1225.879150
23194.750585	2454.848500	1348.285156	1077.483398
23194.750585	2454.848500	1347.195313	687.264038
23194.750585	2454.848500	1346.105469	931.777893
23194.750585	2454.848500	1345.014648	763.150696
23194.750585	2454.848500	1343.923828	856.530701
23194.750585	2454.848500	1342.833008	832.292908
23194.750585	2454.848500	1341.741211	897.200256
23194.750585	2454.848500	1340.650391	702.399292
23194.750585	2454.848500	1339.558594	828.484131
23194.750585	2454.848500	1338.466797	928.776062
23194.750585	2454.848500	1337.374023	1091.374268
23194.750585	2454.848500	1336.282227	856.738831
23194.750585	2454.848500	1335.189453	893.080017
23194.750585	2454.848500	1334.096680	714.550476
23194.750585	2454.848500	1333.003906	1058.880737
23194.750585	2454.848500	1331.910156	828.813416
23194.750585	2454.848500	1330.817383	981.191589
23194.750585	2454.848500	1329.723633	933.537598
23194.750585	2454.848500	1328.629883	807.858826
23194.750585	2454.848500	1327.535156	807.064270
23194.750585	2454.848500	1326.441406	833.308655
23194.750585	2454.848500	1325.346680	799.464783
23194.750585	2454.848500	1324.251953	682.803284
23194.750585	2454.848500	1323.156250	396.475647
23194.750585	2454.848500	1322.061523	619.038086
23194.750585	2454.848500	1320.965820	599.006775
23194.750585	2454.848500	1319.870117	485.466339
23194.750585	2454.848500	1318.774414	441.024048
23194.750585	2454.848500	1317.678711	450.562653
23194.750585	2454.848500	1316.582031	692.576172
23194.750585	2454.848500	1315.485352	638.929932
23194.750585	2454.848500	1314.388672	755.576904
23194.750585	2454.848500	1313.291016	856.759521
23194.750585	2454.848500	1312.194336	892.133362
23194.750585	2454.848500	1311.096680	905.954834
23194.750585	2454.848500	1309.999023	1187.559570
23194.750585	2454.848500	1308.901367	1161.535034
23194.750585	2454.848500	1307.802734	1198.737549
23194.750585	2454.848500	1306.705078	1333.181152
23194.750585	2454.848500	1305.606445	1456.492065
23194.750585	2454.848500	1304.506836	1330.944092
23194.750585	2454.848500	1303.408203	1187.074097
23194.750585	2454.848500	1302.308594	1402.395630
23194.750585	2454.848500	1301.208984	1445.229858
23194.750585	2454.848500	1300.109375	1541.144897
23194.750585	2454.848500	1299.009766	1279.943481
23194.750585	2454.848500	1297.909180	1148.796631
23194.750585	2454.848500	1296.808594	1253.476440
23194.750585	2454.848500	1295.708008	1338.834106
23194.750585	2454.848500	1294.607422	1117.006348
23194.750585	2454.848500	1293.506836	1101.026123
23194.750585	2454.848500	1292.405273	838.805054
23194.750585	2454.848500	1291.303711	1065.980103
23194.750585	2454.848500	1290.202148	941.433899
23194.750585	2454.848500	1289.099609	845.900513
23194.750585	2454.848500	1287.998047	1093.758911
23194.750585	2454.848500	1286.895508	944.022400
23194.750585	2454.848500	1285.792969	928.960449
23194.750585	2454.848500	1284.689453	959.565308
23194.750585	2454.848500	1283.586914	701.232788
23194.750585	2454.848500	1282.483398	733.519836
23194.750585	2454.848500	1281.379883	761.160522
23194.750585	2454.848500	1280.276367	651.447449
23194.750585	2454.848500	1279.171875	518.785339
23194.750585	2454.848500	1278.067383	306.019257
23194.750585	2454.848500	1276.962891	205.877563
23194.750585	2454.848500	1275.858398	153.151077
23194.750585	2454.848500	1274.753906	379.152130
23194.750585	2454.848500	1273.648438	249.379181
23194.750585	2454.848500	1272.542969	54.735844
23194.750585	2454.848500	1271.437500	91.624260
23194.750585	2454.848500	1270.331055	175.843796
23194.750585	2454.848500	1269.225586	26.738630
23194.750585	2454.848500	1268.119141	299.612732
23194.750585	2454.848500	1267.012695	334.777771
23194.750585	2454.848500	1265.906250	-48.537907
23194.750585	2454.848500	1264.798828	-172.316086
23194.750585	2454.848500	1263.691406	-75.077179
23194.750585	2454.848500	1262.583984	-81.473686
23194.750585	2454.848500	1261.476563	-45.624886
23194.750585	2454.848500	1260.368164	-5.205850
23194.750585	2454.848500	1259.260742	180.238678
23194.750585	2454.848500	1258.152344	174.948517
23194.750585	2454.848500	1257.043945	-77.413200
23194.750585	2454.848500	1255.934570	-71.117233
23194.750585	2454.848500	1254.825195	-125.418427
23194.750585	2454.848500	1253.716797	-22.784513
23194.750585	2454.848500	1252.606445	181.130692
23194.750585	2454.848500	1251.497070	162.818710
23194.750585	2454.848500	1250.387695	189.969788
23194.750585	2454.848500	1249.277344	432.637390
23194.750585	2454.848500	1248.166992	712.031555
23194.750585	2454.848500	1247.055664	372.291718
23194.750585	2454.848500	1245.945313	364.314667
23194.750585	2454.848500	1244.833984	716.648804
23194.750585	2454.848500	1243.722656	948.285522
23194.750585	2454.848500	1242.611328	990.296997
23194.750585	2454.848500	1241.499023	973.767944
23194.750585	2454.848500	1240.387695	1243.394287
23194.750585	2454.848500	1239.275391	1463.677246
23194.750585	2454.848500	1238.162109	1639.978271
23194.750585	2454.848500	1237.049805	1679.952148
23194.750585	2454.848500	1235.936523	1438.264404
23194.750585	2454.848500	1234.823242	1461.838135
23194.750585	2454.848500	1233.709961	1301.626587
23194.750585	2454.848500	1232.596680	1140.409180
23194.750585	2454.848500	1231.482422	887.116028
23194.750585	2454.848500	1230.369141	678.199402
23194.750585	2454.848500	1229.253906	521.633362
23194.750585	2454.848500	1228.139648	607.002686
23194.750585	2454.848500	1227.025391	328.604797
23194.750585	2454.848500	1225.910156	241.018158
23194.750585	2454.848500	1224.794922	359.375427
23194.750585	2454.848500	1223.679688	371.586914
23194.750585	2454.848500	1222.563477	347.395020
23194.750585	2454.848500	1221.447266	368.745117
23194.750585	2454.848500	1220.331055	391.004547
23194.750585	2454.848500	1219.214844	104.445000
23194.750585	2454.848500	1218.098633	317.275696
23194.750585	2454.848500	1216.981445	286.674377
23194.750585	2454.848500	1215.864258	-0.469952
23194.750585	2454.848500	1214.747070	332.419159
23194.750585	2454.848500	1213.629883	225.582169
23194.750585	2454.848500	1212.511719	89.038506
23194.750585	2454.848500	1211.393555	248.903976
23194.750585	2454.848500	1210.275391	240.288284
23194.750585	2454.848500	1209.157227	289.974945
23194.750585	2454.848500	1208.038086	12.371801
23194.750585	2454.848500	1206.918945	24.007120
23194.750585	2454.848500	1205.799805	116.486732
23194.750585	2454.848500	1204.680664	-23.278818
23194.750585	2454.848500	1203.560547	-118.948334
23194.750585	2454.848500	1202.441406	-147.900345
23194.750585	2454.848500	1201.321289	-36.322041
23194.750585	2454.848500	1200.200195	-321.064758
23194.750585	2454.848500	1199.080078	-200.399124
23194.750585	2454.848500	1197.958984	-442.522491
23194.750585	2454.848500	1196.837891	-453.206604
23194.750585	2454.848500	1195.716797	-351.738037
23194.750585	2454.848500	1194.594727	-392.246857
23194.750585	2454.848500	1193.473633	-140.871841
23194.750585	2454.848500	1192.351563	-336.608063
23194.750585	2454.848500	1191.229492	-299.316528
23194.750585	2454.848500	1190.106445	-132.293594
23194.750585	2454.848500	1188.984375	-117.480087
23194.750585	2454.848500	1187.861328	-197.473190
23194.750585	2454.848500	1186.738281	-182.121841
23194.750585	2454.848500	1185.614258	-97.888695
23194.750585	2454.848500	1184.491211	44.518677
23194.750585	2454.848500	1183.367188	-119.167534
23194.750585	2454.848500	1182.243164	120.409256
23194.750585	2454.848500	1181.119141	91.741966
23194.750585	2454.848500	1179.994141	126.924187
23194.750585	2454.848500	1178.869141	101.998390
23194.750585	2454.848500	1177.744141	176.605988
23194.750585	2454.848500	1176.619141	447.614960
23194.750585	2454.848500	1175.493164	215.415421
23194.750585	2454.848500	1174.368164	82.934578
23194.750585	2454.848500	1173.242188	5.252579
23194.750585	2454.848500	1172.115234	103.160988
23194.750585	2454.848500	1170.989258	14.120883
23194.750585	2454.848500	1169.862305	-24.727623
23194.750585	2454.848500	1168.735352	51.077015
23194.750585	2454.848500	1167.608398	85.635345
23194.750585	2454.848500	1166.481445	-63.133690
23194.750585	2454.848500	1165.353516	152.973679
23194.750585	2454.848500	1164.225586	108.751534
23194.750585	2454.848500	1163.097656	135.372772
23194.750585	2454.848500	1161.968750	107.390503
23194.750585	2454.848500	1160.840820	165.957413
23194.750585	2454.848500	1159.711914	176.702011
23194.750585	2454.848500	1158.583008	420.950287
23194.750585	2454.848500	1157.453125	245.157318
23194.750585	2454.848500	1156.324219	177.572510
23194.750585	2454.848500	1155.194336	140.438736
23194.750585	2454.848500	1154.064453	419.939972
23194.750585	2454.848500	1152.933594	368.093353
23194.750585	2454.848500	1151.803711	342.125916
23194.750585	2454.848500	1150.672852	388.228882
23194.750585	2454.848500	1149.541992	379.282043
23194.750585	2454.848500	1148.411133	276.962524
23194.750585	2454.848500	1147.279297	507.466644
23194.750585	2454.848500	1146.147461	461.387512
23194.750585	2454.848500	1145.015625	525.820251
23194.750585	2454.848500	1143.883789	492.924408
23194.750585	2454.848500	1142.750977	540.237732
23194.750585	2454.848500	1141.619141	299.294281
23194.750585	2454.848500	1140.486328	502.730499
23194.750585	2454.848500	1139.352539	500.160736
23194.750585	2454.848500	1138.219727	386.075012
23194.750585	2454.848500	1137.085938	494.884430
23194.750585	2454.848500	1135.952148	587.626831
23194.750585	2454.848500	1134.818359	847.028320
23194.750585	2454.848500	1133.683594	893.250793
23194.750585	2454.848500	1132.549805	1014.281738
23194.750585	2454.848500	1131.415039	1353.614990
23194.750585	2454.848500	1130.279297	1466.033203
23194.750585	2454.848500	1129.144531	1552.233398
23194.750585	2454.848500	1128.008789	1523.765747
23194.750585	2454.848500	1126.873047	1644.090820
23194.750585	2454.848500	1125.737305	1301.558228
23194.750585	2454.848500	1124.601563	1194.001709
23194.750585	2454.848500	1123.464844	963.667908
23194.750585	2454.848500	1122.328125	985.676575
23194.750585	2454.848500	1121.191406	795.345947
23194.750585	2454.848500	1120.054688	778.064514
23194.750585	2454.848500	1118.916992	804.652771
23194.750585	2454.848500	1117.779297	624.340576
23194.750585	2454.848500	1116.641602	837.225281
23194.750585	2454.848500	1115.503906	809.049194
23194.750585	2454.848500	1114.365234	770.884277
23194.750585	2454.848500	1113.226563	703.296814
23194.750585	2454.848500	1112.087891	588.083618
23194.750585	2454.848500	1110.949219	718.947815
23194.750585	2454.848500	1109.809570	695.558777
23194.750585	2454.848500	1108.669922	574.342651
23194.750585	2454.848500	1107.530273	520.063232
23194.750585	2454.848500	1106.390625	910.822144
23194.750585	2454.848500	1105.250000	824.495239
23194.750585	2454.848500	1104.109375	644.355103
23194.750585	2454.848500	1102.968750	829.226013
23194.750585	2454.848500	1101.828125	848.535950
23194.750585	2454.848500	1100.686523	1033.630981
23194.750585	2454.848500	1099.544922	880.477783
23194.750585	2454.848500	1098.403320	830.090027
23194.750585	2454.848500	1097.261719	926.471985
23194.750585	2454.848500	1096.120117	1019.192261
23194.750585	2454.848500	1094.977539	861.137512
23194.750585	2454.848500	1093.834961	878.032654
23194.750585	2454.848500	1092.691406	929.549377
23194.750585	2454.848500	1091.548828	795.497742
23194.750585	2454.848500	1090.405273	673.109070
23194.750585	2454.848500	1089.261719	763.380554
23194.750585	2454.848500	1088.118164	1028.433716
23194.750585	2454.848500	1086.973633	1065.248047
23194.750585	2454.848500	1085.829102	1168.811401
23194.750585	2454.848500	1084.684570	1207.581299
23194.750585	2454.848500	1083.540039	1202.310181
23194.750585	2454.848500	1082.395508	1337.555176
23194.750585	2454.848500	1081.250000	1208.496460
23194.750585	2454.848500	1080.104492	1503.167603
23194.750585	2454.848500	1078.958984	1710.559326
23194.750585	2454.848500	1077.812500	1583.230347
23194.750585	2454.848500	1076.666016	1947.605347
23194.750585	2454.848500	1075.519531	1919.702515
23194.750585	2454.848500	1074.373047	1871.327148
23194.750585	2454.848500	1073.226563	1824.434814
23194.750585	2454.848500	1072.079102	1666.253906
23194.750585	2454.848500	1070.931641	1507.904907
23194.750585	2454.848500	1069.784180	1247.454956
23194.750585	2454.848500	1068.635742	1105.520508
23194.750585	2454.848500	1067.487305	1081.914063
23194.750585	2454.848500	1066.338867	1113.073853
23194.750585	2454.848500	1065.190430	980.320862
23194.750585	2454.848500	1064.041992	1148.146240
23194.750585	2454.848500	1062.892578	1062.050781
23194.750585	2454.848500	1061.743164	744.300598
23194.750585	2454.848500	1060.593750	777.945435
23194.750585	2454.848500	1059.443359	863.640015
23194.750585	2454.848500	1058.292969	856.772095
23194.750585	2454.848500	1057.142578	776.641418
23194.750585	2454.848500	1055.992188	578.176575
23194.750585	2454.848500	1054.841797	807.190979
23194.750585	2454.848500	1053.690430	670.639709
23194.750585	2454.848500	1052.539063	543.883789
23194.750585	2454.848500	1051.387695	740.699585
23194.750585	2454.848500	1050.235352	814.994995
23194.750585	2454.848500	1049.083984	436.898468
23194.750585	2454.848500	1047.931641	650.892700
23194.750585	2454.848500	1046.778320	412.275208
23194.750585	2454.848500	1045.625977	431.675232
23194.750585	2454.848500	1044.472656	642.584595
23194.750585	2454.848500	1043.319336	633.037231
23194.750585	2454.848500	1042.166016	560.266602
23194.750585	2454.848500	1041.012695	826.623413
23194.750585	2454.848500	1039.858398	650.532349
23194.750585	2454.848500	1038.704102	551.494507
23194.750585	2454.848500	1037.549805	669.046326
23194.750585	2454.848500	1036.394531	885.377686
23194.750585	2454.848500	1035.239258	969.287048
23194.750585	2454.848500	1034.083984	986.015808
23194.750585	2454.848500	1032.928711	1079.354248
23194.750585	2454.848500	1031.773438	1348.301514
23194.750585	2454.848500	1030.617188	1726.826538
23194.750585	2454.848500	1029.460938	1690.239990
23194.750585	2454.848500	1028.304688	1999.808716
23194.750585	2454.848500	1027.147461	2304.585449
23194.750585	2454.848500	1025.991211	2396.220215
23194.750585	2454.848500	1024.833984	2161.192383
23194.750585	2454.848500	1023.675781	1973.215454
23194.750585	2454.848500	1022.518555	2142.264893
23194.750585	2454.848500	1021.360352	1653.756348
23194.750585	2454.848500	1020.202148	1524.942871
23194.750585	2454.848500	1019.043945	1470.282715
23194.750585	2454.848500	1017.884766	1232.683472
23194.750585	2454.848500	1016.726563	997.351563
23194.750585	2454.848500	1015.567383	983.211914
23194.750585	2454.848500	1014.407227	753.183533
23194.750585	2454.848500	1013.248047	734.266479
23194.750585	2454.848500	1012.087891	614.674194
23194.750585	2454.848500	1010.927734	561.359619
23194.750585	2454.848500	1009.767578	429.189301
23194.750585	2454.848500	1008.606445	597.740112
23194.750585	2454.848500	1007.446289	593.337036
23194.750585	2454.848500	1006.285156	594.393982
23194.750585	2454.848500	1005.123047	560.836060
23194.750585	2454.848500	1003.961914	320.623413
23194.750585	2454.848500	1002.799805	673.738037
23194.750585	2454.848500	1001.637695	535.713440
23194.750585	2454.848500	1000.475586	556.631104
23194.750585	2454.848500	999.312500	520.169067
23194.750585	2454.848500	998.149414	595.013367
23194.750585	2454.848500	996.986328	673.839294
23194.750585	2454.848500	995.823242	550.722534
23194.750585	2454.848500	994.659180	301.280182
23194.750585	2454.848500	993.496094	193.803818
23194.750585	2454.848500	992.332031	351.205811
23194.750585	2454.848500	991.166992	164.383926
23194.750585	2454.848500	990.002930	474.923065
23194.750585	2454.848500	988.837891	289.297821
23194.750585	2454.848500	987.672852	21.185141
23194.750585	2454.848500	986.506836	144.410767
23194.750585	2454.848500	985.341797	-103.131355
23194.750585	2454.848500	984.175781	284.318054
23194.750585	2454.848500	983.009766	208.949905
23194.750585	2454.848500	981.843750	10.459021
23194.750585	2454.848500	980.676758	85.286125
23194.750585	2454.848500	979.509766	187.596878
23194.750585	2454.848500	978.342773	-35.308422
23194.750585	2454.848500	977.175781	46.282642
23194.750585	2454.848500	976.007813	327.035248
23194.750585	2454.848500	974.839844	159.884720
23194.750585	2454.848500	973.671875	227.106003
23194.750585	2454.848500	972.503906	-0.629507
23194.750585	2454.848500	971.334961	159.153732
23194.750585	2454.848500	970.166016	227.840485
23194.750585	2454.848500	968.997070	117.447815
23194.750585	2454.848500	967.828125	196.850250
23194.750585	2454.848500	966.658203	234.085709
23194.750585	2454.848500	965.488281	119.382805
23194.750585	2454.848500	964.318359	-41.196453
23194.750585	2454.848500	963.148438	-126.670135
23194.750585	2454.848500	961.977539	-121.215302
23194.750585	2454.848500	960.806641	-60.431339
23194.750585	2454.848500	959.635742	-90.475014
23194.750585	2454.848500	958.463867	221.570282
23194.750585	2454.848500	957.292969	98.838516
23194.750585	2454.848500	956.121094	-23.602230
23194.750585	2454.848500	954.948242	-56.551369
23194.750585	2454.848500	953.776367	-70.017433
23194.750585	2454.848500	952.603516	-71.840652
23194.750585	2454.848500	951.430664	-143.987473
23194.750585	2454.848500	950.257813	-162.360809
23194.750585	2454.848500	949.084961	-170.189713
23194.750585	2454.848500	947.911133	-20.815594
23194.750585	2454.848500	946.737305	33.752178
23194.750585	2454.848500	945.563477	-122.924484
23194.750585	2454.848500	944.388672	47.984848
23194.750585	2454.848500	943.213867	62.648544
23194.750585	2454.848500	942.039063	233.843338
23194.750585	2454.848500	940.864258	131.564728
23194.750585	2454.848500	939.688477	183.699692
23194.750585	2454.848500	938.513672	396.216492
23194.750585	2454.848500	937.337891	306.428802
23194.750585	2454.848500	936.161133	404.472687
23194.750585	2454.848500	934.985352	184.001923
23194.750585	2454.848500	933.808594	83.828178
23194.750585	2454.848500	932.631836	246.067078
23194.750585	2454.848500	931.454102	202.402420
23194.750585	2454.848500	930.277344	198.107040
23194.750585	2454.848500	929.099609	260.484833
23194.750585	2454.848500	927.921875	162.678680
23194.750585	2454.848500	926.743164	212.557907
23194.750585	2454.848500	925.565430	468.258545
23194.750585	2454.848500	924.386719	10.883315
23194.750585	2454.848500	923.208008	189.635544
23194.750585	2454.848500	922.028320	-111.640800
23194.750585	2454.848500	920.849609	260.319092
23194.750585	2454.848500	919.669922	263.897217
23194.750585	2454.848500	919.474609	119.708008
23194.750585	2454.848500	918.309570	40.835285
23194.750585	2454.848500	917.143555	292.137512
23194.750585	2454.848500	915.977539	9.870582
23194.750585	2454.848500	914.810547	70.183090
23194.750585	2454.848500	913.644531	105.587593
23194.750585	2454.848500	912.477539	182.493515
23194.750585	2454.848500	911.310547	137.017975
23194.750585	2454.848500	910.143555	369.462708
23194.750585	2454.848500	908.975586	197.548615
23194.750585	2454.848500	907.807617	135.593872
23194.750585	2454.848500	906.639648	164.876755
23194.750585	2454.848500	905.471680	-87.617447
23194.750585	2454.848500	904.303711	161.346527
23194.750585	2454.848500	903.134766	-163.475235
23194.750585	2454.848500	901.965820	-131.963959
23194.750585	2454.848500	900.796875	-330.239899
23194.750585	2454.848500	899.626953	-257.242249
23194.750585	2454.848500	898.457031	-2.125833
23194.750585	2454.848500	897.287109	-96.753113
23194.750585	2454.848500	896.117188	-176.824478
23194.750585	2454.848500	894.947266	-250.624344
23194.750585	2454.848500	893.776367	-177.541046
23194.750585	2454.848500	892.605469	-98.247215
23194.750585	2454.848500	891.434570	38.927792
23194.750585	2454.848500	890.262695	-197.955139
23194.750585	2454.848500	889.091797	-213.632904
23194.750585	2454.848500	887.919922	-59.873077
23194.750585	2454.848500	886.748047	40.169064
23194.750585	2454.848500	885.575195	-84.855690
23194.750585	2454.848500	884.403320	168.000961
23194.750585	2454.848500	883.230469	-20.897484
23194.750585	2454.848500	882.057617	-195.231934
23194.750585	2454.848500	880.883789	-144.560501
23194.750585	2454.848500	879.710938	-9.298520
23194.750585	2454.848500	878.537109	177.513382
23194.750585	2454.848500	877.362305	-70.760933
23194.750585	2454.848500	876.188477	-32.345669
23194.750585	2454.848500	875.013672	-74.279335
23194.750585	2454.848500	873.839844	-103.788292
23194.750585	2454.848500	872.664063	27.466217
23194.750585	2454.848500	871.489258	146.351273
23194.750585	2454.848500	870.313477	71.658653
23194.750585	2454.848500	869.138672	283.233887
23194.750585	2454.848500	867.962891	85.130585
23194.750585	2454.848500	866.786133	121.784706
23194.750585	2454.848500	865.610352	-4.089403
23194.750585	2454.848500	864.433594	314.509308
23194.750585	2454.848500	863.256836	207.264282
23194.750585	2454.848500	862.079102	73.383255
23194.750585	2454.848500	860.902344	99.968857
23194.750585	2454.848500	859.724609	23.821215
23194.750585	2454.848500	858.546875	101.889107
23194.750585	2454.848500	857.368164	147.106949
23194.750585	2454.848500	856.190430	-0.753151
23194.750585	2454.848500	855.011719	100.021286
23194.750585	2454.848500	853.833008	157.685410
23194.750585	2454.848500	852.654297	424.784180
23194.750585	2454.848500	851.474609	441.410278
23194.750585	2454.848500	850.294922	222.078430
23194.750585	2454.848500	849.115234	224.478043
23194.750585	2454.848500	847.935547	-127.955421
23194.750585	2454.848500	846.754883	42.798546
23194.750585	2454.848500	845.575195	316.054077
23194.750585	2454.848500	844.393555	464.203064
23194.750585	2454.848500	843.212891	587.739990
23194.750585	2454.848500	842.032227	510.448944
23194.750585	2454.848500	840.850586	564.370117
23194.750585	2454.848500	839.668945	296.720734
23194.750585	2454.848500	838.486328	248.369110
23194.750585	2454.848500	837.304688	-100.910446
23194.750585	2454.848500	836.122070	-163.390839
23194.750585	2454.848500	834.939453	-168.489838
23194.750585	2454.848500	833.756836	-175.582794
23194.750585	2454.848500	832.573242	-432.218353
23194.750585	2454.848500	831.389648	66.073242
23194.750585	2454.848500	830.206055	3.868697
23194.750585	2454.848500	829.022461	-27.597107
23194.750585	2454.848500	827.838867	28.899942
23194.750585	2454.848500	826.654297	-245.668213
23194.750585	2454.848500	825.469727	-74.626068
23194.750585	2454.848500	824.284180	-38.437202
23194.750585	2454.848500	823.099609	77.431267
23194.750585	2454.848500	821.914063	-151.808578
23194.750585	2454.848500	820.728516	-248.204147
23194.750585	2454.848500	819.542969	12.700924
23194.750585	2454.848500	818.356445	-73.394768
23194.750585	2454.848500	817.169922	-149.210678
23194.750585	2454.848500	815.983398	-149.476059
23194.750585	2454.848500	814.796875	52.214596
23194.750585	2454.848500	813.609375	11.210271
23194.750585	2454.848500	812.422852	-92.945229
23194.750585	2454.848500	811.235352	-13.568753
23194.750585	2454.848500	810.046875	-115.551704
23194.750585	2454.848500	808.859375	118.715881
23194.750585	2454.848500	807.670898	194.038345
23194.750585	2454.848500	806.482422	-13.724164
23194.750585	2454.848500	805.293945	-117.521820
23194.750585	2454.848500	804.104492	214.416290
23194.750585	2454.848500	802.915039	163.602524
23194.750585	2454.848500	801.725586	145.399124
23194.750585	2454.848500	800.536133	82.473030
23194.750585	2454.848500	799.345703	133.515091
23194.750585	2454.848500	798.155273	-61.507484
23194.750585	2454.848500	796.964844	-53.101635
23194.750585	2454.848500	795.774414	-186.971619
23194.750585	2454.848500	794.583008	-237.425644
23194.750585	2454.848500	793.392578	88.072144
23194.750585	2454.848500	792.200195	31.536886
23194.750585	2454.848500	791.008789	-236.200333
23194.750585	2454.848500	789.816406	-276.359283
23194.750585	2454.848500	788.625000	-160.158264
23194.750585	2454.848500	787.432617	-106.908798
23194.750585	2454.848500	786.239258	-151.073090
23194.750585	2454.848500	785.046875	-83.614685
23194.750585	2454.848500	783.853516	-292.056061
23194.750585	2454.848500	782.660156	-21.747829
23194.750585	2454.848500	781.465820	-240.225861
23194.750585	2454.848500	780.272461	-330.889343
23194.750585	2454.848500	779.078125	8.207916
23194.750585	2454.848500	777.883789	-191.880478
23194.750585	2454.848500	776.688477	-79.858421
23194.750585	2454.848500	775.494141	-146.144760
23194.750585	2454.848500	774.298828	-192.142914
23194.750585	2454.848500	773.103516	-106.508392
23194.750585	2454.848500	771.907227	-209.174637
23194.750585	2454.848500	770.711914	-285.496124
23194.750585	2454.848500	769.515625	-133.120468
23194.750585	2454.848500	768.318359	-88.034637
23194.750585	2454.848500	767.122070	84.448898
23194.750585	2454.848500	765.924805	283.148224
23194.750585	2454.848500	764.727539	-238.035614
23194.750585	2454.848500	763.530273	-21.182377
23194.750585	2454.848500	762.333008	86.430916
23194.750585	2454.848500	761.134766	290.977051
23194.750585	2454.848500	759.936523	119.665604
23194.750585	2454.848500	758.738281	-126.325378
23194.750585	2454.848500	757.540039	55.867626
23194.750585	2454.848500	756.340820	21.942659
23194.750585	2454.848500	755.141602	266.563446
23194.750585	2454.848500	753.942383	4.512450
23194.750585	2454.848500	752.742188	61.342072
23194.750585	2454.848500	751.541992	99.963142
23194.750585	2454.848500	750.341797	467.279175
23194.750585	2454.848500	749.141602	431.128235
23194.750585	2454.848500	747.941406	284.076904
23194.750585	2454.848500	746.740234	739.711548
23194.750585	2454.848500	745.539063	258.071045
23194.750585	2454.848500	744.337891	123.124252
23194.750585	2454.848500	743.135742	272.215271
23194.750585	2454.848500	741.933594	78.839058
23194.750585	2454.848500	740.731445	106.979126
23194.750585	2454.848500	739.529297	-56.181801
23194.750585	2454.848500	738.326172	120.816376
23194.750585	2454.848500	737.124023	207.133789
23194.750585	2454.848500	735.919922	186.747055
23194.750585	2454.848500	734.716797	136.136765
23194.750585	2454.848500	733.513672	91.523682
23194.750585	2454.848500	732.309570	251.948700
23194.750585	2454.848500	731.105469	140.879761
23194.750585	2454.848500	729.900391	9.702360
23194.750585	2454.848500	728.696289	183.918106
23194.750585	2454.848500	727.491211	76.759781
23194.750585	2454.848500	726.286133	-156.953888
23194.750585	2454.848500	725.080078	-89.434319
23194.750585	2454.848500	723.874023	142.605087
23194.750585	2454.848500	722.668945	131.599640
23194.750585	2454.848500	721.461914	138.593277
23194.750585	2454.848500	720.255859	181.613434
23194.750585	2454.848500	719.048828	-60.300316
23194.750585	2454.848500	717.841797	185.137955
23194.750585	2454.848500	716.634766	47.421471
23194.750585	2454.848500	715.427734	166.269058
23194.750585	2454.848500	714.219727	14.413017
23194.750585	2454.848500	713.011719	307.373962
23194.750585	2454.848500	711.803711	-65.005241
23194.750585	2454.848500	710.594727	-14.691731
23194.750585	2454.848500	709.385742	-12.558216
23194.750585	2454.848500	708.176758	43.533092
23194.750585	2454.848500	706.967773	193.580338
23194.750585	2454.848500	705.758789	-20.771835
23194.750585	2454.848500	704.548828	117.017868
23194.750585	2454.848500	703.338867	74.603523
23194.750585	2454.848500	702.127930	26.102455
23194.750585	2454.848500	700.917969	149.472748
23194.750585	2454.848500	699.707031	240.696854
23194.750585	2454.848500	698.496094	169.867722
23194.750585	2454.848500	697.285156	188.879089
23194.750585	2454.848500	696.073242	19.962118
23194.750585	2454.848500	694.861328	96.689545
23194.750585	2454.848500	693.649414	233.176834
23194.750585	2454.848500	692.436523	137.872635
23194.750585	2454.848500	691.224609	64.438828
23194.750585	2454.848500	690.011719	-27.049828
23194.750585	2454.848500	688.798828	64.948738
23194.750585	2454.848500	687.584961	242.565445
23194.750585	2454.848500	686.372070	132.754089
23194.750585	2454.848500	685.158203	449.606201
23194.750585	2454.848500	683.943359	391.369904
23194.750585	2454.848500	682.729492	540.321899
23194.750585	2454.848500	681.514648	358.256287
23194.750585	2454.848500	680.299805	447.100769
23194.750585	2454.848500	679.084961	430.187805
23194.750585	2454.848500	677.869141	417.123199
23194.750585	2454.848500	676.653320	378.032288
23194.750585	2454.848500	675.437500	468.212433
23194.750585	2454.848500	674.221680	249.696411
23194.750585	2454.848500	673.004883	548.514404
23194.750585	2454.848500	671.789063	654.065552
23194.750585	2454.848500	670.571289	343.697815
23194.750585	2454.848500	669.354492	321.665039
23194.750585	2454.848500	668.136719	158.318512
23194.750585	2454.848500	666.919922	332.819244
23194.750585	2454.848500	665.701172	363.992310
23194.750585	2454.848500	664.483398	605.617554
23194.750585	2454.848500	663.264648	249.009293
23194.750585	2454.848500	662.045898	460.438202
23194.750585	2454.848500	660.827148	145.385574
23194.750585	2454.848500	659.608398	282.959686
23194.750585	2454.848500	658.388672	525.510803
23194.750585	2454.848500	657.168945	493.928497
23194.750585	2454.848500	655.949219	301.478302
23194.750585	2454.848500	654.728516	432.277771
23194.750585	2454.848500	653.507813	640.197449
23194.750585	2454.848500	652.287109	619.830139
23194.750585	2454.848500	651.066406	577.494263
23194.750585	2454.848500	649.844727	590.494568
23194.750585	2454.848500	648.623047	529.995117
23194.750585	2454.848500	647.401367	554.536194
23194.750585	2454.848500	646.179688	858.173645
23194.750585	2454.848500	644.957031	636.717712
23194.750585	2454.848500	643.734375	448.835052
23194.750585	2454.848500	642.511719	771.558350
23194.750585	2454.848500	641.289063	715.965088
23194.750585	2454.848500	640.065430	753.208801
23194.750585	2454.848500	638.841797	758.601440
23194.750585	2454.848500	637.618164	811.279358
23194.750585	2454.848500	636.393555	743.128052
23194.750585	2454.848500	635.168945	635.282471
23194.750585	2454.848500	633.944336	493.697266
23194.750585	2454.848500	632.719727	328.274597
23194.750585	2454.848500	631.494141	506.508942
23194.750585	2454.848500	630.269531	382.265961
23194.750585	2454.848500	629.042969	607.435547
23194.750585	2454.848500	627.817383	437.438141
23194.750585	2454.848500	626.590820	446.959656
23194.750585	2454.848500	625.365234	233.277283
23194.750585	2454.848500	624.137695	335.203217
23194.750585	2454.848500	622.911133	257.380432
23194.750585	2454.848500	621.683594	305.632690
23194.750585	2454.848500	620.456055	109.156647
23194.750585	2454.848500	619.228516	153.104919
23194.750585	2454.848500	618.000977	-177.661850
23194.750585	2454.848500	616.772461	372.419006
23194.750585	2454.848500	615.543945	141.854553
23194.750585	2454.848500	614.314453	194.856735
23194.750585	2454.848500	613.085938	241.748032
23194.750585	2454.848500	611.856445	443.982056
23194.750585	2454.848500	610.626953	269.944611
23194.750585	2454.848500	609.397461	294.582581
23194.750585	2454.848500	608.166992	226.538132
23194.750585	2454.848500	606.936523	144.567719
23194.750585	2454.848500	605.706055	-140.143295
23194.750585	2454.848500	604.474609	56.875061
23194.750585	2454.848500	603.244141	159.263397
23194.750585	2454.848500	602.012695	432.434418
23194.750585	2454.848500	600.780273	78.389709
23194.750585	2454.848500	599.548828	229.286453
23194.750585	2454.848500	598.316406	472.263275
23194.750585	2454.848500	597.083984	398.756897
23194.750585	2454.848500	595.851563	704.079102
23194.750585	2454.848500	594.618164	1018.905212
23194.750585	2454.848500	593.384766	1506.146118
23194.750585	2454.848500	592.151367	2297.170410
23194.750585	2454.848500	590.917969	2475.571533
23194.750585	2454.848500	589.683594	2537.992920
23194.750585	2454.848500	588.449219	2345.278076
23194.750585	2454.848500	587.214844	2015.235107
23194.750585	2454.848500	585.979492	1208.822144
23194.750585	2454.848500	584.745117	872.954041
23194.750585	2454.848500	583.509766	844.685913
23194.750585	2454.848500	582.273438	730.067993
23194.750585	2454.848500	581.038086	546.799255
23194.750585	2454.848500	579.801758	766.822876
23194.750585	2454.848500	578.565430	557.854675
23194.750585	2454.848500	577.329102	511.279449
23194.750585	2454.848500	576.091797	405.859344
23194.750585	2454.848500	574.854492	497.939636
23194.750585	2454.848500	573.617188	521.370117
23194.750585	2454.848500	572.378906	661.977234
23194.750585	2454.848500	571.141602	382.016937
23194.750585	2454.848500	569.903320	721.702393
23194.750585	2454.848500	568.664063	859.791565
23194.750585	2454.848500	567.425781	870.689514
23194.750585	2454.848500	566.186523	662.638306
23194.750585	2454.848500	564.947266	786.580200
23194.750585	2454.848500	563.708008	738.500000
23194.750585	2454.848500	562.467773	563.405457
23194.750585	2454.848500	561.227539	448.768524
23194.750585	2454.848500	559.987305	449.197235
23194.750585	2454.848500	558.747070	174.409164
23194.750585	2454.848500	557.505859	180.503586
23194.750585	2454.848500	556.264648	340.550629
23194.750585	2454.848500	555.023438	89.008125
23194.750585	2454.848500	553.781250	102.572952
23194.750585	2454.848500	552.539063	174.495239
23194.750585	2454.848500	551.296875	88.453690
23194.750585	2454.848500	550.054688	66.636803
23194.750585	2454.848500	548.811523	173.270554
23194.750585	2454.848500	547.569336	92.837708
23194.750585	2454.848500	546.325195	-79.179390
23194.750585	2454.848500	545.082031	-27.354626
23194.750585	2454.848500	543.837891	-74.895477
23194.750585	2454.848500	542.593750	-7.705275
23194.750585	2454.848500	541.349609	-82.622643
23194.750585	2454.848500	540.105469	81.627068
23194.750585	2454.848500	538.860352	101.839920
23194.750585	2454.848500	537.615234	147.245712
23194.750585	2454.848500	536.369141	-217.535339
23194.750585	2454.848500	535.124023	-57.564030
23194.750585	2454.848500	533.877930	82.842117
23194.750585	2454.848500	532.631836	153.210052
23194.750585	2454.848500	531.384766	85.607155
23194.750585	2454.848500	530.138672	70.416336
23194.750585	2454.848500	528.891602	33.821796
23194.750585	2454.848500	527.643555	-80.436913
23194.750585	2454.848500	526.396484	-10.351676
23194.750585	2454.848500	525.148438	123.667786
23194.750585	2454.848500	523.900391	-219.493881
23194.750585	2454.848500	522.652344	-54.526741
23194.750585	2454.848500	521.403320	-296.763947
23194.750585	2454.848500	520.154297	-182.303268
23194.750585	2454.848500	518.905273	-129.918732
23194.750585	2454.848500	517.656250	-234.495758
23194.750585	2454.848500	516.406250	-370.043365
23194.750585	2454.848500	515.156250	-122.120277
23194.750585	2454.848500	513.906250	-191.822876
23194.750585	2454.848500	512.655273	-178.281357
23194.750585	2454.848500	511.404297	-255.699036
23194.750585	2454.848500	510.153320	-313.734863
23194.750585	2454.848500	508.902344	-263.413116
23194.750585	2454.848500	507.650391	-304.012512
23194.750585	2454.848500	506.398438	-147.359604
23194.750585	2454.848500	505.146484	-261.400604
23194.750585	2454.848500	503.893555	-187.910416
23194.750585	2454.848500	502.641602	-406.199707
23194.750585	2454.848500	501.388672	-137.543884
23194.750585	2454.848500	500.134766	-241.768295
23194.750585	2454.848500	498.881836	-131.556946
23194.750585	2454.848500	497.627930	-158.448975
23194.750585	2454.848500	496.374023	-115.806709
23194.750585	2454.848500	495.119141	-121.405273
23194.750585	2454.848500	493.865234	-142.384323
23194.750585	2454.848500	492.610352	-215.408051
23194.750585	2454.848500	491.355469	-124.427116
23194.750585	2454.848500	490.099609	24.392515
23194.750585	2454.848500	488.843750	-208.497742
23194.750585	2454.848500	487.587891	-49.988541
23194.750585	2454.848500	486.332031	6.376981
23194.750585	2454.848500	485.075195	145.598648
23194.750585	2454.848500	483.818359	261.703430
23194.750585	2454.848500	482.561523	219.909576
23194.750585	2454.848500	481.304688	35.722290
23194.750585	2454.848500	480.046875	213.531723
23194.750585	2454.848500	478.789063	-58.991337
23194.750585	2454.848500	477.531250	70.784851
23194.750585	2454.848500	476.272461	-5.271322
23194.750585	2454.848500	475.013672	93.779839
23194.750585	2454.848500	473.754883	187.081329
23194.750585	2454.848500	472.496094	366.912720
23194.750585	2454.848500	471.236328	202.690750
23194.750585	2454.848500	469.976563	369.106171
23194.750585	2454.848500	468.716797	333.795441
23194.750585	2454.848500	467.456055	187.153412
23194.750585	2454.848500	466.196289	340.209015
23194.750585	2454.848500	464.935547	270.547089
23194.750585	2454.848500	463.673828	187.528030
23194.750585	2454.848500	462.413086	281.164154
23194.750585	2454.848500	461.151367	771.963745
23194.750585	2454.848500	459.889648	531.769714
23194.750585	2454.848500	458.626953	742.403503
23194.750585	2454.848500	457.364258	786.185913
23194.750585	2454.848500	456.101563	507.948364
23194.750585	2454.848500	454.838867	331.453674
23194.750585	2454.848500	453.575195	436.741089
23194.750585	2454.848500	452.312500	591.841614
23194.750585	2454.848500	451.047852	478.746094
23194.750585	2454.848500	449.784180	438.510712
23194.750585	2454.848500	448.519531	356.188782
23194.750585	2454.848500	447.254883	390.686371
23194.750585	2454.848500	445.990234	310.367645
23194.750585	2454.848500	444.725586	413.768402
23194.750585	2454.848500	443.459961	90.560287
23194.750585	2454.848500	442.194336	455.962372
23194.750585	2454.848500	440.927734	421.585114
23194.750585	2454.848500	439.662109	339.430389
23194.750585	2454.848500	438.395508	293.593781
23194.750585	2454.848500	437.127930	230.546265
23194.750585	2454.848500	435.861328	236.272980
23194.750585	2454.848500	434.593750	136.899445
23194.750585	2454.848500	433.326172	102.440758
23194.750585	2454.848500	432.058594	37.391644
23194.750585	2454.848500	430.790039	151.706665
23194.750585	2454.848500	429.521484	82.696533
23194.750585	2454.848500	428.252930	171.979584
23194.750585	2454.848500	426.984375	39.855297
23194.750585	2454.848500	425.714844	77.391258
23194.750585	2454.848500	424.445313	91.906235
23194.750585	2454.848500	423.174805	81.484146
23194.750585	2454.848500	421.905273	40.434334
23194.750585	2454.848500	420.634766	-8.397933
23194.750585	2454.848500	419.364258	81.675407
23194.750585	2454.848500	418.092773	156.264847
23194.750585	2454.848500	416.822266	381.051514
23194.750585	2454.848500	415.550781	228.564774
23194.750585	2454.848500	414.278320	367.094116
23194.750585	2454.848500	413.006836	147.569885
23194.750585	2454.848500	411.734375	72.438347
23194.750585	2454.848500	410.461914	181.542526
23194.750585	2454.848500	409.188477	168.563293
23194.750585	2454.848500	407.916016	56.400730
23194.750585	2454.848500	406.642578	325.982910
23194.750585	2454.848500	405.368164	32.527950
23194.750585	2454.848500	404.094727	-23.685709
23194.750585	2454.848500	402.820313	231.221176
23194.750585	2454.848500	401.545898	147.512177
23194.750585	2454.848500	400.270508	122.210449
23194.750585	2454.848500	398.996094	271.086182
23194.750585	2454.848500	397.720703	83.418961
23194.750585	2454.848500	396.444336	66.042122
23194.750585	2454.848500	395.168945	279.557770
23194.750585	2454.848500	393.892578	257.160370
23194.750585	2454.848500	392.616211	114.664886
23194.750585	2454.848500	391.339844	149.775467
23194.750585	2454.848500	390.062500	377.487183
23194.750585	2454.848500	388.785156	244.303116
23194.750585	2454.848500	387.507813	165.352310
23194.750585	2454.848500	386.229492	38.254089
23194.750585	2454.848500	384.951172	249.369598
23194.750585	2454.848500	383.672852	228.518219
23194.750585	2454.848500	382.394531	129.149216
23194.750585	2454.848500	381.115234	89.410217
23194.750585	2454.848500	379.835938	-108.356850
23194.750585	2454.848500	378.556641	8.854561
23194.750585	2454.848500	377.277344	121.157333
23194.750585	2454.848500	375.997070	5.349645
23194.750585	2454.848500	374.716797	56.685970
23194.750585	2454.848500	373.435547	182.366531
23194.750585	2454.848500	372.155273	8.186022
23194.750585	2454.848500	370.874023	-165.362823
23194.750585	2454.848500	369.591797	120.666428
23194.750585	2454.848500	368.310547	74.709267
23194.750585	2454.848500	367.028320	17.840242
23194.750585	2454.848500	365.746094	27.436571
23194.750585	2454.848500	364.463867	24.139709
23194.750585	2454.848500	363.180664	-41.199276
23194.750585	2454.848500	361.897461	-61.030132
23194.750585	2454.848500	360.614258	-37.330856
23194.750585	2454.848500	359.330078	1.483530
23194.750585	2454.848500	358.045898	-46.420185
23194.750585	2454.848500	356.761719	50.778290
23194.750585	2454.848500	355.477539	-110.334656
23194.750585	2454.848500	354.192383	99.536568
23194.750585	2454.848500	352.907227	-14.902740
23194.750585	2454.848500	351.622070	132.143875
23194.750585	2454.848500	350.336914	154.473221
23194.750585	2454.848500	349.050781	97.219147
23194.750585	2454.848500	347.764648	-158.157379
23194.750585	2454.848500	346.477539	-171.385254
23194.750585	2454.848500	345.191406	25.429140
23194.750585	2454.848500	343.904297	-122.846115
23194.750585	2454.848500	342.616211	10.051615
23194.750585	2454.848500	341.329102	-371.200226
23194.750585	2454.848500	340.041016	-168.880417
23194.750585	2454.848500	338.752930	-123.738304
23194.750585	2454.848500	337.463867	-138.146057
23194.750585	2454.848500	336.175781	-309.681824
23194.750585	2454.848500	334.886719	24.382755
23194.750585	2454.848500	333.596680	-122.025047
23194.750585	2454.848500	332.307617	-176.047058
23194.750585	2454.848500	331.017578	-244.972504
23194.750585	2454.848500	329.727539	-79.284927
23194.750585	2454.848500	328.436523	-210.176682
23194.750585	2454.848500	327.146484	-344.823364
23194.750585	2454.848500	325.855469	137.085495
23194.750585	2454.848500	324.563477	99.057915
23194.750585	2454.848500	323.272461	-295.435883
23194.750585	2454.848500	321.980469	-141.476196
23194.750585	2454.848500	320.688477	15.424308
23194.750585	2454.848500	319.395508	32.686779
23194.750585	2454.848500	318.103516	-42.682308
23194.750585	2454.848500	316.810547	62.338497
23194.750585	2454.848500	315.516602	-172.834122
23194.750585	2454.848500	314.223633	184.027344
23194.750585	2454.848500	312.929688	-14.691311
23194.750585	2454.848500	311.635742	-57.867496
23194.750585	2454.848500	310.340820	3.622656
23194.750585	2454.848500	309.045898	111.741821
23194.750585	2454.848500	307.750977	283.131775
23194.750585	2454.848500	306.456055	302.691345
23194.750585	2454.848500	305.160156	278.571869
23194.750585	2454.848500	303.865234	380.951721
23194.750585	2454.848500	302.568359	371.910217
23194.750585	2454.848500	301.272461	546.865601
23194.750585	2454.848500	299.975586	806.248657
23194.750585	2454.848500	298.678711	883.116028
