#X		#Y		#Wave		#Intensity
30890.893245	1190.682833	1999.980469	-112.924194
30890.893245	1190.682833	1999.016602	107.537079
30890.893245	1190.682833	1998.052734	6.679317
30890.893245	1190.682833	1997.087891	-151.013016
30890.893245	1190.682833	1996.123047	40.828449
30890.893245	1190.682833	1995.158203	160.882004
30890.893245	1190.682833	1994.193359	-11.246296
30890.893245	1190.682833	1993.228516	138.724411
30890.893245	1190.682833	1992.262695	110.493187
30890.893245	1190.682833	1991.297852	25.453970
30890.893245	1190.682833	1990.332031	131.122589
30890.893245	1190.682833	1989.366211	244.285660
30890.893245	1190.682833	1988.399414	16.099840
30890.893245	1190.682833	1987.433594	149.240463
30890.893245	1190.682833	1986.466797	47.490940
30890.893245	1190.682833	1985.500977	76.928589
30890.893245	1190.682833	1984.534180	239.949570
30890.893245	1190.682833	1983.567383	59.440590
30890.893245	1190.682833	1982.599609	-71.483948
30890.893245	1190.682833	1981.632813	-54.018917
30890.893245	1190.682833	1980.665039	-43.882519
30890.893245	1190.682833	1979.697266	13.265738
30890.893245	1190.682833	1978.729492	129.745163
30890.893245	1190.682833	1977.761719	6.778381
30890.893245	1190.682833	1976.792969	9.832026
30890.893245	1190.682833	1975.825195	-46.267254
30890.893245	1190.682833	1974.856445	159.295731
30890.893245	1190.682833	1973.887695	41.667702
30890.893245	1190.682833	1972.918945	-73.373894
30890.893245	1190.682833	1971.949219	8.995461
30890.893245	1190.682833	1970.980469	165.379074
30890.893245	1190.682833	1970.010742	-3.643313
30890.893245	1190.682833	1969.041016	-64.082504
30890.893245	1190.682833	1968.071289	77.645676
30890.893245	1190.682833	1967.101563	202.139084
30890.893245	1190.682833	1966.130859	-10.843643
30890.893245	1190.682833	1965.161133	-73.444038
30890.893245	1190.682833	1964.190430	-2.982834
30890.893245	1190.682833	1963.219727	230.006424
30890.893245	1190.682833	1962.249023	86.338493
30890.893245	1190.682833	1961.277344	240.580002
30890.893245	1190.682833	1960.306641	77.385780
30890.893245	1190.682833	1959.334961	54.539288
30890.893245	1190.682833	1958.363281	184.258728
30890.893245	1190.682833	1957.391602	-67.219208
30890.893245	1190.682833	1956.419922	114.206482
30890.893245	1190.682833	1955.447266	20.268841
30890.893245	1190.682833	1954.474609	66.514069
30890.893245	1190.682833	1953.501953	71.007057
30890.893245	1190.682833	1952.529297	-25.199968
30890.893245	1190.682833	1951.556641	80.110260
30890.893245	1190.682833	1950.583984	-25.808834
30890.893245	1190.682833	1949.610352	-60.435783
30890.893245	1190.682833	1948.636719	-124.476494
30890.893245	1190.682833	1947.663086	37.379135
30890.893245	1190.682833	1946.689453	20.042797
30890.893245	1190.682833	1945.715820	-112.586502
30890.893245	1190.682833	1944.741211	-156.813232
30890.893245	1190.682833	1943.767578	-21.931938
30890.893245	1190.682833	1942.792969	105.570969
30890.893245	1190.682833	1941.818359	27.082232
30890.893245	1190.682833	1940.842773	39.358078
30890.893245	1190.682833	1939.868164	59.003235
30890.893245	1190.682833	1938.892578	-24.261427
30890.893245	1190.682833	1937.916992	10.135347
30890.893245	1190.682833	1936.941406	252.766525
30890.893245	1190.682833	1935.965820	42.208015
30890.893245	1190.682833	1934.990234	-45.812897
30890.893245	1190.682833	1934.013672	54.741512
30890.893245	1190.682833	1933.037109	155.273529
30890.893245	1190.682833	1932.060547	130.961639
30890.893245	1190.682833	1931.083984	23.472656
30890.893245	1190.682833	1930.107422	-157.360611
30890.893245	1190.682833	1929.129883	16.568062
30890.893245	1190.682833	1928.153320	77.940292
30890.893245	1190.682833	1927.175781	-114.999077
30890.893245	1190.682833	1926.198242	34.402245
30890.893245	1190.682833	1925.219727	85.984909
30890.893245	1190.682833	1924.242188	-43.292114
30890.893245	1190.682833	1923.263672	-25.912401
30890.893245	1190.682833	1922.285156	6.120102
30890.893245	1190.682833	1921.306641	13.717438
30890.893245	1190.682833	1920.328125	-34.852879
30890.893245	1190.682833	1919.349609	-88.288147
30890.893245	1190.682833	1918.370117	-170.995682
30890.893245	1190.682833	1917.391602	-121.883614
30890.893245	1190.682833	1916.412109	-14.227440
30890.893245	1190.682833	1915.431641	-1.763486
30890.893245	1190.682833	1914.452148	164.362839
30890.893245	1190.682833	1913.472656	20.692541
30890.893245	1190.682833	1912.492188	-218.024414
30890.893245	1190.682833	1911.511719	230.824371
30890.893245	1190.682833	1910.531250	-24.923157
30890.893245	1190.682833	1909.550781	-73.441719
30890.893245	1190.682833	1908.569336	-56.163963
30890.893245	1190.682833	1907.588867	-41.343498
30890.893245	1190.682833	1906.607422	107.419937
30890.893245	1190.682833	1905.625977	75.911728
30890.893245	1190.682833	1904.644531	-11.597505
30890.893245	1190.682833	1903.662109	73.744743
30890.893245	1190.682833	1902.680664	-8.895022
30890.893245	1190.682833	1901.698242	-1.484799
30890.893245	1190.682833	1900.715820	49.695488
30890.893245	1190.682833	1899.733398	-142.404755
30890.893245	1190.682833	1898.750000	-66.933098
30890.893245	1190.682833	1897.767578	79.002815
30890.893245	1190.682833	1896.784180	-57.139389
30890.893245	1190.682833	1895.800781	64.392746
30890.893245	1190.682833	1894.817383	193.146317
30890.893245	1190.682833	1893.833984	98.296371
30890.893245	1190.682833	1892.850586	3.458399
30890.893245	1190.682833	1891.866211	15.498428
30890.893245	1190.682833	1890.881836	61.505981
30890.893245	1190.682833	1889.897461	187.590714
30890.893245	1190.682833	1888.913086	-6.820335
30890.893245	1190.682833	1887.927734	155.580215
30890.893245	1190.682833	1886.943359	213.550568
30890.893245	1190.682833	1885.958008	-22.082933
30890.893245	1190.682833	1884.972656	-150.930740
30890.893245	1190.682833	1883.987305	45.210602
30890.893245	1190.682833	1883.001953	107.889297
30890.893245	1190.682833	1882.015625	12.937002
30890.893245	1190.682833	1881.029297	-55.350330
30890.893245	1190.682833	1880.042969	36.296223
30890.893245	1190.682833	1879.056641	217.521576
30890.893245	1190.682833	1878.070313	127.331985
30890.893245	1190.682833	1877.083984	5.655587
30890.893245	1190.682833	1876.096680	-43.363609
30890.893245	1190.682833	1875.109375	236.865524
30890.893245	1190.682833	1874.122070	42.512348
30890.893245	1190.682833	1873.134766	3.085123
30890.893245	1190.682833	1872.146484	12.029509
30890.893245	1190.682833	1871.159180	161.249435
30890.893245	1190.682833	1870.170898	-6.488265
30890.893245	1190.682833	1869.182617	82.143150
30890.893245	1190.682833	1868.194336	-211.327515
30890.893245	1190.682833	1867.205078	242.264984
30890.893245	1190.682833	1866.216797	301.674591
30890.893245	1190.682833	1865.227539	126.617043
30890.893245	1190.682833	1864.238281	144.870468
30890.893245	1190.682833	1863.249023	76.112167
30890.893245	1190.682833	1862.259766	89.453003
30890.893245	1190.682833	1861.269531	-54.211498
30890.893245	1190.682833	1860.279297	-38.523895
30890.893245	1190.682833	1859.290039	47.114647
30890.893245	1190.682833	1858.298828	101.303413
30890.893245	1190.682833	1857.308594	162.664963
30890.893245	1190.682833	1856.318359	88.859421
30890.893245	1190.682833	1855.327148	179.053558
30890.893245	1190.682833	1854.335938	64.185211
30890.893245	1190.682833	1853.344727	101.212021
30890.893245	1190.682833	1852.353516	22.467611
30890.893245	1190.682833	1851.362305	54.573692
30890.893245	1190.682833	1850.370117	204.697845
30890.893245	1190.682833	1849.377930	161.973465
30890.893245	1190.682833	1848.385742	121.625816
30890.893245	1190.682833	1847.393555	-3.049518
30890.893245	1190.682833	1846.401367	105.842651
30890.893245	1190.682833	1845.408203	-26.104527
30890.893245	1190.682833	1844.415039	17.661585
30890.893245	1190.682833	1843.421875	-15.650321
30890.893245	1190.682833	1842.428711	206.049316
30890.893245	1190.682833	1841.435547	45.112759
30890.893245	1190.682833	1840.441406	151.164200
30890.893245	1190.682833	1839.448242	197.006180
30890.893245	1190.682833	1838.454102	-12.079497
30890.893245	1190.682833	1837.459961	139.440674
30890.893245	1190.682833	1836.464844	139.435837
30890.893245	1190.682833	1835.470703	300.376923
30890.893245	1190.682833	1834.475586	213.746536
30890.893245	1190.682833	1833.480469	148.714172
30890.893245	1190.682833	1832.485352	88.455383
30890.893245	1190.682833	1831.490234	169.833267
30890.893245	1190.682833	1830.495117	203.112274
30890.893245	1190.682833	1829.499023	104.311615
30890.893245	1190.682833	1828.502930	329.464355
30890.893245	1190.682833	1827.506836	132.194336
30890.893245	1190.682833	1826.510742	90.872505
30890.893245	1190.682833	1825.513672	332.523743
30890.893245	1190.682833	1824.517578	65.658295
30890.893245	1190.682833	1823.520508	199.224503
30890.893245	1190.682833	1822.523438	234.404236
30890.893245	1190.682833	1821.526367	-30.062428
30890.893245	1190.682833	1820.529297	203.918167
30890.893245	1190.682833	1819.531250	171.828629
30890.893245	1190.682833	1818.533203	98.975067
30890.893245	1190.682833	1817.535156	66.804665
30890.893245	1190.682833	1816.537109	44.166935
30890.893245	1190.682833	1815.539063	40.633076
30890.893245	1190.682833	1814.540039	-135.287170
30890.893245	1190.682833	1813.541992	69.291718
30890.893245	1190.682833	1812.542969	173.247635
30890.893245	1190.682833	1811.543945	248.401794
30890.893245	1190.682833	1810.543945	101.045937
30890.893245	1190.682833	1809.544922	-77.395844
30890.893245	1190.682833	1808.544922	231.882645
30890.893245	1190.682833	1807.544922	168.101288
30890.893245	1190.682833	1806.544922	94.727821
30890.893245	1190.682833	1805.544922	-0.181129
30890.893245	1190.682833	1804.544922	17.169357
30890.893245	1190.682833	1803.543945	134.769928
30890.893245	1190.682833	1802.542969	3.912053
30890.893245	1190.682833	1801.541992	-55.326138
30890.893245	1190.682833	1800.541016	9.530963
30890.893245	1190.682833	1799.539063	28.957212
30890.893245	1190.682833	1798.538086	7.753938
30890.893245	1190.682833	1797.536133	-85.073586
30890.893245	1190.682833	1796.534180	141.708847
30890.893245	1190.682833	1795.532227	13.001684
30890.893245	1190.682833	1794.529297	75.036354
30890.893245	1190.682833	1793.527344	86.930199
30890.893245	1190.682833	1792.524414	217.934052
30890.893245	1190.682833	1791.521484	-113.483170
30890.893245	1190.682833	1790.518555	50.749897
30890.893245	1190.682833	1789.514648	-101.966621
30890.893245	1190.682833	1788.511719	195.463715
30890.893245	1190.682833	1787.507813	176.013885
30890.893245	1190.682833	1786.503906	-64.902557
30890.893245	1190.682833	1785.500000	44.128544
30890.893245	1190.682833	1784.496094	26.925682
30890.893245	1190.682833	1783.491211	69.155304
30890.893245	1190.682833	1782.486328	-86.145775
30890.893245	1190.682833	1781.481445	-3.588742
30890.893245	1190.682833	1780.476563	133.575577
30890.893245	1190.682833	1779.471680	-107.415382
30890.893245	1190.682833	1778.465820	50.995235
30890.893245	1190.682833	1777.460938	-71.164238
30890.893245	1190.682833	1776.455078	127.462852
30890.893245	1190.682833	1775.449219	26.601236
30890.893245	1190.682833	1774.442383	-95.660202
30890.893245	1190.682833	1773.436523	26.692675
30890.893245	1190.682833	1772.429688	-14.901855
30890.893245	1190.682833	1771.422852	-206.100662
30890.893245	1190.682833	1770.416016	41.832802
30890.893245	1190.682833	1769.409180	-63.982132
30890.893245	1190.682833	1768.402344	15.258467
30890.893245	1190.682833	1767.394531	-116.720123
30890.893245	1190.682833	1766.386719	-146.717072
30890.893245	1190.682833	1765.378906	-89.016304
30890.893245	1190.682833	1764.371094	-100.148857
30890.893245	1190.682833	1763.362305	90.151398
30890.893245	1190.682833	1762.354492	-23.027956
30890.893245	1190.682833	1761.345703	60.449524
30890.893245	1190.682833	1760.336914	-67.007957
30890.893245	1190.682833	1759.328125	-90.250710
30890.893245	1190.682833	1758.318359	-125.382965
30890.893245	1190.682833	1757.308594	80.953850
30890.893245	1190.682833	1756.299805	40.967140
30890.893245	1190.682833	1755.290039	206.853333
30890.893245	1190.682833	1754.279297	-20.200886
30890.893245	1190.682833	1753.269531	-76.868736
30890.893245	1190.682833	1752.258789	-15.297800
30890.893245	1190.682833	1751.249023	-46.032173
30890.893245	1190.682833	1750.238281	-1.144429
30890.893245	1190.682833	1749.226563	53.126350
30890.893245	1190.682833	1748.215820	-100.672813
30890.893245	1190.682833	1747.204102	43.297356
30890.893245	1190.682833	1746.193359	78.481529
30890.893245	1190.682833	1745.181641	130.132874
30890.893245	1190.682833	1744.168945	-61.563843
30890.893245	1190.682833	1743.157227	46.670334
30890.893245	1190.682833	1742.144531	29.677176
30890.893245	1190.682833	1741.132813	52.776833
30890.893245	1190.682833	1740.120117	59.292358
30890.893245	1190.682833	1739.106445	-106.499649
30890.893245	1190.682833	1738.093750	-203.853958
30890.893245	1190.682833	1737.080078	-112.526848
30890.893245	1190.682833	1736.067383	-84.948715
30890.893245	1190.682833	1735.053711	18.016582
30890.893245	1190.682833	1734.040039	135.041275
30890.893245	1190.682833	1733.025391	-89.783562
30890.893245	1190.682833	1732.011719	-64.776619
30890.893245	1190.682833	1730.997070	14.358064
30890.893245	1190.682833	1729.982422	211.196228
30890.893245	1190.682833	1728.967773	80.553734
30890.893245	1190.682833	1727.952148	-26.542027
30890.893245	1190.682833	1726.937500	-32.403454
30890.893245	1190.682833	1725.921875	140.575592
30890.893245	1190.682833	1724.906250	5.159541
30890.893245	1190.682833	1723.890625	194.450409
30890.893245	1190.682833	1722.875000	-100.972298
30890.893245	1190.682833	1721.858398	19.968468
30890.893245	1190.682833	1720.841797	159.634949
30890.893245	1190.682833	1719.825195	64.099884
30890.893245	1190.682833	1718.808594	231.830490
30890.893245	1190.682833	1717.791992	4.628030
30890.893245	1190.682833	1716.774414	313.203125
30890.893245	1190.682833	1715.756836	62.495426
30890.893245	1190.682833	1714.739258	65.517090
30890.893245	1190.682833	1713.721680	129.556686
30890.893245	1190.682833	1712.704102	38.572689
30890.893245	1190.682833	1711.685547	121.291229
30890.893245	1190.682833	1710.667969	86.597397
30890.893245	1190.682833	1709.649414	169.202698
30890.893245	1190.682833	1708.630859	19.474752
30890.893245	1190.682833	1707.611328	45.686451
30890.893245	1190.682833	1706.592773	-47.745602
30890.893245	1190.682833	1705.573242	88.604721
30890.893245	1190.682833	1704.553711	-70.516899
30890.893245	1190.682833	1703.534180	-46.787697
30890.893245	1190.682833	1702.513672	-4.360687
30890.893245	1190.682833	1701.494141	52.082413
30890.893245	1190.682833	1700.473633	141.259445
30890.893245	1190.682833	1699.453125	-41.308342
30890.893245	1190.682833	1698.432617	96.964516
30890.893245	1190.682833	1697.412109	-5.986876
30890.893245	1190.682833	1696.390625	40.869869
30890.893245	1190.682833	1695.369141	68.957466
30890.893245	1190.682833	1694.347656	-5.947172
30890.893245	1190.682833	1693.326172	136.711166
30890.893245	1190.682833	1692.304688	127.255302
30890.893245	1190.682833	1691.282227	138.815170
30890.893245	1190.682833	1690.260742	260.238922
30890.893245	1190.682833	1689.238281	-34.507065
30890.893245	1190.682833	1688.214844	294.839417
30890.893245	1190.682833	1687.192383	194.093445
30890.893245	1190.682833	1686.168945	58.311131
30890.893245	1190.682833	1685.146484	279.937531
30890.893245	1190.682833	1684.123047	97.435890
30890.893245	1190.682833	1683.099609	73.752663
30890.893245	1190.682833	1682.075195	248.475647
30890.893245	1190.682833	1681.051758	24.006132
30890.893245	1190.682833	1680.027344	224.296463
30890.893245	1190.682833	1679.002930	114.188721
30890.893245	1190.682833	1677.978516	333.004730
30890.893245	1190.682833	1676.953125	166.897690
30890.893245	1190.682833	1675.928711	261.998535
30890.893245	1190.682833	1674.903320	135.564148
30890.893245	1190.682833	1673.877930	354.123230
30890.893245	1190.682833	1672.852539	260.309143
30890.893245	1190.682833	1671.826172	199.126572
30890.893245	1190.682833	1670.800781	247.443909
30890.893245	1190.682833	1669.774414	211.873428
30890.893245	1190.682833	1668.748047	164.659653
30890.893245	1190.682833	1667.721680	224.543442
30890.893245	1190.682833	1666.694336	347.229614
30890.893245	1190.682833	1665.667969	178.957748
30890.893245	1190.682833	1664.640625	385.343933
30890.893245	1190.682833	1663.613281	326.434570
30890.893245	1190.682833	1662.585938	423.371796
30890.893245	1190.682833	1661.557617	341.193481
30890.893245	1190.682833	1660.530273	475.268188
30890.893245	1190.682833	1659.501953	493.045898
30890.893245	1190.682833	1658.473633	283.046692
30890.893245	1190.682833	1657.444336	516.928406
30890.893245	1190.682833	1656.416016	406.886963
30890.893245	1190.682833	1655.386719	436.237427
30890.893245	1190.682833	1654.358398	507.377808
30890.893245	1190.682833	1653.328125	276.629181
30890.893245	1190.682833	1652.298828	628.643372
30890.893245	1190.682833	1651.269531	541.856628
30890.893245	1190.682833	1650.239258	605.923889
30890.893245	1190.682833	1649.208984	748.844727
30890.893245	1190.682833	1648.178711	604.074829
30890.893245	1190.682833	1647.148438	758.530884
30890.893245	1190.682833	1646.117188	662.495789
30890.893245	1190.682833	1645.086914	842.378235
30890.893245	1190.682833	1644.055664	1138.072510
30890.893245	1190.682833	1643.024414	740.760803
30890.893245	1190.682833	1641.992188	837.099182
30890.893245	1190.682833	1640.960938	951.939575
30890.893245	1190.682833	1639.928711	971.773010
30890.893245	1190.682833	1638.896484	1162.953613
30890.893245	1190.682833	1637.864258	1034.576782
30890.893245	1190.682833	1636.832031	1149.293335
30890.893245	1190.682833	1635.798828	1331.074829
30890.893245	1190.682833	1634.766602	1119.456909
30890.893245	1190.682833	1633.733398	1060.598633
30890.893245	1190.682833	1632.699219	1376.445801
30890.893245	1190.682833	1631.666016	1456.318115
30890.893245	1190.682833	1630.632813	1691.070068
30890.893245	1190.682833	1629.598633	1320.110474
30890.893245	1190.682833	1628.564453	1247.433105
30890.893245	1190.682833	1627.530273	1371.196655
30890.893245	1190.682833	1626.495117	1418.678345
30890.893245	1190.682833	1625.460938	1449.991821
30890.893245	1190.682833	1624.425781	1414.327393
30890.893245	1190.682833	1623.390625	1357.909180
30890.893245	1190.682833	1622.355469	1350.001587
30890.893245	1190.682833	1621.319336	1425.187378
30890.893245	1190.682833	1620.284180	1604.203125
30890.893245	1190.682833	1619.248047	1566.294067
30890.893245	1190.682833	1618.211914	1509.962524
30890.893245	1190.682833	1617.174805	1612.784668
30890.893245	1190.682833	1616.138672	1577.248657
30890.893245	1190.682833	1615.101563	1530.209473
30890.893245	1190.682833	1614.065430	1718.302612
30890.893245	1190.682833	1613.027344	1673.587524
30890.893245	1190.682833	1611.990234	1695.728760
30890.893245	1190.682833	1610.953125	1738.612061
30890.893245	1190.682833	1609.915039	1666.340942
30890.893245	1190.682833	1608.876953	1764.507568
30890.893245	1190.682833	1607.838867	1729.135864
30890.893245	1190.682833	1606.800781	1956.187500
30890.893245	1190.682833	1605.761719	1762.046265
30890.893245	1190.682833	1604.723633	2002.853394
30890.893245	1190.682833	1603.684570	1907.738647
30890.893245	1190.682833	1602.644531	2090.960449
30890.893245	1190.682833	1601.605469	1977.519897
30890.893245	1190.682833	1600.566406	2059.561279
30890.893245	1190.682833	1599.526367	2079.529785
30890.893245	1190.682833	1598.486328	2053.555420
30890.893245	1190.682833	1597.446289	2128.713867
30890.893245	1190.682833	1596.405273	2072.926758
30890.893245	1190.682833	1595.365234	2143.515869
30890.893245	1190.682833	1594.324219	2083.212402
30890.893245	1190.682833	1593.283203	1960.975952
30890.893245	1190.682833	1592.242188	1636.824707
30890.893245	1190.682833	1591.200195	1920.978882
30890.893245	1190.682833	1590.159180	1661.271118
30890.893245	1190.682833	1589.117188	1883.435547
30890.893245	1190.682833	1588.075195	1745.454102
30890.893245	1190.682833	1587.032227	1674.055176
30890.893245	1190.682833	1585.990234	1699.017212
30890.893245	1190.682833	1584.947266	1508.527832
30890.893245	1190.682833	1583.904297	1799.423218
30890.893245	1190.682833	1582.861328	1638.847656
30890.893245	1190.682833	1581.818359	1636.443237
30890.893245	1190.682833	1580.775391	1604.301392
30890.893245	1190.682833	1579.731445	1549.303955
30890.893245	1190.682833	1578.687500	1482.917847
30890.893245	1190.682833	1577.643555	1581.412354
30890.893245	1190.682833	1576.598633	1707.364502
30890.893245	1190.682833	1575.554688	1432.880493
30890.893245	1190.682833	1574.509766	1659.554688
30890.893245	1190.682833	1573.464844	1595.694702
30890.893245	1190.682833	1572.419922	1696.554932
30890.893245	1190.682833	1571.374023	1420.156250
30890.893245	1190.682833	1570.329102	1422.801514
30890.893245	1190.682833	1569.283203	1343.204590
30890.893245	1190.682833	1568.237305	1233.977661
30890.893245	1190.682833	1567.191406	1522.360596
30890.893245	1190.682833	1566.144531	1481.751099
30890.893245	1190.682833	1565.098633	1343.009399
30890.893245	1190.682833	1564.051758	1498.903564
30890.893245	1190.682833	1563.004883	1253.008179
30890.893245	1190.682833	1561.957031	1281.135742
30890.893245	1190.682833	1560.910156	1076.550903
30890.893245	1190.682833	1559.862305	1271.346436
30890.893245	1190.682833	1558.814453	1235.731567
30890.893245	1190.682833	1557.766602	1213.864136
30890.893245	1190.682833	1556.718750	1308.341309
30890.893245	1190.682833	1555.669922	1354.953979
30890.893245	1190.682833	1554.621094	1226.099976
30890.893245	1190.682833	1553.573242	1373.085571
30890.893245	1190.682833	1552.523438	1119.069336
30890.893245	1190.682833	1551.474609	1049.719971
30890.893245	1190.682833	1550.424805	1189.969971
30890.893245	1190.682833	1549.375000	1191.322998
30890.893245	1190.682833	1548.325195	1154.028564
30890.893245	1190.682833	1547.275391	1157.773682
30890.893245	1190.682833	1546.225586	1211.637939
30890.893245	1190.682833	1545.174805	1270.081787
30890.893245	1190.682833	1544.124023	1171.601685
30890.893245	1190.682833	1543.073242	1387.070435
30890.893245	1190.682833	1542.022461	1236.422852
30890.893245	1190.682833	1540.970703	1240.479004
30890.893245	1190.682833	1539.919922	1094.581665
30890.893245	1190.682833	1538.868164	1103.326538
30890.893245	1190.682833	1537.815430	1057.594116
30890.893245	1190.682833	1536.763672	1223.203491
30890.893245	1190.682833	1535.710938	1148.061157
30890.893245	1190.682833	1534.659180	1159.300293
30890.893245	1190.682833	1533.606445	1029.836426
30890.893245	1190.682833	1532.552734	970.845154
30890.893245	1190.682833	1531.500000	1039.028564
30890.893245	1190.682833	1530.446289	991.528076
30890.893245	1190.682833	1529.393555	832.958801
30890.893245	1190.682833	1528.338867	853.682190
30890.893245	1190.682833	1527.285156	967.436157
30890.893245	1190.682833	1526.231445	802.352905
30890.893245	1190.682833	1525.176758	709.929016
30890.893245	1190.682833	1524.122070	762.647217
30890.893245	1190.682833	1523.067383	804.081177
30890.893245	1190.682833	1522.012695	854.625732
30890.893245	1190.682833	1520.957031	830.472229
30890.893245	1190.682833	1519.901367	699.967224
30890.893245	1190.682833	1518.845703	707.684448
30890.893245	1190.682833	1517.790039	676.986450
30890.893245	1190.682833	1516.734375	598.844360
30890.893245	1190.682833	1515.677734	543.424255
30890.893245	1190.682833	1514.621094	621.565735
30890.893245	1190.682833	1513.564453	493.926300
30890.893245	1190.682833	1512.507813	459.120514
30890.893245	1190.682833	1511.450195	840.393921
30890.893245	1190.682833	1510.393555	419.143250
30890.893245	1190.682833	1509.335938	434.301575
30890.893245	1190.682833	1508.278320	404.334045
30890.893245	1190.682833	1507.219727	376.706085
30890.893245	1190.682833	1506.162109	532.112671
30890.893245	1190.682833	1505.103516	637.847900
30890.893245	1190.682833	1504.044922	531.387207
30890.893245	1190.682833	1502.986328	723.002380
30890.893245	1190.682833	1501.926758	587.372131
30890.893245	1190.682833	1500.868164	449.616516
30890.893245	1190.682833	1499.808594	422.527222
30890.893245	1190.682833	1498.749023	693.246460
30890.893245	1190.682833	1497.688477	546.750000
30890.893245	1190.682833	1496.628906	513.117310
30890.893245	1190.682833	1495.568359	695.968811
30890.893245	1190.682833	1494.507813	241.028366
30890.893245	1190.682833	1493.447266	421.760071
30890.893245	1190.682833	1492.386719	323.148499
30890.893245	1190.682833	1491.325195	339.521454
30890.893245	1190.682833	1490.263672	387.490204
30890.893245	1190.682833	1489.202148	307.184845
30890.893245	1190.682833	1488.140625	416.072388
30890.893245	1190.682833	1487.079102	277.433258
30890.893245	1190.682833	1486.016602	550.696167
30890.893245	1190.682833	1484.954102	331.251343
30890.893245	1190.682833	1483.891602	406.619446
30890.893245	1190.682833	1482.829102	486.532043
30890.893245	1190.682833	1481.765625	173.038300
30890.893245	1190.682833	1480.702148	340.777069
30890.893245	1190.682833	1479.638672	198.402786
30890.893245	1190.682833	1478.575195	354.987915
30890.893245	1190.682833	1477.511719	390.279633
30890.893245	1190.682833	1476.447266	284.171143
30890.893245	1190.682833	1475.382813	378.023590
30890.893245	1190.682833	1474.318359	240.663254
30890.893245	1190.682833	1473.253906	615.071716
30890.893245	1190.682833	1472.189453	462.192474
30890.893245	1190.682833	1471.124023	603.345764
30890.893245	1190.682833	1470.058594	670.434387
30890.893245	1190.682833	1468.993164	594.044373
30890.893245	1190.682833	1467.927734	551.386719
30890.893245	1190.682833	1466.861328	609.797607
30890.893245	1190.682833	1465.794922	685.818115
30890.893245	1190.682833	1464.728516	451.222809
30890.893245	1190.682833	1463.662109	536.474609
30890.893245	1190.682833	1462.594727	619.604309
30890.893245	1190.682833	1461.528320	667.349365
30890.893245	1190.682833	1460.460938	591.588867
30890.893245	1190.682833	1459.393555	386.506836
30890.893245	1190.682833	1458.326172	485.856384
30890.893245	1190.682833	1457.257813	486.837494
30890.893245	1190.682833	1456.189453	478.346069
30890.893245	1190.682833	1455.121094	493.572510
30890.893245	1190.682833	1454.052734	614.624268
30890.893245	1190.682833	1452.984375	508.685028
30890.893245	1190.682833	1451.915039	369.967834
30890.893245	1190.682833	1450.845703	427.581024
30890.893245	1190.682833	1449.776367	580.749207
30890.893245	1190.682833	1448.707031	397.936279
30890.893245	1190.682833	1447.636719	275.574341
30890.893245	1190.682833	1446.567383	459.825500
30890.893245	1190.682833	1445.497070	406.178192
30890.893245	1190.682833	1444.425781	401.931396
30890.893245	1190.682833	1443.355469	197.900070
30890.893245	1190.682833	1442.285156	500.091675
30890.893245	1190.682833	1441.213867	318.519836
30890.893245	1190.682833	1440.142578	509.628021
30890.893245	1190.682833	1439.070313	589.995422
30890.893245	1190.682833	1437.999023	368.970337
30890.893245	1190.682833	1436.926758	227.886154
30890.893245	1190.682833	1435.854492	200.397842
30890.893245	1190.682833	1434.782227	373.186005
30890.893245	1190.682833	1433.709961	290.008392
30890.893245	1190.682833	1432.636719	107.515862
30890.893245	1190.682833	1431.563477	5.828005
30890.893245	1190.682833	1430.490234	53.945675
30890.893245	1190.682833	1429.416992	208.903915
30890.893245	1190.682833	1428.343750	203.035599
30890.893245	1190.682833	1427.269531	-3.076337
30890.893245	1190.682833	1426.195313	-226.439728
30890.893245	1190.682833	1425.121094	132.081024
30890.893245	1190.682833	1424.046875	35.523884
30890.893245	1190.682833	1422.971680	-246.845352
30890.893245	1190.682833	1421.896484	-213.868835
30890.893245	1190.682833	1420.821289	-117.443176
30890.893245	1190.682833	1419.746094	-5.052929
30890.893245	1190.682833	1418.669922	100.276970
30890.893245	1190.682833	1417.594727	127.536377
30890.893245	1190.682833	1416.518555	60.381706
30890.893245	1190.682833	1415.442383	97.969383
30890.893245	1190.682833	1414.365234	10.627269
30890.893245	1190.682833	1413.289063	40.224503
30890.893245	1190.682833	1412.211914	92.229584
30890.893245	1190.682833	1411.134766	-140.477753
30890.893245	1190.682833	1410.057617	112.357155
30890.893245	1190.682833	1408.979492	113.497101
30890.893245	1190.682833	1407.902344	232.985245
30890.893245	1190.682833	1406.824219	329.375763
30890.893245	1190.682833	1405.746094	373.237457
30890.893245	1190.682833	1404.666992	404.210297
30890.893245	1190.682833	1403.588867	430.738251
30890.893245	1190.682833	1402.509766	479.570374
30890.893245	1190.682833	1401.430664	596.219482
30890.893245	1190.682833	1400.351563	517.512451
30890.893245	1190.682833	1399.271484	558.193176
30890.893245	1190.682833	1398.192383	474.120789
30890.893245	1190.682833	1397.112305	407.475769
30890.893245	1190.682833	1396.031250	603.402527
30890.893245	1190.682833	1394.951172	336.114349
30890.893245	1190.682833	1393.871094	432.770264
30890.893245	1190.682833	1392.790039	607.140869
30890.893245	1190.682833	1391.708984	559.840759
30890.893245	1190.682833	1390.626953	473.489410
30890.893245	1190.682833	1389.545898	436.377411
30890.893245	1190.682833	1388.463867	423.692169
30890.893245	1190.682833	1387.381836	508.920074
30890.893245	1190.682833	1386.299805	522.928955
30890.893245	1190.682833	1385.217773	601.408997
30890.893245	1190.682833	1384.134766	666.646790
30890.893245	1190.682833	1383.051758	387.787750
30890.893245	1190.682833	1381.968750	548.004395
30890.893245	1190.682833	1380.885742	563.248474
30890.893245	1190.682833	1379.802734	316.016693
30890.893245	1190.682833	1378.718750	471.601990
30890.893245	1190.682833	1377.634766	262.741089
30890.893245	1190.682833	1376.550781	540.670959
30890.893245	1190.682833	1375.465820	424.729584
30890.893245	1190.682833	1374.381836	476.836548
30890.893245	1190.682833	1373.296875	373.961273
30890.893245	1190.682833	1372.211914	529.717102
30890.893245	1190.682833	1371.126953	313.779480
30890.893245	1190.682833	1370.041016	481.392883
30890.893245	1190.682833	1368.955078	360.696899
30890.893245	1190.682833	1367.869141	338.144196
30890.893245	1190.682833	1366.783203	376.671875
30890.893245	1190.682833	1365.697266	333.221924
30890.893245	1190.682833	1364.610352	470.062561
30890.893245	1190.682833	1363.523438	397.547882
30890.893245	1190.682833	1362.436523	621.738953
30890.893245	1190.682833	1361.349609	399.005432
30890.893245	1190.682833	1360.261719	411.953705
30890.893245	1190.682833	1359.174805	414.691071
30890.893245	1190.682833	1358.086914	524.971741
30890.893245	1190.682833	1356.998047	531.095276
30890.893245	1190.682833	1355.910156	545.837524
30890.893245	1190.682833	1354.821289	503.908112
30890.893245	1190.682833	1353.732422	498.130280
30890.893245	1190.682833	1352.643555	557.649048
30890.893245	1190.682833	1351.554688	536.305786
30890.893245	1190.682833	1350.464844	417.302002
30890.893245	1190.682833	1349.375000	413.650146
30890.893245	1190.682833	1348.285156	840.341919
30890.893245	1190.682833	1347.195313	537.899292
30890.893245	1190.682833	1346.105469	618.930115
30890.893245	1190.682833	1345.014648	548.445923
30890.893245	1190.682833	1343.923828	606.094421
30890.893245	1190.682833	1342.833008	526.197449
30890.893245	1190.682833	1341.741211	817.342773
30890.893245	1190.682833	1340.650391	687.422668
30890.893245	1190.682833	1339.558594	649.446289
30890.893245	1190.682833	1338.466797	736.000610
30890.893245	1190.682833	1337.374023	807.700806
30890.893245	1190.682833	1336.282227	734.034729
30890.893245	1190.682833	1335.189453	811.428650
30890.893245	1190.682833	1334.096680	802.690063
30890.893245	1190.682833	1333.003906	700.144714
30890.893245	1190.682833	1331.910156	803.662903
30890.893245	1190.682833	1330.817383	738.221069
30890.893245	1190.682833	1329.723633	622.166077
30890.893245	1190.682833	1328.629883	543.353882
30890.893245	1190.682833	1327.535156	516.722473
30890.893245	1190.682833	1326.441406	592.812378
30890.893245	1190.682833	1325.346680	729.000000
30890.893245	1190.682833	1324.251953	771.693970
30890.893245	1190.682833	1323.156250	542.408630
30890.893245	1190.682833	1322.061523	538.981812
30890.893245	1190.682833	1320.965820	355.118561
30890.893245	1190.682833	1319.870117	508.430359
30890.893245	1190.682833	1318.774414	413.722351
30890.893245	1190.682833	1317.678711	355.158936
30890.893245	1190.682833	1316.582031	280.923615
30890.893245	1190.682833	1315.485352	327.051575
30890.893245	1190.682833	1314.388672	280.126221
30890.893245	1190.682833	1313.291016	187.725632
30890.893245	1190.682833	1312.194336	204.110855
30890.893245	1190.682833	1311.096680	280.981689
30890.893245	1190.682833	1309.999023	330.529327
30890.893245	1190.682833	1308.901367	183.108673
30890.893245	1190.682833	1307.802734	202.401505
30890.893245	1190.682833	1306.705078	148.962433
30890.893245	1190.682833	1305.606445	12.848020
30890.893245	1190.682833	1304.506836	60.932793
30890.893245	1190.682833	1303.408203	33.438099
30890.893245	1190.682833	1302.308594	49.053555
30890.893245	1190.682833	1301.208984	229.549179
30890.893245	1190.682833	1300.109375	112.679260
30890.893245	1190.682833	1299.009766	101.390442
30890.893245	1190.682833	1297.909180	183.532776
30890.893245	1190.682833	1296.808594	105.316566
30890.893245	1190.682833	1295.708008	217.442383
30890.893245	1190.682833	1294.607422	289.232849
30890.893245	1190.682833	1293.506836	130.247894
30890.893245	1190.682833	1292.405273	109.758621
30890.893245	1190.682833	1291.303711	56.766174
30890.893245	1190.682833	1290.202148	92.204514
30890.893245	1190.682833	1289.099609	75.885834
30890.893245	1190.682833	1287.998047	174.358704
30890.893245	1190.682833	1286.895508	126.705208
30890.893245	1190.682833	1285.792969	39.667545
30890.893245	1190.682833	1284.689453	63.979904
30890.893245	1190.682833	1283.586914	56.763882
30890.893245	1190.682833	1282.483398	-40.563293
30890.893245	1190.682833	1281.379883	-18.912823
30890.893245	1190.682833	1280.276367	80.916809
30890.893245	1190.682833	1279.171875	137.750717
30890.893245	1190.682833	1278.067383	73.224480
30890.893245	1190.682833	1276.962891	80.585518
30890.893245	1190.682833	1275.858398	-20.276165
30890.893245	1190.682833	1274.753906	-17.521366
30890.893245	1190.682833	1273.648438	68.287430
30890.893245	1190.682833	1272.542969	31.308172
30890.893245	1190.682833	1271.437500	58.257992
30890.893245	1190.682833	1270.331055	146.497314
30890.893245	1190.682833	1269.225586	57.350296
30890.893245	1190.682833	1268.119141	40.060883
30890.893245	1190.682833	1267.012695	-37.506042
30890.893245	1190.682833	1265.906250	41.498489
30890.893245	1190.682833	1264.798828	-49.815983
30890.893245	1190.682833	1263.691406	-157.058273
30890.893245	1190.682833	1262.583984	-158.481949
30890.893245	1190.682833	1261.476563	-144.750732
30890.893245	1190.682833	1260.368164	-55.152473
30890.893245	1190.682833	1259.260742	-51.059616
30890.893245	1190.682833	1258.152344	-101.169327
30890.893245	1190.682833	1257.043945	-97.237961
30890.893245	1190.682833	1255.934570	-100.709587
30890.893245	1190.682833	1254.825195	-21.230246
30890.893245	1190.682833	1253.716797	34.096962
30890.893245	1190.682833	1252.606445	-75.125259
30890.893245	1190.682833	1251.497070	-75.553604
30890.893245	1190.682833	1250.387695	-123.466110
30890.893245	1190.682833	1249.277344	-87.559700
30890.893245	1190.682833	1248.166992	13.456045
30890.893245	1190.682833	1247.055664	-150.002502
30890.893245	1190.682833	1245.945313	-142.025803
30890.893245	1190.682833	1244.833984	-41.226772
30890.893245	1190.682833	1243.722656	-113.273026
30890.893245	1190.682833	1242.611328	29.477406
30890.893245	1190.682833	1241.499023	82.080551
30890.893245	1190.682833	1240.387695	4.439096
30890.893245	1190.682833	1239.275391	137.286835
30890.893245	1190.682833	1238.162109	47.882923
30890.893245	1190.682833	1237.049805	143.441559
30890.893245	1190.682833	1235.936523	36.788338
30890.893245	1190.682833	1234.823242	111.300575
30890.893245	1190.682833	1233.709961	100.059677
30890.893245	1190.682833	1232.596680	38.573849
30890.893245	1190.682833	1231.482422	-18.566679
30890.893245	1190.682833	1230.369141	9.860099
30890.893245	1190.682833	1229.253906	57.436672
30890.893245	1190.682833	1228.139648	37.725838
30890.893245	1190.682833	1227.025391	76.960426
30890.893245	1190.682833	1225.910156	125.800018
30890.893245	1190.682833	1224.794922	-39.558731
30890.893245	1190.682833	1223.679688	84.336716
30890.893245	1190.682833	1222.563477	-74.776924
30890.893245	1190.682833	1221.447266	-55.704933
30890.893245	1190.682833	1220.331055	-30.235983
30890.893245	1190.682833	1219.214844	-18.230999
30890.893245	1190.682833	1218.098633	-67.921028
30890.893245	1190.682833	1216.981445	-28.953157
30890.893245	1190.682833	1215.864258	-77.872864
30890.893245	1190.682833	1214.747070	41.085873
30890.893245	1190.682833	1213.629883	-52.764023
30890.893245	1190.682833	1212.511719	35.560219
30890.893245	1190.682833	1211.393555	-141.333527
30890.893245	1190.682833	1210.275391	65.069809
30890.893245	1190.682833	1209.157227	36.714008
30890.893245	1190.682833	1208.038086	27.809353
30890.893245	1190.682833	1206.918945	69.947166
30890.893245	1190.682833	1205.799805	70.483353
30890.893245	1190.682833	1204.680664	-12.657827
30890.893245	1190.682833	1203.560547	10.705547
30890.893245	1190.682833	1202.441406	-70.750984
30890.893245	1190.682833	1201.321289	-63.837849
30890.893245	1190.682833	1200.200195	-114.154251
30890.893245	1190.682833	1199.080078	-27.914211
30890.893245	1190.682833	1197.958984	-0.804204
30890.893245	1190.682833	1196.837891	32.580719
30890.893245	1190.682833	1195.716797	32.406052
30890.893245	1190.682833	1194.594727	-7.792862
30890.893245	1190.682833	1193.473633	79.619743
30890.893245	1190.682833	1192.351563	81.186745
30890.893245	1190.682833	1191.229492	83.161812
30890.893245	1190.682833	1190.106445	228.245270
30890.893245	1190.682833	1188.984375	210.174622
30890.893245	1190.682833	1187.861328	293.595123
30890.893245	1190.682833	1186.738281	291.303497
30890.893245	1190.682833	1185.614258	247.242218
30890.893245	1190.682833	1184.491211	128.656754
30890.893245	1190.682833	1183.367188	197.936356
30890.893245	1190.682833	1182.243164	9.852491
30890.893245	1190.682833	1181.119141	33.892948
30890.893245	1190.682833	1179.994141	-11.356346
30890.893245	1190.682833	1178.869141	11.584124
30890.893245	1190.682833	1177.744141	140.909210
30890.893245	1190.682833	1176.619141	98.298157
30890.893245	1190.682833	1175.493164	96.486206
30890.893245	1190.682833	1174.368164	149.989777
30890.893245	1190.682833	1173.242188	69.398941
30890.893245	1190.682833	1172.115234	30.641901
30890.893245	1190.682833	1170.989258	144.387573
30890.893245	1190.682833	1169.862305	97.725891
30890.893245	1190.682833	1168.735352	169.792892
30890.893245	1190.682833	1167.608398	146.896729
30890.893245	1190.682833	1166.481445	164.084854
30890.893245	1190.682833	1165.353516	136.524933
30890.893245	1190.682833	1164.225586	33.655857
30890.893245	1190.682833	1163.097656	84.721352
30890.893245	1190.682833	1161.968750	204.419312
30890.893245	1190.682833	1160.840820	96.013878
30890.893245	1190.682833	1159.711914	181.012527
30890.893245	1190.682833	1158.583008	62.039845
30890.893245	1190.682833	1157.453125	37.229153
30890.893245	1190.682833	1156.324219	-29.180521
30890.893245	1190.682833	1155.194336	117.817093
30890.893245	1190.682833	1154.064453	33.631866
30890.893245	1190.682833	1152.933594	-12.201606
30890.893245	1190.682833	1151.803711	-115.936714
30890.893245	1190.682833	1150.672852	-148.113800
30890.893245	1190.682833	1149.541992	-60.744720
30890.893245	1190.682833	1148.411133	-162.454819
30890.893245	1190.682833	1147.279297	-158.819489
30890.893245	1190.682833	1146.147461	-201.725494
30890.893245	1190.682833	1145.015625	-188.589661
30890.893245	1190.682833	1143.883789	-193.884460
30890.893245	1190.682833	1142.750977	-70.740608
30890.893245	1190.682833	1141.619141	-217.215057
30890.893245	1190.682833	1140.486328	-195.915100
30890.893245	1190.682833	1139.352539	-128.103821
30890.893245	1190.682833	1138.219727	-241.062592
30890.893245	1190.682833	1137.085938	-148.924774
30890.893245	1190.682833	1135.952148	-221.236420
30890.893245	1190.682833	1134.818359	-219.412369
30890.893245	1190.682833	1133.683594	-160.058655
30890.893245	1190.682833	1132.549805	-58.794628
30890.893245	1190.682833	1131.415039	-10.699779
30890.893245	1190.682833	1130.279297	-24.482481
30890.893245	1190.682833	1129.144531	10.837755
30890.893245	1190.682833	1128.008789	147.185623
30890.893245	1190.682833	1126.873047	0.347918
30890.893245	1190.682833	1125.737305	194.900558
30890.893245	1190.682833	1124.601563	110.528862
30890.893245	1190.682833	1123.464844	96.672905
30890.893245	1190.682833	1122.328125	8.959968
30890.893245	1190.682833	1121.191406	127.642273
30890.893245	1190.682833	1120.054688	-32.670528
30890.893245	1190.682833	1118.916992	20.702229
30890.893245	1190.682833	1117.779297	114.925591
30890.893245	1190.682833	1116.641602	128.139511
30890.893245	1190.682833	1115.503906	79.593788
30890.893245	1190.682833	1114.365234	117.112511
30890.893245	1190.682833	1113.226563	-6.137631
30890.893245	1190.682833	1112.087891	-6.069897
30890.893245	1190.682833	1110.949219	111.570427
30890.893245	1190.682833	1109.809570	208.654663
30890.893245	1190.682833	1108.669922	-36.052200
30890.893245	1190.682833	1107.530273	36.574219
30890.893245	1190.682833	1106.390625	-18.719654
30890.893245	1190.682833	1105.250000	96.796242
30890.893245	1190.682833	1104.109375	62.471088
30890.893245	1190.682833	1102.968750	32.268131
30890.893245	1190.682833	1101.828125	-22.646736
30890.893245	1190.682833	1100.686523	132.941757
30890.893245	1190.682833	1099.544922	73.762352
30890.893245	1190.682833	1098.403320	152.382828
30890.893245	1190.682833	1097.261719	-91.540680
30890.893245	1190.682833	1096.120117	138.696335
30890.893245	1190.682833	1094.977539	105.920769
30890.893245	1190.682833	1093.834961	105.160927
30890.893245	1190.682833	1092.691406	60.777824
30890.893245	1190.682833	1091.548828	85.862144
30890.893245	1190.682833	1090.405273	174.749237
30890.893245	1190.682833	1089.261719	-78.989906
30890.893245	1190.682833	1088.118164	283.720795
30890.893245	1190.682833	1086.973633	153.056656
30890.893245	1190.682833	1085.829102	209.919815
30890.893245	1190.682833	1084.684570	18.043161
30890.893245	1190.682833	1083.540039	51.535042
30890.893245	1190.682833	1082.395508	57.803627
30890.893245	1190.682833	1081.250000	-15.399314
30890.893245	1190.682833	1080.104492	60.770996
30890.893245	1190.682833	1078.958984	56.546959
30890.893245	1190.682833	1077.812500	-52.990662
30890.893245	1190.682833	1076.666016	166.245239
30890.893245	1190.682833	1075.519531	70.385506
30890.893245	1190.682833	1074.373047	-10.412608
30890.893245	1190.682833	1073.226563	35.903625
30890.893245	1190.682833	1072.079102	86.900620
30890.893245	1190.682833	1070.931641	106.278015
30890.893245	1190.682833	1069.784180	-28.556433
30890.893245	1190.682833	1068.635742	-25.784483
30890.893245	1190.682833	1067.487305	103.809769
30890.893245	1190.682833	1066.338867	-73.469429
30890.893245	1190.682833	1065.190430	-73.610817
30890.893245	1190.682833	1064.041992	150.586334
30890.893245	1190.682833	1062.892578	-41.321121
30890.893245	1190.682833	1061.743164	168.891235
30890.893245	1190.682833	1060.593750	-20.296041
30890.893245	1190.682833	1059.443359	-181.312576
30890.893245	1190.682833	1058.292969	-68.771172
30890.893245	1190.682833	1057.142578	55.666119
30890.893245	1190.682833	1055.992188	138.939331
30890.893245	1190.682833	1054.841797	-0.870399
30890.893245	1190.682833	1053.690430	3.411636
30890.893245	1190.682833	1052.539063	112.063957
30890.893245	1190.682833	1051.387695	57.582756
30890.893245	1190.682833	1050.235352	-51.192326
30890.893245	1190.682833	1049.083984	109.023575
30890.893245	1190.682833	1047.931641	61.613213
30890.893245	1190.682833	1046.778320	-9.267659
30890.893245	1190.682833	1045.625977	110.722244
30890.893245	1190.682833	1044.472656	115.008888
30890.893245	1190.682833	1043.319336	22.744219
30890.893245	1190.682833	1042.166016	100.164200
30890.893245	1190.682833	1041.012695	188.968689
30890.893245	1190.682833	1039.858398	44.537498
30890.893245	1190.682833	1038.704102	44.106262
30890.893245	1190.682833	1037.549805	168.362122
30890.893245	1190.682833	1036.394531	108.799088
30890.893245	1190.682833	1035.239258	178.852585
30890.893245	1190.682833	1034.083984	99.555016
30890.893245	1190.682833	1032.928711	225.553513
30890.893245	1190.682833	1031.773438	171.736923
30890.893245	1190.682833	1030.617188	171.460876
30890.893245	1190.682833	1029.460938	194.923218
30890.893245	1190.682833	1028.304688	140.209137
30890.893245	1190.682833	1027.147461	37.912880
30890.893245	1190.682833	1025.991211	107.560280
30890.893245	1190.682833	1024.833984	25.074553
30890.893245	1190.682833	1023.675781	9.775611
30890.893245	1190.682833	1022.518555	-69.859329
30890.893245	1190.682833	1021.360352	66.991669
30890.893245	1190.682833	1020.202148	-2.141151
30890.893245	1190.682833	1019.043945	309.637909
30890.893245	1190.682833	1017.884766	-9.330515
30890.893245	1190.682833	1016.726563	32.303715
30890.893245	1190.682833	1015.567383	84.925659
30890.893245	1190.682833	1014.407227	-23.334682
30890.893245	1190.682833	1013.248047	37.865276
30890.893245	1190.682833	1012.087891	97.020241
30890.893245	1190.682833	1010.927734	-11.438835
30890.893245	1190.682833	1009.767578	188.276855
30890.893245	1190.682833	1008.606445	46.024250
30890.893245	1190.682833	1007.446289	58.079903
30890.893245	1190.682833	1006.285156	117.117859
30890.893245	1190.682833	1005.123047	13.436597
30890.893245	1190.682833	1003.961914	-81.731041
30890.893245	1190.682833	1002.799805	108.602257
30890.893245	1190.682833	1001.637695	20.229080
30890.893245	1190.682833	1000.475586	80.888947
30890.893245	1190.682833	999.312500	181.118210
30890.893245	1190.682833	998.149414	169.974716
30890.893245	1190.682833	996.986328	61.156464
30890.893245	1190.682833	995.823242	157.393234
30890.893245	1190.682833	994.659180	18.238325
30890.893245	1190.682833	993.496094	83.134216
30890.893245	1190.682833	992.332031	16.914297
30890.893245	1190.682833	991.166992	92.611946
30890.893245	1190.682833	990.002930	30.993069
30890.893245	1190.682833	988.837891	112.483162
30890.893245	1190.682833	987.672852	-138.603760
30890.893245	1190.682833	986.506836	6.455822
30890.893245	1190.682833	985.341797	15.024275
30890.893245	1190.682833	984.175781	-88.512711
30890.893245	1190.682833	983.009766	-15.267258
30890.893245	1190.682833	981.843750	74.178894
30890.893245	1190.682833	980.676758	-13.155969
30890.893245	1190.682833	979.509766	-11.118239
30890.893245	1190.682833	978.342773	-23.025990
30890.893245	1190.682833	977.175781	-107.387230
30890.893245	1190.682833	976.007813	74.718063
30890.893245	1190.682833	974.839844	159.749298
30890.893245	1190.682833	973.671875	-5.562782
30890.893245	1190.682833	972.503906	146.061920
30890.893245	1190.682833	971.334961	25.848467
30890.893245	1190.682833	970.166016	6.979547
30890.893245	1190.682833	968.997070	-0.467894
30890.893245	1190.682833	967.828125	-19.585846
30890.893245	1190.682833	966.658203	178.325272
30890.893245	1190.682833	965.488281	107.298355
30890.893245	1190.682833	964.318359	179.524597
30890.893245	1190.682833	963.148438	271.581451
30890.893245	1190.682833	961.977539	196.970642
30890.893245	1190.682833	960.806641	250.991760
30890.893245	1190.682833	959.635742	246.130463
30890.893245	1190.682833	958.463867	324.190613
30890.893245	1190.682833	957.292969	329.145416
30890.893245	1190.682833	956.121094	300.644745
30890.893245	1190.682833	954.948242	352.850983
30890.893245	1190.682833	953.776367	569.829224
30890.893245	1190.682833	952.603516	528.277527
30890.893245	1190.682833	951.430664	379.697968
30890.893245	1190.682833	950.257813	243.289978
30890.893245	1190.682833	949.084961	189.915176
30890.893245	1190.682833	947.911133	156.947052
30890.893245	1190.682833	946.737305	63.525860
30890.893245	1190.682833	945.563477	110.171883
30890.893245	1190.682833	944.388672	193.716064
30890.893245	1190.682833	943.213867	100.249390
30890.893245	1190.682833	942.039063	167.496246
30890.893245	1190.682833	940.864258	95.022377
30890.893245	1190.682833	939.688477	69.127342
30890.893245	1190.682833	938.513672	40.620522
30890.893245	1190.682833	937.337891	73.164742
30890.893245	1190.682833	936.161133	-53.375042
30890.893245	1190.682833	934.985352	25.795050
30890.893245	1190.682833	933.808594	83.810356
30890.893245	1190.682833	932.631836	50.774265
30890.893245	1190.682833	931.454102	-38.443493
30890.893245	1190.682833	930.277344	131.805618
30890.893245	1190.682833	929.099609	56.513199
30890.893245	1190.682833	927.921875	214.937988
30890.893245	1190.682833	926.743164	242.485779
30890.893245	1190.682833	925.565430	69.076233
30890.893245	1190.682833	924.386719	112.936157
30890.893245	1190.682833	923.208008	-69.792358
30890.893245	1190.682833	922.028320	20.727552
30890.893245	1190.682833	920.849609	17.804371
30890.893245	1190.682833	919.669922	20.918152
30890.893245	1190.682833	919.474609	-129.339828
30890.893245	1190.682833	918.309570	-55.296833
30890.893245	1190.682833	917.143555	-93.297905
30890.893245	1190.682833	915.977539	15.659986
30890.893245	1190.682833	914.810547	-152.988297
30890.893245	1190.682833	913.644531	16.524433
30890.893245	1190.682833	912.477539	-56.510494
30890.893245	1190.682833	911.310547	-64.270638
30890.893245	1190.682833	910.143555	-46.413509
30890.893245	1190.682833	908.975586	-91.488235
30890.893245	1190.682833	907.807617	-248.378387
30890.893245	1190.682833	906.639648	-55.876251
30890.893245	1190.682833	905.471680	-161.520676
30890.893245	1190.682833	904.303711	-146.083435
30890.893245	1190.682833	903.134766	-121.357895
30890.893245	1190.682833	901.965820	170.953583
30890.893245	1190.682833	900.796875	-34.766983
30890.893245	1190.682833	899.626953	-61.306667
30890.893245	1190.682833	898.457031	-59.945915
30890.893245	1190.682833	897.287109	-142.310028
30890.893245	1190.682833	896.117188	-122.370529
30890.893245	1190.682833	894.947266	-123.375275
30890.893245	1190.682833	893.776367	-36.090935
30890.893245	1190.682833	892.605469	-25.528370
30890.893245	1190.682833	891.434570	-128.805099
30890.893245	1190.682833	890.262695	74.495277
30890.893245	1190.682833	889.091797	-103.092865
30890.893245	1190.682833	887.919922	-120.446899
30890.893245	1190.682833	886.748047	-47.293938
30890.893245	1190.682833	885.575195	102.389748
30890.893245	1190.682833	884.403320	-19.442896
30890.893245	1190.682833	883.230469	21.125057
30890.893245	1190.682833	882.057617	-33.419598
30890.893245	1190.682833	880.883789	-78.681129
30890.893245	1190.682833	879.710938	-135.532669
30890.893245	1190.682833	878.537109	-41.730286
30890.893245	1190.682833	877.362305	58.971714
30890.893245	1190.682833	876.188477	34.516182
30890.893245	1190.682833	875.013672	77.226067
30890.893245	1190.682833	873.839844	27.272778
30890.893245	1190.682833	872.664063	9.742404
30890.893245	1190.682833	871.489258	-58.722931
30890.893245	1190.682833	870.313477	83.427139
30890.893245	1190.682833	869.138672	165.343124
30890.893245	1190.682833	867.962891	-28.075062
30890.893245	1190.682833	866.786133	-24.833736
30890.893245	1190.682833	865.610352	-51.671009
30890.893245	1190.682833	864.433594	71.764610
30890.893245	1190.682833	863.256836	104.988373
30890.893245	1190.682833	862.079102	-185.349884
30890.893245	1190.682833	860.902344	67.380959
30890.893245	1190.682833	859.724609	-3.407682
30890.893245	1190.682833	858.546875	38.986004
30890.893245	1190.682833	857.368164	5.149779
30890.893245	1190.682833	856.190430	-12.528336
30890.893245	1190.682833	855.011719	15.950371
30890.893245	1190.682833	853.833008	-20.211290
30890.893245	1190.682833	852.654297	-58.679817
30890.893245	1190.682833	851.474609	45.870747
30890.893245	1190.682833	850.294922	-112.547203
30890.893245	1190.682833	849.115234	-109.511307
30890.893245	1190.682833	847.935547	117.121490
30890.893245	1190.682833	846.754883	78.595039
30890.893245	1190.682833	845.575195	14.719903
30890.893245	1190.682833	844.393555	13.064538
30890.893245	1190.682833	843.212891	-87.652954
30890.893245	1190.682833	842.032227	-70.894814
30890.893245	1190.682833	840.850586	-47.249310
30890.893245	1190.682833	839.668945	84.564095
30890.893245	1190.682833	838.486328	-149.628357
30890.893245	1190.682833	837.304688	-38.587254
30890.893245	1190.682833	836.122070	42.487392
30890.893245	1190.682833	834.939453	-51.292320
30890.893245	1190.682833	833.756836	34.320114
30890.893245	1190.682833	832.573242	53.208469
30890.893245	1190.682833	831.389648	-33.664547
30890.893245	1190.682833	830.206055	116.195602
30890.893245	1190.682833	829.022461	146.497314
30890.893245	1190.682833	827.838867	9.072517
30890.893245	1190.682833	826.654297	142.708206
30890.893245	1190.682833	825.469727	39.754341
30890.893245	1190.682833	824.284180	65.393875
30890.893245	1190.682833	823.099609	-3.103737
30890.893245	1190.682833	821.914063	-27.985773
30890.893245	1190.682833	820.728516	96.261330
30890.893245	1190.682833	819.542969	140.153061
30890.893245	1190.682833	818.356445	-26.986128
30890.893245	1190.682833	817.169922	-17.514221
30890.893245	1190.682833	815.983398	198.261490
30890.893245	1190.682833	814.796875	81.586456
30890.893245	1190.682833	813.609375	-25.890734
30890.893245	1190.682833	812.422852	-112.722687
30890.893245	1190.682833	811.235352	-119.364487
30890.893245	1190.682833	810.046875	-68.767052
30890.893245	1190.682833	808.859375	23.003887
30890.893245	1190.682833	807.670898	68.935524
30890.893245	1190.682833	806.482422	23.280792
30890.893245	1190.682833	805.293945	-102.462959
30890.893245	1190.682833	804.104492	137.870773
30890.893245	1190.682833	802.915039	-129.694534
30890.893245	1190.682833	801.725586	-65.580002
30890.893245	1190.682833	800.536133	192.828400
30890.893245	1190.682833	799.345703	-3.778969
30890.893245	1190.682833	798.155273	-33.491398
30890.893245	1190.682833	796.964844	5.335902
30890.893245	1190.682833	795.774414	32.704151
30890.893245	1190.682833	794.583008	85.163956
30890.893245	1190.682833	793.392578	-90.771423
30890.893245	1190.682833	792.200195	-61.180199
30890.893245	1190.682833	791.008789	-81.840630
30890.893245	1190.682833	789.816406	-15.794435
30890.893245	1190.682833	788.625000	-15.966699
30890.893245	1190.682833	787.432617	-134.780075
30890.893245	1190.682833	786.239258	-20.938025
30890.893245	1190.682833	785.046875	-98.704407
30890.893245	1190.682833	783.853516	-55.635784
30890.893245	1190.682833	782.660156	17.021021
30890.893245	1190.682833	781.465820	-12.921427
30890.893245	1190.682833	780.272461	-49.711712
30890.893245	1190.682833	779.078125	-27.287430
30890.893245	1190.682833	777.883789	-77.773750
30890.893245	1190.682833	776.688477	60.717953
30890.893245	1190.682833	775.494141	-71.768257
30890.893245	1190.682833	774.298828	-65.392830
30890.893245	1190.682833	773.103516	-125.035255
30890.893245	1190.682833	771.907227	-155.104355
30890.893245	1190.682833	770.711914	33.165260
30890.893245	1190.682833	769.515625	-97.037903
30890.893245	1190.682833	768.318359	88.813576
30890.893245	1190.682833	767.122070	8.604383
30890.893245	1190.682833	765.924805	-3.420503
30890.893245	1190.682833	764.727539	25.429384
30890.893245	1190.682833	763.530273	111.029686
30890.893245	1190.682833	762.333008	180.666183
30890.893245	1190.682833	761.134766	173.038223
30890.893245	1190.682833	759.936523	-25.320387
30890.893245	1190.682833	758.738281	91.875160
30890.893245	1190.682833	757.540039	106.870605
30890.893245	1190.682833	756.340820	-25.647514
30890.893245	1190.682833	755.141602	150.357635
30890.893245	1190.682833	753.942383	65.446716
30890.893245	1190.682833	752.742188	227.689499
30890.893245	1190.682833	751.541992	108.727859
30890.893245	1190.682833	750.341797	157.502350
30890.893245	1190.682833	749.141602	86.122971
30890.893245	1190.682833	747.941406	232.231445
30890.893245	1190.682833	746.740234	83.784599
30890.893245	1190.682833	745.539063	155.030869
30890.893245	1190.682833	744.337891	135.646179
30890.893245	1190.682833	743.135742	193.198090
30890.893245	1190.682833	741.933594	146.583084
30890.893245	1190.682833	740.731445	118.051796
30890.893245	1190.682833	739.529297	173.198563
30890.893245	1190.682833	738.326172	137.813507
30890.893245	1190.682833	737.124023	129.540878
30890.893245	1190.682833	735.919922	-3.112653
30890.893245	1190.682833	734.716797	142.274231
30890.893245	1190.682833	733.513672	140.668854
30890.893245	1190.682833	732.309570	23.794264
30890.893245	1190.682833	731.105469	87.643410
30890.893245	1190.682833	729.900391	137.874344
30890.893245	1190.682833	728.696289	-10.659225
30890.893245	1190.682833	727.491211	73.351784
30890.893245	1190.682833	726.286133	243.053802
30890.893245	1190.682833	725.080078	135.084213
30890.893245	1190.682833	723.874023	49.677921
30890.893245	1190.682833	722.668945	83.813545
30890.893245	1190.682833	721.461914	122.401405
30890.893245	1190.682833	720.255859	115.835678
30890.893245	1190.682833	719.048828	113.737015
30890.893245	1190.682833	717.841797	104.834122
30890.893245	1190.682833	716.634766	138.701843
30890.893245	1190.682833	715.427734	183.774429
30890.893245	1190.682833	714.219727	161.212448
30890.893245	1190.682833	713.011719	152.125092
30890.893245	1190.682833	711.803711	111.475937
30890.893245	1190.682833	710.594727	93.305794
30890.893245	1190.682833	709.385742	115.604385
30890.893245	1190.682833	708.176758	122.096497
30890.893245	1190.682833	706.967773	189.274994
30890.893245	1190.682833	705.758789	80.953522
30890.893245	1190.682833	704.548828	-4.886316
30890.893245	1190.682833	703.338867	-57.017788
30890.893245	1190.682833	702.127930	117.831635
30890.893245	1190.682833	700.917969	106.047157
30890.893245	1190.682833	699.707031	58.270283
30890.893245	1190.682833	698.496094	48.648830
30890.893245	1190.682833	697.285156	59.192787
30890.893245	1190.682833	696.073242	-4.412392
30890.893245	1190.682833	694.861328	113.785431
30890.893245	1190.682833	693.649414	191.484756
30890.893245	1190.682833	692.436523	64.909981
30890.893245	1190.682833	691.224609	218.759003
30890.893245	1190.682833	690.011719	94.370995
30890.893245	1190.682833	688.798828	191.983002
30890.893245	1190.682833	687.584961	289.500458
30890.893245	1190.682833	686.372070	234.504898
30890.893245	1190.682833	685.158203	284.805908
30890.893245	1190.682833	683.943359	382.081421
30890.893245	1190.682833	682.729492	434.464020
30890.893245	1190.682833	681.514648	343.434906
30890.893245	1190.682833	680.299805	254.629959
30890.893245	1190.682833	679.084961	369.525055
30890.893245	1190.682833	677.869141	397.027344
30890.893245	1190.682833	676.653320	225.307968
30890.893245	1190.682833	675.437500	230.347748
30890.893245	1190.682833	674.221680	273.356018
30890.893245	1190.682833	673.004883	302.871155
30890.893245	1190.682833	671.789063	385.981171
30890.893245	1190.682833	670.571289	515.939331
30890.893245	1190.682833	669.354492	259.155792
30890.893245	1190.682833	668.136719	214.692001
30890.893245	1190.682833	666.919922	257.317047
30890.893245	1190.682833	665.701172	136.821350
30890.893245	1190.682833	664.483398	237.389511
30890.893245	1190.682833	663.264648	342.322418
30890.893245	1190.682833	662.045898	362.337311
30890.893245	1190.682833	660.827148	239.467346
30890.893245	1190.682833	659.608398	326.318024
30890.893245	1190.682833	658.388672	245.775482
30890.893245	1190.682833	657.168945	156.290955
30890.893245	1190.682833	655.949219	211.718521
30890.893245	1190.682833	654.728516	320.566284
30890.893245	1190.682833	653.507813	177.462891
30890.893245	1190.682833	652.287109	268.333771
30890.893245	1190.682833	651.066406	396.983734
30890.893245	1190.682833	649.844727	469.837708
30890.893245	1190.682833	648.623047	469.118835
30890.893245	1190.682833	647.401367	419.363922
30890.893245	1190.682833	646.179688	360.671753
30890.893245	1190.682833	644.957031	357.582397
30890.893245	1190.682833	643.734375	401.164459
30890.893245	1190.682833	642.511719	466.918152
30890.893245	1190.682833	641.289063	190.086838
30890.893245	1190.682833	640.065430	131.225159
30890.893245	1190.682833	638.841797	341.330170
30890.893245	1190.682833	637.618164	317.915802
30890.893245	1190.682833	636.393555	252.233337
30890.893245	1190.682833	635.168945	166.530045
30890.893245	1190.682833	633.944336	231.852615
30890.893245	1190.682833	632.719727	50.591503
30890.893245	1190.682833	631.494141	237.917847
30890.893245	1190.682833	630.269531	245.311661
30890.893245	1190.682833	629.042969	143.895447
30890.893245	1190.682833	627.817383	131.228638
30890.893245	1190.682833	626.590820	231.651550
30890.893245	1190.682833	625.365234	285.407776
30890.893245	1190.682833	624.137695	312.473907
30890.893245	1190.682833	622.911133	177.641830
30890.893245	1190.682833	621.683594	186.887863
30890.893245	1190.682833	620.456055	145.111267
30890.893245	1190.682833	619.228516	136.537659
30890.893245	1190.682833	618.000977	34.884850
30890.893245	1190.682833	616.772461	6.306623
30890.893245	1190.682833	615.543945	61.831863
30890.893245	1190.682833	614.314453	106.214912
30890.893245	1190.682833	613.085938	-84.065842
30890.893245	1190.682833	611.856445	37.684219
30890.893245	1190.682833	610.626953	-26.495060
30890.893245	1190.682833	609.397461	108.373039
30890.893245	1190.682833	608.166992	61.804989
30890.893245	1190.682833	606.936523	57.220657
30890.893245	1190.682833	605.706055	114.486961
30890.893245	1190.682833	604.474609	116.434784
30890.893245	1190.682833	603.244141	25.547565
30890.893245	1190.682833	602.012695	-27.792450
30890.893245	1190.682833	600.780273	-23.732038
30890.893245	1190.682833	599.548828	-94.781662
30890.893245	1190.682833	598.316406	79.199104
30890.893245	1190.682833	597.083984	74.292137
30890.893245	1190.682833	595.851563	153.203369
30890.893245	1190.682833	594.618164	4.804601
30890.893245	1190.682833	593.384766	-187.679550
30890.893245	1190.682833	592.151367	14.622402
30890.893245	1190.682833	590.917969	-16.900919
30890.893245	1190.682833	589.683594	-92.533005
30890.893245	1190.682833	588.449219	61.034908
30890.893245	1190.682833	587.214844	-82.946709
30890.893245	1190.682833	585.979492	-50.669552
30890.893245	1190.682833	584.745117	-110.931847
30890.893245	1190.682833	583.509766	-87.525177
30890.893245	1190.682833	582.273438	8.488923
30890.893245	1190.682833	581.038086	-100.252541
30890.893245	1190.682833	579.801758	-28.531452
30890.893245	1190.682833	578.565430	-95.468933
30890.893245	1190.682833	577.329102	-65.617096
30890.893245	1190.682833	576.091797	-90.781906
30890.893245	1190.682833	574.854492	-1.624911
30890.893245	1190.682833	573.617188	100.664612
30890.893245	1190.682833	572.378906	27.069792
30890.893245	1190.682833	571.141602	15.018497
30890.893245	1190.682833	569.903320	156.727783
30890.893245	1190.682833	568.664063	91.902939
30890.893245	1190.682833	567.425781	-29.993874
30890.893245	1190.682833	566.186523	-88.188972
30890.893245	1190.682833	564.947266	-45.402786
30890.893245	1190.682833	563.708008	-31.172123
30890.893245	1190.682833	562.467773	-78.391243
30890.893245	1190.682833	561.227539	-77.339111
30890.893245	1190.682833	559.987305	-6.115490
30890.893245	1190.682833	558.747070	1.489920
30890.893245	1190.682833	557.505859	-76.407814
30890.893245	1190.682833	556.264648	14.482723
30890.893245	1190.682833	555.023438	-131.311737
30890.893245	1190.682833	553.781250	-204.753693
30890.893245	1190.682833	552.539063	-63.518539
30890.893245	1190.682833	551.296875	90.799431
30890.893245	1190.682833	550.054688	26.127380
30890.893245	1190.682833	548.811523	57.793865
30890.893245	1190.682833	547.569336	54.446285
30890.893245	1190.682833	546.325195	-32.039383
30890.893245	1190.682833	545.082031	-17.849758
30890.893245	1190.682833	543.837891	-51.771427
30890.893245	1190.682833	542.593750	30.219481
30890.893245	1190.682833	541.349609	171.213272
30890.893245	1190.682833	540.105469	43.342247
30890.893245	1190.682833	538.860352	173.378479
30890.893245	1190.682833	537.615234	248.764740
30890.893245	1190.682833	536.369141	99.168182
30890.893245	1190.682833	535.124023	45.745716
30890.893245	1190.682833	533.877930	145.190552
30890.893245	1190.682833	532.631836	126.751038
30890.893245	1190.682833	531.384766	147.623230
30890.893245	1190.682833	530.138672	52.884785
30890.893245	1190.682833	528.891602	58.553768
30890.893245	1190.682833	527.643555	101.323128
30890.893245	1190.682833	526.396484	146.292313
30890.893245	1190.682833	525.148438	-57.239674
30890.893245	1190.682833	523.900391	-18.726803
30890.893245	1190.682833	522.652344	0.196123
30890.893245	1190.682833	521.403320	-120.280022
30890.893245	1190.682833	520.154297	-99.089310
30890.893245	1190.682833	518.905273	-21.248396
30890.893245	1190.682833	517.656250	-41.367710
30890.893245	1190.682833	516.406250	-94.087334
30890.893245	1190.682833	515.156250	-192.438187
30890.893245	1190.682833	513.906250	-138.397934
30890.893245	1190.682833	512.655273	37.478886
30890.893245	1190.682833	511.404297	-88.965286
30890.893245	1190.682833	510.153320	-180.513336
30890.893245	1190.682833	508.902344	-130.668839
30890.893245	1190.682833	507.650391	-159.036575
30890.893245	1190.682833	506.398438	-100.419823
30890.893245	1190.682833	505.146484	-39.598137
30890.893245	1190.682833	503.893555	-87.347580
30890.893245	1190.682833	502.641602	-0.378542
30890.893245	1190.682833	501.388672	-97.929398
30890.893245	1190.682833	500.134766	60.748665
30890.893245	1190.682833	498.881836	19.774944
30890.893245	1190.682833	497.627930	-36.308441
30890.893245	1190.682833	496.374023	230.906494
30890.893245	1190.682833	495.119141	64.325493
30890.893245	1190.682833	493.865234	106.039452
30890.893245	1190.682833	492.610352	234.511185
30890.893245	1190.682833	491.355469	271.969574
30890.893245	1190.682833	490.099609	162.133469
30890.893245	1190.682833	488.843750	154.234955
30890.893245	1190.682833	487.587891	131.250854
30890.893245	1190.682833	486.332031	78.032433
30890.893245	1190.682833	485.075195	310.684753
30890.893245	1190.682833	483.818359	248.936569
30890.893245	1190.682833	482.561523	319.296265
30890.893245	1190.682833	481.304688	257.722290
30890.893245	1190.682833	480.046875	375.786041
30890.893245	1190.682833	478.789063	281.934570
30890.893245	1190.682833	477.531250	337.390839
30890.893245	1190.682833	476.272461	245.900040
30890.893245	1190.682833	475.013672	154.525574
30890.893245	1190.682833	473.754883	106.483337
30890.893245	1190.682833	472.496094	32.614174
30890.893245	1190.682833	471.236328	56.045567
30890.893245	1190.682833	469.976563	174.556198
30890.893245	1190.682833	468.716797	195.941254
30890.893245	1190.682833	467.456055	165.588440
30890.893245	1190.682833	466.196289	42.533436
30890.893245	1190.682833	464.935547	-37.244564
30890.893245	1190.682833	463.673828	66.435204
30890.893245	1190.682833	462.413086	81.726463
30890.893245	1190.682833	461.151367	75.522057
30890.893245	1190.682833	459.889648	209.511566
30890.893245	1190.682833	458.626953	91.355377
30890.893245	1190.682833	457.364258	44.428322
30890.893245	1190.682833	456.101563	-30.414328
30890.893245	1190.682833	454.838867	75.763641
30890.893245	1190.682833	453.575195	-48.444477
30890.893245	1190.682833	452.312500	-30.442389
30890.893245	1190.682833	451.047852	-23.148228
30890.893245	1190.682833	449.784180	-65.287384
30890.893245	1190.682833	448.519531	32.497299
30890.893245	1190.682833	447.254883	3.388811
30890.893245	1190.682833	445.990234	-8.445077
30890.893245	1190.682833	444.725586	-13.769347
30890.893245	1190.682833	443.459961	-25.488453
30890.893245	1190.682833	442.194336	-108.074928
30890.893245	1190.682833	440.927734	32.883434
30890.893245	1190.682833	439.662109	4.117389
30890.893245	1190.682833	438.395508	89.235069
30890.893245	1190.682833	437.127930	58.399380
30890.893245	1190.682833	435.861328	81.283264
30890.893245	1190.682833	434.593750	136.383209
30890.893245	1190.682833	433.326172	-31.685856
30890.893245	1190.682833	432.058594	29.902765
30890.893245	1190.682833	430.790039	110.787674
30890.893245	1190.682833	429.521484	69.417191
30890.893245	1190.682833	428.252930	17.355206
30890.893245	1190.682833	426.984375	-0.380454
30890.893245	1190.682833	425.714844	142.624924
30890.893245	1190.682833	424.445313	163.434525
30890.893245	1190.682833	423.174805	205.647202
30890.893245	1190.682833	421.905273	243.544846
30890.893245	1190.682833	420.634766	127.235725
30890.893245	1190.682833	419.364258	150.101990
30890.893245	1190.682833	418.092773	318.467102
30890.893245	1190.682833	416.822266	191.421753
30890.893245	1190.682833	415.550781	224.839218
30890.893245	1190.682833	414.278320	172.632431
30890.893245	1190.682833	413.006836	128.944260
30890.893245	1190.682833	411.734375	226.314987
30890.893245	1190.682833	410.461914	49.964050
30890.893245	1190.682833	409.188477	74.491150
30890.893245	1190.682833	407.916016	88.235291
30890.893245	1190.682833	406.642578	63.422672
30890.893245	1190.682833	405.368164	318.284515
30890.893245	1190.682833	404.094727	180.040787
30890.893245	1190.682833	402.820313	31.054943
30890.893245	1190.682833	401.545898	138.111816
30890.893245	1190.682833	400.270508	138.282486
30890.893245	1190.682833	398.996094	125.497902
30890.893245	1190.682833	397.720703	14.435825
30890.893245	1190.682833	396.444336	39.716251
30890.893245	1190.682833	395.168945	69.061867
30890.893245	1190.682833	393.892578	191.976730
30890.893245	1190.682833	392.616211	212.332993
30890.893245	1190.682833	391.339844	115.272095
30890.893245	1190.682833	390.062500	128.776688
30890.893245	1190.682833	388.785156	67.483917
30890.893245	1190.682833	387.507813	29.371973
30890.893245	1190.682833	386.229492	39.952988
30890.893245	1190.682833	384.951172	52.362011
30890.893245	1190.682833	383.672852	53.816284
30890.893245	1190.682833	382.394531	180.456940
30890.893245	1190.682833	381.115234	262.032288
30890.893245	1190.682833	379.835938	128.445587
30890.893245	1190.682833	378.556641	115.721497
30890.893245	1190.682833	377.277344	213.137604
30890.893245	1190.682833	375.997070	-8.658431
30890.893245	1190.682833	374.716797	143.138336
30890.893245	1190.682833	373.435547	43.771580
30890.893245	1190.682833	372.155273	45.924473
30890.893245	1190.682833	370.874023	221.685760
30890.893245	1190.682833	369.591797	69.958908
30890.893245	1190.682833	368.310547	-46.141567
30890.893245	1190.682833	367.028320	43.067394
30890.893245	1190.682833	365.746094	-25.309576
30890.893245	1190.682833	364.463867	-0.929547
30890.893245	1190.682833	363.180664	141.559464
30890.893245	1190.682833	361.897461	50.154289
30890.893245	1190.682833	360.614258	8.995958
30890.893245	1190.682833	359.330078	-96.412956
30890.893245	1190.682833	358.045898	-24.528135
30890.893245	1190.682833	356.761719	-4.246431
30890.893245	1190.682833	355.477539	-14.384248
30890.893245	1190.682833	354.192383	-131.180557
30890.893245	1190.682833	352.907227	-73.057175
30890.893245	1190.682833	351.622070	30.751089
30890.893245	1190.682833	350.336914	-88.520515
30890.893245	1190.682833	349.050781	-9.820300
30890.893245	1190.682833	347.764648	112.320869
30890.893245	1190.682833	346.477539	45.240902
30890.893245	1190.682833	345.191406	-120.034447
30890.893245	1190.682833	343.904297	-102.414841
30890.893245	1190.682833	342.616211	-20.385969
30890.893245	1190.682833	341.329102	-19.750650
30890.893245	1190.682833	340.041016	15.632991
30890.893245	1190.682833	338.752930	-47.306366
30890.893245	1190.682833	337.463867	-75.559265
30890.893245	1190.682833	336.175781	-149.347534
30890.893245	1190.682833	334.886719	-32.378437
30890.893245	1190.682833	333.596680	-24.409792
30890.893245	1190.682833	332.307617	-152.779755
30890.893245	1190.682833	331.017578	78.093330
30890.893245	1190.682833	329.727539	-164.867523
30890.893245	1190.682833	328.436523	-44.564857
30890.893245	1190.682833	327.146484	-172.392792
30890.893245	1190.682833	325.855469	-154.282486
30890.893245	1190.682833	324.563477	95.993645
30890.893245	1190.682833	323.272461	-87.229103
30890.893245	1190.682833	321.980469	43.724716
30890.893245	1190.682833	320.688477	-54.507000
30890.893245	1190.682833	319.395508	30.667547
30890.893245	1190.682833	318.103516	27.703455
30890.893245	1190.682833	316.810547	22.783020
30890.893245	1190.682833	315.516602	45.297100
30890.893245	1190.682833	314.223633	-37.220486
30890.893245	1190.682833	312.929688	-16.704876
30890.893245	1190.682833	311.635742	37.400257
30890.893245	1190.682833	310.340820	40.905006
30890.893245	1190.682833	309.045898	40.055016
30890.893245	1190.682833	307.750977	-156.361664
30890.893245	1190.682833	306.456055	48.164585
30890.893245	1190.682833	305.160156	71.639267
30890.893245	1190.682833	303.865234	149.344254
30890.893245	1190.682833	302.568359	173.965408
30890.893245	1190.682833	301.272461	177.124619
30890.893245	1190.682833	299.975586	259.342163
30890.893245	1190.682833	298.678711	382.805756
