#X		#Y		#Wave		#Intensity
31181.674149	1121.105000	1999.980469	-7.165842
31181.674149	1121.105000	1999.016602	-185.601135
31181.674149	1121.105000	1998.052734	-167.532806
31181.674149	1121.105000	1997.087891	-167.728409
31181.674149	1121.105000	1996.123047	-193.600830
31181.674149	1121.105000	1995.158203	101.700317
31181.674149	1121.105000	1994.193359	-5.190046
31181.674149	1121.105000	1993.228516	-63.332829
31181.674149	1121.105000	1992.262695	6.507214
31181.674149	1121.105000	1991.297852	-70.505829
31181.674149	1121.105000	1990.332031	-2.203104
31181.674149	1121.105000	1989.366211	23.288084
31181.674149	1121.105000	1988.399414	283.115997
31181.674149	1121.105000	1987.433594	59.823605
31181.674149	1121.105000	1986.466797	-203.595917
31181.674149	1121.105000	1985.500977	96.204826
31181.674149	1121.105000	1984.534180	249.438049
31181.674149	1121.105000	1983.567383	382.258972
31181.674149	1121.105000	1982.599609	47.408844
31181.674149	1121.105000	1981.632813	102.519302
31181.674149	1121.105000	1980.665039	139.799942
31181.674149	1121.105000	1979.697266	248.189743
31181.674149	1121.105000	1978.729492	156.034515
31181.674149	1121.105000	1977.761719	130.111298
31181.674149	1121.105000	1976.792969	219.774826
31181.674149	1121.105000	1975.825195	101.658112
31181.674149	1121.105000	1974.856445	222.534637
31181.674149	1121.105000	1973.887695	199.878876
31181.674149	1121.105000	1972.918945	453.120056
31181.674149	1121.105000	1971.949219	197.874512
31181.674149	1121.105000	1970.980469	327.033051
31181.674149	1121.105000	1970.010742	90.953194
31181.674149	1121.105000	1969.041016	138.105453
31181.674149	1121.105000	1968.071289	140.581131
31181.674149	1121.105000	1967.101563	216.691849
31181.674149	1121.105000	1966.130859	-5.573184
31181.674149	1121.105000	1965.161133	478.867676
31181.674149	1121.105000	1964.190430	248.750977
31181.674149	1121.105000	1963.219727	368.105377
31181.674149	1121.105000	1962.249023	351.811035
31181.674149	1121.105000	1961.277344	231.949936
31181.674149	1121.105000	1960.306641	232.516449
31181.674149	1121.105000	1959.334961	141.872055
31181.674149	1121.105000	1958.363281	134.726532
31181.674149	1121.105000	1957.391602	274.985687
31181.674149	1121.105000	1956.419922	363.410461
31181.674149	1121.105000	1955.447266	274.660065
31181.674149	1121.105000	1954.474609	158.777618
31181.674149	1121.105000	1953.501953	315.605194
31181.674149	1121.105000	1952.529297	236.392761
31181.674149	1121.105000	1951.556641	294.681000
31181.674149	1121.105000	1950.583984	109.703621
31181.674149	1121.105000	1949.610352	307.799103
31181.674149	1121.105000	1948.636719	213.579819
31181.674149	1121.105000	1947.663086	175.792358
31181.674149	1121.105000	1946.689453	-1.932219
31181.674149	1121.105000	1945.715820	122.189209
31181.674149	1121.105000	1944.741211	270.755219
31181.674149	1121.105000	1943.767578	299.043915
31181.674149	1121.105000	1942.792969	67.330353
31181.674149	1121.105000	1941.818359	127.475494
31181.674149	1121.105000	1940.842773	170.424469
31181.674149	1121.105000	1939.868164	127.563950
31181.674149	1121.105000	1938.892578	111.675713
31181.674149	1121.105000	1937.916992	-38.962223
31181.674149	1121.105000	1936.941406	150.981827
31181.674149	1121.105000	1935.965820	-70.607925
31181.674149	1121.105000	1934.990234	111.964973
31181.674149	1121.105000	1934.013672	-75.211288
31181.674149	1121.105000	1933.037109	-34.629421
31181.674149	1121.105000	1932.060547	258.060730
31181.674149	1121.105000	1931.083984	332.898499
31181.674149	1121.105000	1930.107422	278.087158
31181.674149	1121.105000	1929.129883	-50.619938
31181.674149	1121.105000	1928.153320	-472.085449
31181.674149	1121.105000	1927.175781	-453.209076
31181.674149	1121.105000	1926.198242	25.327284
31181.674149	1121.105000	1925.219727	161.547974
31181.674149	1121.105000	1924.242188	319.778564
31181.674149	1121.105000	1923.263672	-3.324223
31181.674149	1121.105000	1922.285156	157.455170
31181.674149	1121.105000	1921.306641	130.179657
31181.674149	1121.105000	1920.328125	-60.625141
31181.674149	1121.105000	1919.349609	92.976372
31181.674149	1121.105000	1918.370117	-102.478462
31181.674149	1121.105000	1917.391602	185.464600
31181.674149	1121.105000	1916.412109	-109.819115
31181.674149	1121.105000	1915.431641	124.506012
31181.674149	1121.105000	1914.452148	-70.477798
31181.674149	1121.105000	1913.472656	-60.444748
31181.674149	1121.105000	1912.492188	-274.658661
31181.674149	1121.105000	1911.511719	-252.226822
31181.674149	1121.105000	1910.531250	-93.220787
31181.674149	1121.105000	1909.550781	-141.327530
31181.674149	1121.105000	1908.569336	-150.344254
31181.674149	1121.105000	1907.588867	-54.515141
31181.674149	1121.105000	1906.607422	-248.470367
31181.674149	1121.105000	1905.625977	-40.461071
31181.674149	1121.105000	1904.644531	-109.995140
31181.674149	1121.105000	1903.662109	-232.967590
31181.674149	1121.105000	1902.680664	-19.940512
31181.674149	1121.105000	1901.698242	100.628136
31181.674149	1121.105000	1900.715820	-2.582173
31181.674149	1121.105000	1899.733398	-222.423615
31181.674149	1121.105000	1898.750000	37.005592
31181.674149	1121.105000	1897.767578	-41.557304
31181.674149	1121.105000	1896.784180	98.791458
31181.674149	1121.105000	1895.800781	17.988239
31181.674149	1121.105000	1894.817383	0.483101
31181.674149	1121.105000	1893.833984	-97.111855
31181.674149	1121.105000	1892.850586	-201.877991
31181.674149	1121.105000	1891.866211	-2.921378
31181.674149	1121.105000	1890.881836	-49.224510
31181.674149	1121.105000	1889.897461	-258.099457
31181.674149	1121.105000	1888.913086	-192.520432
31181.674149	1121.105000	1887.927734	11.447440
31181.674149	1121.105000	1886.943359	-182.539413
31181.674149	1121.105000	1885.958008	-257.504089
31181.674149	1121.105000	1884.972656	164.882553
31181.674149	1121.105000	1883.987305	102.143921
31181.674149	1121.105000	1883.001953	255.293655
31181.674149	1121.105000	1882.015625	-105.491135
31181.674149	1121.105000	1881.029297	-107.356476
31181.674149	1121.105000	1880.042969	152.560699
31181.674149	1121.105000	1879.056641	208.914383
31181.674149	1121.105000	1878.070313	-56.883652
31181.674149	1121.105000	1877.083984	159.445526
31181.674149	1121.105000	1876.096680	-103.715904
31181.674149	1121.105000	1875.109375	18.219759
31181.674149	1121.105000	1874.122070	-126.113258
31181.674149	1121.105000	1873.134766	-74.317078
31181.674149	1121.105000	1872.146484	-119.284912
31181.674149	1121.105000	1871.159180	-343.226318
31181.674149	1121.105000	1870.170898	25.563087
31181.674149	1121.105000	1869.182617	-220.016998
31181.674149	1121.105000	1868.194336	61.628349
31181.674149	1121.105000	1867.205078	-104.030792
31181.674149	1121.105000	1866.216797	20.434175
31181.674149	1121.105000	1865.227539	140.042236
31181.674149	1121.105000	1864.238281	-49.633392
31181.674149	1121.105000	1863.249023	130.367310
31181.674149	1121.105000	1862.259766	22.910599
31181.674149	1121.105000	1861.269531	-219.721008
31181.674149	1121.105000	1860.279297	-235.311920
31181.674149	1121.105000	1859.290039	-120.546959
31181.674149	1121.105000	1858.298828	-20.301392
31181.674149	1121.105000	1857.308594	145.053879
31181.674149	1121.105000	1856.318359	37.732910
31181.674149	1121.105000	1855.327148	-112.970184
31181.674149	1121.105000	1854.335938	11.290939
31181.674149	1121.105000	1853.344727	12.524975
31181.674149	1121.105000	1852.353516	114.990608
31181.674149	1121.105000	1851.362305	106.528557
31181.674149	1121.105000	1850.370117	196.846848
31181.674149	1121.105000	1849.377930	36.541862
31181.674149	1121.105000	1848.385742	146.055847
31181.674149	1121.105000	1847.393555	77.276375
31181.674149	1121.105000	1846.401367	99.989449
31181.674149	1121.105000	1845.408203	35.988865
31181.674149	1121.105000	1844.415039	10.484407
31181.674149	1121.105000	1843.421875	73.986687
31181.674149	1121.105000	1842.428711	94.107887
31181.674149	1121.105000	1841.435547	121.387939
31181.674149	1121.105000	1840.441406	126.958305
31181.674149	1121.105000	1839.448242	182.970718
31181.674149	1121.105000	1838.454102	106.663765
31181.674149	1121.105000	1837.459961	342.825714
31181.674149	1121.105000	1836.464844	326.478424
31181.674149	1121.105000	1835.470703	2.487051
31181.674149	1121.105000	1834.475586	312.806519
31181.674149	1121.105000	1833.480469	-18.411348
31181.674149	1121.105000	1832.485352	73.098076
31181.674149	1121.105000	1831.490234	178.900208
31181.674149	1121.105000	1830.495117	178.947220
31181.674149	1121.105000	1829.499023	99.699989
31181.674149	1121.105000	1828.502930	70.787369
31181.674149	1121.105000	1827.506836	339.311951
31181.674149	1121.105000	1826.510742	274.194733
31181.674149	1121.105000	1825.513672	45.909966
31181.674149	1121.105000	1824.517578	174.908768
31181.674149	1121.105000	1823.520508	159.902191
31181.674149	1121.105000	1822.523438	161.574463
31181.674149	1121.105000	1821.526367	-2.229509
31181.674149	1121.105000	1820.529297	145.415283
31181.674149	1121.105000	1819.531250	-83.238068
31181.674149	1121.105000	1818.533203	167.129898
31181.674149	1121.105000	1817.535156	127.508728
31181.674149	1121.105000	1816.537109	90.175117
31181.674149	1121.105000	1815.539063	16.817890
31181.674149	1121.105000	1814.540039	144.410339
31181.674149	1121.105000	1813.541992	372.330170
31181.674149	1121.105000	1812.542969	370.342804
31181.674149	1121.105000	1811.543945	382.573517
31181.674149	1121.105000	1810.543945	145.926788
31181.674149	1121.105000	1809.544922	107.697510
31181.674149	1121.105000	1808.544922	207.999817
31181.674149	1121.105000	1807.544922	274.652924
31181.674149	1121.105000	1806.544922	114.097885
31181.674149	1121.105000	1805.544922	-41.769127
31181.674149	1121.105000	1804.544922	162.996918
31181.674149	1121.105000	1803.543945	111.959908
31181.674149	1121.105000	1802.542969	330.631348
31181.674149	1121.105000	1801.541992	291.200562
31181.674149	1121.105000	1800.541016	335.171234
31181.674149	1121.105000	1799.539063	307.354889
31181.674149	1121.105000	1798.538086	281.772675
31181.674149	1121.105000	1797.536133	377.701813
31181.674149	1121.105000	1796.534180	27.367851
31181.674149	1121.105000	1795.532227	266.056000
31181.674149	1121.105000	1794.529297	237.418884
31181.674149	1121.105000	1793.527344	377.879883
31181.674149	1121.105000	1792.524414	148.660095
31181.674149	1121.105000	1791.521484	164.800507
31181.674149	1121.105000	1790.518555	18.734959
31181.674149	1121.105000	1789.514648	70.254066
31181.674149	1121.105000	1788.511719	-9.423865
31181.674149	1121.105000	1787.507813	75.043716
31181.674149	1121.105000	1786.503906	23.581724
31181.674149	1121.105000	1785.500000	-82.799644
31181.674149	1121.105000	1784.496094	189.070023
31181.674149	1121.105000	1783.491211	346.421875
31181.674149	1121.105000	1782.486328	237.068436
31181.674149	1121.105000	1781.481445	139.449768
31181.674149	1121.105000	1780.476563	120.148529
31181.674149	1121.105000	1779.471680	286.108795
31181.674149	1121.105000	1778.465820	159.400772
31181.674149	1121.105000	1777.460938	329.639954
31181.674149	1121.105000	1776.455078	67.114410
31181.674149	1121.105000	1775.449219	80.079704
31181.674149	1121.105000	1774.442383	21.564451
31181.674149	1121.105000	1773.436523	107.742470
31181.674149	1121.105000	1772.429688	-143.509689
31181.674149	1121.105000	1771.422852	191.511734
31181.674149	1121.105000	1770.416016	110.815620
31181.674149	1121.105000	1769.409180	-22.272678
31181.674149	1121.105000	1768.402344	88.865166
31181.674149	1121.105000	1767.394531	76.377762
31181.674149	1121.105000	1766.386719	25.731827
31181.674149	1121.105000	1765.378906	48.401299
31181.674149	1121.105000	1764.371094	16.313290
31181.674149	1121.105000	1763.362305	-18.360813
31181.674149	1121.105000	1762.354492	-53.231312
31181.674149	1121.105000	1761.345703	300.287201
31181.674149	1121.105000	1760.336914	110.930550
31181.674149	1121.105000	1759.328125	-88.049767
31181.674149	1121.105000	1758.318359	205.397705
31181.674149	1121.105000	1757.308594	129.142288
31181.674149	1121.105000	1756.299805	-155.613739
31181.674149	1121.105000	1755.290039	-76.003998
31181.674149	1121.105000	1754.279297	83.798813
31181.674149	1121.105000	1753.269531	-184.905228
31181.674149	1121.105000	1752.258789	-89.457886
31181.674149	1121.105000	1751.249023	-114.874565
31181.674149	1121.105000	1750.238281	-211.454834
31181.674149	1121.105000	1749.226563	-206.578201
31181.674149	1121.105000	1748.215820	-149.912979
31181.674149	1121.105000	1747.204102	57.738190
31181.674149	1121.105000	1746.193359	-268.887787
31181.674149	1121.105000	1745.181641	-97.174393
31181.674149	1121.105000	1744.168945	-121.801720
31181.674149	1121.105000	1743.157227	56.452911
31181.674149	1121.105000	1742.144531	24.275188
31181.674149	1121.105000	1741.132813	-85.996040
31181.674149	1121.105000	1740.120117	-120.941490
31181.674149	1121.105000	1739.106445	-267.014465
31181.674149	1121.105000	1738.093750	-52.286865
31181.674149	1121.105000	1737.080078	22.958317
31181.674149	1121.105000	1736.067383	166.357132
31181.674149	1121.105000	1735.053711	-60.714016
31181.674149	1121.105000	1734.040039	-210.128052
31181.674149	1121.105000	1733.025391	-100.458824
31181.674149	1121.105000	1732.011719	-35.808708
31181.674149	1121.105000	1730.997070	-44.455135
31181.674149	1121.105000	1729.982422	-229.986832
31181.674149	1121.105000	1728.967773	104.817726
31181.674149	1121.105000	1727.952148	161.407303
31181.674149	1121.105000	1726.937500	311.943481
31181.674149	1121.105000	1725.921875	-20.333498
31181.674149	1121.105000	1724.906250	143.852142
31181.674149	1121.105000	1723.890625	-162.813019
31181.674149	1121.105000	1722.875000	-62.607243
31181.674149	1121.105000	1721.858398	-66.154999
31181.674149	1121.105000	1720.841797	24.144636
31181.674149	1121.105000	1719.825195	57.775249
31181.674149	1121.105000	1718.808594	32.417732
31181.674149	1121.105000	1717.791992	-164.700119
31181.674149	1121.105000	1716.774414	-84.703545
31181.674149	1121.105000	1715.756836	-19.039326
31181.674149	1121.105000	1714.739258	-141.510788
31181.674149	1121.105000	1713.721680	-196.036484
31181.674149	1121.105000	1712.704102	-25.343515
31181.674149	1121.105000	1711.685547	123.936241
31181.674149	1121.105000	1710.667969	-69.687080
31181.674149	1121.105000	1709.649414	137.810257
31181.674149	1121.105000	1708.630859	248.838516
31181.674149	1121.105000	1707.611328	-81.379295
31181.674149	1121.105000	1706.592773	-52.823662
31181.674149	1121.105000	1705.573242	-155.800278
31181.674149	1121.105000	1704.553711	64.588310
31181.674149	1121.105000	1703.534180	-24.689402
31181.674149	1121.105000	1702.513672	-177.415039
31181.674149	1121.105000	1701.494141	-152.180450
31181.674149	1121.105000	1700.473633	-108.423759
31181.674149	1121.105000	1699.453125	-102.338310
31181.674149	1121.105000	1698.432617	-225.226944
31181.674149	1121.105000	1697.412109	-60.283066
31181.674149	1121.105000	1696.390625	48.218689
31181.674149	1121.105000	1695.369141	102.677567
31181.674149	1121.105000	1694.347656	133.540833
31181.674149	1121.105000	1693.326172	-259.205109
31181.674149	1121.105000	1692.304688	-135.068054
31181.674149	1121.105000	1691.282227	-20.526339
31181.674149	1121.105000	1690.260742	56.421844
31181.674149	1121.105000	1689.238281	-91.256599
31181.674149	1121.105000	1688.214844	57.750561
31181.674149	1121.105000	1687.192383	-209.364456
31181.674149	1121.105000	1686.168945	109.833229
31181.674149	1121.105000	1685.146484	73.735664
31181.674149	1121.105000	1684.123047	-147.015778
31181.674149	1121.105000	1683.099609	-54.961136
31181.674149	1121.105000	1682.075195	60.228760
31181.674149	1121.105000	1681.051758	-67.484482
31181.674149	1121.105000	1680.027344	143.043442
31181.674149	1121.105000	1679.002930	101.374664
31181.674149	1121.105000	1677.978516	-43.056812
31181.674149	1121.105000	1676.953125	152.903854
31181.674149	1121.105000	1675.928711	38.555576
31181.674149	1121.105000	1674.903320	47.648937
31181.674149	1121.105000	1673.877930	159.164780
31181.674149	1121.105000	1672.852539	158.648514
31181.674149	1121.105000	1671.826172	13.522111
31181.674149	1121.105000	1670.800781	399.478302
31181.674149	1121.105000	1669.774414	-23.041981
31181.674149	1121.105000	1668.748047	248.401779
31181.674149	1121.105000	1667.721680	212.308212
31181.674149	1121.105000	1666.694336	145.827377
31181.674149	1121.105000	1665.667969	209.612076
31181.674149	1121.105000	1664.640625	354.672699
31181.674149	1121.105000	1663.613281	173.881912
31181.674149	1121.105000	1662.585938	158.193573
31181.674149	1121.105000	1661.557617	542.358887
31181.674149	1121.105000	1660.530273	391.553131
31181.674149	1121.105000	1659.501953	382.479279
31181.674149	1121.105000	1658.473633	212.951920
31181.674149	1121.105000	1657.444336	340.796265
31181.674149	1121.105000	1656.416016	593.981262
31181.674149	1121.105000	1655.386719	586.808838
31181.674149	1121.105000	1654.358398	577.258118
31181.674149	1121.105000	1653.328125	737.070190
31181.674149	1121.105000	1652.298828	706.415588
31181.674149	1121.105000	1651.269531	914.752319
31181.674149	1121.105000	1650.239258	589.194214
31181.674149	1121.105000	1649.208984	841.382813
31181.674149	1121.105000	1648.178711	740.826782
31181.674149	1121.105000	1647.148438	712.140320
31181.674149	1121.105000	1646.117188	1133.200684
31181.674149	1121.105000	1645.086914	1071.871094
31181.674149	1121.105000	1644.055664	1258.485229
31181.674149	1121.105000	1643.024414	1071.876709
31181.674149	1121.105000	1641.992188	1160.975342
31181.674149	1121.105000	1640.960938	1326.462891
31181.674149	1121.105000	1639.928711	1128.196533
31181.674149	1121.105000	1638.896484	1312.033203
31181.674149	1121.105000	1637.864258	1271.192505
31181.674149	1121.105000	1636.832031	1637.712524
31181.674149	1121.105000	1635.798828	1319.019287
31181.674149	1121.105000	1634.766602	1447.003784
31181.674149	1121.105000	1633.733398	1729.874390
31181.674149	1121.105000	1632.699219	1459.803955
31181.674149	1121.105000	1631.666016	1525.146484
31181.674149	1121.105000	1630.632813	1669.050537
31181.674149	1121.105000	1629.598633	1685.719482
31181.674149	1121.105000	1628.564453	1774.010498
31181.674149	1121.105000	1627.530273	1906.158813
31181.674149	1121.105000	1626.495117	2068.250732
31181.674149	1121.105000	1625.460938	2514.399902
31181.674149	1121.105000	1624.425781	2436.136963
31181.674149	1121.105000	1623.390625	2367.141357
31181.674149	1121.105000	1622.355469	2492.080322
31181.674149	1121.105000	1621.319336	2716.188232
31181.674149	1121.105000	1620.284180	2485.672607
31181.674149	1121.105000	1619.248047	2365.968506
31181.674149	1121.105000	1618.211914	2509.274658
31181.674149	1121.105000	1617.174805	2461.107422
31181.674149	1121.105000	1616.138672	2871.837891
31181.674149	1121.105000	1615.101563	3038.049561
31181.674149	1121.105000	1614.065430	2671.844482
31181.674149	1121.105000	1613.027344	2720.536621
31181.674149	1121.105000	1611.990234	2842.993164
31181.674149	1121.105000	1610.953125	2730.486084
31181.674149	1121.105000	1609.915039	2551.246826
31181.674149	1121.105000	1608.876953	2623.096436
31181.674149	1121.105000	1607.838867	2810.065674
31181.674149	1121.105000	1606.800781	2766.844727
31181.674149	1121.105000	1605.761719	2564.879395
31181.674149	1121.105000	1604.723633	2827.823486
31181.674149	1121.105000	1603.684570	2966.478271
31181.674149	1121.105000	1602.644531	2714.132080
31181.674149	1121.105000	1601.605469	2749.398926
31181.674149	1121.105000	1600.566406	2991.623291
31181.674149	1121.105000	1599.526367	3100.478271
31181.674149	1121.105000	1598.486328	2878.439209
31181.674149	1121.105000	1597.446289	3125.272217
31181.674149	1121.105000	1596.405273	2953.973389
31181.674149	1121.105000	1595.365234	2948.208008
31181.674149	1121.105000	1594.324219	3238.718506
31181.674149	1121.105000	1593.283203	3042.485596
31181.674149	1121.105000	1592.242188	2972.660156
31181.674149	1121.105000	1591.200195	2779.000000
31181.674149	1121.105000	1590.159180	3292.230713
31181.674149	1121.105000	1589.117188	3036.831299
31181.674149	1121.105000	1588.075195	2827.500977
31181.674149	1121.105000	1587.032227	2581.634521
31181.674149	1121.105000	1585.990234	2877.067383
31181.674149	1121.105000	1584.947266	2532.930420
31181.674149	1121.105000	1583.904297	2775.732666
31181.674149	1121.105000	1582.861328	2887.945313
31181.674149	1121.105000	1581.818359	2631.395264
31181.674149	1121.105000	1580.775391	2810.243408
31181.674149	1121.105000	1579.731445	2638.748291
31181.674149	1121.105000	1578.687500	2767.371338
31181.674149	1121.105000	1577.643555	2843.417725
31181.674149	1121.105000	1576.598633	2757.043457
31181.674149	1121.105000	1575.554688	2684.587402
31181.674149	1121.105000	1574.509766	2690.049316
31181.674149	1121.105000	1573.464844	2551.542969
31181.674149	1121.105000	1572.419922	2461.253906
31181.674149	1121.105000	1571.374023	2711.787598
31181.674149	1121.105000	1570.329102	2434.335205
31181.674149	1121.105000	1569.283203	2621.068359
31181.674149	1121.105000	1568.237305	2261.749268
31181.674149	1121.105000	1567.191406	2558.400146
31181.674149	1121.105000	1566.144531	2242.910400
31181.674149	1121.105000	1565.098633	2192.633301
31181.674149	1121.105000	1564.051758	2348.001465
31181.674149	1121.105000	1563.004883	2067.452881
31181.674149	1121.105000	1561.957031	2124.941406
31181.674149	1121.105000	1560.910156	1904.202148
31181.674149	1121.105000	1559.862305	1863.928955
31181.674149	1121.105000	1558.814453	2013.163940
31181.674149	1121.105000	1557.766602	2379.167236
31181.674149	1121.105000	1556.718750	1532.173340
31181.674149	1121.105000	1555.669922	1675.045654
31181.674149	1121.105000	1554.621094	1975.306396
31181.674149	1121.105000	1553.573242	1815.338013
31181.674149	1121.105000	1552.523438	1974.538208
31181.674149	1121.105000	1551.474609	1833.200928
31181.674149	1121.105000	1550.424805	1719.415405
31181.674149	1121.105000	1549.375000	1803.960449
31181.674149	1121.105000	1548.325195	1754.349976
31181.674149	1121.105000	1547.275391	1896.140381
31181.674149	1121.105000	1546.225586	1683.072021
31181.674149	1121.105000	1545.174805	1802.443481
31181.674149	1121.105000	1544.124023	1983.386230
31181.674149	1121.105000	1543.073242	1830.136353
31181.674149	1121.105000	1542.022461	1593.018066
31181.674149	1121.105000	1540.970703	1710.830688
31181.674149	1121.105000	1539.919922	1785.637573
31181.674149	1121.105000	1538.868164	1506.094238
31181.674149	1121.105000	1537.815430	1583.568115
31181.674149	1121.105000	1536.763672	1434.082397
31181.674149	1121.105000	1535.710938	1555.119873
31181.674149	1121.105000	1534.659180	1712.675171
31181.674149	1121.105000	1533.606445	1713.722290
31181.674149	1121.105000	1532.552734	1951.034912
31181.674149	1121.105000	1531.500000	1666.536255
31181.674149	1121.105000	1530.446289	1700.007935
31181.674149	1121.105000	1529.393555	1604.405273
31181.674149	1121.105000	1528.338867	1518.107788
31181.674149	1121.105000	1527.285156	1697.395264
31181.674149	1121.105000	1526.231445	1514.104370
31181.674149	1121.105000	1525.176758	1770.837769
31181.674149	1121.105000	1524.122070	1578.990112
31181.674149	1121.105000	1523.067383	1376.125244
31181.674149	1121.105000	1522.012695	1237.008423
31181.674149	1121.105000	1520.957031	1399.401367
31181.674149	1121.105000	1519.901367	1349.111816
31181.674149	1121.105000	1518.845703	1321.725098
31181.674149	1121.105000	1517.790039	941.480652
31181.674149	1121.105000	1516.734375	873.938416
31181.674149	1121.105000	1515.677734	648.269470
31181.674149	1121.105000	1514.621094	592.604492
31181.674149	1121.105000	1513.564453	783.741455
31181.674149	1121.105000	1512.507813	642.640503
31181.674149	1121.105000	1511.450195	445.315491
31181.674149	1121.105000	1510.393555	614.519653
31181.674149	1121.105000	1509.335938	252.807022
31181.674149	1121.105000	1508.278320	467.669891
31181.674149	1121.105000	1507.219727	553.927612
31181.674149	1121.105000	1506.162109	502.643951
31181.674149	1121.105000	1505.103516	532.923584
31181.674149	1121.105000	1504.044922	127.710785
31181.674149	1121.105000	1502.986328	81.826820
31181.674149	1121.105000	1501.926758	442.443695
31181.674149	1121.105000	1500.868164	135.302246
31181.674149	1121.105000	1499.808594	270.698944
31181.674149	1121.105000	1498.749023	277.746674
31181.674149	1121.105000	1497.688477	43.760895
31181.674149	1121.105000	1496.628906	290.370972
31181.674149	1121.105000	1495.568359	57.010052
31181.674149	1121.105000	1494.507813	-88.092934
31181.674149	1121.105000	1493.447266	5.976729
31181.674149	1121.105000	1492.386719	149.840759
31181.674149	1121.105000	1491.325195	39.396095
31181.674149	1121.105000	1490.263672	93.657639
31181.674149	1121.105000	1489.202148	105.395470
31181.674149	1121.105000	1488.140625	20.608147
31181.674149	1121.105000	1487.079102	-165.145248
31181.674149	1121.105000	1486.016602	81.465019
31181.674149	1121.105000	1484.954102	314.755157
31181.674149	1121.105000	1483.891602	-29.817400
31181.674149	1121.105000	1482.829102	30.802420
31181.674149	1121.105000	1481.765625	170.357376
31181.674149	1121.105000	1480.702148	-202.355026
31181.674149	1121.105000	1479.638672	63.577595
31181.674149	1121.105000	1478.575195	3.923100
31181.674149	1121.105000	1477.511719	301.716888
31181.674149	1121.105000	1476.447266	146.034897
31181.674149	1121.105000	1475.382813	127.612663
31181.674149	1121.105000	1474.318359	158.872192
31181.674149	1121.105000	1473.253906	111.887848
31181.674149	1121.105000	1472.189453	244.829651
31181.674149	1121.105000	1471.124023	408.903656
31181.674149	1121.105000	1470.058594	340.513794
31181.674149	1121.105000	1468.993164	635.355469
31181.674149	1121.105000	1467.927734	166.342682
31181.674149	1121.105000	1466.861328	320.451965
31181.674149	1121.105000	1465.794922	533.019714
31181.674149	1121.105000	1464.728516	611.362305
31181.674149	1121.105000	1463.662109	728.508850
31181.674149	1121.105000	1462.594727	814.100891
31181.674149	1121.105000	1461.528320	739.386475
31181.674149	1121.105000	1460.460938	1037.565063
31181.674149	1121.105000	1459.393555	1273.890991
31181.674149	1121.105000	1458.326172	909.639771
31181.674149	1121.105000	1457.257813	746.266296
31181.674149	1121.105000	1456.189453	802.504944
31181.674149	1121.105000	1455.121094	1079.074097
31181.674149	1121.105000	1454.052734	1003.442078
31181.674149	1121.105000	1452.984375	1256.307739
31181.674149	1121.105000	1451.915039	885.072937
31181.674149	1121.105000	1450.845703	1029.448730
31181.674149	1121.105000	1449.776367	1023.466003
31181.674149	1121.105000	1448.707031	864.026611
31181.674149	1121.105000	1447.636719	534.124939
31181.674149	1121.105000	1446.567383	673.704529
31181.674149	1121.105000	1445.497070	834.493103
31181.674149	1121.105000	1444.425781	1050.719482
31181.674149	1121.105000	1443.355469	905.030457
31181.674149	1121.105000	1442.285156	552.346680
31181.674149	1121.105000	1441.213867	724.691345
31181.674149	1121.105000	1440.142578	805.309937
31181.674149	1121.105000	1439.070313	589.460388
31181.674149	1121.105000	1437.999023	350.890594
31181.674149	1121.105000	1436.926758	875.902466
31181.674149	1121.105000	1435.854492	791.629211
31181.674149	1121.105000	1434.782227	860.532776
31181.674149	1121.105000	1433.709961	717.823364
31181.674149	1121.105000	1432.636719	616.356018
31181.674149	1121.105000	1431.563477	604.600586
31181.674149	1121.105000	1430.490234	404.593323
31181.674149	1121.105000	1429.416992	510.997314
31181.674149	1121.105000	1428.343750	254.245209
31181.674149	1121.105000	1427.269531	299.441254
31181.674149	1121.105000	1426.195313	147.579315
31181.674149	1121.105000	1425.121094	38.371311
31181.674149	1121.105000	1424.046875	152.540787
31181.674149	1121.105000	1422.971680	-14.957547
31181.674149	1121.105000	1421.896484	-150.486313
31181.674149	1121.105000	1420.821289	142.043213
31181.674149	1121.105000	1419.746094	-211.774384
31181.674149	1121.105000	1418.669922	6.920754
31181.674149	1121.105000	1417.594727	12.829478
31181.674149	1121.105000	1416.518555	-50.637669
31181.674149	1121.105000	1415.442383	-167.200363
31181.674149	1121.105000	1414.365234	-184.908005
31181.674149	1121.105000	1413.289063	-422.120361
31181.674149	1121.105000	1412.211914	-79.626228
31181.674149	1121.105000	1411.134766	-255.247879
31181.674149	1121.105000	1410.057617	-231.107727
31181.674149	1121.105000	1408.979492	-266.937744
31181.674149	1121.105000	1407.902344	241.038605
31181.674149	1121.105000	1406.824219	248.931168
31181.674149	1121.105000	1405.746094	-2.939024
31181.674149	1121.105000	1404.666992	171.323822
31181.674149	1121.105000	1403.588867	446.236542
31181.674149	1121.105000	1402.509766	355.063080
31181.674149	1121.105000	1401.430664	491.254303
31181.674149	1121.105000	1400.351563	440.527466
31181.674149	1121.105000	1399.271484	556.367310
31181.674149	1121.105000	1398.192383	515.604675
31181.674149	1121.105000	1397.112305	389.511566
31181.674149	1121.105000	1396.031250	598.569397
31181.674149	1121.105000	1394.951172	941.803101
31181.674149	1121.105000	1393.871094	597.178223
31181.674149	1121.105000	1392.790039	476.237183
31181.674149	1121.105000	1391.708984	316.331207
31181.674149	1121.105000	1390.626953	495.241394
31181.674149	1121.105000	1389.545898	646.281555
31181.674149	1121.105000	1388.463867	631.744263
31181.674149	1121.105000	1387.381836	528.681030
31181.674149	1121.105000	1386.299805	672.849915
31181.674149	1121.105000	1385.217773	652.864319
31181.674149	1121.105000	1384.134766	603.543640
31181.674149	1121.105000	1383.051758	434.922882
31181.674149	1121.105000	1381.968750	698.941589
31181.674149	1121.105000	1380.885742	719.394836
31181.674149	1121.105000	1379.802734	770.497681
31181.674149	1121.105000	1378.718750	735.597656
31181.674149	1121.105000	1377.634766	635.242371
31181.674149	1121.105000	1376.550781	882.193604
31181.674149	1121.105000	1375.465820	869.484985
31181.674149	1121.105000	1374.381836	975.336792
31181.674149	1121.105000	1373.296875	1101.906250
31181.674149	1121.105000	1372.211914	854.097290
31181.674149	1121.105000	1371.126953	1028.640503
31181.674149	1121.105000	1370.041016	777.759705
31181.674149	1121.105000	1368.955078	1063.547852
31181.674149	1121.105000	1367.869141	1051.688477
31181.674149	1121.105000	1366.783203	1231.790894
31181.674149	1121.105000	1365.697266	1188.786865
31181.674149	1121.105000	1364.610352	1107.936157
31181.674149	1121.105000	1363.523438	1382.494751
31181.674149	1121.105000	1362.436523	1048.183350
31181.674149	1121.105000	1361.349609	988.519470
31181.674149	1121.105000	1360.261719	727.796753
31181.674149	1121.105000	1359.174805	1000.476563
31181.674149	1121.105000	1358.086914	725.625061
31181.674149	1121.105000	1356.998047	904.342163
31181.674149	1121.105000	1355.910156	712.514099
31181.674149	1121.105000	1354.821289	691.686340
31181.674149	1121.105000	1353.732422	498.076233
31181.674149	1121.105000	1352.643555	922.892639
31181.674149	1121.105000	1351.554688	880.387329
31181.674149	1121.105000	1350.464844	771.326050
31181.674149	1121.105000	1349.375000	952.837524
31181.674149	1121.105000	1348.285156	841.876709
31181.674149	1121.105000	1347.195313	736.703125
31181.674149	1121.105000	1346.105469	895.304932
31181.674149	1121.105000	1345.014648	878.675049
31181.674149	1121.105000	1343.923828	1036.587891
31181.674149	1121.105000	1342.833008	1008.881287
31181.674149	1121.105000	1341.741211	1325.505371
31181.674149	1121.105000	1340.650391	1115.000610
31181.674149	1121.105000	1339.558594	1093.863525
31181.674149	1121.105000	1338.466797	1290.946167
31181.674149	1121.105000	1337.374023	1029.912109
31181.674149	1121.105000	1336.282227	1080.470581
31181.674149	1121.105000	1335.189453	919.148438
31181.674149	1121.105000	1334.096680	1071.513916
31181.674149	1121.105000	1333.003906	978.746643
31181.674149	1121.105000	1331.910156	921.707886
31181.674149	1121.105000	1330.817383	826.611633
31181.674149	1121.105000	1329.723633	825.575684
31181.674149	1121.105000	1328.629883	516.005554
31181.674149	1121.105000	1327.535156	734.089417
31181.674149	1121.105000	1326.441406	623.542114
31181.674149	1121.105000	1325.346680	753.916077
31181.674149	1121.105000	1324.251953	525.907288
31181.674149	1121.105000	1323.156250	674.905396
31181.674149	1121.105000	1322.061523	839.964478
31181.674149	1121.105000	1320.965820	526.133606
31181.674149	1121.105000	1319.870117	455.610504
31181.674149	1121.105000	1318.774414	560.092163
31181.674149	1121.105000	1317.678711	387.527435
31181.674149	1121.105000	1316.582031	606.585876
31181.674149	1121.105000	1315.485352	521.964722
31181.674149	1121.105000	1314.388672	671.304382
31181.674149	1121.105000	1313.291016	714.395630
31181.674149	1121.105000	1312.194336	506.454865
31181.674149	1121.105000	1311.096680	619.876587
31181.674149	1121.105000	1309.999023	586.894836
31181.674149	1121.105000	1308.901367	468.532745
31181.674149	1121.105000	1307.802734	578.196655
31181.674149	1121.105000	1306.705078	508.067230
31181.674149	1121.105000	1305.606445	253.793488
31181.674149	1121.105000	1304.506836	550.187805
31181.674149	1121.105000	1303.408203	692.192200
31181.674149	1121.105000	1302.308594	389.434601
31181.674149	1121.105000	1301.208984	486.232452
31181.674149	1121.105000	1300.109375	350.364777
31181.674149	1121.105000	1299.009766	308.509125
31181.674149	1121.105000	1297.909180	437.527405
31181.674149	1121.105000	1296.808594	678.170532
31181.674149	1121.105000	1295.708008	352.916779
31181.674149	1121.105000	1294.607422	618.685791
31181.674149	1121.105000	1293.506836	527.438354
31181.674149	1121.105000	1292.405273	469.017029
31181.674149	1121.105000	1291.303711	534.451843
31181.674149	1121.105000	1290.202148	536.791443
31181.674149	1121.105000	1289.099609	446.097351
31181.674149	1121.105000	1287.998047	214.843491
31181.674149	1121.105000	1286.895508	371.879791
31181.674149	1121.105000	1285.792969	504.972382
31181.674149	1121.105000	1284.689453	383.681061
31181.674149	1121.105000	1283.586914	232.768555
31181.674149	1121.105000	1282.483398	418.934662
31181.674149	1121.105000	1281.379883	328.398590
31181.674149	1121.105000	1280.276367	476.183594
31181.674149	1121.105000	1279.171875	273.962830
31181.674149	1121.105000	1278.067383	234.807022
31181.674149	1121.105000	1276.962891	441.454285
31181.674149	1121.105000	1275.858398	286.140778
31181.674149	1121.105000	1274.753906	216.272675
31181.674149	1121.105000	1273.648438	208.040802
31181.674149	1121.105000	1272.542969	206.097839
31181.674149	1121.105000	1271.437500	79.931976
31181.674149	1121.105000	1270.331055	245.284882
31181.674149	1121.105000	1269.225586	119.954185
31181.674149	1121.105000	1268.119141	166.792496
31181.674149	1121.105000	1267.012695	144.274780
31181.674149	1121.105000	1265.906250	130.234955
31181.674149	1121.105000	1264.798828	262.629578
31181.674149	1121.105000	1263.691406	290.105530
31181.674149	1121.105000	1262.583984	314.629578
31181.674149	1121.105000	1261.476563	338.969269
31181.674149	1121.105000	1260.368164	267.038208
31181.674149	1121.105000	1259.260742	-93.377502
31181.674149	1121.105000	1258.152344	-67.813972
31181.674149	1121.105000	1257.043945	63.268375
31181.674149	1121.105000	1255.934570	172.449097
31181.674149	1121.105000	1254.825195	-41.318092
31181.674149	1121.105000	1253.716797	-148.634109
31181.674149	1121.105000	1252.606445	-120.709663
31181.674149	1121.105000	1251.497070	50.091923
31181.674149	1121.105000	1250.387695	-167.768921
31181.674149	1121.105000	1249.277344	43.509945
31181.674149	1121.105000	1248.166992	-54.607796
31181.674149	1121.105000	1247.055664	15.344010
31181.674149	1121.105000	1245.945313	21.656105
31181.674149	1121.105000	1244.833984	271.696198
31181.674149	1121.105000	1243.722656	79.771919
31181.674149	1121.105000	1242.611328	165.828751
31181.674149	1121.105000	1241.499023	88.635468
31181.674149	1121.105000	1240.387695	38.213722
31181.674149	1121.105000	1239.275391	86.167252
31181.674149	1121.105000	1238.162109	11.562578
31181.674149	1121.105000	1237.049805	-128.883041
31181.674149	1121.105000	1235.936523	1.953442
31181.674149	1121.105000	1234.823242	-29.071123
31181.674149	1121.105000	1233.709961	-68.643921
31181.674149	1121.105000	1232.596680	51.502956
31181.674149	1121.105000	1231.482422	-126.264374
31181.674149	1121.105000	1230.369141	8.143147
31181.674149	1121.105000	1229.253906	-184.372253
31181.674149	1121.105000	1228.139648	-173.553833
31181.674149	1121.105000	1227.025391	-63.410473
31181.674149	1121.105000	1225.910156	-49.019623
31181.674149	1121.105000	1224.794922	-180.889038
31181.674149	1121.105000	1223.679688	-170.340530
31181.674149	1121.105000	1222.563477	6.686985
31181.674149	1121.105000	1221.447266	168.715271
31181.674149	1121.105000	1220.331055	98.496780
31181.674149	1121.105000	1219.214844	262.530090
31181.674149	1121.105000	1218.098633	157.782501
31181.674149	1121.105000	1216.981445	73.834381
31181.674149	1121.105000	1215.864258	121.721596
31181.674149	1121.105000	1214.747070	-62.854107
31181.674149	1121.105000	1213.629883	-56.827671
31181.674149	1121.105000	1212.511719	148.920074
31181.674149	1121.105000	1211.393555	207.737869
31181.674149	1121.105000	1210.275391	105.399780
31181.674149	1121.105000	1209.157227	125.324455
31181.674149	1121.105000	1208.038086	204.271454
31181.674149	1121.105000	1206.918945	173.207047
31181.674149	1121.105000	1205.799805	-46.289898
31181.674149	1121.105000	1204.680664	-19.960840
31181.674149	1121.105000	1203.560547	-130.755478
31181.674149	1121.105000	1202.441406	-39.946026
31181.674149	1121.105000	1201.321289	-101.592850
31181.674149	1121.105000	1200.200195	-47.021572
31181.674149	1121.105000	1199.080078	-248.910095
31181.674149	1121.105000	1197.958984	-62.450108
31181.674149	1121.105000	1196.837891	19.725992
31181.674149	1121.105000	1195.716797	-73.877007
31181.674149	1121.105000	1194.594727	41.853127
31181.674149	1121.105000	1193.473633	160.366440
31181.674149	1121.105000	1192.351563	-82.836220
31181.674149	1121.105000	1191.229492	-5.951158
31181.674149	1121.105000	1190.106445	79.002693
31181.674149	1121.105000	1188.984375	74.790672
31181.674149	1121.105000	1187.861328	130.598465
31181.674149	1121.105000	1186.738281	81.286880
31181.674149	1121.105000	1185.614258	100.852287
31181.674149	1121.105000	1184.491211	139.133133
31181.674149	1121.105000	1183.367188	115.705048
31181.674149	1121.105000	1182.243164	103.894119
31181.674149	1121.105000	1181.119141	137.314758
31181.674149	1121.105000	1179.994141	143.078171
31181.674149	1121.105000	1178.869141	238.752991
31181.674149	1121.105000	1177.744141	118.598228
31181.674149	1121.105000	1176.619141	22.400238
31181.674149	1121.105000	1175.493164	-1.882474
31181.674149	1121.105000	1174.368164	-4.286375
31181.674149	1121.105000	1173.242188	-51.104736
31181.674149	1121.105000	1172.115234	-36.076836
31181.674149	1121.105000	1170.989258	-108.168129
31181.674149	1121.105000	1169.862305	11.759172
31181.674149	1121.105000	1168.735352	-101.543526
31181.674149	1121.105000	1167.608398	-175.926422
31181.674149	1121.105000	1166.481445	-2.233857
31181.674149	1121.105000	1165.353516	2.843441
31181.674149	1121.105000	1164.225586	-30.774637
31181.674149	1121.105000	1163.097656	-135.467514
31181.674149	1121.105000	1161.968750	-131.430130
31181.674149	1121.105000	1160.840820	30.124239
31181.674149	1121.105000	1159.711914	40.810047
31181.674149	1121.105000	1158.583008	12.385745
31181.674149	1121.105000	1157.453125	-100.939682
31181.674149	1121.105000	1156.324219	65.041374
31181.674149	1121.105000	1155.194336	-82.180489
31181.674149	1121.105000	1154.064453	-31.764277
31181.674149	1121.105000	1152.933594	-48.278725
31181.674149	1121.105000	1151.803711	-314.942963
31181.674149	1121.105000	1150.672852	7.213224
31181.674149	1121.105000	1149.541992	-99.747925
31181.674149	1121.105000	1148.411133	-117.500511
31181.674149	1121.105000	1147.279297	6.829598
31181.674149	1121.105000	1146.147461	-156.429321
31181.674149	1121.105000	1145.015625	-243.334137
31181.674149	1121.105000	1143.883789	56.624733
31181.674149	1121.105000	1142.750977	-153.677032
31181.674149	1121.105000	1141.619141	128.340591
31181.674149	1121.105000	1140.486328	-53.570930
31181.674149	1121.105000	1139.352539	52.560585
31181.674149	1121.105000	1138.219727	-255.850082
31181.674149	1121.105000	1137.085938	-89.495499
31181.674149	1121.105000	1135.952148	39.313229
31181.674149	1121.105000	1134.818359	136.288925
31181.674149	1121.105000	1133.683594	347.220551
31181.674149	1121.105000	1132.549805	107.110092
31181.674149	1121.105000	1131.415039	402.560760
31181.674149	1121.105000	1130.279297	719.046875
31181.674149	1121.105000	1129.144531	740.272278
31181.674149	1121.105000	1128.008789	627.753723
31181.674149	1121.105000	1126.873047	678.759155
31181.674149	1121.105000	1125.737305	590.976318
31181.674149	1121.105000	1124.601563	652.948181
31181.674149	1121.105000	1123.464844	703.654236
31181.674149	1121.105000	1122.328125	627.650208
31181.674149	1121.105000	1121.191406	542.649109
31181.674149	1121.105000	1120.054688	581.049622
31181.674149	1121.105000	1118.916992	517.151062
31181.674149	1121.105000	1117.779297	433.486298
31181.674149	1121.105000	1116.641602	530.409058
31181.674149	1121.105000	1115.503906	619.857056
31181.674149	1121.105000	1114.365234	424.646881
31181.674149	1121.105000	1113.226563	783.446594
31181.674149	1121.105000	1112.087891	402.108154
31181.674149	1121.105000	1110.949219	242.012665
31181.674149	1121.105000	1109.809570	361.415710
31181.674149	1121.105000	1108.669922	127.675400
31181.674149	1121.105000	1107.530273	522.598755
31181.674149	1121.105000	1106.390625	273.908844
31181.674149	1121.105000	1105.250000	386.645935
31181.674149	1121.105000	1104.109375	349.432373
31181.674149	1121.105000	1102.968750	565.961975
31181.674149	1121.105000	1101.828125	491.006592
31181.674149	1121.105000	1100.686523	441.240967
31181.674149	1121.105000	1099.544922	619.893433
31181.674149	1121.105000	1098.403320	665.519104
31181.674149	1121.105000	1097.261719	737.075562
31181.674149	1121.105000	1096.120117	668.207764
31181.674149	1121.105000	1094.977539	812.113403
31181.674149	1121.105000	1093.834961	1168.824219
31181.674149	1121.105000	1092.691406	826.877380
31181.674149	1121.105000	1091.548828	598.280029
31181.674149	1121.105000	1090.405273	667.274109
31181.674149	1121.105000	1089.261719	721.067444
31181.674149	1121.105000	1088.118164	317.494812
31181.674149	1121.105000	1086.973633	456.844818
31181.674149	1121.105000	1085.829102	393.431396
31181.674149	1121.105000	1084.684570	281.567596
31181.674149	1121.105000	1083.540039	392.500214
31181.674149	1121.105000	1082.395508	578.638062
31181.674149	1121.105000	1081.250000	536.712891
31181.674149	1121.105000	1080.104492	534.997986
31181.674149	1121.105000	1078.958984	620.537109
31181.674149	1121.105000	1077.812500	707.856506
31181.674149	1121.105000	1076.666016	471.975983
31181.674149	1121.105000	1075.519531	542.353394
31181.674149	1121.105000	1074.373047	567.924988
31181.674149	1121.105000	1073.226563	675.558716
31181.674149	1121.105000	1072.079102	567.489380
31181.674149	1121.105000	1070.931641	671.329224
31181.674149	1121.105000	1069.784180	431.131714
31181.674149	1121.105000	1068.635742	586.979126
31181.674149	1121.105000	1067.487305	580.202759
31181.674149	1121.105000	1066.338867	570.035828
31181.674149	1121.105000	1065.190430	612.508423
31181.674149	1121.105000	1064.041992	834.912415
31181.674149	1121.105000	1062.892578	751.284729
31181.674149	1121.105000	1061.743164	691.556702
31181.674149	1121.105000	1060.593750	632.377686
31181.674149	1121.105000	1059.443359	382.362396
31181.674149	1121.105000	1058.292969	838.432861
31181.674149	1121.105000	1057.142578	550.832092
31181.674149	1121.105000	1055.992188	517.465332
31181.674149	1121.105000	1054.841797	452.091278
31181.674149	1121.105000	1053.690430	625.544922
31181.674149	1121.105000	1052.539063	631.160889
31181.674149	1121.105000	1051.387695	398.875671
31181.674149	1121.105000	1050.235352	395.836517
31181.674149	1121.105000	1049.083984	508.343353
31181.674149	1121.105000	1047.931641	493.193695
31181.674149	1121.105000	1046.778320	260.976074
31181.674149	1121.105000	1045.625977	276.319153
31181.674149	1121.105000	1044.472656	242.748367
31181.674149	1121.105000	1043.319336	149.003403
31181.674149	1121.105000	1042.166016	176.860596
31181.674149	1121.105000	1041.012695	111.717422
31181.674149	1121.105000	1039.858398	86.651115
31181.674149	1121.105000	1038.704102	438.471008
31181.674149	1121.105000	1037.549805	122.604881
31181.674149	1121.105000	1036.394531	260.666840
31181.674149	1121.105000	1035.239258	221.735016
31181.674149	1121.105000	1034.083984	234.820206
31181.674149	1121.105000	1032.928711	323.458557
31181.674149	1121.105000	1031.773438	421.906982
31181.674149	1121.105000	1030.617188	245.229385
31181.674149	1121.105000	1029.460938	462.311005
31181.674149	1121.105000	1028.304688	207.958496
31181.674149	1121.105000	1027.147461	312.578400
31181.674149	1121.105000	1025.991211	199.946625
31181.674149	1121.105000	1024.833984	141.492279
31181.674149	1121.105000	1023.675781	248.805099
31181.674149	1121.105000	1022.518555	196.774643
31181.674149	1121.105000	1021.360352	449.158783
31181.674149	1121.105000	1020.202148	372.125519
31181.674149	1121.105000	1019.043945	69.142662
31181.674149	1121.105000	1017.884766	233.307648
31181.674149	1121.105000	1016.726563	331.521484
31181.674149	1121.105000	1015.567383	295.976898
31181.674149	1121.105000	1014.407227	426.856384
31181.674149	1121.105000	1013.248047	318.338654
31181.674149	1121.105000	1012.087891	187.333908
31181.674149	1121.105000	1010.927734	109.126816
31181.674149	1121.105000	1009.767578	132.298523
31181.674149	1121.105000	1008.606445	108.991859
31181.674149	1121.105000	1007.446289	-65.649025
31181.674149	1121.105000	1006.285156	116.983665
31181.674149	1121.105000	1005.123047	52.394703
31181.674149	1121.105000	1003.961914	20.561586
31181.674149	1121.105000	1002.799805	-112.949234
31181.674149	1121.105000	1001.637695	323.647430
31181.674149	1121.105000	1000.475586	321.643585
31181.674149	1121.105000	999.312500	22.624035
31181.674149	1121.105000	998.149414	121.401451
31181.674149	1121.105000	996.986328	21.802029
31181.674149	1121.105000	995.823242	172.602188
31181.674149	1121.105000	994.659180	195.607178
31181.674149	1121.105000	993.496094	183.145966
31181.674149	1121.105000	992.332031	116.708885
31181.674149	1121.105000	991.166992	88.779221
31181.674149	1121.105000	990.002930	159.917633
31181.674149	1121.105000	988.837891	283.151276
31181.674149	1121.105000	987.672852	157.357681
31181.674149	1121.105000	986.506836	-59.865253
31181.674149	1121.105000	985.341797	249.770020
31181.674149	1121.105000	984.175781	-74.451881
31181.674149	1121.105000	983.009766	-164.011688
31181.674149	1121.105000	981.843750	-138.475830
31181.674149	1121.105000	980.676758	35.775841
31181.674149	1121.105000	979.509766	-144.529312
31181.674149	1121.105000	978.342773	5.276637
31181.674149	1121.105000	977.175781	5.248337
31181.674149	1121.105000	976.007813	-174.467880
31181.674149	1121.105000	974.839844	6.804696
31181.674149	1121.105000	973.671875	21.986902
31181.674149	1121.105000	972.503906	-129.270950
31181.674149	1121.105000	971.334961	161.558167
31181.674149	1121.105000	970.166016	-32.718060
31181.674149	1121.105000	968.997070	-39.428833
31181.674149	1121.105000	967.828125	-91.175827
31181.674149	1121.105000	966.658203	-149.439972
31181.674149	1121.105000	965.488281	46.872635
31181.674149	1121.105000	964.318359	55.776505
31181.674149	1121.105000	963.148438	-121.334946
31181.674149	1121.105000	961.977539	-115.621513
31181.674149	1121.105000	960.806641	-147.157181
31181.674149	1121.105000	959.635742	-23.020247
31181.674149	1121.105000	958.463867	37.525890
31181.674149	1121.105000	957.292969	-234.194717
31181.674149	1121.105000	956.121094	99.845001
31181.674149	1121.105000	954.948242	229.708221
31181.674149	1121.105000	953.776367	-132.536743
31181.674149	1121.105000	952.603516	-108.018272
31181.674149	1121.105000	951.430664	-80.925484
31181.674149	1121.105000	950.257813	-179.694183
31181.674149	1121.105000	949.084961	-7.496520
31181.674149	1121.105000	947.911133	-69.488747
31181.674149	1121.105000	946.737305	-280.353119
31181.674149	1121.105000	945.563477	22.372961
31181.674149	1121.105000	944.388672	-35.084049
31181.674149	1121.105000	943.213867	92.526245
31181.674149	1121.105000	942.039063	98.032608
31181.674149	1121.105000	940.864258	138.649521
31181.674149	1121.105000	939.688477	97.198082
31181.674149	1121.105000	938.513672	155.904129
31181.674149	1121.105000	937.337891	326.096680
31181.674149	1121.105000	936.161133	141.529175
31181.674149	1121.105000	934.985352	-7.327357
31181.674149	1121.105000	933.808594	171.811066
31181.674149	1121.105000	932.631836	315.238800
31181.674149	1121.105000	931.454102	458.466156
31181.674149	1121.105000	930.277344	320.750397
31181.674149	1121.105000	929.099609	533.035461
31181.674149	1121.105000	927.921875	729.718201
31181.674149	1121.105000	926.743164	556.274780
31181.674149	1121.105000	925.565430	619.108887
31181.674149	1121.105000	924.386719	744.297058
31181.674149	1121.105000	923.208008	1005.350586
31181.674149	1121.105000	922.028320	809.634033
31181.674149	1121.105000	920.849609	536.017944
31181.674149	1121.105000	919.669922	541.894226
31181.674149	1121.105000	919.474609	653.174866
31181.674149	1121.105000	918.309570	386.292938
31181.674149	1121.105000	917.143555	326.527435
31181.674149	1121.105000	915.977539	371.376709
31181.674149	1121.105000	914.810547	111.378143
31181.674149	1121.105000	913.644531	154.015533
31181.674149	1121.105000	912.477539	207.753860
31181.674149	1121.105000	911.310547	325.951874
31181.674149	1121.105000	910.143555	246.228912
31181.674149	1121.105000	908.975586	57.622272
31181.674149	1121.105000	907.807617	320.216217
31181.674149	1121.105000	906.639648	262.751160
31181.674149	1121.105000	905.471680	331.924591
31181.674149	1121.105000	904.303711	207.841141
31181.674149	1121.105000	903.134766	263.669830
31181.674149	1121.105000	901.965820	117.446037
31181.674149	1121.105000	900.796875	57.842747
31181.674149	1121.105000	899.626953	149.165619
31181.674149	1121.105000	898.457031	129.512512
31181.674149	1121.105000	897.287109	100.989952
31181.674149	1121.105000	896.117188	123.484726
31181.674149	1121.105000	894.947266	86.097473
31181.674149	1121.105000	893.776367	-115.322304
31181.674149	1121.105000	892.605469	4.718710
31181.674149	1121.105000	891.434570	-14.900571
31181.674149	1121.105000	890.262695	-27.863905
31181.674149	1121.105000	889.091797	30.051640
31181.674149	1121.105000	887.919922	-49.362293
31181.674149	1121.105000	886.748047	12.959821
31181.674149	1121.105000	885.575195	-24.361166
31181.674149	1121.105000	884.403320	-325.054504
31181.674149	1121.105000	883.230469	-189.700699
31181.674149	1121.105000	882.057617	-7.946190
31181.674149	1121.105000	880.883789	-47.457325
31181.674149	1121.105000	879.710938	30.245623
31181.674149	1121.105000	878.537109	-38.009773
31181.674149	1121.105000	877.362305	185.555603
31181.674149	1121.105000	876.188477	112.865768
31181.674149	1121.105000	875.013672	95.446480
31181.674149	1121.105000	873.839844	-182.661041
31181.674149	1121.105000	872.664063	-10.068067
31181.674149	1121.105000	871.489258	25.528566
31181.674149	1121.105000	870.313477	164.878113
31181.674149	1121.105000	869.138672	147.434891
31181.674149	1121.105000	867.962891	165.306473
31181.674149	1121.105000	866.786133	105.941780
31181.674149	1121.105000	865.610352	141.447418
31181.674149	1121.105000	864.433594	-131.845444
31181.674149	1121.105000	863.256836	-113.958382
31181.674149	1121.105000	862.079102	230.209488
31181.674149	1121.105000	860.902344	-104.678543
31181.674149	1121.105000	859.724609	80.656792
31181.674149	1121.105000	858.546875	27.945839
31181.674149	1121.105000	857.368164	36.931984
31181.674149	1121.105000	856.190430	-174.343552
31181.674149	1121.105000	855.011719	-121.302803
31181.674149	1121.105000	853.833008	-158.558197
31181.674149	1121.105000	852.654297	-231.027237
31181.674149	1121.105000	851.474609	-211.049667
31181.674149	1121.105000	850.294922	-133.889297
31181.674149	1121.105000	849.115234	-80.971458
31181.674149	1121.105000	847.935547	-184.237137
31181.674149	1121.105000	846.754883	231.445496
31181.674149	1121.105000	845.575195	2.821850
31181.674149	1121.105000	844.393555	-19.112926
31181.674149	1121.105000	843.212891	-214.658859
31181.674149	1121.105000	842.032227	132.515991
31181.674149	1121.105000	840.850586	167.625366
31181.674149	1121.105000	839.668945	53.368324
31181.674149	1121.105000	838.486328	-115.748520
31181.674149	1121.105000	837.304688	-87.254028
31181.674149	1121.105000	836.122070	-39.034756
31181.674149	1121.105000	834.939453	-210.284180
31181.674149	1121.105000	833.756836	-188.428787
31181.674149	1121.105000	832.573242	-54.739426
31181.674149	1121.105000	831.389648	-74.632240
31181.674149	1121.105000	830.206055	-215.128448
31181.674149	1121.105000	829.022461	-31.172165
31181.674149	1121.105000	827.838867	-81.814896
31181.674149	1121.105000	826.654297	-20.713419
31181.674149	1121.105000	825.469727	167.394897
31181.674149	1121.105000	824.284180	46.581722
31181.674149	1121.105000	823.099609	44.031437
31181.674149	1121.105000	821.914063	166.247482
31181.674149	1121.105000	820.728516	43.229862
31181.674149	1121.105000	819.542969	-116.971466
31181.674149	1121.105000	818.356445	44.495274
31181.674149	1121.105000	817.169922	291.175049
31181.674149	1121.105000	815.983398	-46.225983
31181.674149	1121.105000	814.796875	233.099960
31181.674149	1121.105000	813.609375	206.217392
31181.674149	1121.105000	812.422852	-58.936001
31181.674149	1121.105000	811.235352	-4.967676
31181.674149	1121.105000	810.046875	-226.340530
31181.674149	1121.105000	808.859375	-170.252411
31181.674149	1121.105000	807.670898	-42.156738
31181.674149	1121.105000	806.482422	-108.481964
31181.674149	1121.105000	805.293945	56.576668
31181.674149	1121.105000	804.104492	14.184904
31181.674149	1121.105000	802.915039	-231.167679
31181.674149	1121.105000	801.725586	-140.491760
31181.674149	1121.105000	800.536133	37.348450
31181.674149	1121.105000	799.345703	127.841759
31181.674149	1121.105000	798.155273	174.643906
31181.674149	1121.105000	796.964844	-20.583961
31181.674149	1121.105000	795.774414	-141.681641
31181.674149	1121.105000	794.583008	-245.346039
31181.674149	1121.105000	793.392578	-124.639351
31181.674149	1121.105000	792.200195	107.051582
31181.674149	1121.105000	791.008789	197.045288
31181.674149	1121.105000	789.816406	-17.847242
31181.674149	1121.105000	788.625000	200.448868
31181.674149	1121.105000	787.432617	103.048111
31181.674149	1121.105000	786.239258	-142.320129
31181.674149	1121.105000	785.046875	-115.733040
31181.674149	1121.105000	783.853516	-187.083252
31181.674149	1121.105000	782.660156	28.557966
31181.674149	1121.105000	781.465820	-88.566422
31181.674149	1121.105000	780.272461	96.410164
31181.674149	1121.105000	779.078125	20.481415
31181.674149	1121.105000	777.883789	-57.653240
31181.674149	1121.105000	776.688477	250.825134
31181.674149	1121.105000	775.494141	-35.943027
31181.674149	1121.105000	774.298828	55.141994
31181.674149	1121.105000	773.103516	-86.156677
31181.674149	1121.105000	771.907227	-125.458801
31181.674149	1121.105000	770.711914	156.329651
31181.674149	1121.105000	769.515625	186.273758
31181.674149	1121.105000	768.318359	-161.273117
31181.674149	1121.105000	767.122070	156.994370
31181.674149	1121.105000	765.924805	219.220062
31181.674149	1121.105000	764.727539	183.799332
31181.674149	1121.105000	763.530273	87.634590
31181.674149	1121.105000	762.333008	91.102837
31181.674149	1121.105000	761.134766	189.808411
31181.674149	1121.105000	759.936523	173.603027
31181.674149	1121.105000	758.738281	187.639099
31181.674149	1121.105000	757.540039	63.030968
31181.674149	1121.105000	756.340820	228.435471
31181.674149	1121.105000	755.141602	56.095226
31181.674149	1121.105000	753.942383	-204.965240
31181.674149	1121.105000	752.742188	33.685139
31181.674149	1121.105000	751.541992	3.974761
31181.674149	1121.105000	750.341797	34.732861
31181.674149	1121.105000	749.141602	171.316025
31181.674149	1121.105000	747.941406	234.268356
31181.674149	1121.105000	746.740234	52.923908
31181.674149	1121.105000	745.539063	-117.634193
31181.674149	1121.105000	744.337891	109.224113
31181.674149	1121.105000	743.135742	5.487000
31181.674149	1121.105000	741.933594	225.562057
31181.674149	1121.105000	740.731445	50.420208
31181.674149	1121.105000	739.529297	296.101715
31181.674149	1121.105000	738.326172	-53.949432
31181.674149	1121.105000	737.124023	137.525970
31181.674149	1121.105000	735.919922	576.860107
31181.674149	1121.105000	734.716797	500.536804
31181.674149	1121.105000	733.513672	247.358414
31181.674149	1121.105000	732.309570	216.201157
31181.674149	1121.105000	731.105469	473.729340
31181.674149	1121.105000	729.900391	147.156998
31181.674149	1121.105000	728.696289	141.585358
31181.674149	1121.105000	727.491211	178.985062
31181.674149	1121.105000	726.286133	270.096924
31181.674149	1121.105000	725.080078	122.107368
31181.674149	1121.105000	723.874023	157.023071
31181.674149	1121.105000	722.668945	159.540466
31181.674149	1121.105000	721.461914	288.884521
31181.674149	1121.105000	720.255859	308.368378
31181.674149	1121.105000	719.048828	390.100250
31181.674149	1121.105000	717.841797	147.029739
31181.674149	1121.105000	716.634766	409.114410
31181.674149	1121.105000	715.427734	266.935883
31181.674149	1121.105000	714.219727	17.268854
31181.674149	1121.105000	713.011719	89.839699
31181.674149	1121.105000	711.803711	99.982048
31181.674149	1121.105000	710.594727	69.208694
31181.674149	1121.105000	709.385742	-227.881607
31181.674149	1121.105000	708.176758	153.328033
31181.674149	1121.105000	706.967773	-45.160629
31181.674149	1121.105000	705.758789	-31.265808
31181.674149	1121.105000	704.548828	156.263245
31181.674149	1121.105000	703.338867	236.368622
31181.674149	1121.105000	702.127930	294.882935
31181.674149	1121.105000	700.917969	445.445129
31181.674149	1121.105000	699.707031	657.984253
31181.674149	1121.105000	698.496094	641.033691
31181.674149	1121.105000	697.285156	1007.471313
31181.674149	1121.105000	696.073242	887.409668
31181.674149	1121.105000	694.861328	640.935303
31181.674149	1121.105000	693.649414	535.762085
31181.674149	1121.105000	692.436523	385.562958
31181.674149	1121.105000	691.224609	534.941345
31181.674149	1121.105000	690.011719	414.535156
31181.674149	1121.105000	688.798828	706.945984
31181.674149	1121.105000	687.584961	564.935486
31181.674149	1121.105000	686.372070	869.796387
31181.674149	1121.105000	685.158203	766.067261
31181.674149	1121.105000	683.943359	839.676819
31181.674149	1121.105000	682.729492	923.831543
31181.674149	1121.105000	681.514648	911.687744
31181.674149	1121.105000	680.299805	467.939728
31181.674149	1121.105000	679.084961	442.858429
31181.674149	1121.105000	677.869141	605.574097
31181.674149	1121.105000	676.653320	270.705231
31181.674149	1121.105000	675.437500	174.911514
31181.674149	1121.105000	674.221680	230.553833
31181.674149	1121.105000	673.004883	403.397003
31181.674149	1121.105000	671.789063	394.759674
31181.674149	1121.105000	670.571289	456.381317
31181.674149	1121.105000	669.354492	375.023773
31181.674149	1121.105000	668.136719	449.197266
31181.674149	1121.105000	666.919922	555.205627
31181.674149	1121.105000	665.701172	428.803131
31181.674149	1121.105000	664.483398	523.903076
31181.674149	1121.105000	663.264648	354.752563
31181.674149	1121.105000	662.045898	426.191132
31181.674149	1121.105000	660.827148	359.114288
31181.674149	1121.105000	659.608398	294.092285
31181.674149	1121.105000	658.388672	384.338562
31181.674149	1121.105000	657.168945	131.903229
31181.674149	1121.105000	655.949219	158.131058
31181.674149	1121.105000	654.728516	373.518585
31181.674149	1121.105000	653.507813	120.944366
31181.674149	1121.105000	652.287109	244.644882
31181.674149	1121.105000	651.066406	91.904518
31181.674149	1121.105000	649.844727	349.232361
31181.674149	1121.105000	648.623047	323.807220
31181.674149	1121.105000	647.401367	353.524872
31181.674149	1121.105000	646.179688	372.521423
31181.674149	1121.105000	644.957031	181.227737
31181.674149	1121.105000	643.734375	19.644264
31181.674149	1121.105000	642.511719	250.648422
31181.674149	1121.105000	641.289063	320.217285
31181.674149	1121.105000	640.065430	294.208282
31181.674149	1121.105000	638.841797	467.487610
31181.674149	1121.105000	637.618164	458.257965
31181.674149	1121.105000	636.393555	843.257629
31181.674149	1121.105000	635.168945	659.988770
31181.674149	1121.105000	633.944336	521.222656
31181.674149	1121.105000	632.719727	399.388611
31181.674149	1121.105000	631.494141	826.129211
31181.674149	1121.105000	630.269531	536.839478
31181.674149	1121.105000	629.042969	325.928680
31181.674149	1121.105000	627.817383	345.778320
31181.674149	1121.105000	626.590820	388.826782
31181.674149	1121.105000	625.365234	209.628876
31181.674149	1121.105000	624.137695	96.011314
31181.674149	1121.105000	622.911133	295.410126
31181.674149	1121.105000	621.683594	336.067108
31181.674149	1121.105000	620.456055	471.787231
31181.674149	1121.105000	619.228516	119.136124
31181.674149	1121.105000	618.000977	256.851196
31181.674149	1121.105000	616.772461	225.429291
31181.674149	1121.105000	615.543945	73.569244
31181.674149	1121.105000	614.314453	278.629242
31181.674149	1121.105000	613.085938	111.954208
31181.674149	1121.105000	611.856445	-1.924264
31181.674149	1121.105000	610.626953	270.434082
31181.674149	1121.105000	609.397461	181.816772
31181.674149	1121.105000	608.166992	-181.057693
31181.674149	1121.105000	606.936523	-107.207825
31181.674149	1121.105000	605.706055	-24.983753
31181.674149	1121.105000	604.474609	-197.932541
31181.674149	1121.105000	603.244141	-246.462494
31181.674149	1121.105000	602.012695	-42.113491
31181.674149	1121.105000	600.780273	-82.284424
31181.674149	1121.105000	599.548828	-27.654943
31181.674149	1121.105000	598.316406	10.079813
31181.674149	1121.105000	597.083984	-63.809280
31181.674149	1121.105000	595.851563	30.736053
31181.674149	1121.105000	594.618164	-139.966858
31181.674149	1121.105000	593.384766	-37.046452
31181.674149	1121.105000	592.151367	-77.231522
31181.674149	1121.105000	590.917969	-47.986153
31181.674149	1121.105000	589.683594	-102.873787
31181.674149	1121.105000	588.449219	88.257477
31181.674149	1121.105000	587.214844	39.686745
31181.674149	1121.105000	585.979492	-113.937408
31181.674149	1121.105000	584.745117	-122.495613
31181.674149	1121.105000	583.509766	-13.402435
31181.674149	1121.105000	582.273438	-99.662811
31181.674149	1121.105000	581.038086	-158.558838
31181.674149	1121.105000	579.801758	-28.470703
31181.674149	1121.105000	578.565430	93.195839
31181.674149	1121.105000	577.329102	44.869415
31181.674149	1121.105000	576.091797	-200.620453
31181.674149	1121.105000	574.854492	61.637817
31181.674149	1121.105000	573.617188	-38.972050
31181.674149	1121.105000	572.378906	30.324898
31181.674149	1121.105000	571.141602	-189.627884
31181.674149	1121.105000	569.903320	282.152252
31181.674149	1121.105000	568.664063	-241.492798
31181.674149	1121.105000	567.425781	-209.714996
31181.674149	1121.105000	566.186523	-123.444504
31181.674149	1121.105000	564.947266	-250.733902
31181.674149	1121.105000	563.708008	70.107140
31181.674149	1121.105000	562.467773	-163.792542
31181.674149	1121.105000	561.227539	92.151024
31181.674149	1121.105000	559.987305	107.458199
31181.674149	1121.105000	558.747070	-29.861378
31181.674149	1121.105000	557.505859	-135.681595
31181.674149	1121.105000	556.264648	-159.832870
31181.674149	1121.105000	555.023438	-98.184525
31181.674149	1121.105000	553.781250	-76.191345
31181.674149	1121.105000	552.539063	-14.416421
31181.674149	1121.105000	551.296875	11.909513
31181.674149	1121.105000	550.054688	48.762737
31181.674149	1121.105000	548.811523	-187.856247
31181.674149	1121.105000	547.569336	-12.989384
31181.674149	1121.105000	546.325195	-23.872622
31181.674149	1121.105000	545.082031	217.863953
31181.674149	1121.105000	543.837891	61.104786
31181.674149	1121.105000	542.593750	190.293686
31181.674149	1121.105000	541.349609	315.369598
31181.674149	1121.105000	540.105469	-170.404404
31181.674149	1121.105000	538.860352	-93.021545
31181.674149	1121.105000	537.615234	55.308147
31181.674149	1121.105000	536.369141	205.776123
31181.674149	1121.105000	535.124023	68.823517
31181.674149	1121.105000	533.877930	184.068329
31181.674149	1121.105000	532.631836	64.088966
31181.674149	1121.105000	531.384766	133.740143
31181.674149	1121.105000	530.138672	326.305695
31181.674149	1121.105000	528.891602	377.411011
31181.674149	1121.105000	527.643555	516.009399
31181.674149	1121.105000	526.396484	432.121063
31181.674149	1121.105000	525.148438	352.564270
31181.674149	1121.105000	523.900391	406.255066
31181.674149	1121.105000	522.652344	218.928314
31181.674149	1121.105000	521.403320	173.149948
31181.674149	1121.105000	520.154297	237.665497
31181.674149	1121.105000	518.905273	96.636314
31181.674149	1121.105000	517.656250	86.667015
31181.674149	1121.105000	516.406250	35.318760
31181.674149	1121.105000	515.156250	152.307907
31181.674149	1121.105000	513.906250	103.347153
31181.674149	1121.105000	512.655273	135.490891
31181.674149	1121.105000	511.404297	161.551453
31181.674149	1121.105000	510.153320	148.342789
31181.674149	1121.105000	508.902344	10.863246
31181.674149	1121.105000	507.650391	43.616478
31181.674149	1121.105000	506.398438	-72.743385
31181.674149	1121.105000	505.146484	225.608795
31181.674149	1121.105000	503.893555	74.344604
31181.674149	1121.105000	502.641602	246.477737
31181.674149	1121.105000	501.388672	211.571091
31181.674149	1121.105000	500.134766	75.366623
31181.674149	1121.105000	498.881836	156.757706
31181.674149	1121.105000	497.627930	-146.727631
31181.674149	1121.105000	496.374023	396.458099
31181.674149	1121.105000	495.119141	500.941345
31181.674149	1121.105000	493.865234	318.005463
31181.674149	1121.105000	492.610352	261.448334
31181.674149	1121.105000	491.355469	389.080872
31181.674149	1121.105000	490.099609	473.393616
31181.674149	1121.105000	488.843750	338.737885
31181.674149	1121.105000	487.587891	559.683655
31181.674149	1121.105000	486.332031	617.470581
31181.674149	1121.105000	485.075195	466.761566
31181.674149	1121.105000	483.818359	623.929260
31181.674149	1121.105000	482.561523	671.742065
31181.674149	1121.105000	481.304688	804.286316
31181.674149	1121.105000	480.046875	656.244141
31181.674149	1121.105000	478.789063	832.303284
31181.674149	1121.105000	477.531250	818.631409
31181.674149	1121.105000	476.272461	836.011841
31181.674149	1121.105000	475.013672	839.058960
31181.674149	1121.105000	473.754883	627.820618
31181.674149	1121.105000	472.496094	855.754822
31181.674149	1121.105000	471.236328	758.122437
31181.674149	1121.105000	469.976563	831.604858
31181.674149	1121.105000	468.716797	452.018616
31181.674149	1121.105000	467.456055	573.051697
31181.674149	1121.105000	466.196289	650.867920
31181.674149	1121.105000	464.935547	747.235779
31181.674149	1121.105000	463.673828	1018.537109
31181.674149	1121.105000	462.413086	818.622009
31181.674149	1121.105000	461.151367	884.180176
31181.674149	1121.105000	459.889648	1058.739746
31181.674149	1121.105000	458.626953	1233.246704
31181.674149	1121.105000	457.364258	1078.795044
31181.674149	1121.105000	456.101563	1171.037598
31181.674149	1121.105000	454.838867	1043.379395
31181.674149	1121.105000	453.575195	1106.815796
31181.674149	1121.105000	452.312500	1184.576660
31181.674149	1121.105000	451.047852	1323.875488
31181.674149	1121.105000	449.784180	1105.852905
31181.674149	1121.105000	448.519531	1146.489746
31181.674149	1121.105000	447.254883	1316.322388
31181.674149	1121.105000	445.990234	1305.458130
31181.674149	1121.105000	444.725586	1364.249756
31181.674149	1121.105000	443.459961	1068.134521
31181.674149	1121.105000	442.194336	1436.325073
31181.674149	1121.105000	440.927734	1482.399902
31181.674149	1121.105000	439.662109	1458.629150
31181.674149	1121.105000	438.395508	1528.963989
31181.674149	1121.105000	437.127930	1529.442017
31181.674149	1121.105000	435.861328	1738.635254
31181.674149	1121.105000	434.593750	1417.193848
31181.674149	1121.105000	433.326172	1496.917847
31181.674149	1121.105000	432.058594	1537.479858
31181.674149	1121.105000	430.790039	1422.246460
31181.674149	1121.105000	429.521484	1738.465942
31181.674149	1121.105000	428.252930	1461.082764
31181.674149	1121.105000	426.984375	1645.669800
31181.674149	1121.105000	425.714844	1707.170776
31181.674149	1121.105000	424.445313	1670.178345
31181.674149	1121.105000	423.174805	1657.347412
31181.674149	1121.105000	421.905273	1844.364258
31181.674149	1121.105000	420.634766	1640.712158
31181.674149	1121.105000	419.364258	1612.347656
31181.674149	1121.105000	418.092773	1671.330200
31181.674149	1121.105000	416.822266	1784.922607
31181.674149	1121.105000	415.550781	1689.770996
31181.674149	1121.105000	414.278320	1677.778931
31181.674149	1121.105000	413.006836	1691.758789
31181.674149	1121.105000	411.734375	1637.828613
31181.674149	1121.105000	410.461914	1668.952881
31181.674149	1121.105000	409.188477	1785.041016
31181.674149	1121.105000	407.916016	1737.347534
31181.674149	1121.105000	406.642578	1462.761475
31181.674149	1121.105000	405.368164	1774.339600
31181.674149	1121.105000	404.094727	1669.478394
31181.674149	1121.105000	402.820313	1657.543457
31181.674149	1121.105000	401.545898	1846.363525
31181.674149	1121.105000	400.270508	1836.770020
31181.674149	1121.105000	398.996094	2074.599121
31181.674149	1121.105000	397.720703	1796.583252
31181.674149	1121.105000	396.444336	1676.392822
31181.674149	1121.105000	395.168945	2100.355713
31181.674149	1121.105000	393.892578	1984.215210
31181.674149	1121.105000	392.616211	1871.117432
31181.674149	1121.105000	391.339844	1695.977661
31181.674149	1121.105000	390.062500	1855.050415
31181.674149	1121.105000	388.785156	1762.960083
31181.674149	1121.105000	387.507813	1828.115356
31181.674149	1121.105000	386.229492	1869.605225
31181.674149	1121.105000	384.951172	1836.663452
31181.674149	1121.105000	383.672852	1847.029785
31181.674149	1121.105000	382.394531	1772.771729
31181.674149	1121.105000	381.115234	1855.333374
31181.674149	1121.105000	379.835938	1729.437012
31181.674149	1121.105000	378.556641	1715.619629
31181.674149	1121.105000	377.277344	1580.573486
31181.674149	1121.105000	375.997070	1417.550659
31181.674149	1121.105000	374.716797	1565.031616
31181.674149	1121.105000	373.435547	1414.806519
31181.674149	1121.105000	372.155273	1556.631836
31181.674149	1121.105000	370.874023	1439.260498
31181.674149	1121.105000	369.591797	1445.538086
31181.674149	1121.105000	368.310547	1372.937378
31181.674149	1121.105000	367.028320	1678.845459
31181.674149	1121.105000	365.746094	1365.278076
31181.674149	1121.105000	364.463867	1494.823242
31181.674149	1121.105000	363.180664	1320.646362
31181.674149	1121.105000	361.897461	1388.979126
31181.674149	1121.105000	360.614258	1044.474121
31181.674149	1121.105000	359.330078	1213.157349
31181.674149	1121.105000	358.045898	1247.919800
31181.674149	1121.105000	356.761719	1146.756470
31181.674149	1121.105000	355.477539	1208.685791
31181.674149	1121.105000	354.192383	1294.105835
31181.674149	1121.105000	352.907227	1098.060425
31181.674149	1121.105000	351.622070	1145.580078
31181.674149	1121.105000	350.336914	1012.549744
31181.674149	1121.105000	349.050781	1076.319702
31181.674149	1121.105000	347.764648	919.103210
31181.674149	1121.105000	346.477539	1035.098633
31181.674149	1121.105000	345.191406	1115.628906
31181.674149	1121.105000	343.904297	956.849792
31181.674149	1121.105000	342.616211	1080.924927
31181.674149	1121.105000	341.329102	723.906616
31181.674149	1121.105000	340.041016	766.401489
31181.674149	1121.105000	338.752930	760.914368
31181.674149	1121.105000	337.463867	727.437256
31181.674149	1121.105000	336.175781	704.336914
31181.674149	1121.105000	334.886719	538.326477
31181.674149	1121.105000	333.596680	648.049927
31181.674149	1121.105000	332.307617	540.409973
31181.674149	1121.105000	331.017578	480.817902
31181.674149	1121.105000	329.727539	384.759766
31181.674149	1121.105000	328.436523	360.643951
31181.674149	1121.105000	327.146484	127.058121
31181.674149	1121.105000	325.855469	95.888565
31181.674149	1121.105000	324.563477	423.638947
31181.674149	1121.105000	323.272461	-47.118858
31181.674149	1121.105000	321.980469	-76.784782
31181.674149	1121.105000	320.688477	215.870926
31181.674149	1121.105000	319.395508	31.226639
31181.674149	1121.105000	318.103516	285.165863
31181.674149	1121.105000	316.810547	25.666941
31181.674149	1121.105000	315.516602	25.476849
31181.674149	1121.105000	314.223633	120.095192
31181.674149	1121.105000	312.929688	-328.791870
31181.674149	1121.105000	311.635742	-153.721802
31181.674149	1121.105000	310.340820	-65.115257
31181.674149	1121.105000	309.045898	-167.120499
31181.674149	1121.105000	307.750977	-269.365295
31181.674149	1121.105000	306.456055	64.792122
31181.674149	1121.105000	305.160156	229.802292
31181.674149	1121.105000	303.865234	141.893097
31181.674149	1121.105000	302.568359	367.150452
31181.674149	1121.105000	301.272461	211.173111
31181.674149	1121.105000	299.975586	742.397156
31181.674149	1121.105000	298.678711	403.703308
