#X		#Y		#Wave		#Intensity
3061.207872	5954.865500	1999.980469	-157.107513
3061.207872	5954.865500	1999.016602	-115.274368
3061.207872	5954.865500	1998.052734	-171.862045
3061.207872	5954.865500	1997.087891	-247.001175
3061.207872	5954.865500	1996.123047	-345.626648
3061.207872	5954.865500	1995.158203	-133.266510
3061.207872	5954.865500	1994.193359	-23.679043
3061.207872	5954.865500	1993.228516	-29.153437
3061.207872	5954.865500	1992.262695	-117.389915
3061.207872	5954.865500	1991.297852	13.648470
3061.207872	5954.865500	1990.332031	-91.478302
3061.207872	5954.865500	1989.366211	-227.245346
3061.207872	5954.865500	1988.399414	-104.133820
3061.207872	5954.865500	1987.433594	69.934097
3061.207872	5954.865500	1986.466797	-85.865013
3061.207872	5954.865500	1985.500977	-141.111023
3061.207872	5954.865500	1984.534180	22.857103
3061.207872	5954.865500	1983.567383	62.365318
3061.207872	5954.865500	1982.599609	125.792938
3061.207872	5954.865500	1981.632813	185.957092
3061.207872	5954.865500	1980.665039	299.718079
3061.207872	5954.865500	1979.697266	131.161713
3061.207872	5954.865500	1978.729492	179.290680
3061.207872	5954.865500	1977.761719	113.167610
3061.207872	5954.865500	1976.792969	293.286438
3061.207872	5954.865500	1975.825195	203.702957
3061.207872	5954.865500	1974.856445	197.461365
3061.207872	5954.865500	1973.887695	-33.854469
3061.207872	5954.865500	1972.918945	50.097782
3061.207872	5954.865500	1971.949219	-2.146458
3061.207872	5954.865500	1970.980469	204.021652
3061.207872	5954.865500	1970.010742	239.523056
3061.207872	5954.865500	1969.041016	89.683250
3061.207872	5954.865500	1968.071289	25.702477
3061.207872	5954.865500	1967.101563	180.605713
3061.207872	5954.865500	1966.130859	214.330063
3061.207872	5954.865500	1965.161133	149.130661
3061.207872	5954.865500	1964.190430	61.416466
3061.207872	5954.865500	1963.219727	234.356689
3061.207872	5954.865500	1962.249023	308.425262
3061.207872	5954.865500	1961.277344	163.096375
3061.207872	5954.865500	1960.306641	295.572876
3061.207872	5954.865500	1959.334961	149.695663
3061.207872	5954.865500	1958.363281	161.020340
3061.207872	5954.865500	1957.391602	41.730701
3061.207872	5954.865500	1956.419922	109.110687
3061.207872	5954.865500	1955.447266	141.806229
3061.207872	5954.865500	1954.474609	208.679138
3061.207872	5954.865500	1953.501953	240.911606
3061.207872	5954.865500	1952.529297	17.401356
3061.207872	5954.865500	1951.556641	32.078876
3061.207872	5954.865500	1950.583984	-93.420616
3061.207872	5954.865500	1949.610352	151.768143
3061.207872	5954.865500	1948.636719	-67.321144
3061.207872	5954.865500	1947.663086	189.756226
3061.207872	5954.865500	1946.689453	-117.880539
3061.207872	5954.865500	1945.715820	153.588547
3061.207872	5954.865500	1944.741211	130.435654
3061.207872	5954.865500	1943.767578	77.764557
3061.207872	5954.865500	1942.792969	25.018864
3061.207872	5954.865500	1941.818359	72.746483
3061.207872	5954.865500	1940.842773	257.667206
3061.207872	5954.865500	1939.868164	192.449661
3061.207872	5954.865500	1938.892578	215.420425
3061.207872	5954.865500	1937.916992	-180.646927
3061.207872	5954.865500	1936.941406	-162.599213
3061.207872	5954.865500	1935.965820	306.078735
3061.207872	5954.865500	1934.990234	25.217268
3061.207872	5954.865500	1934.013672	-194.353775
3061.207872	5954.865500	1933.037109	-88.279999
3061.207872	5954.865500	1932.060547	130.332596
3061.207872	5954.865500	1931.083984	-152.770721
3061.207872	5954.865500	1930.107422	144.071091
3061.207872	5954.865500	1929.129883	17.635817
3061.207872	5954.865500	1928.153320	-15.794530
3061.207872	5954.865500	1927.175781	-210.576599
3061.207872	5954.865500	1926.198242	-18.991543
3061.207872	5954.865500	1925.219727	182.325455
3061.207872	5954.865500	1924.242188	-102.708023
3061.207872	5954.865500	1923.263672	35.100498
3061.207872	5954.865500	1922.285156	-112.915947
3061.207872	5954.865500	1921.306641	-36.123817
3061.207872	5954.865500	1920.328125	-191.298004
3061.207872	5954.865500	1919.349609	-129.061264
3061.207872	5954.865500	1918.370117	130.932510
3061.207872	5954.865500	1917.391602	-202.175751
3061.207872	5954.865500	1916.412109	-88.550720
3061.207872	5954.865500	1915.431641	-213.997375
3061.207872	5954.865500	1914.452148	16.806829
3061.207872	5954.865500	1913.472656	13.471822
3061.207872	5954.865500	1912.492188	22.397663
3061.207872	5954.865500	1911.511719	148.412598
3061.207872	5954.865500	1910.531250	-13.160576
3061.207872	5954.865500	1909.550781	-86.863487
3061.207872	5954.865500	1908.569336	-309.094299
3061.207872	5954.865500	1907.588867	-199.852081
3061.207872	5954.865500	1906.607422	-12.633801
3061.207872	5954.865500	1905.625977	-197.983765
3061.207872	5954.865500	1904.644531	140.278244
3061.207872	5954.865500	1903.662109	-71.647667
3061.207872	5954.865500	1902.680664	-1.087385
3061.207872	5954.865500	1901.698242	3.825514
3061.207872	5954.865500	1900.715820	-49.570656
3061.207872	5954.865500	1899.733398	-10.430380
3061.207872	5954.865500	1898.750000	-100.122192
3061.207872	5954.865500	1897.767578	-260.207886
3061.207872	5954.865500	1896.784180	-194.065964
3061.207872	5954.865500	1895.800781	-125.438316
3061.207872	5954.865500	1894.817383	-124.799385
3061.207872	5954.865500	1893.833984	65.435806
3061.207872	5954.865500	1892.850586	-283.616577
3061.207872	5954.865500	1891.866211	-362.867401
3061.207872	5954.865500	1890.881836	-138.469620
3061.207872	5954.865500	1889.897461	-309.826965
3061.207872	5954.865500	1888.913086	-121.786674
3061.207872	5954.865500	1887.927734	-125.480347
3061.207872	5954.865500	1886.943359	-2.919052
3061.207872	5954.865500	1885.958008	25.044592
3061.207872	5954.865500	1884.972656	111.279961
3061.207872	5954.865500	1883.987305	-137.126053
3061.207872	5954.865500	1883.001953	-152.603226
3061.207872	5954.865500	1882.015625	-117.108543
3061.207872	5954.865500	1881.029297	122.031441
3061.207872	5954.865500	1880.042969	-167.152359
3061.207872	5954.865500	1879.056641	-116.968002
3061.207872	5954.865500	1878.070313	-497.946259
3061.207872	5954.865500	1877.083984	-84.321068
3061.207872	5954.865500	1876.096680	-164.799561
3061.207872	5954.865500	1875.109375	-194.361435
3061.207872	5954.865500	1874.122070	-25.380474
3061.207872	5954.865500	1873.134766	-11.315538
3061.207872	5954.865500	1872.146484	-106.109184
3061.207872	5954.865500	1871.159180	-111.320389
3061.207872	5954.865500	1870.170898	183.430206
3061.207872	5954.865500	1869.182617	-17.664831
3061.207872	5954.865500	1868.194336	15.873855
3061.207872	5954.865500	1867.205078	-139.141541
3061.207872	5954.865500	1866.216797	-277.160187
3061.207872	5954.865500	1865.227539	94.774429
3061.207872	5954.865500	1864.238281	-299.318329
3061.207872	5954.865500	1863.249023	-33.787468
3061.207872	5954.865500	1862.259766	-58.174385
3061.207872	5954.865500	1861.269531	-101.870201
3061.207872	5954.865500	1860.279297	66.903000
3061.207872	5954.865500	1859.290039	-32.323921
3061.207872	5954.865500	1858.298828	-61.540043
3061.207872	5954.865500	1857.308594	148.123489
3061.207872	5954.865500	1856.318359	-81.376968
3061.207872	5954.865500	1855.327148	-113.027504
3061.207872	5954.865500	1854.335938	183.281708
3061.207872	5954.865500	1853.344727	59.920139
3061.207872	5954.865500	1852.353516	90.856842
3061.207872	5954.865500	1851.362305	22.929022
3061.207872	5954.865500	1850.370117	191.141541
3061.207872	5954.865500	1849.377930	99.045677
3061.207872	5954.865500	1848.385742	26.210024
3061.207872	5954.865500	1847.393555	-164.658157
3061.207872	5954.865500	1846.401367	109.223595
3061.207872	5954.865500	1845.408203	-120.219261
3061.207872	5954.865500	1844.415039	-31.908932
3061.207872	5954.865500	1843.421875	111.654785
3061.207872	5954.865500	1842.428711	105.918373
3061.207872	5954.865500	1841.435547	-63.473423
3061.207872	5954.865500	1840.441406	-57.298615
3061.207872	5954.865500	1839.448242	-5.511392
3061.207872	5954.865500	1838.454102	-114.918053
3061.207872	5954.865500	1837.459961	16.015686
3061.207872	5954.865500	1836.464844	-105.551010
3061.207872	5954.865500	1835.470703	-6.090222
3061.207872	5954.865500	1834.475586	-0.466518
3061.207872	5954.865500	1833.480469	221.238525
3061.207872	5954.865500	1832.485352	204.996826
3061.207872	5954.865500	1831.490234	203.058655
3061.207872	5954.865500	1830.495117	229.816849
3061.207872	5954.865500	1829.499023	158.035416
3061.207872	5954.865500	1828.502930	270.943848
3061.207872	5954.865500	1827.506836	59.776897
3061.207872	5954.865500	1826.510742	47.668636
3061.207872	5954.865500	1825.513672	272.873871
3061.207872	5954.865500	1824.517578	375.568512
3061.207872	5954.865500	1823.520508	125.643570
3061.207872	5954.865500	1822.523438	79.423119
3061.207872	5954.865500	1821.526367	131.335327
3061.207872	5954.865500	1820.529297	219.021301
3061.207872	5954.865500	1819.531250	419.115936
3061.207872	5954.865500	1818.533203	355.498718
3061.207872	5954.865500	1817.535156	212.718964
3061.207872	5954.865500	1816.537109	347.574127
3061.207872	5954.865500	1815.539063	396.031586
3061.207872	5954.865500	1814.540039	-225.872040
3061.207872	5954.865500	1813.541992	150.173599
3061.207872	5954.865500	1812.542969	255.536896
3061.207872	5954.865500	1811.543945	97.548759
3061.207872	5954.865500	1810.543945	159.462067
3061.207872	5954.865500	1809.544922	-17.947527
3061.207872	5954.865500	1808.544922	201.377579
3061.207872	5954.865500	1807.544922	30.807199
3061.207872	5954.865500	1806.544922	194.683044
3061.207872	5954.865500	1805.544922	138.474777
3061.207872	5954.865500	1804.544922	328.146240
3061.207872	5954.865500	1803.543945	464.985352
3061.207872	5954.865500	1802.542969	-12.159404
3061.207872	5954.865500	1801.541992	336.767731
3061.207872	5954.865500	1800.541016	-16.469463
3061.207872	5954.865500	1799.539063	229.259064
3061.207872	5954.865500	1798.538086	193.107666
3061.207872	5954.865500	1797.536133	-38.896343
3061.207872	5954.865500	1796.534180	148.778625
3061.207872	5954.865500	1795.532227	80.973724
3061.207872	5954.865500	1794.529297	268.084717
3061.207872	5954.865500	1793.527344	116.378647
3061.207872	5954.865500	1792.524414	174.231491
3061.207872	5954.865500	1791.521484	12.580408
3061.207872	5954.865500	1790.518555	-22.971502
3061.207872	5954.865500	1789.514648	274.738159
3061.207872	5954.865500	1788.511719	167.207489
3061.207872	5954.865500	1787.507813	-4.838071
3061.207872	5954.865500	1786.503906	187.194305
3061.207872	5954.865500	1785.500000	264.644287
3061.207872	5954.865500	1784.496094	127.615227
3061.207872	5954.865500	1783.491211	264.004700
3061.207872	5954.865500	1782.486328	266.857849
3061.207872	5954.865500	1781.481445	314.639557
3061.207872	5954.865500	1780.476563	200.427979
3061.207872	5954.865500	1779.471680	411.729065
3061.207872	5954.865500	1778.465820	54.517464
3061.207872	5954.865500	1777.460938	379.310913
3061.207872	5954.865500	1776.455078	330.617004
3061.207872	5954.865500	1775.449219	222.268188
3061.207872	5954.865500	1774.442383	208.687454
3061.207872	5954.865500	1773.436523	415.717102
3061.207872	5954.865500	1772.429688	432.413605
3061.207872	5954.865500	1771.422852	325.370392
3061.207872	5954.865500	1770.416016	246.568481
3061.207872	5954.865500	1769.409180	236.332687
3061.207872	5954.865500	1768.402344	221.067978
3061.207872	5954.865500	1767.394531	41.822803
3061.207872	5954.865500	1766.386719	116.135551
3061.207872	5954.865500	1765.378906	436.749207
3061.207872	5954.865500	1764.371094	202.160721
3061.207872	5954.865500	1763.362305	268.396179
3061.207872	5954.865500	1762.354492	267.970398
3061.207872	5954.865500	1761.345703	108.473457
3061.207872	5954.865500	1760.336914	206.969177
3061.207872	5954.865500	1759.328125	193.804382
3061.207872	5954.865500	1758.318359	334.257904
3061.207872	5954.865500	1757.308594	-150.722656
3061.207872	5954.865500	1756.299805	-259.403381
3061.207872	5954.865500	1755.290039	142.873108
3061.207872	5954.865500	1754.279297	362.462830
3061.207872	5954.865500	1753.269531	207.868515
3061.207872	5954.865500	1752.258789	296.652252
3061.207872	5954.865500	1751.249023	191.187180
3061.207872	5954.865500	1750.238281	416.475769
3061.207872	5954.865500	1749.226563	78.690651
3061.207872	5954.865500	1748.215820	74.027161
3061.207872	5954.865500	1747.204102	191.925644
3061.207872	5954.865500	1746.193359	-7.118528
3061.207872	5954.865500	1745.181641	-12.705076
3061.207872	5954.865500	1744.168945	-42.239223
3061.207872	5954.865500	1743.157227	157.010651
3061.207872	5954.865500	1742.144531	-14.820415
3061.207872	5954.865500	1741.132813	334.807098
3061.207872	5954.865500	1740.120117	-52.375214
3061.207872	5954.865500	1739.106445	-111.754692
3061.207872	5954.865500	1738.093750	-84.104408
3061.207872	5954.865500	1737.080078	-200.680634
3061.207872	5954.865500	1736.067383	-15.637980
3061.207872	5954.865500	1735.053711	-12.550176
3061.207872	5954.865500	1734.040039	-344.518524
3061.207872	5954.865500	1733.025391	136.444809
3061.207872	5954.865500	1732.011719	-85.284973
3061.207872	5954.865500	1730.997070	218.130402
3061.207872	5954.865500	1729.982422	59.430786
3061.207872	5954.865500	1728.967773	100.669632
3061.207872	5954.865500	1727.952148	-72.713272
3061.207872	5954.865500	1726.937500	-34.427547
3061.207872	5954.865500	1725.921875	-125.948051
3061.207872	5954.865500	1724.906250	-8.289105
3061.207872	5954.865500	1723.890625	-262.732971
3061.207872	5954.865500	1722.875000	-103.354866
3061.207872	5954.865500	1721.858398	137.951614
3061.207872	5954.865500	1720.841797	99.032806
3061.207872	5954.865500	1719.825195	-20.106239
3061.207872	5954.865500	1718.808594	213.094238
3061.207872	5954.865500	1717.791992	-108.731735
3061.207872	5954.865500	1716.774414	22.733973
3061.207872	5954.865500	1715.756836	41.089325
3061.207872	5954.865500	1714.739258	146.048569
3061.207872	5954.865500	1713.721680	285.900208
3061.207872	5954.865500	1712.704102	-201.487091
3061.207872	5954.865500	1711.685547	-10.591290
3061.207872	5954.865500	1710.667969	83.744972
3061.207872	5954.865500	1709.649414	22.851313
3061.207872	5954.865500	1708.630859	-204.879135
3061.207872	5954.865500	1707.611328	-191.237671
3061.207872	5954.865500	1706.592773	-98.113510
3061.207872	5954.865500	1705.573242	-0.649637
3061.207872	5954.865500	1704.553711	-184.824768
3061.207872	5954.865500	1703.534180	-242.637070
3061.207872	5954.865500	1702.513672	-108.580048
3061.207872	5954.865500	1701.494141	-244.256973
3061.207872	5954.865500	1700.473633	-40.522167
3061.207872	5954.865500	1699.453125	-307.897766
3061.207872	5954.865500	1698.432617	-137.555573
3061.207872	5954.865500	1697.412109	-264.876312
3061.207872	5954.865500	1696.390625	45.266350
3061.207872	5954.865500	1695.369141	-157.496246
3061.207872	5954.865500	1694.347656	-280.888489
3061.207872	5954.865500	1693.326172	-233.720642
3061.207872	5954.865500	1692.304688	14.318145
3061.207872	5954.865500	1691.282227	-91.140892
3061.207872	5954.865500	1690.260742	-252.888687
3061.207872	5954.865500	1689.238281	-209.155457
3061.207872	5954.865500	1688.214844	-378.406250
3061.207872	5954.865500	1687.192383	-309.461823
3061.207872	5954.865500	1686.168945	-175.411011
3061.207872	5954.865500	1685.146484	-268.188843
3061.207872	5954.865500	1684.123047	-69.291214
3061.207872	5954.865500	1683.099609	-139.220352
3061.207872	5954.865500	1682.075195	33.381844
3061.207872	5954.865500	1681.051758	63.351742
3061.207872	5954.865500	1680.027344	23.035620
3061.207872	5954.865500	1679.002930	94.492790
3061.207872	5954.865500	1677.978516	298.657623
3061.207872	5954.865500	1676.953125	236.612000
3061.207872	5954.865500	1675.928711	141.764740
3061.207872	5954.865500	1674.903320	463.997406
3061.207872	5954.865500	1673.877930	461.903687
3061.207872	5954.865500	1672.852539	548.152466
3061.207872	5954.865500	1671.826172	501.311127
3061.207872	5954.865500	1670.800781	559.149963
3061.207872	5954.865500	1669.774414	474.650299
3061.207872	5954.865500	1668.748047	820.770264
3061.207872	5954.865500	1667.721680	952.368225
3061.207872	5954.865500	1666.694336	846.255066
3061.207872	5954.865500	1665.667969	723.742004
3061.207872	5954.865500	1664.640625	882.584167
3061.207872	5954.865500	1663.613281	1250.551147
3061.207872	5954.865500	1662.585938	1080.909790
3061.207872	5954.865500	1661.557617	1225.048218
3061.207872	5954.865500	1660.530273	1152.767822
3061.207872	5954.865500	1659.501953	1273.238281
3061.207872	5954.865500	1658.473633	1305.173462
3061.207872	5954.865500	1657.444336	1413.566528
3061.207872	5954.865500	1656.416016	1712.298096
3061.207872	5954.865500	1655.386719	1283.687256
3061.207872	5954.865500	1654.358398	1598.263550
3061.207872	5954.865500	1653.328125	1455.069580
3061.207872	5954.865500	1652.298828	1583.428711
3061.207872	5954.865500	1651.269531	1704.623291
3061.207872	5954.865500	1650.239258	1934.647461
3061.207872	5954.865500	1649.208984	2073.956787
3061.207872	5954.865500	1648.178711	2445.033447
3061.207872	5954.865500	1647.148438	2080.659912
3061.207872	5954.865500	1646.117188	2555.619385
3061.207872	5954.865500	1645.086914	2557.387207
3061.207872	5954.865500	1644.055664	2368.924316
3061.207872	5954.865500	1643.024414	2574.363037
3061.207872	5954.865500	1641.992188	2786.509521
3061.207872	5954.865500	1640.960938	2979.970703
3061.207872	5954.865500	1639.928711	2879.066650
3061.207872	5954.865500	1638.896484	3211.103271
3061.207872	5954.865500	1637.864258	3181.748535
3061.207872	5954.865500	1636.832031	3494.873047
3061.207872	5954.865500	1635.798828	3449.030762
3061.207872	5954.865500	1634.766602	3898.302246
3061.207872	5954.865500	1633.733398	3940.119873
3061.207872	5954.865500	1632.699219	4157.564941
3061.207872	5954.865500	1631.666016	4541.383301
3061.207872	5954.865500	1630.632813	4855.612305
3061.207872	5954.865500	1629.598633	5056.333496
3061.207872	5954.865500	1628.564453	5252.279785
3061.207872	5954.865500	1627.530273	5535.885742
3061.207872	5954.865500	1626.495117	5960.187988
3061.207872	5954.865500	1625.460938	6157.958008
3061.207872	5954.865500	1624.425781	6168.495117
3061.207872	5954.865500	1623.390625	6432.941895
3061.207872	5954.865500	1622.355469	6194.010254
3061.207872	5954.865500	1621.319336	6527.443848
3061.207872	5954.865500	1620.284180	6246.958496
3061.207872	5954.865500	1619.248047	6873.162109
3061.207872	5954.865500	1618.211914	6901.677734
3061.207872	5954.865500	1617.174805	6937.022461
3061.207872	5954.865500	1616.138672	7193.715820
3061.207872	5954.865500	1615.101563	7339.586426
3061.207872	5954.865500	1614.065430	7441.633789
3061.207872	5954.865500	1613.027344	7552.748047
3061.207872	5954.865500	1611.990234	7723.752441
3061.207872	5954.865500	1610.953125	7708.100098
3061.207872	5954.865500	1609.915039	7623.310059
3061.207872	5954.865500	1608.876953	8035.900879
3061.207872	5954.865500	1607.838867	7603.458984
3061.207872	5954.865500	1606.800781	8008.993164
3061.207872	5954.865500	1605.761719	8133.583008
3061.207872	5954.865500	1604.723633	8255.880859
3061.207872	5954.865500	1603.684570	8081.361816
3061.207872	5954.865500	1602.644531	8247.261719
3061.207872	5954.865500	1601.605469	8079.750977
3061.207872	5954.865500	1600.566406	7581.284180
3061.207872	5954.865500	1599.526367	7551.889160
3061.207872	5954.865500	1598.486328	7956.875977
3061.207872	5954.865500	1597.446289	7720.708008
3061.207872	5954.865500	1596.405273	7737.315430
3061.207872	5954.865500	1595.365234	7694.291992
3061.207872	5954.865500	1594.324219	7685.732422
3061.207872	5954.865500	1593.283203	7247.911133
3061.207872	5954.865500	1592.242188	7675.670410
3061.207872	5954.865500	1591.200195	7541.021973
3061.207872	5954.865500	1590.159180	7571.737793
3061.207872	5954.865500	1589.117188	7434.999023
3061.207872	5954.865500	1588.075195	7569.027832
3061.207872	5954.865500	1587.032227	7443.907715
3061.207872	5954.865500	1585.990234	7195.158691
3061.207872	5954.865500	1584.947266	7331.635254
3061.207872	5954.865500	1583.904297	7053.333984
3061.207872	5954.865500	1582.861328	6573.591797
3061.207872	5954.865500	1581.818359	6827.212891
3061.207872	5954.865500	1580.775391	6718.943848
3061.207872	5954.865500	1579.731445	6551.233398
3061.207872	5954.865500	1578.687500	6676.752441
3061.207872	5954.865500	1577.643555	6784.017090
3061.207872	5954.865500	1576.598633	6518.255859
3061.207872	5954.865500	1575.554688	6593.700684
3061.207872	5954.865500	1574.509766	6385.507813
3061.207872	5954.865500	1573.464844	6657.851563
3061.207872	5954.865500	1572.419922	6278.461914
3061.207872	5954.865500	1571.374023	5885.585938
3061.207872	5954.865500	1570.329102	5771.926758
3061.207872	5954.865500	1569.283203	5532.703125
3061.207872	5954.865500	1568.237305	5382.827637
3061.207872	5954.865500	1567.191406	5059.522949
3061.207872	5954.865500	1566.144531	5051.664551
3061.207872	5954.865500	1565.098633	4708.292969
3061.207872	5954.865500	1564.051758	4568.379883
3061.207872	5954.865500	1563.004883	4387.584473
3061.207872	5954.865500	1561.957031	4405.545898
3061.207872	5954.865500	1560.910156	4375.784180
3061.207872	5954.865500	1559.862305	4398.631836
3061.207872	5954.865500	1558.814453	4138.793945
3061.207872	5954.865500	1557.766602	3965.892578
3061.207872	5954.865500	1556.718750	3977.927246
3061.207872	5954.865500	1555.669922	3591.151367
3061.207872	5954.865500	1554.621094	3437.192871
3061.207872	5954.865500	1553.573242	3559.251465
3061.207872	5954.865500	1552.523438	3697.320801
3061.207872	5954.865500	1551.474609	3491.608643
3061.207872	5954.865500	1550.424805	3133.544189
3061.207872	5954.865500	1549.375000	3529.502197
3061.207872	5954.865500	1548.325195	3556.706543
3061.207872	5954.865500	1547.275391	3445.265625
3061.207872	5954.865500	1546.225586	3286.285645
3061.207872	5954.865500	1545.174805	2890.922852
3061.207872	5954.865500	1544.124023	3050.966797
3061.207872	5954.865500	1543.073242	3431.773926
3061.207872	5954.865500	1542.022461	3410.179199
3061.207872	5954.865500	1540.970703	3000.026611
3061.207872	5954.865500	1539.919922	3131.261719
3061.207872	5954.865500	1538.868164	3251.275146
3061.207872	5954.865500	1537.815430	3171.495850
3061.207872	5954.865500	1536.763672	3057.946289
3061.207872	5954.865500	1535.710938	2778.848145
3061.207872	5954.865500	1534.659180	2770.352051
3061.207872	5954.865500	1533.606445	2936.877686
3061.207872	5954.865500	1532.552734	3001.404785
3061.207872	5954.865500	1531.500000	2696.285645
3061.207872	5954.865500	1530.446289	2727.304443
3061.207872	5954.865500	1529.393555	2588.464844
3061.207872	5954.865500	1528.338867	2647.187012
3061.207872	5954.865500	1527.285156	2681.237061
3061.207872	5954.865500	1526.231445	2361.863770
3061.207872	5954.865500	1525.176758	2115.381104
3061.207872	5954.865500	1524.122070	2345.175781
3061.207872	5954.865500	1523.067383	2135.585693
3061.207872	5954.865500	1522.012695	2220.845703
3061.207872	5954.865500	1520.957031	1982.437256
3061.207872	5954.865500	1519.901367	2079.536377
3061.207872	5954.865500	1518.845703	2059.151367
3061.207872	5954.865500	1517.790039	2183.925049
3061.207872	5954.865500	1516.734375	1983.048828
3061.207872	5954.865500	1515.677734	2090.229980
3061.207872	5954.865500	1514.621094	2353.748535
3061.207872	5954.865500	1513.564453	2174.153564
3061.207872	5954.865500	1512.507813	2503.718750
3061.207872	5954.865500	1511.450195	2326.985840
3061.207872	5954.865500	1510.393555	2132.570801
3061.207872	5954.865500	1509.335938	2121.561523
3061.207872	5954.865500	1508.278320	2217.058594
3061.207872	5954.865500	1507.219727	2145.623047
3061.207872	5954.865500	1506.162109	2167.154785
3061.207872	5954.865500	1505.103516	1816.363403
3061.207872	5954.865500	1504.044922	1630.836670
3061.207872	5954.865500	1502.986328	1529.216797
3061.207872	5954.865500	1501.926758	1405.358765
3061.207872	5954.865500	1500.868164	1304.458740
3061.207872	5954.865500	1499.808594	1048.232788
3061.207872	5954.865500	1498.749023	959.337280
3061.207872	5954.865500	1497.688477	857.243408
3061.207872	5954.865500	1496.628906	974.238464
3061.207872	5954.865500	1495.568359	606.849548
3061.207872	5954.865500	1494.507813	210.635834
3061.207872	5954.865500	1493.447266	231.764893
3061.207872	5954.865500	1492.386719	410.912018
3061.207872	5954.865500	1491.325195	552.009094
3061.207872	5954.865500	1490.263672	231.746887
3061.207872	5954.865500	1489.202148	161.863037
3061.207872	5954.865500	1488.140625	130.612778
3061.207872	5954.865500	1487.079102	295.515015
3061.207872	5954.865500	1486.016602	19.649601
3061.207872	5954.865500	1484.954102	97.435936
3061.207872	5954.865500	1483.891602	357.722870
3061.207872	5954.865500	1482.829102	235.964676
3061.207872	5954.865500	1481.765625	139.322540
3061.207872	5954.865500	1480.702148	-163.709473
3061.207872	5954.865500	1479.638672	5.678319
3061.207872	5954.865500	1478.575195	-42.624390
3061.207872	5954.865500	1477.511719	-112.970100
3061.207872	5954.865500	1476.447266	88.819466
3061.207872	5954.865500	1475.382813	-3.359129
3061.207872	5954.865500	1474.318359	66.702042
3061.207872	5954.865500	1473.253906	184.097610
3061.207872	5954.865500	1472.189453	597.912354
3061.207872	5954.865500	1471.124023	809.861328
3061.207872	5954.865500	1470.058594	867.507141
3061.207872	5954.865500	1468.993164	1120.559448
3061.207872	5954.865500	1467.927734	1290.554321
3061.207872	5954.865500	1466.861328	1526.401123
3061.207872	5954.865500	1465.794922	1780.143433
3061.207872	5954.865500	1464.728516	1855.059326
3061.207872	5954.865500	1463.662109	2144.684570
3061.207872	5954.865500	1462.594727	2390.130859
3061.207872	5954.865500	1461.528320	2246.832764
3061.207872	5954.865500	1460.460938	2477.760010
3061.207872	5954.865500	1459.393555	2624.656738
3061.207872	5954.865500	1458.326172	2744.304932
3061.207872	5954.865500	1457.257813	2543.692871
3061.207872	5954.865500	1456.189453	2510.904053
3061.207872	5954.865500	1455.121094	2397.053711
3061.207872	5954.865500	1454.052734	2676.235840
3061.207872	5954.865500	1452.984375	2860.464600
3061.207872	5954.865500	1451.915039	2775.802490
3061.207872	5954.865500	1450.845703	2691.996338
3061.207872	5954.865500	1449.776367	2738.237793
3061.207872	5954.865500	1448.707031	2997.609131
3061.207872	5954.865500	1447.636719	2598.318604
3061.207872	5954.865500	1446.567383	2744.700439
3061.207872	5954.865500	1445.497070	2696.127686
3061.207872	5954.865500	1444.425781	2806.350098
3061.207872	5954.865500	1443.355469	2969.707031
3061.207872	5954.865500	1442.285156	2983.881836
3061.207872	5954.865500	1441.213867	2850.452148
3061.207872	5954.865500	1440.142578	2587.707764
3061.207872	5954.865500	1439.070313	2569.607910
3061.207872	5954.865500	1437.999023	2432.005859
3061.207872	5954.865500	1436.926758	2091.611084
3061.207872	5954.865500	1435.854492	2230.629883
3061.207872	5954.865500	1434.782227	1997.486206
3061.207872	5954.865500	1433.709961	1881.632446
3061.207872	5954.865500	1432.636719	2092.898682
3061.207872	5954.865500	1431.563477	1611.775269
3061.207872	5954.865500	1430.490234	1479.347656
3061.207872	5954.865500	1429.416992	1228.304810
3061.207872	5954.865500	1428.343750	1168.773071
3061.207872	5954.865500	1427.269531	1314.699219
3061.207872	5954.865500	1426.195313	1251.792480
3061.207872	5954.865500	1425.121094	1077.940796
3061.207872	5954.865500	1424.046875	1210.895508
3061.207872	5954.865500	1422.971680	1483.233521
3061.207872	5954.865500	1421.896484	1449.970947
3061.207872	5954.865500	1420.821289	1312.542725
3061.207872	5954.865500	1419.746094	1372.055542
3061.207872	5954.865500	1418.669922	1477.286621
3061.207872	5954.865500	1417.594727	1776.019165
3061.207872	5954.865500	1416.518555	2111.525635
3061.207872	5954.865500	1415.442383	1796.611084
3061.207872	5954.865500	1414.365234	1900.888062
3061.207872	5954.865500	1413.289063	2131.000000
3061.207872	5954.865500	1412.211914	2283.156006
3061.207872	5954.865500	1411.134766	2362.766602
3061.207872	5954.865500	1410.057617	2693.020508
3061.207872	5954.865500	1408.979492	2460.361572
3061.207872	5954.865500	1407.902344	2171.744629
3061.207872	5954.865500	1406.824219	2383.883545
3061.207872	5954.865500	1405.746094	2726.767334
3061.207872	5954.865500	1404.666992	2473.495605
3061.207872	5954.865500	1403.588867	2843.600342
3061.207872	5954.865500	1402.509766	2960.901611
3061.207872	5954.865500	1401.430664	3163.904785
3061.207872	5954.865500	1400.351563	3233.983154
3061.207872	5954.865500	1399.271484	3182.576172
3061.207872	5954.865500	1398.192383	3358.130127
3061.207872	5954.865500	1397.112305	3873.399414
3061.207872	5954.865500	1396.031250	3882.575684
3061.207872	5954.865500	1394.951172	4273.030762
3061.207872	5954.865500	1393.871094	4002.900879
3061.207872	5954.865500	1392.790039	3848.614014
3061.207872	5954.865500	1391.708984	3808.064697
3061.207872	5954.865500	1390.626953	3949.264648
3061.207872	5954.865500	1389.545898	3898.734863
3061.207872	5954.865500	1388.463867	4049.750488
3061.207872	5954.865500	1387.381836	3638.115479
3061.207872	5954.865500	1386.299805	3122.534912
3061.207872	5954.865500	1385.217773	3124.372559
3061.207872	5954.865500	1384.134766	2889.024414
3061.207872	5954.865500	1383.051758	2848.681641
3061.207872	5954.865500	1381.968750	2510.602295
3061.207872	5954.865500	1380.885742	2640.545898
3061.207872	5954.865500	1379.802734	2007.771118
3061.207872	5954.865500	1378.718750	1854.476074
3061.207872	5954.865500	1377.634766	1736.383179
3061.207872	5954.865500	1376.550781	1738.389038
3061.207872	5954.865500	1375.465820	1517.171509
3061.207872	5954.865500	1374.381836	1675.566895
3061.207872	5954.865500	1373.296875	1410.737793
3061.207872	5954.865500	1372.211914	1417.230957
3061.207872	5954.865500	1371.126953	1476.626587
3061.207872	5954.865500	1370.041016	1285.035400
3061.207872	5954.865500	1368.955078	1259.946899
3061.207872	5954.865500	1367.869141	1405.411621
3061.207872	5954.865500	1366.783203	1271.558716
3061.207872	5954.865500	1365.697266	1522.438477
3061.207872	5954.865500	1364.610352	1566.364624
3061.207872	5954.865500	1363.523438	1274.207397
3061.207872	5954.865500	1362.436523	1536.320557
3061.207872	5954.865500	1361.349609	1917.838379
3061.207872	5954.865500	1360.261719	1420.706177
3061.207872	5954.865500	1359.174805	1769.504150
3061.207872	5954.865500	1358.086914	1728.679443
3061.207872	5954.865500	1356.998047	1642.797241
3061.207872	5954.865500	1355.910156	1892.898804
3061.207872	5954.865500	1354.821289	1785.388184
3061.207872	5954.865500	1353.732422	1563.217285
3061.207872	5954.865500	1352.643555	1435.225708
3061.207872	5954.865500	1351.554688	1584.817505
3061.207872	5954.865500	1350.464844	1778.818848
3061.207872	5954.865500	1349.375000	1667.959961
3061.207872	5954.865500	1348.285156	1544.601807
3061.207872	5954.865500	1347.195313	1176.667847
3061.207872	5954.865500	1346.105469	1263.059937
3061.207872	5954.865500	1345.014648	1425.974731
3061.207872	5954.865500	1343.923828	1185.361694
3061.207872	5954.865500	1342.833008	692.648254
3061.207872	5954.865500	1341.741211	597.285461
3061.207872	5954.865500	1340.650391	743.272217
3061.207872	5954.865500	1339.558594	390.247833
3061.207872	5954.865500	1338.466797	363.662537
3061.207872	5954.865500	1337.374023	270.616791
3061.207872	5954.865500	1336.282227	220.160294
3061.207872	5954.865500	1335.189453	50.074764
3061.207872	5954.865500	1334.096680	289.963745
3061.207872	5954.865500	1333.003906	37.221195
3061.207872	5954.865500	1331.910156	374.835358
3061.207872	5954.865500	1330.817383	607.496216
3061.207872	5954.865500	1329.723633	605.473938
3061.207872	5954.865500	1328.629883	741.214661
3061.207872	5954.865500	1327.535156	807.810974
3061.207872	5954.865500	1326.441406	447.445221
3061.207872	5954.865500	1325.346680	773.522034
3061.207872	5954.865500	1324.251953	615.560913
3061.207872	5954.865500	1323.156250	837.670776
3061.207872	5954.865500	1322.061523	662.635864
3061.207872	5954.865500	1320.965820	731.825256
3061.207872	5954.865500	1319.870117	642.130676
3061.207872	5954.865500	1318.774414	635.397034
3061.207872	5954.865500	1317.678711	874.109985
3061.207872	5954.865500	1316.582031	903.444092
3061.207872	5954.865500	1315.485352	1112.208008
3061.207872	5954.865500	1314.388672	1389.424683
3061.207872	5954.865500	1313.291016	1449.745483
3061.207872	5954.865500	1312.194336	1474.541016
3061.207872	5954.865500	1311.096680	1409.478760
3061.207872	5954.865500	1309.999023	1376.583130
3061.207872	5954.865500	1308.901367	1099.640747
3061.207872	5954.865500	1307.802734	854.294067
3061.207872	5954.865500	1306.705078	1104.988159
3061.207872	5954.865500	1305.606445	994.606934
3061.207872	5954.865500	1304.506836	1102.366699
3061.207872	5954.865500	1303.408203	807.281982
3061.207872	5954.865500	1302.308594	1007.823425
3061.207872	5954.865500	1301.208984	1006.367798
3061.207872	5954.865500	1300.109375	953.785400
3061.207872	5954.865500	1299.009766	1099.858643
3061.207872	5954.865500	1297.909180	1155.508911
3061.207872	5954.865500	1296.808594	1318.637695
3061.207872	5954.865500	1295.708008	1322.341797
3061.207872	5954.865500	1294.607422	1302.985718
3061.207872	5954.865500	1293.506836	1438.463257
3061.207872	5954.865500	1292.405273	1387.254761
3061.207872	5954.865500	1291.303711	1139.149902
3061.207872	5954.865500	1290.202148	1383.015015
3061.207872	5954.865500	1289.099609	1369.631958
3061.207872	5954.865500	1287.998047	1345.446411
3061.207872	5954.865500	1286.895508	1297.390137
3061.207872	5954.865500	1285.792969	1347.970703
3061.207872	5954.865500	1284.689453	998.567932
3061.207872	5954.865500	1283.586914	1185.224487
3061.207872	5954.865500	1282.483398	1009.529175
3061.207872	5954.865500	1281.379883	1069.924683
3061.207872	5954.865500	1280.276367	943.388611
3061.207872	5954.865500	1279.171875	1041.641357
3061.207872	5954.865500	1278.067383	639.004150
3061.207872	5954.865500	1276.962891	660.364807
3061.207872	5954.865500	1275.858398	428.437347
3061.207872	5954.865500	1274.753906	300.021790
3061.207872	5954.865500	1273.648438	481.624023
3061.207872	5954.865500	1272.542969	534.349976
3061.207872	5954.865500	1271.437500	301.192993
3061.207872	5954.865500	1270.331055	278.651459
3061.207872	5954.865500	1269.225586	396.204803
3061.207872	5954.865500	1268.119141	652.768677
3061.207872	5954.865500	1267.012695	774.354736
3061.207872	5954.865500	1265.906250	705.280640
3061.207872	5954.865500	1264.798828	775.679932
3061.207872	5954.865500	1263.691406	518.683289
3061.207872	5954.865500	1262.583984	508.059448
3061.207872	5954.865500	1261.476563	666.459961
3061.207872	5954.865500	1260.368164	863.046082
3061.207872	5954.865500	1259.260742	702.469727
3061.207872	5954.865500	1258.152344	646.813904
3061.207872	5954.865500	1257.043945	751.554565
3061.207872	5954.865500	1255.934570	432.540741
3061.207872	5954.865500	1254.825195	544.533386
3061.207872	5954.865500	1253.716797	550.031677
3061.207872	5954.865500	1252.606445	436.388824
3061.207872	5954.865500	1251.497070	109.433784
3061.207872	5954.865500	1250.387695	-168.156250
3061.207872	5954.865500	1249.277344	-116.342560
3061.207872	5954.865500	1248.166992	-74.120224
3061.207872	5954.865500	1247.055664	-40.538326
3061.207872	5954.865500	1245.945313	-159.938156
3061.207872	5954.865500	1244.833984	-73.128105
3061.207872	5954.865500	1243.722656	-226.827972
3061.207872	5954.865500	1242.611328	-221.905579
3061.207872	5954.865500	1241.499023	-139.023102
3061.207872	5954.865500	1240.387695	-152.662689
3061.207872	5954.865500	1239.275391	-165.470322
3061.207872	5954.865500	1238.162109	20.049587
3061.207872	5954.865500	1237.049805	43.723373
3061.207872	5954.865500	1235.936523	-183.319397
3061.207872	5954.865500	1234.823242	24.287292
3061.207872	5954.865500	1233.709961	-119.619202
3061.207872	5954.865500	1232.596680	-165.324570
3061.207872	5954.865500	1231.482422	-210.318909
3061.207872	5954.865500	1230.369141	-265.283722
3061.207872	5954.865500	1229.253906	-125.590584
3061.207872	5954.865500	1228.139648	-58.950935
3061.207872	5954.865500	1227.025391	48.172531
3061.207872	5954.865500	1225.910156	159.266327
3061.207872	5954.865500	1224.794922	149.466064
3061.207872	5954.865500	1223.679688	299.089661
3061.207872	5954.865500	1222.563477	462.787750
3061.207872	5954.865500	1221.447266	416.924469
3061.207872	5954.865500	1220.331055	376.046326
3061.207872	5954.865500	1219.214844	400.639252
3061.207872	5954.865500	1218.098633	199.620880
3061.207872	5954.865500	1216.981445	268.778473
3061.207872	5954.865500	1215.864258	30.308428
3061.207872	5954.865500	1214.747070	150.538528
3061.207872	5954.865500	1213.629883	310.982147
3061.207872	5954.865500	1212.511719	98.598366
3061.207872	5954.865500	1211.393555	218.683365
3061.207872	5954.865500	1210.275391	62.498573
3061.207872	5954.865500	1209.157227	-1.538268
3061.207872	5954.865500	1208.038086	241.381470
3061.207872	5954.865500	1206.918945	126.673248
3061.207872	5954.865500	1205.799805	281.309540
3061.207872	5954.865500	1204.680664	-57.338749
3061.207872	5954.865500	1203.560547	301.447052
3061.207872	5954.865500	1202.441406	227.541626
3061.207872	5954.865500	1201.321289	-43.148815
3061.207872	5954.865500	1200.200195	82.486786
3061.207872	5954.865500	1199.080078	-40.330853
3061.207872	5954.865500	1197.958984	141.480026
3061.207872	5954.865500	1196.837891	139.077621
3061.207872	5954.865500	1195.716797	-48.358398
3061.207872	5954.865500	1194.594727	107.343452
3061.207872	5954.865500	1193.473633	26.697502
3061.207872	5954.865500	1192.351563	-193.156387
3061.207872	5954.865500	1191.229492	-224.823303
3061.207872	5954.865500	1190.106445	-233.172958
3061.207872	5954.865500	1188.984375	-363.235352
3061.207872	5954.865500	1187.861328	-312.566376
3061.207872	5954.865500	1186.738281	-271.657532
3061.207872	5954.865500	1185.614258	-115.884567
3061.207872	5954.865500	1184.491211	-369.599152
3061.207872	5954.865500	1183.367188	-199.677963
3061.207872	5954.865500	1182.243164	-146.237122
3061.207872	5954.865500	1181.119141	-90.112389
3061.207872	5954.865500	1179.994141	-81.988411
3061.207872	5954.865500	1178.869141	52.231888
3061.207872	5954.865500	1177.744141	-142.904358
3061.207872	5954.865500	1176.619141	-106.863686
3061.207872	5954.865500	1175.493164	63.672905
3061.207872	5954.865500	1174.368164	13.122973
3061.207872	5954.865500	1173.242188	255.920990
3061.207872	5954.865500	1172.115234	91.529938
3061.207872	5954.865500	1170.989258	211.350403
3061.207872	5954.865500	1169.862305	197.169891
3061.207872	5954.865500	1168.735352	21.551268
3061.207872	5954.865500	1167.608398	267.662964
3061.207872	5954.865500	1166.481445	188.235870
3061.207872	5954.865500	1165.353516	296.695740
3061.207872	5954.865500	1164.225586	-131.314011
3061.207872	5954.865500	1163.097656	12.214954
3061.207872	5954.865500	1161.968750	129.795990
3061.207872	5954.865500	1160.840820	70.646111
3061.207872	5954.865500	1159.711914	-107.648026
3061.207872	5954.865500	1158.583008	-25.989252
3061.207872	5954.865500	1157.453125	81.699905
3061.207872	5954.865500	1156.324219	-103.821602
3061.207872	5954.865500	1155.194336	40.024303
3061.207872	5954.865500	1154.064453	226.692719
3061.207872	5954.865500	1152.933594	115.903336
3061.207872	5954.865500	1151.803711	-10.386662
3061.207872	5954.865500	1150.672852	-78.900780
3061.207872	5954.865500	1149.541992	27.996290
3061.207872	5954.865500	1148.411133	-124.175125
3061.207872	5954.865500	1147.279297	67.927246
3061.207872	5954.865500	1146.147461	-3.123393
3061.207872	5954.865500	1145.015625	196.291016
3061.207872	5954.865500	1143.883789	300.977997
3061.207872	5954.865500	1142.750977	204.507919
3061.207872	5954.865500	1141.619141	58.826607
3061.207872	5954.865500	1140.486328	63.864883
3061.207872	5954.865500	1139.352539	112.146782
3061.207872	5954.865500	1138.219727	327.960693
3061.207872	5954.865500	1137.085938	218.102020
3061.207872	5954.865500	1135.952148	261.387421
3061.207872	5954.865500	1134.818359	121.880432
3061.207872	5954.865500	1133.683594	462.361572
3061.207872	5954.865500	1132.549805	614.690918
3061.207872	5954.865500	1131.415039	1171.527954
3061.207872	5954.865500	1130.279297	1396.555054
3061.207872	5954.865500	1129.144531	1591.791382
3061.207872	5954.865500	1128.008789	1810.840820
3061.207872	5954.865500	1126.873047	1769.632690
3061.207872	5954.865500	1125.737305	1932.803101
3061.207872	5954.865500	1124.601563	2195.636230
3061.207872	5954.865500	1123.464844	2272.458740
3061.207872	5954.865500	1122.328125	1920.297974
3061.207872	5954.865500	1121.191406	1786.352417
3061.207872	5954.865500	1120.054688	1593.365723
3061.207872	5954.865500	1118.916992	1698.025146
3061.207872	5954.865500	1117.779297	1356.036377
3061.207872	5954.865500	1116.641602	1318.926392
3061.207872	5954.865500	1115.503906	1016.913208
3061.207872	5954.865500	1114.365234	979.504089
3061.207872	5954.865500	1113.226563	807.329224
3061.207872	5954.865500	1112.087891	857.724121
3061.207872	5954.865500	1110.949219	747.088745
3061.207872	5954.865500	1109.809570	481.746063
3061.207872	5954.865500	1108.669922	331.325073
3061.207872	5954.865500	1107.530273	507.866394
3061.207872	5954.865500	1106.390625	370.934143
3061.207872	5954.865500	1105.250000	520.276611
3061.207872	5954.865500	1104.109375	694.841858
3061.207872	5954.865500	1102.968750	719.291565
3061.207872	5954.865500	1101.828125	778.039612
3061.207872	5954.865500	1100.686523	819.691162
3061.207872	5954.865500	1099.544922	979.878540
3061.207872	5954.865500	1098.403320	1086.874878
3061.207872	5954.865500	1097.261719	960.320679
3061.207872	5954.865500	1096.120117	843.258667
3061.207872	5954.865500	1094.977539	806.760315
3061.207872	5954.865500	1093.834961	658.177368
3061.207872	5954.865500	1092.691406	689.247070
3061.207872	5954.865500	1091.548828	523.855835
3061.207872	5954.865500	1090.405273	462.794464
3061.207872	5954.865500	1089.261719	426.370544
3061.207872	5954.865500	1088.118164	503.113312
3061.207872	5954.865500	1086.973633	365.173370
3061.207872	5954.865500	1085.829102	252.360748
3061.207872	5954.865500	1084.684570	415.366821
3061.207872	5954.865500	1083.540039	236.609573
3061.207872	5954.865500	1082.395508	350.468018
3061.207872	5954.865500	1081.250000	389.388977
3061.207872	5954.865500	1080.104492	383.460632
3061.207872	5954.865500	1078.958984	340.333496
3061.207872	5954.865500	1077.812500	221.838776
3061.207872	5954.865500	1076.666016	468.483093
3061.207872	5954.865500	1075.519531	409.901428
3061.207872	5954.865500	1074.373047	419.820435
3061.207872	5954.865500	1073.226563	617.558716
3061.207872	5954.865500	1072.079102	612.788696
3061.207872	5954.865500	1070.931641	691.287354
3061.207872	5954.865500	1069.784180	649.972839
3061.207872	5954.865500	1068.635742	729.821960
3061.207872	5954.865500	1067.487305	632.119873
3061.207872	5954.865500	1066.338867	736.443176
3061.207872	5954.865500	1065.190430	695.678772
3061.207872	5954.865500	1064.041992	857.832947
3061.207872	5954.865500	1062.892578	737.039978
3061.207872	5954.865500	1061.743164	872.322205
3061.207872	5954.865500	1060.593750	939.271912
3061.207872	5954.865500	1059.443359	734.423279
3061.207872	5954.865500	1058.292969	467.504364
3061.207872	5954.865500	1057.142578	401.212799
3061.207872	5954.865500	1055.992188	490.193573
3061.207872	5954.865500	1054.841797	612.841675
3061.207872	5954.865500	1053.690430	-51.465454
3061.207872	5954.865500	1052.539063	365.184509
3061.207872	5954.865500	1051.387695	204.051849
3061.207872	5954.865500	1050.235352	392.882782
3061.207872	5954.865500	1049.083984	156.690170
3061.207872	5954.865500	1047.931641	122.350647
3061.207872	5954.865500	1046.778320	-187.338776
3061.207872	5954.865500	1045.625977	205.266525
3061.207872	5954.865500	1044.472656	295.263062
3061.207872	5954.865500	1043.319336	240.330002
3061.207872	5954.865500	1042.166016	437.130035
3061.207872	5954.865500	1041.012695	389.378662
3061.207872	5954.865500	1039.858398	588.865967
3061.207872	5954.865500	1038.704102	626.978638
3061.207872	5954.865500	1037.549805	715.242798
3061.207872	5954.865500	1036.394531	943.705994
3061.207872	5954.865500	1035.239258	1132.806152
3061.207872	5954.865500	1034.083984	1019.930664
3061.207872	5954.865500	1032.928711	1045.388916
3061.207872	5954.865500	1031.773438	1280.199219
3061.207872	5954.865500	1030.617188	1026.660400
3061.207872	5954.865500	1029.460938	1001.744507
3061.207872	5954.865500	1028.304688	1019.823181
3061.207872	5954.865500	1027.147461	854.355286
3061.207872	5954.865500	1025.991211	522.283020
3061.207872	5954.865500	1024.833984	643.108765
3061.207872	5954.865500	1023.675781	658.086975
3061.207872	5954.865500	1022.518555	480.605957
3061.207872	5954.865500	1021.360352	455.847107
3061.207872	5954.865500	1020.202148	278.670135
3061.207872	5954.865500	1019.043945	329.997803
3061.207872	5954.865500	1017.884766	392.350372
3061.207872	5954.865500	1016.726563	146.390930
3061.207872	5954.865500	1015.567383	88.194229
3061.207872	5954.865500	1014.407227	-7.547805
3061.207872	5954.865500	1013.248047	13.746652
3061.207872	5954.865500	1012.087891	-187.514374
3061.207872	5954.865500	1010.927734	128.826752
3061.207872	5954.865500	1009.767578	-1.596205
3061.207872	5954.865500	1008.606445	279.316193
3061.207872	5954.865500	1007.446289	133.791534
3061.207872	5954.865500	1006.285156	235.437897
3061.207872	5954.865500	1005.123047	437.402344
3061.207872	5954.865500	1003.961914	210.401443
3061.207872	5954.865500	1002.799805	116.919556
3061.207872	5954.865500	1001.637695	479.830170
3061.207872	5954.865500	1000.475586	69.800278
3061.207872	5954.865500	999.312500	-43.991428
3061.207872	5954.865500	998.149414	223.971466
3061.207872	5954.865500	996.986328	-137.077621
3061.207872	5954.865500	995.823242	83.491234
3061.207872	5954.865500	994.659180	121.209816
3061.207872	5954.865500	993.496094	34.445168
3061.207872	5954.865500	992.332031	19.640663
3061.207872	5954.865500	991.166992	-8.347525
3061.207872	5954.865500	990.002930	-234.120468
3061.207872	5954.865500	988.837891	-344.055725
3061.207872	5954.865500	987.672852	-249.598740
3061.207872	5954.865500	986.506836	-365.343414
3061.207872	5954.865500	985.341797	-310.679077
3061.207872	5954.865500	984.175781	-378.704742
3061.207872	5954.865500	983.009766	-261.455322
3061.207872	5954.865500	981.843750	-117.150452
3061.207872	5954.865500	980.676758	30.254150
3061.207872	5954.865500	979.509766	-194.483124
3061.207872	5954.865500	978.342773	-27.710835
3061.207872	5954.865500	977.175781	-281.687683
3061.207872	5954.865500	976.007813	-307.828735
3061.207872	5954.865500	974.839844	-168.195496
3061.207872	5954.865500	973.671875	7.177901
3061.207872	5954.865500	972.503906	42.743706
3061.207872	5954.865500	971.334961	-156.167404
3061.207872	5954.865500	970.166016	-233.001343
3061.207872	5954.865500	968.997070	-270.393799
3061.207872	5954.865500	967.828125	-54.609303
3061.207872	5954.865500	966.658203	-24.089022
3061.207872	5954.865500	965.488281	47.459751
3061.207872	5954.865500	964.318359	7.885729
3061.207872	5954.865500	963.148438	117.752472
3061.207872	5954.865500	961.977539	90.763031
3061.207872	5954.865500	960.806641	83.046379
3061.207872	5954.865500	959.635742	181.761780
3061.207872	5954.865500	958.463867	70.164757
3061.207872	5954.865500	957.292969	-45.969479
3061.207872	5954.865500	956.121094	246.402222
3061.207872	5954.865500	954.948242	124.583382
3061.207872	5954.865500	953.776367	277.644623
3061.207872	5954.865500	952.603516	591.503601
3061.207872	5954.865500	951.430664	124.233223
3061.207872	5954.865500	950.257813	110.766228
3061.207872	5954.865500	949.084961	388.095825
3061.207872	5954.865500	947.911133	223.250244
3061.207872	5954.865500	946.737305	372.228546
3061.207872	5954.865500	945.563477	151.816895
3061.207872	5954.865500	944.388672	194.869507
3061.207872	5954.865500	943.213867	72.305519
3061.207872	5954.865500	942.039063	328.764618
3061.207872	5954.865500	940.864258	530.224365
3061.207872	5954.865500	939.688477	582.421509
3061.207872	5954.865500	938.513672	391.844391
3061.207872	5954.865500	937.337891	481.998749
3061.207872	5954.865500	936.161133	577.480957
3061.207872	5954.865500	934.985352	557.182190
3061.207872	5954.865500	933.808594	464.125275
3061.207872	5954.865500	932.631836	676.954468
3061.207872	5954.865500	931.454102	638.765381
3061.207872	5954.865500	930.277344	886.568787
3061.207872	5954.865500	929.099609	981.203369
3061.207872	5954.865500	927.921875	1058.257080
3061.207872	5954.865500	926.743164	1145.166870
3061.207872	5954.865500	925.565430	1058.938354
3061.207872	5954.865500	924.386719	1200.868408
3061.207872	5954.865500	923.208008	866.412598
3061.207872	5954.865500	922.028320	780.140442
3061.207872	5954.865500	920.849609	929.358521
3061.207872	5954.865500	919.669922	934.547119
3061.207872	5954.865500	919.474609	465.540222
3061.207872	5954.865500	918.309570	344.063599
3061.207872	5954.865500	917.143555	382.845856
3061.207872	5954.865500	915.977539	449.094452
3061.207872	5954.865500	914.810547	287.472473
3061.207872	5954.865500	913.644531	401.144470
3061.207872	5954.865500	912.477539	584.777405
3061.207872	5954.865500	911.310547	305.473602
3061.207872	5954.865500	910.143555	243.825516
3061.207872	5954.865500	908.975586	62.119022
3061.207872	5954.865500	907.807617	257.952515
3061.207872	5954.865500	906.639648	96.203690
3061.207872	5954.865500	905.471680	96.910400
3061.207872	5954.865500	904.303711	165.026474
3061.207872	5954.865500	903.134766	-164.131271
3061.207872	5954.865500	901.965820	-166.022842
3061.207872	5954.865500	900.796875	316.465729
3061.207872	5954.865500	899.626953	231.990891
3061.207872	5954.865500	898.457031	427.059601
3061.207872	5954.865500	897.287109	180.287704
3061.207872	5954.865500	896.117188	467.503998
3061.207872	5954.865500	894.947266	303.046997
3061.207872	5954.865500	893.776367	562.596375
3061.207872	5954.865500	892.605469	502.823212
3061.207872	5954.865500	891.434570	744.679321
3061.207872	5954.865500	890.262695	530.269958
3061.207872	5954.865500	889.091797	774.425354
3061.207872	5954.865500	887.919922	455.365204
3061.207872	5954.865500	886.748047	497.581055
3061.207872	5954.865500	885.575195	440.119415
3061.207872	5954.865500	884.403320	255.648621
3061.207872	5954.865500	883.230469	322.647797
3061.207872	5954.865500	882.057617	514.022705
3061.207872	5954.865500	880.883789	379.298096
3061.207872	5954.865500	879.710938	244.582031
3061.207872	5954.865500	878.537109	587.466614
3061.207872	5954.865500	877.362305	395.491241
3061.207872	5954.865500	876.188477	387.541443
3061.207872	5954.865500	875.013672	394.476654
3061.207872	5954.865500	873.839844	381.481323
3061.207872	5954.865500	872.664063	159.729874
3061.207872	5954.865500	871.489258	340.493988
3061.207872	5954.865500	870.313477	506.244110
3061.207872	5954.865500	869.138672	602.354370
3061.207872	5954.865500	867.962891	373.138855
3061.207872	5954.865500	866.786133	389.732513
3061.207872	5954.865500	865.610352	321.896362
3061.207872	5954.865500	864.433594	517.073120
3061.207872	5954.865500	863.256836	610.422668
3061.207872	5954.865500	862.079102	386.221191
3061.207872	5954.865500	860.902344	229.028625
3061.207872	5954.865500	859.724609	101.617500
3061.207872	5954.865500	858.546875	328.686890
3061.207872	5954.865500	857.368164	188.848587
3061.207872	5954.865500	856.190430	338.926514
3061.207872	5954.865500	855.011719	169.347153
3061.207872	5954.865500	853.833008	-22.489183
3061.207872	5954.865500	852.654297	159.628632
3061.207872	5954.865500	851.474609	91.593460
3061.207872	5954.865500	850.294922	-16.051750
3061.207872	5954.865500	849.115234	-54.396706
3061.207872	5954.865500	847.935547	184.349731
3061.207872	5954.865500	846.754883	155.808792
3061.207872	5954.865500	845.575195	-65.662064
3061.207872	5954.865500	844.393555	61.571991
3061.207872	5954.865500	843.212891	453.237610
3061.207872	5954.865500	842.032227	132.875839
3061.207872	5954.865500	840.850586	-202.212570
3061.207872	5954.865500	839.668945	228.697067
3061.207872	5954.865500	838.486328	222.186615
3061.207872	5954.865500	837.304688	102.041573
3061.207872	5954.865500	836.122070	293.021332
3061.207872	5954.865500	834.939453	256.776398
3061.207872	5954.865500	833.756836	356.257935
3061.207872	5954.865500	832.573242	327.352295
3061.207872	5954.865500	831.389648	157.801865
3061.207872	5954.865500	830.206055	121.481575
3061.207872	5954.865500	829.022461	319.416718
3061.207872	5954.865500	827.838867	201.644302
3061.207872	5954.865500	826.654297	-44.291298
3061.207872	5954.865500	825.469727	222.459778
3061.207872	5954.865500	824.284180	6.119549
3061.207872	5954.865500	823.099609	-77.137329
3061.207872	5954.865500	821.914063	-286.007385
3061.207872	5954.865500	820.728516	-169.777374
3061.207872	5954.865500	819.542969	-203.812729
3061.207872	5954.865500	818.356445	-333.866272
3061.207872	5954.865500	817.169922	-350.697357
3061.207872	5954.865500	815.983398	-367.556274
3061.207872	5954.865500	814.796875	-404.126770
3061.207872	5954.865500	813.609375	-450.554474
3061.207872	5954.865500	812.422852	-457.658417
3061.207872	5954.865500	811.235352	-223.868164
3061.207872	5954.865500	810.046875	-236.006393
3061.207872	5954.865500	808.859375	-137.593170
3061.207872	5954.865500	807.670898	0.053030
3061.207872	5954.865500	806.482422	113.038208
3061.207872	5954.865500	805.293945	12.274146
3061.207872	5954.865500	804.104492	24.462612
3061.207872	5954.865500	802.915039	-51.770802
3061.207872	5954.865500	801.725586	328.499329
3061.207872	5954.865500	800.536133	392.024567
3061.207872	5954.865500	799.345703	232.227203
3061.207872	5954.865500	798.155273	177.926300
3061.207872	5954.865500	796.964844	-102.009422
3061.207872	5954.865500	795.774414	133.013382
3061.207872	5954.865500	794.583008	-115.014832
3061.207872	5954.865500	793.392578	110.023277
3061.207872	5954.865500	792.200195	-133.083710
3061.207872	5954.865500	791.008789	13.384468
3061.207872	5954.865500	789.816406	-219.893723
3061.207872	5954.865500	788.625000	-49.072224
3061.207872	5954.865500	787.432617	-91.365318
3061.207872	5954.865500	786.239258	-6.404480
3061.207872	5954.865500	785.046875	-4.732098
3061.207872	5954.865500	783.853516	-22.683817
3061.207872	5954.865500	782.660156	-79.813309
3061.207872	5954.865500	781.465820	-359.531006
3061.207872	5954.865500	780.272461	-15.648525
3061.207872	5954.865500	779.078125	-380.927673
3061.207872	5954.865500	777.883789	133.810471
3061.207872	5954.865500	776.688477	-23.735378
3061.207872	5954.865500	775.494141	-42.003506
3061.207872	5954.865500	774.298828	-338.783386
3061.207872	5954.865500	773.103516	294.979004
3061.207872	5954.865500	771.907227	71.394356
3061.207872	5954.865500	770.711914	-15.444124
3061.207872	5954.865500	769.515625	12.410092
3061.207872	5954.865500	768.318359	-6.166778
3061.207872	5954.865500	767.122070	-205.325394
3061.207872	5954.865500	765.924805	-150.789429
3061.207872	5954.865500	764.727539	-54.873795
3061.207872	5954.865500	763.530273	-205.309555
3061.207872	5954.865500	762.333008	-90.038750
3061.207872	5954.865500	761.134766	-33.367157
3061.207872	5954.865500	759.936523	47.585819
3061.207872	5954.865500	758.738281	-59.133579
3061.207872	5954.865500	757.540039	172.675186
3061.207872	5954.865500	756.340820	107.247116
3061.207872	5954.865500	755.141602	-77.513542
3061.207872	5954.865500	753.942383	-91.875038
3061.207872	5954.865500	752.742188	122.460007
3061.207872	5954.865500	751.541992	122.532654
3061.207872	5954.865500	750.341797	-84.230003
3061.207872	5954.865500	749.141602	-110.998543
3061.207872	5954.865500	747.941406	83.445122
3061.207872	5954.865500	746.740234	61.376595
3061.207872	5954.865500	745.539063	2.792296
3061.207872	5954.865500	744.337891	-155.468597
3061.207872	5954.865500	743.135742	-7.615015
3061.207872	5954.865500	741.933594	103.669922
3061.207872	5954.865500	740.731445	-278.145691
3061.207872	5954.865500	739.529297	32.099583
3061.207872	5954.865500	738.326172	26.571604
3061.207872	5954.865500	737.124023	-144.061386
3061.207872	5954.865500	735.919922	-132.716751
3061.207872	5954.865500	734.716797	-53.521393
3061.207872	5954.865500	733.513672	217.174850
3061.207872	5954.865500	732.309570	43.914467
3061.207872	5954.865500	731.105469	-63.889408
3061.207872	5954.865500	729.900391	230.643509
3061.207872	5954.865500	728.696289	246.283859
3061.207872	5954.865500	727.491211	458.091644
3061.207872	5954.865500	726.286133	618.861084
3061.207872	5954.865500	725.080078	94.083527
3061.207872	5954.865500	723.874023	276.488922
3061.207872	5954.865500	722.668945	320.750793
3061.207872	5954.865500	721.461914	609.363647
3061.207872	5954.865500	720.255859	297.646240
3061.207872	5954.865500	719.048828	99.681084
3061.207872	5954.865500	717.841797	310.505096
3061.207872	5954.865500	716.634766	143.891144
3061.207872	5954.865500	715.427734	28.033934
3061.207872	5954.865500	714.219727	52.344242
3061.207872	5954.865500	713.011719	86.224495
3061.207872	5954.865500	711.803711	243.234680
3061.207872	5954.865500	710.594727	-13.017355
3061.207872	5954.865500	709.385742	-39.796928
3061.207872	5954.865500	708.176758	13.034106
3061.207872	5954.865500	706.967773	-50.132195
3061.207872	5954.865500	705.758789	-55.433052
3061.207872	5954.865500	704.548828	-84.960159
3061.207872	5954.865500	703.338867	-95.263588
3061.207872	5954.865500	702.127930	43.902752
3061.207872	5954.865500	700.917969	122.627228
3061.207872	5954.865500	699.707031	46.900467
3061.207872	5954.865500	698.496094	320.672729
3061.207872	5954.865500	697.285156	68.797134
3061.207872	5954.865500	696.073242	375.992065
3061.207872	5954.865500	694.861328	25.239307
3061.207872	5954.865500	693.649414	276.722046
3061.207872	5954.865500	692.436523	121.006203
3061.207872	5954.865500	691.224609	340.868896
3061.207872	5954.865500	690.011719	315.000885
3061.207872	5954.865500	688.798828	630.800354
3061.207872	5954.865500	687.584961	202.844696
3061.207872	5954.865500	686.372070	133.425400
3061.207872	5954.865500	685.158203	268.373230
3061.207872	5954.865500	683.943359	129.025620
3061.207872	5954.865500	682.729492	-7.952450
3061.207872	5954.865500	681.514648	90.579979
3061.207872	5954.865500	680.299805	294.711212
3061.207872	5954.865500	679.084961	20.525036
3061.207872	5954.865500	677.869141	20.195957
3061.207872	5954.865500	676.653320	307.962982
3061.207872	5954.865500	675.437500	451.439209
3061.207872	5954.865500	674.221680	556.341248
3061.207872	5954.865500	673.004883	773.900146
3061.207872	5954.865500	671.789063	523.340942
3061.207872	5954.865500	670.571289	774.192566
3061.207872	5954.865500	669.354492	866.533386
3061.207872	5954.865500	668.136719	771.672729
3061.207872	5954.865500	666.919922	834.996643
3061.207872	5954.865500	665.701172	955.710815
3061.207872	5954.865500	664.483398	676.047119
3061.207872	5954.865500	663.264648	837.271240
3061.207872	5954.865500	662.045898	1065.400757
3061.207872	5954.865500	660.827148	1096.933716
3061.207872	5954.865500	659.608398	764.376160
3061.207872	5954.865500	658.388672	1025.577393
3061.207872	5954.865500	657.168945	616.369690
3061.207872	5954.865500	655.949219	937.112671
3061.207872	5954.865500	654.728516	831.737488
3061.207872	5954.865500	653.507813	920.059265
3061.207872	5954.865500	652.287109	903.013794
3061.207872	5954.865500	651.066406	685.025024
3061.207872	5954.865500	649.844727	873.410767
3061.207872	5954.865500	648.623047	879.972778
3061.207872	5954.865500	647.401367	731.109802
3061.207872	5954.865500	646.179688	1110.181519
3061.207872	5954.865500	644.957031	1228.636353
3061.207872	5954.865500	643.734375	1026.946411
3061.207872	5954.865500	642.511719	989.981140
3061.207872	5954.865500	641.289063	876.545715
3061.207872	5954.865500	640.065430	922.943726
3061.207872	5954.865500	638.841797	964.452393
3061.207872	5954.865500	637.618164	1175.212891
3061.207872	5954.865500	636.393555	1154.434814
3061.207872	5954.865500	635.168945	1166.950439
3061.207872	5954.865500	633.944336	878.982971
3061.207872	5954.865500	632.719727	900.888428
3061.207872	5954.865500	631.494141	560.472107
3061.207872	5954.865500	630.269531	644.185852
3061.207872	5954.865500	629.042969	520.525940
3061.207872	5954.865500	627.817383	334.911469
3061.207872	5954.865500	626.590820	449.272339
3061.207872	5954.865500	625.365234	482.563080
3061.207872	5954.865500	624.137695	387.214783
3061.207872	5954.865500	622.911133	332.272461
3061.207872	5954.865500	621.683594	393.819855
3061.207872	5954.865500	620.456055	367.248932
3061.207872	5954.865500	619.228516	466.626923
3061.207872	5954.865500	618.000977	380.437134
3061.207872	5954.865500	616.772461	104.036987
3061.207872	5954.865500	615.543945	93.818817
3061.207872	5954.865500	614.314453	444.645813
3061.207872	5954.865500	613.085938	92.134247
3061.207872	5954.865500	611.856445	138.656021
3061.207872	5954.865500	610.626953	465.250305
3061.207872	5954.865500	609.397461	200.531433
3061.207872	5954.865500	608.166992	408.130005
3061.207872	5954.865500	606.936523	513.528748
3061.207872	5954.865500	605.706055	547.631226
3061.207872	5954.865500	604.474609	795.097107
3061.207872	5954.865500	603.244141	587.090759
3061.207872	5954.865500	602.012695	715.746948
3061.207872	5954.865500	600.780273	877.447693
3061.207872	5954.865500	599.548828	842.318481
3061.207872	5954.865500	598.316406	266.913849
3061.207872	5954.865500	597.083984	534.984802
3061.207872	5954.865500	595.851563	871.552246
3061.207872	5954.865500	594.618164	464.400574
3061.207872	5954.865500	593.384766	206.497910
3061.207872	5954.865500	592.151367	362.826050
3061.207872	5954.865500	590.917969	218.503586
3061.207872	5954.865500	589.683594	386.453583
3061.207872	5954.865500	588.449219	343.757660
3061.207872	5954.865500	587.214844	208.792221
3061.207872	5954.865500	585.979492	277.142426
3061.207872	5954.865500	584.745117	125.583755
3061.207872	5954.865500	583.509766	215.076035
3061.207872	5954.865500	582.273438	328.091370
3061.207872	5954.865500	581.038086	263.844971
3061.207872	5954.865500	579.801758	414.483978
3061.207872	5954.865500	578.565430	213.178391
3061.207872	5954.865500	577.329102	290.480499
3061.207872	5954.865500	576.091797	86.819099
3061.207872	5954.865500	574.854492	199.405258
3061.207872	5954.865500	573.617188	170.342194
3061.207872	5954.865500	572.378906	459.669891
3061.207872	5954.865500	571.141602	355.016327
3061.207872	5954.865500	569.903320	297.510712
3061.207872	5954.865500	568.664063	188.121384
3061.207872	5954.865500	567.425781	486.468719
3061.207872	5954.865500	566.186523	716.310669
3061.207872	5954.865500	564.947266	693.960266
3061.207872	5954.865500	563.708008	749.307800
3061.207872	5954.865500	562.467773	408.996796
3061.207872	5954.865500	561.227539	386.623474
3061.207872	5954.865500	559.987305	359.525513
3061.207872	5954.865500	558.747070	419.483948
3061.207872	5954.865500	557.505859	587.605042
3061.207872	5954.865500	556.264648	341.645294
3061.207872	5954.865500	555.023438	140.454147
3061.207872	5954.865500	553.781250	484.797974
3061.207872	5954.865500	552.539063	403.501709
3061.207872	5954.865500	551.296875	176.512390
3061.207872	5954.865500	550.054688	311.460632
3061.207872	5954.865500	548.811523	321.821869
3061.207872	5954.865500	547.569336	675.087891
3061.207872	5954.865500	546.325195	215.701050
3061.207872	5954.865500	545.082031	312.915802
3061.207872	5954.865500	543.837891	346.700745
3061.207872	5954.865500	542.593750	-2.041148
3061.207872	5954.865500	541.349609	-45.632370
3061.207872	5954.865500	540.105469	236.844742
3061.207872	5954.865500	538.860352	216.666275
3061.207872	5954.865500	537.615234	170.707886
3061.207872	5954.865500	536.369141	190.399948
3061.207872	5954.865500	535.124023	13.234180
3061.207872	5954.865500	533.877930	166.528702
3061.207872	5954.865500	532.631836	-228.415176
3061.207872	5954.865500	531.384766	198.907104
3061.207872	5954.865500	530.138672	-289.514862
3061.207872	5954.865500	528.891602	156.394882
3061.207872	5954.865500	527.643555	-104.756691
3061.207872	5954.865500	526.396484	-143.452866
3061.207872	5954.865500	525.148438	-25.369593
3061.207872	5954.865500	523.900391	1.458182
3061.207872	5954.865500	522.652344	-105.005325
3061.207872	5954.865500	521.403320	-496.665741
3061.207872	5954.865500	520.154297	-343.462494
3061.207872	5954.865500	518.905273	-248.728363
3061.207872	5954.865500	517.656250	-478.800049
3061.207872	5954.865500	516.406250	-299.932831
3061.207872	5954.865500	515.156250	-499.484406
3061.207872	5954.865500	513.906250	-561.149048
3061.207872	5954.865500	512.655273	-545.721130
3061.207872	5954.865500	511.404297	-40.103531
3061.207872	5954.865500	510.153320	-213.752350
3061.207872	5954.865500	508.902344	-207.643341
3061.207872	5954.865500	507.650391	-276.156952
3061.207872	5954.865500	506.398438	-328.280334
3061.207872	5954.865500	505.146484	-140.188614
3061.207872	5954.865500	503.893555	134.100937
3061.207872	5954.865500	502.641602	-307.178192
3061.207872	5954.865500	501.388672	53.317680
3061.207872	5954.865500	500.134766	-35.926571
3061.207872	5954.865500	498.881836	-92.478668
3061.207872	5954.865500	497.627930	18.684746
3061.207872	5954.865500	496.374023	18.087408
3061.207872	5954.865500	495.119141	-294.378082
3061.207872	5954.865500	493.865234	58.891842
3061.207872	5954.865500	492.610352	-176.591248
3061.207872	5954.865500	491.355469	-116.520897
3061.207872	5954.865500	490.099609	-58.772301
3061.207872	5954.865500	488.843750	108.269302
3061.207872	5954.865500	487.587891	114.880753
3061.207872	5954.865500	486.332031	161.034088
3061.207872	5954.865500	485.075195	91.014008
3061.207872	5954.865500	483.818359	304.479645
3061.207872	5954.865500	482.561523	-55.794594
3061.207872	5954.865500	481.304688	6.741058
3061.207872	5954.865500	480.046875	201.605316
3061.207872	5954.865500	478.789063	294.286804
3061.207872	5954.865500	477.531250	185.067261
3061.207872	5954.865500	476.272461	291.681946
3061.207872	5954.865500	475.013672	296.216644
3061.207872	5954.865500	473.754883	356.431213
3061.207872	5954.865500	472.496094	439.829590
3061.207872	5954.865500	471.236328	432.796906
3061.207872	5954.865500	469.976563	713.168274
3061.207872	5954.865500	468.716797	576.357300
3061.207872	5954.865500	467.456055	499.840515
3061.207872	5954.865500	466.196289	703.623779
3061.207872	5954.865500	464.935547	627.133179
3061.207872	5954.865500	463.673828	800.699707
3061.207872	5954.865500	462.413086	1041.326538
3061.207872	5954.865500	461.151367	1110.595581
3061.207872	5954.865500	459.889648	1242.295776
3061.207872	5954.865500	458.626953	897.423706
3061.207872	5954.865500	457.364258	1271.902588
3061.207872	5954.865500	456.101563	987.257690
3061.207872	5954.865500	454.838867	617.183777
3061.207872	5954.865500	453.575195	605.456177
3061.207872	5954.865500	452.312500	764.693970
3061.207872	5954.865500	451.047852	822.165405
3061.207872	5954.865500	449.784180	690.193665
3061.207872	5954.865500	448.519531	759.114197
3061.207872	5954.865500	447.254883	193.088791
3061.207872	5954.865500	445.990234	444.316742
3061.207872	5954.865500	444.725586	296.155182
3061.207872	5954.865500	443.459961	579.408691
3061.207872	5954.865500	442.194336	320.408112
3061.207872	5954.865500	440.927734	179.039429
3061.207872	5954.865500	439.662109	164.457199
3061.207872	5954.865500	438.395508	338.793091
3061.207872	5954.865500	437.127930	213.336136
3061.207872	5954.865500	435.861328	433.447571
3061.207872	5954.865500	434.593750	-12.414131
3061.207872	5954.865500	433.326172	350.180145
3061.207872	5954.865500	432.058594	210.506775
3061.207872	5954.865500	430.790039	-46.674198
3061.207872	5954.865500	429.521484	64.358643
3061.207872	5954.865500	428.252930	313.240204
3061.207872	5954.865500	426.984375	143.122635
3061.207872	5954.865500	425.714844	198.291519
3061.207872	5954.865500	424.445313	25.574947
3061.207872	5954.865500	423.174805	289.544617
3061.207872	5954.865500	421.905273	261.262115
3061.207872	5954.865500	420.634766	441.879028
3061.207872	5954.865500	419.364258	734.753845
3061.207872	5954.865500	418.092773	822.786316
3061.207872	5954.865500	416.822266	655.594666
3061.207872	5954.865500	415.550781	410.110687
3061.207872	5954.865500	414.278320	614.367188
3061.207872	5954.865500	413.006836	797.578369
3061.207872	5954.865500	411.734375	792.210510
3061.207872	5954.865500	410.461914	706.208923
3061.207872	5954.865500	409.188477	762.080200
3061.207872	5954.865500	407.916016	945.982239
3061.207872	5954.865500	406.642578	670.873840
3061.207872	5954.865500	405.368164	576.544495
3061.207872	5954.865500	404.094727	953.927917
3061.207872	5954.865500	402.820313	718.956360
3061.207872	5954.865500	401.545898	588.997742
3061.207872	5954.865500	400.270508	490.664764
3061.207872	5954.865500	398.996094	664.366699
3061.207872	5954.865500	397.720703	658.908020
3061.207872	5954.865500	396.444336	469.805206
3061.207872	5954.865500	395.168945	644.066040
3061.207872	5954.865500	393.892578	602.618164
3061.207872	5954.865500	392.616211	553.729126
3061.207872	5954.865500	391.339844	876.971130
3061.207872	5954.865500	390.062500	913.638977
3061.207872	5954.865500	388.785156	981.625000
3061.207872	5954.865500	387.507813	758.675598
3061.207872	5954.865500	386.229492	861.799072
3061.207872	5954.865500	384.951172	687.754822
3061.207872	5954.865500	383.672852	629.490723
3061.207872	5954.865500	382.394531	696.040100
3061.207872	5954.865500	381.115234	359.967194
3061.207872	5954.865500	379.835938	112.203041
3061.207872	5954.865500	378.556641	228.751846
3061.207872	5954.865500	377.277344	296.445343
3061.207872	5954.865500	375.997070	189.823074
3061.207872	5954.865500	374.716797	148.415802
3061.207872	5954.865500	373.435547	110.572830
3061.207872	5954.865500	372.155273	158.364838
3061.207872	5954.865500	370.874023	100.234680
3061.207872	5954.865500	369.591797	227.833969
3061.207872	5954.865500	368.310547	21.741940
3061.207872	5954.865500	367.028320	85.550781
3061.207872	5954.865500	365.746094	323.455872
3061.207872	5954.865500	364.463867	157.141586
3061.207872	5954.865500	363.180664	87.468323
3061.207872	5954.865500	361.897461	5.155313
3061.207872	5954.865500	360.614258	331.005859
3061.207872	5954.865500	359.330078	73.093765
3061.207872	5954.865500	358.045898	70.822472
3061.207872	5954.865500	356.761719	-28.374233
3061.207872	5954.865500	355.477539	311.905426
3061.207872	5954.865500	354.192383	309.620239
3061.207872	5954.865500	352.907227	17.243090
3061.207872	5954.865500	351.622070	150.382233
3061.207872	5954.865500	350.336914	-63.360672
3061.207872	5954.865500	349.050781	-99.406174
3061.207872	5954.865500	347.764648	89.792152
3061.207872	5954.865500	346.477539	79.627663
3061.207872	5954.865500	345.191406	47.251114
3061.207872	5954.865500	343.904297	-105.012413
3061.207872	5954.865500	342.616211	-107.262291
3061.207872	5954.865500	341.329102	-0.357648
3061.207872	5954.865500	340.041016	-31.613802
3061.207872	5954.865500	338.752930	39.294235
3061.207872	5954.865500	337.463867	-132.224030
3061.207872	5954.865500	336.175781	-217.468353
3061.207872	5954.865500	334.886719	-311.797943
3061.207872	5954.865500	333.596680	-109.577606
3061.207872	5954.865500	332.307617	-267.453461
3061.207872	5954.865500	331.017578	72.442039
3061.207872	5954.865500	329.727539	-285.020721
3061.207872	5954.865500	328.436523	-255.828903
3061.207872	5954.865500	327.146484	-222.413025
3061.207872	5954.865500	325.855469	-19.907267
3061.207872	5954.865500	324.563477	39.502750
3061.207872	5954.865500	323.272461	-14.612638
3061.207872	5954.865500	321.980469	-173.366165
3061.207872	5954.865500	320.688477	-45.795704
3061.207872	5954.865500	319.395508	-158.580948
3061.207872	5954.865500	318.103516	-104.937630
3061.207872	5954.865500	316.810547	-115.536057
3061.207872	5954.865500	315.516602	-93.342484
3061.207872	5954.865500	314.223633	-130.802399
3061.207872	5954.865500	312.929688	-106.293663
3061.207872	5954.865500	311.635742	86.194344
3061.207872	5954.865500	310.340820	24.590712
3061.207872	5954.865500	309.045898	324.695587
3061.207872	5954.865500	307.750977	300.825470
3061.207872	5954.865500	306.456055	142.443970
3061.207872	5954.865500	305.160156	342.963745
3061.207872	5954.865500	303.865234	469.711823
3061.207872	5954.865500	302.568359	616.899963
3061.207872	5954.865500	301.272461	651.915833
3061.207872	5954.865500	299.975586	1173.404541
3061.207872	5954.865500	298.678711	891.228516
