#X		#Y		#Wave		#Intensity
12480.805053	3945.853500	1999.980469	-143.592453
12480.805053	3945.853500	1999.016602	-154.537537
12480.805053	3945.853500	1998.052734	-159.792831
12480.805053	3945.853500	1997.087891	-88.582603
12480.805053	3945.853500	1996.123047	24.365452
12480.805053	3945.853500	1995.158203	-26.569601
12480.805053	3945.853500	1994.193359	83.168312
12480.805053	3945.853500	1993.228516	-3.086139
12480.805053	3945.853500	1992.262695	105.973701
12480.805053	3945.853500	1991.297852	93.389229
12480.805053	3945.853500	1990.332031	-8.577038
12480.805053	3945.853500	1989.366211	54.997601
12480.805053	3945.853500	1988.399414	-52.428852
12480.805053	3945.853500	1987.433594	30.374565
12480.805053	3945.853500	1986.466797	21.388985
12480.805053	3945.853500	1985.500977	232.215668
12480.805053	3945.853500	1984.534180	91.680031
12480.805053	3945.853500	1983.567383	-135.546173
12480.805053	3945.853500	1982.599609	109.097923
12480.805053	3945.853500	1981.632813	187.887634
12480.805053	3945.853500	1980.665039	41.642864
12480.805053	3945.853500	1979.697266	-45.472702
12480.805053	3945.853500	1978.729492	79.618843
12480.805053	3945.853500	1977.761719	73.622185
12480.805053	3945.853500	1976.792969	-107.812256
12480.805053	3945.853500	1975.825195	61.105885
12480.805053	3945.853500	1974.856445	24.988562
12480.805053	3945.853500	1973.887695	72.607071
12480.805053	3945.853500	1972.918945	36.188221
12480.805053	3945.853500	1971.949219	90.887672
12480.805053	3945.853500	1970.980469	-150.464813
12480.805053	3945.853500	1970.010742	98.730598
12480.805053	3945.853500	1969.041016	37.136829
12480.805053	3945.853500	1968.071289	-7.306695
12480.805053	3945.853500	1967.101563	93.519958
12480.805053	3945.853500	1966.130859	189.270813
12480.805053	3945.853500	1965.161133	198.674179
12480.805053	3945.853500	1964.190430	67.608376
12480.805053	3945.853500	1963.219727	42.364590
12480.805053	3945.853500	1962.249023	-27.270458
12480.805053	3945.853500	1961.277344	65.470825
12480.805053	3945.853500	1960.306641	113.801941
12480.805053	3945.853500	1959.334961	-64.304237
12480.805053	3945.853500	1958.363281	50.297314
12480.805053	3945.853500	1957.391602	14.767662
12480.805053	3945.853500	1956.419922	153.767258
12480.805053	3945.853500	1955.447266	-39.232407
12480.805053	3945.853500	1954.474609	16.037025
12480.805053	3945.853500	1953.501953	68.775688
12480.805053	3945.853500	1952.529297	15.792000
12480.805053	3945.853500	1951.556641	198.614944
12480.805053	3945.853500	1950.583984	86.591782
12480.805053	3945.853500	1949.610352	129.278946
12480.805053	3945.853500	1948.636719	93.346794
12480.805053	3945.853500	1947.663086	57.396137
12480.805053	3945.853500	1946.689453	-57.109024
12480.805053	3945.853500	1945.715820	-58.720917
12480.805053	3945.853500	1944.741211	62.313522
12480.805053	3945.853500	1943.767578	18.935074
12480.805053	3945.853500	1942.792969	-61.233093
12480.805053	3945.853500	1941.818359	-82.538246
12480.805053	3945.853500	1940.842773	170.725830
12480.805053	3945.853500	1939.868164	2.293634
12480.805053	3945.853500	1938.892578	154.950912
12480.805053	3945.853500	1937.916992	-79.586449
12480.805053	3945.853500	1936.941406	-83.765549
12480.805053	3945.853500	1935.965820	-132.032654
12480.805053	3945.853500	1934.990234	-11.313065
12480.805053	3945.853500	1934.013672	-52.230343
12480.805053	3945.853500	1933.037109	-53.963024
12480.805053	3945.853500	1932.060547	61.787918
12480.805053	3945.853500	1931.083984	-89.221535
12480.805053	3945.853500	1930.107422	90.117058
12480.805053	3945.853500	1929.129883	93.278427
12480.805053	3945.853500	1928.153320	-35.614307
12480.805053	3945.853500	1927.175781	-100.873016
12480.805053	3945.853500	1926.198242	-141.647537
12480.805053	3945.853500	1925.219727	-79.733383
12480.805053	3945.853500	1924.242188	-34.933624
12480.805053	3945.853500	1923.263672	-36.558342
12480.805053	3945.853500	1922.285156	103.523064
12480.805053	3945.853500	1921.306641	11.538017
12480.805053	3945.853500	1920.328125	-73.067856
12480.805053	3945.853500	1919.349609	69.439568
12480.805053	3945.853500	1918.370117	-46.840057
12480.805053	3945.853500	1917.391602	-26.379934
12480.805053	3945.853500	1916.412109	-101.073334
12480.805053	3945.853500	1915.431641	43.857647
12480.805053	3945.853500	1914.452148	-50.290478
12480.805053	3945.853500	1913.472656	21.458158
12480.805053	3945.853500	1912.492188	-99.426407
12480.805053	3945.853500	1911.511719	-30.086903
12480.805053	3945.853500	1910.531250	-187.431320
12480.805053	3945.853500	1909.550781	-3.515644
12480.805053	3945.853500	1908.569336	-80.352356
12480.805053	3945.853500	1907.588867	88.906113
12480.805053	3945.853500	1906.607422	-34.147724
12480.805053	3945.853500	1905.625977	-1.281563
12480.805053	3945.853500	1904.644531	-165.614609
12480.805053	3945.853500	1903.662109	115.606171
12480.805053	3945.853500	1902.680664	-4.831218
12480.805053	3945.853500	1901.698242	28.100828
12480.805053	3945.853500	1900.715820	-194.408691
12480.805053	3945.853500	1899.733398	-32.487991
12480.805053	3945.853500	1898.750000	88.051910
12480.805053	3945.853500	1897.767578	65.108948
12480.805053	3945.853500	1896.784180	-30.735046
12480.805053	3945.853500	1895.800781	36.330196
12480.805053	3945.853500	1894.817383	76.659691
12480.805053	3945.853500	1893.833984	56.251957
12480.805053	3945.853500	1892.850586	23.726582
12480.805053	3945.853500	1891.866211	83.527328
12480.805053	3945.853500	1890.881836	-131.077789
12480.805053	3945.853500	1889.897461	-51.809120
12480.805053	3945.853500	1888.913086	32.301918
12480.805053	3945.853500	1887.927734	29.028627
12480.805053	3945.853500	1886.943359	-51.876377
12480.805053	3945.853500	1885.958008	-30.839481
12480.805053	3945.853500	1884.972656	-48.605644
12480.805053	3945.853500	1883.987305	-158.506714
12480.805053	3945.853500	1883.001953	8.063941
12480.805053	3945.853500	1882.015625	-29.052586
12480.805053	3945.853500	1881.029297	-46.752285
12480.805053	3945.853500	1880.042969	-83.821190
12480.805053	3945.853500	1879.056641	-43.333923
12480.805053	3945.853500	1878.070313	6.837500
12480.805053	3945.853500	1877.083984	-5.973381
12480.805053	3945.853500	1876.096680	15.130142
12480.805053	3945.853500	1875.109375	60.442322
12480.805053	3945.853500	1874.122070	120.267349
12480.805053	3945.853500	1873.134766	-18.380165
12480.805053	3945.853500	1872.146484	-45.664101
12480.805053	3945.853500	1871.159180	67.380386
12480.805053	3945.853500	1870.170898	-109.872322
12480.805053	3945.853500	1869.182617	82.950035
12480.805053	3945.853500	1868.194336	-7.195119
12480.805053	3945.853500	1867.205078	28.399349
12480.805053	3945.853500	1866.216797	47.057594
12480.805053	3945.853500	1865.227539	-11.623404
12480.805053	3945.853500	1864.238281	-106.529259
12480.805053	3945.853500	1863.249023	-179.665497
12480.805053	3945.853500	1862.259766	-54.736855
12480.805053	3945.853500	1861.269531	4.939291
12480.805053	3945.853500	1860.279297	79.069115
12480.805053	3945.853500	1859.290039	20.398853
12480.805053	3945.853500	1858.298828	-91.353912
12480.805053	3945.853500	1857.308594	2.018639
12480.805053	3945.853500	1856.318359	3.667842
12480.805053	3945.853500	1855.327148	-158.714508
12480.805053	3945.853500	1854.335938	-60.605804
12480.805053	3945.853500	1853.344727	-58.995510
12480.805053	3945.853500	1852.353516	106.518990
12480.805053	3945.853500	1851.362305	144.209946
12480.805053	3945.853500	1850.370117	13.183604
12480.805053	3945.853500	1849.377930	29.150131
12480.805053	3945.853500	1848.385742	61.948673
12480.805053	3945.853500	1847.393555	-8.851167
12480.805053	3945.853500	1846.401367	108.167389
12480.805053	3945.853500	1845.408203	42.146576
12480.805053	3945.853500	1844.415039	26.668768
12480.805053	3945.853500	1843.421875	42.452011
12480.805053	3945.853500	1842.428711	87.071289
12480.805053	3945.853500	1841.435547	199.000031
12480.805053	3945.853500	1840.441406	-16.256407
12480.805053	3945.853500	1839.448242	-101.609795
12480.805053	3945.853500	1838.454102	-57.134663
12480.805053	3945.853500	1837.459961	-60.790882
12480.805053	3945.853500	1836.464844	173.452667
12480.805053	3945.853500	1835.470703	119.214279
12480.805053	3945.853500	1834.475586	21.709694
12480.805053	3945.853500	1833.480469	109.157417
12480.805053	3945.853500	1832.485352	-31.622416
12480.805053	3945.853500	1831.490234	72.522392
12480.805053	3945.853500	1830.495117	181.383667
12480.805053	3945.853500	1829.499023	-29.075102
12480.805053	3945.853500	1828.502930	-9.122952
12480.805053	3945.853500	1827.506836	63.557854
12480.805053	3945.853500	1826.510742	102.576569
12480.805053	3945.853500	1825.513672	124.739281
12480.805053	3945.853500	1824.517578	53.321121
12480.805053	3945.853500	1823.520508	25.030542
12480.805053	3945.853500	1822.523438	152.505585
12480.805053	3945.853500	1821.526367	18.645098
12480.805053	3945.853500	1820.529297	213.053009
12480.805053	3945.853500	1819.531250	122.238785
12480.805053	3945.853500	1818.533203	215.834824
12480.805053	3945.853500	1817.535156	60.275204
12480.805053	3945.853500	1816.537109	91.472473
12480.805053	3945.853500	1815.539063	108.232780
12480.805053	3945.853500	1814.540039	129.708878
12480.805053	3945.853500	1813.541992	208.545883
12480.805053	3945.853500	1812.542969	59.994602
12480.805053	3945.853500	1811.543945	138.682556
12480.805053	3945.853500	1810.543945	80.947868
12480.805053	3945.853500	1809.544922	111.642250
12480.805053	3945.853500	1808.544922	17.935957
12480.805053	3945.853500	1807.544922	189.517380
12480.805053	3945.853500	1806.544922	74.181564
12480.805053	3945.853500	1805.544922	11.384656
12480.805053	3945.853500	1804.544922	84.707359
12480.805053	3945.853500	1803.543945	98.214920
12480.805053	3945.853500	1802.542969	128.358856
12480.805053	3945.853500	1801.541992	17.548496
12480.805053	3945.853500	1800.541016	83.350937
12480.805053	3945.853500	1799.539063	8.235485
12480.805053	3945.853500	1798.538086	-0.112892
12480.805053	3945.853500	1797.536133	20.089878
12480.805053	3945.853500	1796.534180	75.985283
12480.805053	3945.853500	1795.532227	-20.852682
12480.805053	3945.853500	1794.529297	84.938042
12480.805053	3945.853500	1793.527344	-47.787785
12480.805053	3945.853500	1792.524414	-1.784382
12480.805053	3945.853500	1791.521484	56.033558
12480.805053	3945.853500	1790.518555	-3.003059
12480.805053	3945.853500	1789.514648	173.729721
12480.805053	3945.853500	1788.511719	-16.471073
12480.805053	3945.853500	1787.507813	-106.675804
12480.805053	3945.853500	1786.503906	-42.180519
12480.805053	3945.853500	1785.500000	0.779845
12480.805053	3945.853500	1784.496094	26.976723
12480.805053	3945.853500	1783.491211	64.969208
12480.805053	3945.853500	1782.486328	-30.366468
12480.805053	3945.853500	1781.481445	-23.478069
12480.805053	3945.853500	1780.476563	28.501608
12480.805053	3945.853500	1779.471680	-124.107094
12480.805053	3945.853500	1778.465820	65.564148
12480.805053	3945.853500	1777.460938	-82.423386
12480.805053	3945.853500	1776.455078	-37.970360
12480.805053	3945.853500	1775.449219	-102.916145
12480.805053	3945.853500	1774.442383	19.721558
12480.805053	3945.853500	1773.436523	-9.772542
12480.805053	3945.853500	1772.429688	76.996147
12480.805053	3945.853500	1771.422852	75.797569
12480.805053	3945.853500	1770.416016	133.845276
12480.805053	3945.853500	1769.409180	54.133144
12480.805053	3945.853500	1768.402344	52.654537
12480.805053	3945.853500	1767.394531	17.864880
12480.805053	3945.853500	1766.386719	-66.815453
12480.805053	3945.853500	1765.378906	-125.475060
12480.805053	3945.853500	1764.371094	74.217903
12480.805053	3945.853500	1763.362305	12.984653
12480.805053	3945.853500	1762.354492	13.302517
12480.805053	3945.853500	1761.345703	108.298660
12480.805053	3945.853500	1760.336914	-31.377871
12480.805053	3945.853500	1759.328125	79.976433
12480.805053	3945.853500	1758.318359	68.038971
12480.805053	3945.853500	1757.308594	34.697895
12480.805053	3945.853500	1756.299805	48.623486
12480.805053	3945.853500	1755.290039	-6.199211
12480.805053	3945.853500	1754.279297	-46.906731
12480.805053	3945.853500	1753.269531	-120.814377
12480.805053	3945.853500	1752.258789	136.368546
12480.805053	3945.853500	1751.249023	-8.693847
12480.805053	3945.853500	1750.238281	-106.513939
12480.805053	3945.853500	1749.226563	-72.011383
12480.805053	3945.853500	1748.215820	9.659680
12480.805053	3945.853500	1747.204102	-88.411079
12480.805053	3945.853500	1746.193359	-18.779257
12480.805053	3945.853500	1745.181641	-72.120171
12480.805053	3945.853500	1744.168945	-0.366582
12480.805053	3945.853500	1743.157227	-60.971909
12480.805053	3945.853500	1742.144531	-157.074371
12480.805053	3945.853500	1741.132813	-142.286194
12480.805053	3945.853500	1740.120117	113.118340
12480.805053	3945.853500	1739.106445	-127.201164
12480.805053	3945.853500	1738.093750	106.674934
12480.805053	3945.853500	1737.080078	-53.550129
12480.805053	3945.853500	1736.067383	-152.489029
12480.805053	3945.853500	1735.053711	-81.731857
12480.805053	3945.853500	1734.040039	-51.173592
12480.805053	3945.853500	1733.025391	-30.159706
12480.805053	3945.853500	1732.011719	-63.440762
12480.805053	3945.853500	1730.997070	-11.997142
12480.805053	3945.853500	1729.982422	51.109104
12480.805053	3945.853500	1728.967773	-102.575745
12480.805053	3945.853500	1727.952148	-49.094299
12480.805053	3945.853500	1726.937500	79.615364
12480.805053	3945.853500	1725.921875	83.422638
12480.805053	3945.853500	1724.906250	-47.004505
12480.805053	3945.853500	1723.890625	-43.362885
12480.805053	3945.853500	1722.875000	-49.225269
12480.805053	3945.853500	1721.858398	-177.489685
12480.805053	3945.853500	1720.841797	68.094269
12480.805053	3945.853500	1719.825195	101.895271
12480.805053	3945.853500	1718.808594	-59.509495
12480.805053	3945.853500	1717.791992	2.322413
12480.805053	3945.853500	1716.774414	-93.400932
12480.805053	3945.853500	1715.756836	10.510322
12480.805053	3945.853500	1714.739258	-64.218140
12480.805053	3945.853500	1713.721680	44.165756
12480.805053	3945.853500	1712.704102	42.066902
12480.805053	3945.853500	1711.685547	-51.680008
12480.805053	3945.853500	1710.667969	98.621223
12480.805053	3945.853500	1709.649414	77.468407
12480.805053	3945.853500	1708.630859	-44.645699
12480.805053	3945.853500	1707.611328	-84.710396
12480.805053	3945.853500	1706.592773	-56.823227
12480.805053	3945.853500	1705.573242	-24.351717
12480.805053	3945.853500	1704.553711	-151.390137
12480.805053	3945.853500	1703.534180	-109.704346
12480.805053	3945.853500	1702.513672	-18.915812
12480.805053	3945.853500	1701.494141	48.337234
12480.805053	3945.853500	1700.473633	-104.724548
12480.805053	3945.853500	1699.453125	-271.860504
12480.805053	3945.853500	1698.432617	-59.669006
12480.805053	3945.853500	1697.412109	-25.566698
12480.805053	3945.853500	1696.390625	41.203503
12480.805053	3945.853500	1695.369141	147.655518
12480.805053	3945.853500	1694.347656	-59.546719
12480.805053	3945.853500	1693.326172	-79.595253
12480.805053	3945.853500	1692.304688	28.930218
12480.805053	3945.853500	1691.282227	-211.104614
12480.805053	3945.853500	1690.260742	184.834076
12480.805053	3945.853500	1689.238281	49.906471
12480.805053	3945.853500	1688.214844	-24.287111
12480.805053	3945.853500	1687.192383	83.749977
12480.805053	3945.853500	1686.168945	25.790363
12480.805053	3945.853500	1685.146484	-99.941010
12480.805053	3945.853500	1684.123047	-85.584343
12480.805053	3945.853500	1683.099609	43.108112
12480.805053	3945.853500	1682.075195	64.289673
12480.805053	3945.853500	1681.051758	13.055446
12480.805053	3945.853500	1680.027344	120.445442
12480.805053	3945.853500	1679.002930	71.412773
12480.805053	3945.853500	1677.978516	73.654709
12480.805053	3945.853500	1676.953125	59.497196
12480.805053	3945.853500	1675.928711	98.925095
12480.805053	3945.853500	1674.903320	194.217163
12480.805053	3945.853500	1673.877930	93.623711
12480.805053	3945.853500	1672.852539	135.164322
12480.805053	3945.853500	1671.826172	106.721352
12480.805053	3945.853500	1670.800781	-7.945367
12480.805053	3945.853500	1669.774414	79.991295
12480.805053	3945.853500	1668.748047	60.725292
12480.805053	3945.853500	1667.721680	141.524292
12480.805053	3945.853500	1666.694336	49.977489
12480.805053	3945.853500	1665.667969	95.735832
12480.805053	3945.853500	1664.640625	211.217834
12480.805053	3945.853500	1663.613281	70.708534
12480.805053	3945.853500	1662.585938	148.839874
12480.805053	3945.853500	1661.557617	382.687225
12480.805053	3945.853500	1660.530273	160.711548
12480.805053	3945.853500	1659.501953	345.560455
12480.805053	3945.853500	1658.473633	339.717468
12480.805053	3945.853500	1657.444336	226.935577
12480.805053	3945.853500	1656.416016	392.951416
12480.805053	3945.853500	1655.386719	212.761002
12480.805053	3945.853500	1654.358398	448.306213
12480.805053	3945.853500	1653.328125	458.476257
12480.805053	3945.853500	1652.298828	398.976990
12480.805053	3945.853500	1651.269531	358.033020
12480.805053	3945.853500	1650.239258	535.185181
12480.805053	3945.853500	1649.208984	693.674194
12480.805053	3945.853500	1648.178711	687.377197
12480.805053	3945.853500	1647.148438	511.754333
12480.805053	3945.853500	1646.117188	774.391296
12480.805053	3945.853500	1645.086914	591.805786
12480.805053	3945.853500	1644.055664	930.756775
12480.805053	3945.853500	1643.024414	815.347534
12480.805053	3945.853500	1641.992188	778.720337
12480.805053	3945.853500	1640.960938	950.577576
12480.805053	3945.853500	1639.928711	1029.690796
12480.805053	3945.853500	1638.896484	854.040283
12480.805053	3945.853500	1637.864258	1113.679077
12480.805053	3945.853500	1636.832031	1019.052490
12480.805053	3945.853500	1635.798828	1185.938721
12480.805053	3945.853500	1634.766602	1137.576172
12480.805053	3945.853500	1633.733398	1068.383179
12480.805053	3945.853500	1632.699219	1480.265991
12480.805053	3945.853500	1631.666016	1302.320801
12480.805053	3945.853500	1630.632813	1535.964111
12480.805053	3945.853500	1629.598633	1554.520996
12480.805053	3945.853500	1628.564453	1621.592651
12480.805053	3945.853500	1627.530273	1734.841553
12480.805053	3945.853500	1626.495117	1693.244751
12480.805053	3945.853500	1625.460938	1656.290161
12480.805053	3945.853500	1624.425781	2041.929688
12480.805053	3945.853500	1623.390625	1780.942749
12480.805053	3945.853500	1622.355469	1665.482788
12480.805053	3945.853500	1621.319336	1838.544556
12480.805053	3945.853500	1620.284180	1743.883423
12480.805053	3945.853500	1619.248047	1734.607788
12480.805053	3945.853500	1618.211914	1822.213623
12480.805053	3945.853500	1617.174805	1799.081299
12480.805053	3945.853500	1616.138672	1974.265137
12480.805053	3945.853500	1615.101563	1792.061890
12480.805053	3945.853500	1614.065430	1902.656738
12480.805053	3945.853500	1613.027344	1985.539307
12480.805053	3945.853500	1611.990234	1900.227051
12480.805053	3945.853500	1610.953125	2072.945313
12480.805053	3945.853500	1609.915039	2033.718262
12480.805053	3945.853500	1608.876953	1936.956787
12480.805053	3945.853500	1607.838867	2114.196045
12480.805053	3945.853500	1606.800781	1854.068481
12480.805053	3945.853500	1605.761719	2242.984863
12480.805053	3945.853500	1604.723633	2098.005615
12480.805053	3945.853500	1603.684570	2341.840088
12480.805053	3945.853500	1602.644531	2102.616943
12480.805053	3945.853500	1601.605469	2190.037842
12480.805053	3945.853500	1600.566406	2419.981689
12480.805053	3945.853500	1599.526367	2482.055664
12480.805053	3945.853500	1598.486328	2401.651123
12480.805053	3945.853500	1597.446289	2447.672363
12480.805053	3945.853500	1596.405273	2477.609863
12480.805053	3945.853500	1595.365234	2544.324219
12480.805053	3945.853500	1594.324219	2705.176758
12480.805053	3945.853500	1593.283203	2774.164063
12480.805053	3945.853500	1592.242188	2501.146484
12480.805053	3945.853500	1591.200195	2590.852783
12480.805053	3945.853500	1590.159180	2334.106201
12480.805053	3945.853500	1589.117188	2398.646240
12480.805053	3945.853500	1588.075195	2529.711670
12480.805053	3945.853500	1587.032227	2426.851318
12480.805053	3945.853500	1585.990234	2376.815186
12480.805053	3945.853500	1584.947266	2338.286133
12480.805053	3945.853500	1583.904297	2503.782959
12480.805053	3945.853500	1582.861328	2382.839600
12480.805053	3945.853500	1581.818359	2360.495605
12480.805053	3945.853500	1580.775391	2704.675049
12480.805053	3945.853500	1579.731445	2435.036133
12480.805053	3945.853500	1578.687500	2669.248047
12480.805053	3945.853500	1577.643555	2516.559570
12480.805053	3945.853500	1576.598633	2377.700195
12480.805053	3945.853500	1575.554688	2280.144287
12480.805053	3945.853500	1574.509766	2347.384277
12480.805053	3945.853500	1573.464844	2348.318115
12480.805053	3945.853500	1572.419922	2337.870850
12480.805053	3945.853500	1571.374023	2249.731934
12480.805053	3945.853500	1570.329102	2415.436523
12480.805053	3945.853500	1569.283203	2233.723877
12480.805053	3945.853500	1568.237305	2292.070801
12480.805053	3945.853500	1567.191406	2030.609009
12480.805053	3945.853500	1566.144531	2070.806641
12480.805053	3945.853500	1565.098633	1923.796143
12480.805053	3945.853500	1564.051758	1936.722412
12480.805053	3945.853500	1563.004883	2237.341309
12480.805053	3945.853500	1561.957031	2074.573975
12480.805053	3945.853500	1560.910156	1955.303467
12480.805053	3945.853500	1559.862305	1995.837280
12480.805053	3945.853500	1558.814453	2198.374268
12480.805053	3945.853500	1557.766602	2065.655518
12480.805053	3945.853500	1556.718750	2138.268799
12480.805053	3945.853500	1555.669922	2128.843994
12480.805053	3945.853500	1554.621094	2210.663330
12480.805053	3945.853500	1553.573242	2326.714111
12480.805053	3945.853500	1552.523438	2419.987793
12480.805053	3945.853500	1551.474609	2419.915527
12480.805053	3945.853500	1550.424805	2340.197510
12480.805053	3945.853500	1549.375000	2542.931885
12480.805053	3945.853500	1548.325195	2533.944824
12480.805053	3945.853500	1547.275391	2506.830566
12480.805053	3945.853500	1546.225586	2447.946289
12480.805053	3945.853500	1545.174805	2484.711182
12480.805053	3945.853500	1544.124023	2385.057617
12480.805053	3945.853500	1543.073242	2622.120850
12480.805053	3945.853500	1542.022461	2463.521973
12480.805053	3945.853500	1540.970703	2184.567383
12480.805053	3945.853500	1539.919922	2044.467041
12480.805053	3945.853500	1538.868164	2174.924805
12480.805053	3945.853500	1537.815430	2012.310791
12480.805053	3945.853500	1536.763672	2022.499512
12480.805053	3945.853500	1535.710938	1878.322388
12480.805053	3945.853500	1534.659180	1859.188477
12480.805053	3945.853500	1533.606445	1642.627808
12480.805053	3945.853500	1532.552734	1646.405151
12480.805053	3945.853500	1531.500000	1423.343872
12480.805053	3945.853500	1530.446289	1420.537231
12480.805053	3945.853500	1529.393555	1347.509521
12480.805053	3945.853500	1528.338867	1460.564209
12480.805053	3945.853500	1527.285156	1349.185425
12480.805053	3945.853500	1526.231445	1315.026978
12480.805053	3945.853500	1525.176758	1367.101807
12480.805053	3945.853500	1524.122070	1206.226563
12480.805053	3945.853500	1523.067383	1408.035889
12480.805053	3945.853500	1522.012695	1082.037964
12480.805053	3945.853500	1520.957031	1043.899536
12480.805053	3945.853500	1519.901367	1250.434814
12480.805053	3945.853500	1518.845703	1255.491089
12480.805053	3945.853500	1517.790039	1104.460815
12480.805053	3945.853500	1516.734375	1041.850098
12480.805053	3945.853500	1515.677734	1158.108154
12480.805053	3945.853500	1514.621094	971.285217
12480.805053	3945.853500	1513.564453	809.518616
12480.805053	3945.853500	1512.507813	747.415344
12480.805053	3945.853500	1511.450195	692.215759
12480.805053	3945.853500	1510.393555	445.013855
12480.805053	3945.853500	1509.335938	329.086060
12480.805053	3945.853500	1508.278320	416.664581
12480.805053	3945.853500	1507.219727	310.027313
12480.805053	3945.853500	1506.162109	438.442230
12480.805053	3945.853500	1505.103516	347.863220
12480.805053	3945.853500	1504.044922	345.479095
12480.805053	3945.853500	1502.986328	178.422104
12480.805053	3945.853500	1501.926758	97.292915
12480.805053	3945.853500	1500.868164	88.515633
12480.805053	3945.853500	1499.808594	129.474777
12480.805053	3945.853500	1498.749023	93.841034
12480.805053	3945.853500	1497.688477	98.916588
12480.805053	3945.853500	1496.628906	173.999680
12480.805053	3945.853500	1495.568359	104.891632
12480.805053	3945.853500	1494.507813	103.535133
12480.805053	3945.853500	1493.447266	72.997910
12480.805053	3945.853500	1492.386719	369.241211
12480.805053	3945.853500	1491.325195	194.732864
12480.805053	3945.853500	1490.263672	430.253906
12480.805053	3945.853500	1489.202148	132.199188
12480.805053	3945.853500	1488.140625	86.490860
12480.805053	3945.853500	1487.079102	83.675095
12480.805053	3945.853500	1486.016602	4.466250
12480.805053	3945.853500	1484.954102	60.384087
12480.805053	3945.853500	1483.891602	64.663216
12480.805053	3945.853500	1482.829102	-178.306488
12480.805053	3945.853500	1481.765625	-346.863983
12480.805053	3945.853500	1480.702148	-346.648193
12480.805053	3945.853500	1479.638672	-222.711639
12480.805053	3945.853500	1478.575195	-170.595184
12480.805053	3945.853500	1477.511719	142.208191
12480.805053	3945.853500	1476.447266	-57.084305
12480.805053	3945.853500	1475.382813	-60.810452
12480.805053	3945.853500	1474.318359	-136.180069
12480.805053	3945.853500	1473.253906	8.426113
12480.805053	3945.853500	1472.189453	-104.746674
12480.805053	3945.853500	1471.124023	91.499741
12480.805053	3945.853500	1470.058594	92.969559
12480.805053	3945.853500	1468.993164	143.684341
12480.805053	3945.853500	1467.927734	55.738907
12480.805053	3945.853500	1466.861328	68.722435
12480.805053	3945.853500	1465.794922	93.040207
12480.805053	3945.853500	1464.728516	169.014526
12480.805053	3945.853500	1463.662109	-57.135826
12480.805053	3945.853500	1462.594727	12.183630
12480.805053	3945.853500	1461.528320	162.464752
12480.805053	3945.853500	1460.460938	147.377045
12480.805053	3945.853500	1459.393555	113.800636
12480.805053	3945.853500	1458.326172	326.837067
12480.805053	3945.853500	1457.257813	204.398697
12480.805053	3945.853500	1456.189453	416.116272
12480.805053	3945.853500	1455.121094	312.383301
12480.805053	3945.853500	1454.052734	313.912598
12480.805053	3945.853500	1452.984375	308.182587
12480.805053	3945.853500	1451.915039	290.921570
12480.805053	3945.853500	1450.845703	297.306580
12480.805053	3945.853500	1449.776367	194.729095
12480.805053	3945.853500	1448.707031	371.183136
12480.805053	3945.853500	1447.636719	282.179626
12480.805053	3945.853500	1446.567383	430.555786
12480.805053	3945.853500	1445.497070	337.878632
12480.805053	3945.853500	1444.425781	169.753799
12480.805053	3945.853500	1443.355469	458.801025
12480.805053	3945.853500	1442.285156	344.013824
12480.805053	3945.853500	1441.213867	294.404694
12480.805053	3945.853500	1440.142578	437.506836
12480.805053	3945.853500	1439.070313	324.372070
12480.805053	3945.853500	1437.999023	535.623840
12480.805053	3945.853500	1436.926758	408.071075
12480.805053	3945.853500	1435.854492	347.149780
12480.805053	3945.853500	1434.782227	410.700592
12480.805053	3945.853500	1433.709961	287.781799
12480.805053	3945.853500	1432.636719	288.827606
12480.805053	3945.853500	1431.563477	344.589020
12480.805053	3945.853500	1430.490234	-22.443996
12480.805053	3945.853500	1429.416992	151.090561
12480.805053	3945.853500	1428.343750	159.114243
12480.805053	3945.853500	1427.269531	404.290253
12480.805053	3945.853500	1426.195313	-22.021587
12480.805053	3945.853500	1425.121094	159.342422
12480.805053	3945.853500	1424.046875	82.978622
12480.805053	3945.853500	1422.971680	158.960754
12480.805053	3945.853500	1421.896484	107.617897
12480.805053	3945.853500	1420.821289	223.832474
12480.805053	3945.853500	1419.746094	154.759369
12480.805053	3945.853500	1418.669922	99.527412
12480.805053	3945.853500	1417.594727	224.266556
12480.805053	3945.853500	1416.518555	224.405792
12480.805053	3945.853500	1415.442383	170.800873
12480.805053	3945.853500	1414.365234	305.829987
12480.805053	3945.853500	1413.289063	318.813660
12480.805053	3945.853500	1412.211914	382.054718
12480.805053	3945.853500	1411.134766	194.568588
12480.805053	3945.853500	1410.057617	323.449554
12480.805053	3945.853500	1408.979492	34.539181
12480.805053	3945.853500	1407.902344	259.859039
12480.805053	3945.853500	1406.824219	399.542084
12480.805053	3945.853500	1405.746094	386.845337
12480.805053	3945.853500	1404.666992	515.046326
12480.805053	3945.853500	1403.588867	332.444092
12480.805053	3945.853500	1402.509766	584.081543
12480.805053	3945.853500	1401.430664	420.960358
12480.805053	3945.853500	1400.351563	526.657227
12480.805053	3945.853500	1399.271484	630.174622
12480.805053	3945.853500	1398.192383	651.190552
12480.805053	3945.853500	1397.112305	712.319092
12480.805053	3945.853500	1396.031250	891.723022
12480.805053	3945.853500	1394.951172	861.537781
12480.805053	3945.853500	1393.871094	769.346985
12480.805053	3945.853500	1392.790039	529.603088
12480.805053	3945.853500	1391.708984	541.113342
12480.805053	3945.853500	1390.626953	633.229797
12480.805053	3945.853500	1389.545898	639.824097
12480.805053	3945.853500	1388.463867	667.799805
12480.805053	3945.853500	1387.381836	586.967957
12480.805053	3945.853500	1386.299805	500.024139
12480.805053	3945.853500	1385.217773	433.646484
12480.805053	3945.853500	1384.134766	568.279175
12480.805053	3945.853500	1383.051758	685.816711
12480.805053	3945.853500	1381.968750	550.279968
12480.805053	3945.853500	1380.885742	504.762939
12480.805053	3945.853500	1379.802734	526.986694
12480.805053	3945.853500	1378.718750	565.386047
12480.805053	3945.853500	1377.634766	626.089417
12480.805053	3945.853500	1376.550781	643.574585
12480.805053	3945.853500	1375.465820	834.135132
12480.805053	3945.853500	1374.381836	657.158630
12480.805053	3945.853500	1373.296875	578.250305
12480.805053	3945.853500	1372.211914	657.138733
12480.805053	3945.853500	1371.126953	734.199219
12480.805053	3945.853500	1370.041016	718.601563
12480.805053	3945.853500	1368.955078	887.813354
12480.805053	3945.853500	1367.869141	654.388428
12480.805053	3945.853500	1366.783203	819.453125
12480.805053	3945.853500	1365.697266	611.657043
12480.805053	3945.853500	1364.610352	674.180115
12480.805053	3945.853500	1363.523438	487.115509
12480.805053	3945.853500	1362.436523	525.598145
12480.805053	3945.853500	1361.349609	595.152649
12480.805053	3945.853500	1360.261719	518.481750
12480.805053	3945.853500	1359.174805	374.871124
12480.805053	3945.853500	1358.086914	495.455566
12480.805053	3945.853500	1356.998047	382.589966
12480.805053	3945.853500	1355.910156	240.646500
12480.805053	3945.853500	1354.821289	341.939026
12480.805053	3945.853500	1353.732422	330.807068
12480.805053	3945.853500	1352.643555	369.705780
12480.805053	3945.853500	1351.554688	299.804352
12480.805053	3945.853500	1350.464844	377.968170
12480.805053	3945.853500	1349.375000	358.373322
12480.805053	3945.853500	1348.285156	396.330475
12480.805053	3945.853500	1347.195313	285.529266
12480.805053	3945.853500	1346.105469	462.172943
12480.805053	3945.853500	1345.014648	445.908539
12480.805053	3945.853500	1343.923828	515.742798
12480.805053	3945.853500	1342.833008	485.935547
12480.805053	3945.853500	1341.741211	476.556915
12480.805053	3945.853500	1340.650391	450.530731
12480.805053	3945.853500	1339.558594	476.458923
12480.805053	3945.853500	1338.466797	610.135986
12480.805053	3945.853500	1337.374023	382.914368
12480.805053	3945.853500	1336.282227	476.469421
12480.805053	3945.853500	1335.189453	435.342010
12480.805053	3945.853500	1334.096680	464.549957
12480.805053	3945.853500	1333.003906	538.212585
12480.805053	3945.853500	1331.910156	369.008820
12480.805053	3945.853500	1330.817383	387.160217
12480.805053	3945.853500	1329.723633	296.643768
12480.805053	3945.853500	1328.629883	402.646973
12480.805053	3945.853500	1327.535156	243.007187
12480.805053	3945.853500	1326.441406	372.497314
12480.805053	3945.853500	1325.346680	252.504898
12480.805053	3945.853500	1324.251953	178.069748
12480.805053	3945.853500	1323.156250	334.042114
12480.805053	3945.853500	1322.061523	284.162262
12480.805053	3945.853500	1320.965820	458.820068
12480.805053	3945.853500	1319.870117	439.415497
12480.805053	3945.853500	1318.774414	487.671295
12480.805053	3945.853500	1317.678711	365.758453
12480.805053	3945.853500	1316.582031	447.127075
12480.805053	3945.853500	1315.485352	469.049011
12480.805053	3945.853500	1314.388672	440.752838
12480.805053	3945.853500	1313.291016	379.660522
12480.805053	3945.853500	1312.194336	404.066162
12480.805053	3945.853500	1311.096680	373.584076
12480.805053	3945.853500	1309.999023	493.675323
12480.805053	3945.853500	1308.901367	427.204254
12480.805053	3945.853500	1307.802734	512.538330
12480.805053	3945.853500	1306.705078	552.810059
12480.805053	3945.853500	1305.606445	698.087402
12480.805053	3945.853500	1304.506836	634.472107
12480.805053	3945.853500	1303.408203	784.325928
12480.805053	3945.853500	1302.308594	761.358582
12480.805053	3945.853500	1301.208984	750.739807
12480.805053	3945.853500	1300.109375	869.417908
12480.805053	3945.853500	1299.009766	1019.872437
12480.805053	3945.853500	1297.909180	933.929260
12480.805053	3945.853500	1296.808594	1039.935547
12480.805053	3945.853500	1295.708008	996.137634
12480.805053	3945.853500	1294.607422	1069.433960
12480.805053	3945.853500	1293.506836	991.556946
12480.805053	3945.853500	1292.405273	940.161743
12480.805053	3945.853500	1291.303711	980.208740
12480.805053	3945.853500	1290.202148	807.030090
12480.805053	3945.853500	1289.099609	681.036804
12480.805053	3945.853500	1287.998047	601.954956
12480.805053	3945.853500	1286.895508	676.953186
12480.805053	3945.853500	1285.792969	799.240784
12480.805053	3945.853500	1284.689453	671.756287
12480.805053	3945.853500	1283.586914	531.909119
12480.805053	3945.853500	1282.483398	460.170929
12480.805053	3945.853500	1281.379883	661.667847
12480.805053	3945.853500	1280.276367	542.822876
12480.805053	3945.853500	1279.171875	343.864624
12480.805053	3945.853500	1278.067383	501.273651
12480.805053	3945.853500	1276.962891	324.445618
12480.805053	3945.853500	1275.858398	401.802521
12480.805053	3945.853500	1274.753906	404.806366
12480.805053	3945.853500	1273.648438	297.213196
12480.805053	3945.853500	1272.542969	374.271149
12480.805053	3945.853500	1271.437500	196.285980
12480.805053	3945.853500	1270.331055	214.369293
12480.805053	3945.853500	1269.225586	248.107880
12480.805053	3945.853500	1268.119141	97.563652
12480.805053	3945.853500	1267.012695	230.019806
12480.805053	3945.853500	1265.906250	171.210876
12480.805053	3945.853500	1264.798828	305.793396
12480.805053	3945.853500	1263.691406	224.560318
12480.805053	3945.853500	1262.583984	283.591888
12480.805053	3945.853500	1261.476563	274.315948
12480.805053	3945.853500	1260.368164	298.621552
12480.805053	3945.853500	1259.260742	262.648071
12480.805053	3945.853500	1258.152344	313.492798
12480.805053	3945.853500	1257.043945	277.046265
12480.805053	3945.853500	1255.934570	286.307892
12480.805053	3945.853500	1254.825195	144.112610
12480.805053	3945.853500	1253.716797	128.416397
12480.805053	3945.853500	1252.606445	43.693741
12480.805053	3945.853500	1251.497070	66.383591
12480.805053	3945.853500	1250.387695	75.714859
12480.805053	3945.853500	1249.277344	24.766104
12480.805053	3945.853500	1248.166992	-65.500809
12480.805053	3945.853500	1247.055664	101.904770
12480.805053	3945.853500	1245.945313	44.367340
12480.805053	3945.853500	1244.833984	75.855339
12480.805053	3945.853500	1243.722656	-0.169347
12480.805053	3945.853500	1242.611328	31.749544
12480.805053	3945.853500	1241.499023	26.726694
12480.805053	3945.853500	1240.387695	174.685715
12480.805053	3945.853500	1239.275391	245.401688
12480.805053	3945.853500	1238.162109	158.339615
12480.805053	3945.853500	1237.049805	43.472042
12480.805053	3945.853500	1235.936523	104.355209
12480.805053	3945.853500	1234.823242	67.116142
12480.805053	3945.853500	1233.709961	-14.735168
12480.805053	3945.853500	1232.596680	-132.854706
12480.805053	3945.853500	1231.482422	-66.922760
12480.805053	3945.853500	1230.369141	-61.758671
12480.805053	3945.853500	1229.253906	-150.215317
12480.805053	3945.853500	1228.139648	-172.336761
12480.805053	3945.853500	1227.025391	-90.992714
12480.805053	3945.853500	1225.910156	-159.675980
12480.805053	3945.853500	1224.794922	-55.271145
12480.805053	3945.853500	1223.679688	10.758222
12480.805053	3945.853500	1222.563477	-28.462561
12480.805053	3945.853500	1221.447266	-60.533836
12480.805053	3945.853500	1220.331055	36.235138
12480.805053	3945.853500	1219.214844	18.239199
12480.805053	3945.853500	1218.098633	92.279449
12480.805053	3945.853500	1216.981445	26.374712
12480.805053	3945.853500	1215.864258	-3.283258
12480.805053	3945.853500	1214.747070	46.042202
12480.805053	3945.853500	1213.629883	44.209835
12480.805053	3945.853500	1212.511719	3.597777
12480.805053	3945.853500	1211.393555	69.845154
12480.805053	3945.853500	1210.275391	-126.464676
12480.805053	3945.853500	1209.157227	-143.467087
12480.805053	3945.853500	1208.038086	-104.837715
12480.805053	3945.853500	1206.918945	-75.765457
12480.805053	3945.853500	1205.799805	-2.325118
12480.805053	3945.853500	1204.680664	-20.577843
12480.805053	3945.853500	1203.560547	-97.693481
12480.805053	3945.853500	1202.441406	-159.985458
12480.805053	3945.853500	1201.321289	-166.064392
12480.805053	3945.853500	1200.200195	-197.391861
12480.805053	3945.853500	1199.080078	-153.553589
12480.805053	3945.853500	1197.958984	-82.660332
12480.805053	3945.853500	1196.837891	-186.138000
12480.805053	3945.853500	1195.716797	-125.870934
12480.805053	3945.853500	1194.594727	-33.271347
12480.805053	3945.853500	1193.473633	-98.535950
12480.805053	3945.853500	1192.351563	-182.708389
12480.805053	3945.853500	1191.229492	-103.834526
12480.805053	3945.853500	1190.106445	-41.062016
12480.805053	3945.853500	1188.984375	-29.513100
12480.805053	3945.853500	1187.861328	29.490046
12480.805053	3945.853500	1186.738281	60.542332
12480.805053	3945.853500	1185.614258	-0.221775
12480.805053	3945.853500	1184.491211	10.096274
12480.805053	3945.853500	1183.367188	167.929932
12480.805053	3945.853500	1182.243164	201.997314
12480.805053	3945.853500	1181.119141	-7.072164
12480.805053	3945.853500	1179.994141	53.170296
12480.805053	3945.853500	1178.869141	-21.907667
12480.805053	3945.853500	1177.744141	4.791172
12480.805053	3945.853500	1176.619141	-9.333223
12480.805053	3945.853500	1175.493164	62.060390
12480.805053	3945.853500	1174.368164	59.276524
12480.805053	3945.853500	1173.242188	34.908211
12480.805053	3945.853500	1172.115234	78.411980
12480.805053	3945.853500	1170.989258	81.341599
12480.805053	3945.853500	1169.862305	18.293810
12480.805053	3945.853500	1168.735352	18.915943
12480.805053	3945.853500	1167.608398	-86.012589
12480.805053	3945.853500	1166.481445	-33.573696
12480.805053	3945.853500	1165.353516	-23.967913
12480.805053	3945.853500	1164.225586	103.114861
12480.805053	3945.853500	1163.097656	179.591278
12480.805053	3945.853500	1161.968750	70.620560
12480.805053	3945.853500	1160.840820	12.986726
12480.805053	3945.853500	1159.711914	91.143303
12480.805053	3945.853500	1158.583008	126.029053
12480.805053	3945.853500	1157.453125	128.532547
12480.805053	3945.853500	1156.324219	-19.319637
12480.805053	3945.853500	1155.194336	38.658619
12480.805053	3945.853500	1154.064453	-32.457504
12480.805053	3945.853500	1152.933594	89.431870
12480.805053	3945.853500	1151.803711	172.488907
12480.805053	3945.853500	1150.672852	109.016136
12480.805053	3945.853500	1149.541992	150.292557
12480.805053	3945.853500	1148.411133	185.439957
12480.805053	3945.853500	1147.279297	-26.792536
12480.805053	3945.853500	1146.147461	170.209656
12480.805053	3945.853500	1145.015625	199.797348
12480.805053	3945.853500	1143.883789	338.155396
12480.805053	3945.853500	1142.750977	227.345764
12480.805053	3945.853500	1141.619141	102.088547
12480.805053	3945.853500	1140.486328	68.591347
12480.805053	3945.853500	1139.352539	161.811829
12480.805053	3945.853500	1138.219727	180.546600
12480.805053	3945.853500	1137.085938	151.228073
12480.805053	3945.853500	1135.952148	4.917587
12480.805053	3945.853500	1134.818359	187.763397
12480.805053	3945.853500	1133.683594	225.911148
12480.805053	3945.853500	1132.549805	180.146179
12480.805053	3945.853500	1131.415039	436.389771
12480.805053	3945.853500	1130.279297	425.419922
12480.805053	3945.853500	1129.144531	543.124878
12480.805053	3945.853500	1128.008789	611.367065
12480.805053	3945.853500	1126.873047	566.948914
12480.805053	3945.853500	1125.737305	705.385925
12480.805053	3945.853500	1124.601563	611.287415
12480.805053	3945.853500	1123.464844	495.893311
12480.805053	3945.853500	1122.328125	451.489716
12480.805053	3945.853500	1121.191406	493.777710
12480.805053	3945.853500	1120.054688	383.531647
12480.805053	3945.853500	1118.916992	382.851654
12480.805053	3945.853500	1117.779297	408.328766
12480.805053	3945.853500	1116.641602	350.198700
12480.805053	3945.853500	1115.503906	472.888702
12480.805053	3945.853500	1114.365234	274.068085
12480.805053	3945.853500	1113.226563	177.308517
12480.805053	3945.853500	1112.087891	408.034271
12480.805053	3945.853500	1110.949219	266.757050
12480.805053	3945.853500	1109.809570	277.493195
12480.805053	3945.853500	1108.669922	204.537750
12480.805053	3945.853500	1107.530273	114.734406
12480.805053	3945.853500	1106.390625	272.493347
12480.805053	3945.853500	1105.250000	307.068024
12480.805053	3945.853500	1104.109375	302.797211
12480.805053	3945.853500	1102.968750	387.064117
12480.805053	3945.853500	1101.828125	415.281433
12480.805053	3945.853500	1100.686523	437.729279
12480.805053	3945.853500	1099.544922	558.428772
12480.805053	3945.853500	1098.403320	407.511200
12480.805053	3945.853500	1097.261719	451.511810
12480.805053	3945.853500	1096.120117	465.433563
12480.805053	3945.853500	1094.977539	454.441711
12480.805053	3945.853500	1093.834961	402.489166
12480.805053	3945.853500	1092.691406	491.802124
12480.805053	3945.853500	1091.548828	452.570923
12480.805053	3945.853500	1090.405273	263.419739
12480.805053	3945.853500	1089.261719	214.660568
12480.805053	3945.853500	1088.118164	247.519104
12480.805053	3945.853500	1086.973633	291.181305
12480.805053	3945.853500	1085.829102	328.233246
12480.805053	3945.853500	1084.684570	165.636490
12480.805053	3945.853500	1083.540039	386.221191
12480.805053	3945.853500	1082.395508	213.776062
12480.805053	3945.853500	1081.250000	295.275848
12480.805053	3945.853500	1080.104492	380.394897
12480.805053	3945.853500	1078.958984	318.124481
12480.805053	3945.853500	1077.812500	356.810852
12480.805053	3945.853500	1076.666016	266.129456
12480.805053	3945.853500	1075.519531	251.857742
12480.805053	3945.853500	1074.373047	238.968033
12480.805053	3945.853500	1073.226563	157.767609
12480.805053	3945.853500	1072.079102	92.377907
12480.805053	3945.853500	1070.931641	-133.834503
12480.805053	3945.853500	1069.784180	249.881042
12480.805053	3945.853500	1068.635742	196.324051
12480.805053	3945.853500	1067.487305	230.425735
12480.805053	3945.853500	1066.338867	143.380112
12480.805053	3945.853500	1065.190430	318.535492
12480.805053	3945.853500	1064.041992	369.827148
12480.805053	3945.853500	1062.892578	466.231140
12480.805053	3945.853500	1061.743164	366.200409
12480.805053	3945.853500	1060.593750	487.623810
12480.805053	3945.853500	1059.443359	212.223877
12480.805053	3945.853500	1058.292969	141.265213
12480.805053	3945.853500	1057.142578	107.695305
12480.805053	3945.853500	1055.992188	302.812195
12480.805053	3945.853500	1054.841797	200.058029
12480.805053	3945.853500	1053.690430	68.371925
12480.805053	3945.853500	1052.539063	60.823891
12480.805053	3945.853500	1051.387695	63.740330
12480.805053	3945.853500	1050.235352	218.076874
12480.805053	3945.853500	1049.083984	93.282295
12480.805053	3945.853500	1047.931641	166.203125
12480.805053	3945.853500	1046.778320	61.922024
12480.805053	3945.853500	1045.625977	88.938293
12480.805053	3945.853500	1044.472656	10.672952
12480.805053	3945.853500	1043.319336	61.427326
12480.805053	3945.853500	1042.166016	85.436043
12480.805053	3945.853500	1041.012695	114.695953
12480.805053	3945.853500	1039.858398	71.796608
12480.805053	3945.853500	1038.704102	-25.368675
12480.805053	3945.853500	1037.549805	76.398598
12480.805053	3945.853500	1036.394531	102.063873
12480.805053	3945.853500	1035.239258	261.495178
12480.805053	3945.853500	1034.083984	228.952072
12480.805053	3945.853500	1032.928711	151.012970
12480.805053	3945.853500	1031.773438	257.717682
12480.805053	3945.853500	1030.617188	183.163788
12480.805053	3945.853500	1029.460938	227.558411
12480.805053	3945.853500	1028.304688	248.433578
12480.805053	3945.853500	1027.147461	233.412140
12480.805053	3945.853500	1025.991211	207.676468
12480.805053	3945.853500	1024.833984	147.545685
12480.805053	3945.853500	1023.675781	265.934509
12480.805053	3945.853500	1022.518555	198.798035
12480.805053	3945.853500	1021.360352	159.528381
12480.805053	3945.853500	1020.202148	54.924301
12480.805053	3945.853500	1019.043945	84.700455
12480.805053	3945.853500	1017.884766	13.703533
12480.805053	3945.853500	1016.726563	8.799147
12480.805053	3945.853500	1015.567383	194.180328
12480.805053	3945.853500	1014.407227	211.456680
12480.805053	3945.853500	1013.248047	101.214706
12480.805053	3945.853500	1012.087891	40.136505
12480.805053	3945.853500	1010.927734	71.025536
12480.805053	3945.853500	1009.767578	-8.187711
12480.805053	3945.853500	1008.606445	-55.985435
12480.805053	3945.853500	1007.446289	45.801289
12480.805053	3945.853500	1006.285156	165.201859
12480.805053	3945.853500	1005.123047	-53.173645
12480.805053	3945.853500	1003.961914	48.702312
12480.805053	3945.853500	1002.799805	73.740273
12480.805053	3945.853500	1001.637695	-53.641277
12480.805053	3945.853500	1000.475586	18.364626
12480.805053	3945.853500	999.312500	58.449356
12480.805053	3945.853500	998.149414	34.154053
12480.805053	3945.853500	996.986328	30.500530
12480.805053	3945.853500	995.823242	-46.373196
12480.805053	3945.853500	994.659180	-113.137688
12480.805053	3945.853500	993.496094	1.028128
12480.805053	3945.853500	992.332031	52.851616
12480.805053	3945.853500	991.166992	136.888672
12480.805053	3945.853500	990.002930	53.042110
12480.805053	3945.853500	988.837891	-30.258755
12480.805053	3945.853500	987.672852	-27.196123
12480.805053	3945.853500	986.506836	114.172020
12480.805053	3945.853500	985.341797	-49.155090
12480.805053	3945.853500	984.175781	-34.964672
12480.805053	3945.853500	983.009766	-84.268890
12480.805053	3945.853500	981.843750	-107.985405
12480.805053	3945.853500	980.676758	147.313995
12480.805053	3945.853500	979.509766	-102.125443
12480.805053	3945.853500	978.342773	-69.614441
12480.805053	3945.853500	977.175781	-44.679050
12480.805053	3945.853500	976.007813	146.318787
12480.805053	3945.853500	974.839844	73.687393
12480.805053	3945.853500	973.671875	73.623390
12480.805053	3945.853500	972.503906	-28.123892
12480.805053	3945.853500	971.334961	-127.278809
12480.805053	3945.853500	970.166016	12.896269
12480.805053	3945.853500	968.997070	-98.670609
12480.805053	3945.853500	967.828125	-7.870722
12480.805053	3945.853500	966.658203	64.265289
12480.805053	3945.853500	965.488281	-57.088303
12480.805053	3945.853500	964.318359	-13.101117
12480.805053	3945.853500	963.148438	-120.162010
12480.805053	3945.853500	961.977539	-9.041451
12480.805053	3945.853500	960.806641	-73.062645
12480.805053	3945.853500	959.635742	-154.524612
12480.805053	3945.853500	958.463867	-49.857086
12480.805053	3945.853500	957.292969	-173.936050
12480.805053	3945.853500	956.121094	-141.640839
12480.805053	3945.853500	954.948242	29.790997
12480.805053	3945.853500	953.776367	-26.955870
12480.805053	3945.853500	952.603516	82.171234
12480.805053	3945.853500	951.430664	-39.505707
12480.805053	3945.853500	950.257813	-28.576252
12480.805053	3945.853500	949.084961	-135.754471
12480.805053	3945.853500	947.911133	-139.882919
12480.805053	3945.853500	946.737305	79.632446
12480.805053	3945.853500	945.563477	110.602943
12480.805053	3945.853500	944.388672	-9.331635
12480.805053	3945.853500	943.213867	54.283165
12480.805053	3945.853500	942.039063	77.603371
12480.805053	3945.853500	940.864258	151.159027
12480.805053	3945.853500	939.688477	76.269051
12480.805053	3945.853500	938.513672	46.767570
12480.805053	3945.853500	937.337891	97.760391
12480.805053	3945.853500	936.161133	40.510403
12480.805053	3945.853500	934.985352	10.832785
12480.805053	3945.853500	933.808594	227.786850
12480.805053	3945.853500	932.631836	155.362320
12480.805053	3945.853500	931.454102	264.028870
12480.805053	3945.853500	930.277344	204.101822
12480.805053	3945.853500	929.099609	287.480133
12480.805053	3945.853500	927.921875	132.089691
12480.805053	3945.853500	926.743164	363.673920
12480.805053	3945.853500	925.565430	261.018555
12480.805053	3945.853500	924.386719	188.507233
12480.805053	3945.853500	923.208008	78.333473
12480.805053	3945.853500	922.028320	221.865662
12480.805053	3945.853500	920.849609	48.910587
12480.805053	3945.853500	919.669922	50.683823
12480.805053	3945.853500	919.474609	31.962002
12480.805053	3945.853500	918.309570	-100.782310
12480.805053	3945.853500	917.143555	75.197159
12480.805053	3945.853500	915.977539	45.337143
12480.805053	3945.853500	914.810547	73.170944
12480.805053	3945.853500	913.644531	58.335114
12480.805053	3945.853500	912.477539	0.859938
12480.805053	3945.853500	911.310547	146.465393
12480.805053	3945.853500	910.143555	134.078415
12480.805053	3945.853500	908.975586	-8.636444
12480.805053	3945.853500	907.807617	59.158028
12480.805053	3945.853500	906.639648	16.684643
12480.805053	3945.853500	905.471680	-70.870407
12480.805053	3945.853500	904.303711	69.460793
12480.805053	3945.853500	903.134766	39.479462
12480.805053	3945.853500	901.965820	-8.027945
12480.805053	3945.853500	900.796875	97.120842
12480.805053	3945.853500	899.626953	99.629318
12480.805053	3945.853500	898.457031	-103.002151
12480.805053	3945.853500	897.287109	57.075676
12480.805053	3945.853500	896.117188	174.563614
12480.805053	3945.853500	894.947266	44.491573
12480.805053	3945.853500	893.776367	9.436975
12480.805053	3945.853500	892.605469	19.361658
12480.805053	3945.853500	891.434570	221.646103
12480.805053	3945.853500	890.262695	166.547379
12480.805053	3945.853500	889.091797	41.526745
12480.805053	3945.853500	887.919922	146.257874
12480.805053	3945.853500	886.748047	61.205101
12480.805053	3945.853500	885.575195	63.528728
12480.805053	3945.853500	884.403320	-56.438301
12480.805053	3945.853500	883.230469	125.508324
12480.805053	3945.853500	882.057617	-44.338421
12480.805053	3945.853500	880.883789	65.180733
12480.805053	3945.853500	879.710938	-139.521591
12480.805053	3945.853500	878.537109	-112.320808
12480.805053	3945.853500	877.362305	19.532139
12480.805053	3945.853500	876.188477	-20.619411
12480.805053	3945.853500	875.013672	-85.681213
12480.805053	3945.853500	873.839844	-33.665363
12480.805053	3945.853500	872.664063	15.825977
12480.805053	3945.853500	871.489258	115.077179
12480.805053	3945.853500	870.313477	-19.716539
12480.805053	3945.853500	869.138672	-59.897770
12480.805053	3945.853500	867.962891	84.052864
12480.805053	3945.853500	866.786133	68.716400
12480.805053	3945.853500	865.610352	23.523754
12480.805053	3945.853500	864.433594	25.583572
12480.805053	3945.853500	863.256836	-19.609873
12480.805053	3945.853500	862.079102	69.428604
12480.805053	3945.853500	860.902344	54.037712
12480.805053	3945.853500	859.724609	110.694145
12480.805053	3945.853500	858.546875	-170.532593
12480.805053	3945.853500	857.368164	-66.692535
12480.805053	3945.853500	856.190430	-114.381958
12480.805053	3945.853500	855.011719	-169.513443
12480.805053	3945.853500	853.833008	11.164206
12480.805053	3945.853500	852.654297	-240.047791
12480.805053	3945.853500	851.474609	-32.166344
12480.805053	3945.853500	850.294922	-50.119446
12480.805053	3945.853500	849.115234	-209.444733
12480.805053	3945.853500	847.935547	-123.241875
12480.805053	3945.853500	846.754883	-17.256344
12480.805053	3945.853500	845.575195	-37.736576
12480.805053	3945.853500	844.393555	11.163028
12480.805053	3945.853500	843.212891	-31.642014
12480.805053	3945.853500	842.032227	-131.416748
12480.805053	3945.853500	840.850586	-45.426292
12480.805053	3945.853500	839.668945	47.940990
12480.805053	3945.853500	838.486328	54.612823
12480.805053	3945.853500	837.304688	46.415642
12480.805053	3945.853500	836.122070	20.884649
12480.805053	3945.853500	834.939453	84.411774
12480.805053	3945.853500	833.756836	-79.661751
12480.805053	3945.853500	832.573242	48.124916
12480.805053	3945.853500	831.389648	-31.842604
12480.805053	3945.853500	830.206055	-47.522911
12480.805053	3945.853500	829.022461	-82.984947
12480.805053	3945.853500	827.838867	5.097348
12480.805053	3945.853500	826.654297	-146.502747
12480.805053	3945.853500	825.469727	-93.055351
12480.805053	3945.853500	824.284180	-89.034279
12480.805053	3945.853500	823.099609	-112.189980
12480.805053	3945.853500	821.914063	-157.568665
12480.805053	3945.853500	820.728516	-146.184525
12480.805053	3945.853500	819.542969	-169.365829
12480.805053	3945.853500	818.356445	-145.684631
12480.805053	3945.853500	817.169922	-247.814270
12480.805053	3945.853500	815.983398	-120.597656
12480.805053	3945.853500	814.796875	-124.113556
12480.805053	3945.853500	813.609375	-6.870129
12480.805053	3945.853500	812.422852	-168.159592
12480.805053	3945.853500	811.235352	-11.571873
12480.805053	3945.853500	810.046875	51.327869
12480.805053	3945.853500	808.859375	25.522909
12480.805053	3945.853500	807.670898	-128.327774
12480.805053	3945.853500	806.482422	28.046902
12480.805053	3945.853500	805.293945	2.205388
12480.805053	3945.853500	804.104492	69.862999
12480.805053	3945.853500	802.915039	39.063824
12480.805053	3945.853500	801.725586	141.082108
12480.805053	3945.853500	800.536133	38.924026
12480.805053	3945.853500	799.345703	278.547028
12480.805053	3945.853500	798.155273	85.408806
12480.805053	3945.853500	796.964844	-46.228096
12480.805053	3945.853500	795.774414	70.343163
12480.805053	3945.853500	794.583008	12.421745
12480.805053	3945.853500	793.392578	-3.742096
12480.805053	3945.853500	792.200195	166.708389
12480.805053	3945.853500	791.008789	103.828209
12480.805053	3945.853500	789.816406	173.502350
12480.805053	3945.853500	788.625000	-83.272667
12480.805053	3945.853500	787.432617	-126.499138
12480.805053	3945.853500	786.239258	28.971151
12480.805053	3945.853500	785.046875	-48.642078
12480.805053	3945.853500	783.853516	35.591423
12480.805053	3945.853500	782.660156	124.670097
12480.805053	3945.853500	781.465820	157.313797
12480.805053	3945.853500	780.272461	86.997269
12480.805053	3945.853500	779.078125	122.037811
12480.805053	3945.853500	777.883789	2.718619
12480.805053	3945.853500	776.688477	72.000175
12480.805053	3945.853500	775.494141	146.125931
12480.805053	3945.853500	774.298828	63.522900
12480.805053	3945.853500	773.103516	201.205307
12480.805053	3945.853500	771.907227	101.445549
12480.805053	3945.853500	770.711914	226.780228
12480.805053	3945.853500	769.515625	185.709442
12480.805053	3945.853500	768.318359	10.128901
12480.805053	3945.853500	767.122070	74.202278
12480.805053	3945.853500	765.924805	1.333352
12480.805053	3945.853500	764.727539	14.006201
12480.805053	3945.853500	763.530273	161.036545
12480.805053	3945.853500	762.333008	80.786011
12480.805053	3945.853500	761.134766	95.795876
12480.805053	3945.853500	759.936523	59.492188
12480.805053	3945.853500	758.738281	47.590096
12480.805053	3945.853500	757.540039	-86.379829
12480.805053	3945.853500	756.340820	-54.375431
12480.805053	3945.853500	755.141602	23.944979
12480.805053	3945.853500	753.942383	63.174469
12480.805053	3945.853500	752.742188	126.747238
12480.805053	3945.853500	751.541992	-63.324566
12480.805053	3945.853500	750.341797	73.326073
12480.805053	3945.853500	749.141602	22.215067
12480.805053	3945.853500	747.941406	7.648394
12480.805053	3945.853500	746.740234	7.675373
12480.805053	3945.853500	745.539063	-28.864567
12480.805053	3945.853500	744.337891	114.793533
12480.805053	3945.853500	743.135742	139.055374
12480.805053	3945.853500	741.933594	80.510941
12480.805053	3945.853500	740.731445	126.613197
12480.805053	3945.853500	739.529297	80.200356
12480.805053	3945.853500	738.326172	194.338165
12480.805053	3945.853500	737.124023	-32.118595
12480.805053	3945.853500	735.919922	-51.814659
12480.805053	3945.853500	734.716797	74.341148
12480.805053	3945.853500	733.513672	-147.182587
12480.805053	3945.853500	732.309570	49.352654
12480.805053	3945.853500	731.105469	168.022446
12480.805053	3945.853500	729.900391	109.276680
12480.805053	3945.853500	728.696289	9.236592
12480.805053	3945.853500	727.491211	69.465187
12480.805053	3945.853500	726.286133	42.238838
12480.805053	3945.853500	725.080078	58.679718
12480.805053	3945.853500	723.874023	189.133606
12480.805053	3945.853500	722.668945	127.834076
12480.805053	3945.853500	721.461914	71.375778
12480.805053	3945.853500	720.255859	172.543213
12480.805053	3945.853500	719.048828	-65.816292
12480.805053	3945.853500	717.841797	54.662243
12480.805053	3945.853500	716.634766	73.263367
12480.805053	3945.853500	715.427734	21.552896
12480.805053	3945.853500	714.219727	76.422813
12480.805053	3945.853500	713.011719	7.708432
12480.805053	3945.853500	711.803711	-155.454117
12480.805053	3945.853500	710.594727	-124.897034
12480.805053	3945.853500	709.385742	-249.304932
12480.805053	3945.853500	708.176758	-68.765793
12480.805053	3945.853500	706.967773	-60.126850
12480.805053	3945.853500	705.758789	-80.555161
12480.805053	3945.853500	704.548828	46.520283
12480.805053	3945.853500	703.338867	-169.854996
12480.805053	3945.853500	702.127930	36.892391
12480.805053	3945.853500	700.917969	100.914787
12480.805053	3945.853500	699.707031	24.714998
12480.805053	3945.853500	698.496094	122.464638
12480.805053	3945.853500	697.285156	0.326287
12480.805053	3945.853500	696.073242	-83.158020
12480.805053	3945.853500	694.861328	-62.819485
12480.805053	3945.853500	693.649414	-201.848053
12480.805053	3945.853500	692.436523	-196.047470
12480.805053	3945.853500	691.224609	-33.439690
12480.805053	3945.853500	690.011719	158.011368
12480.805053	3945.853500	688.798828	47.851608
12480.805053	3945.853500	687.584961	-153.934677
12480.805053	3945.853500	686.372070	66.245522
12480.805053	3945.853500	685.158203	45.251339
12480.805053	3945.853500	683.943359	89.296112
12480.805053	3945.853500	682.729492	138.107788
12480.805053	3945.853500	681.514648	162.771942
12480.805053	3945.853500	680.299805	165.714127
12480.805053	3945.853500	679.084961	240.856262
12480.805053	3945.853500	677.869141	320.743988
12480.805053	3945.853500	676.653320	220.045654
12480.805053	3945.853500	675.437500	297.426849
12480.805053	3945.853500	674.221680	309.780731
12480.805053	3945.853500	673.004883	331.713409
12480.805053	3945.853500	671.789063	281.458282
12480.805053	3945.853500	670.571289	149.436417
12480.805053	3945.853500	669.354492	-30.639254
12480.805053	3945.853500	668.136719	310.847076
12480.805053	3945.853500	666.919922	109.117851
12480.805053	3945.853500	665.701172	-6.082466
12480.805053	3945.853500	664.483398	46.860325
12480.805053	3945.853500	663.264648	118.954430
12480.805053	3945.853500	662.045898	102.154221
12480.805053	3945.853500	660.827148	250.947189
12480.805053	3945.853500	659.608398	154.864258
12480.805053	3945.853500	658.388672	97.173920
12480.805053	3945.853500	657.168945	56.265743
12480.805053	3945.853500	655.949219	53.713657
12480.805053	3945.853500	654.728516	123.059525
12480.805053	3945.853500	653.507813	82.068512
12480.805053	3945.853500	652.287109	220.818466
12480.805053	3945.853500	651.066406	-4.752363
12480.805053	3945.853500	649.844727	157.846039
12480.805053	3945.853500	648.623047	270.044006
12480.805053	3945.853500	647.401367	78.031738
12480.805053	3945.853500	646.179688	70.423767
12480.805053	3945.853500	644.957031	41.241302
12480.805053	3945.853500	643.734375	64.689713
12480.805053	3945.853500	642.511719	224.481201
12480.805053	3945.853500	641.289063	125.817238
12480.805053	3945.853500	640.065430	101.303932
12480.805053	3945.853500	638.841797	-28.441589
12480.805053	3945.853500	637.618164	4.404226
12480.805053	3945.853500	636.393555	125.639351
12480.805053	3945.853500	635.168945	105.803345
12480.805053	3945.853500	633.944336	195.847733
12480.805053	3945.853500	632.719727	99.511147
12480.805053	3945.853500	631.494141	199.010925
12480.805053	3945.853500	630.269531	119.370972
12480.805053	3945.853500	629.042969	168.636108
12480.805053	3945.853500	627.817383	-44.672794
12480.805053	3945.853500	626.590820	128.629990
12480.805053	3945.853500	625.365234	103.829773
12480.805053	3945.853500	624.137695	-54.559086
12480.805053	3945.853500	622.911133	25.557285
12480.805053	3945.853500	621.683594	-18.362059
12480.805053	3945.853500	620.456055	16.370729
12480.805053	3945.853500	619.228516	62.979717
12480.805053	3945.853500	618.000977	40.449722
12480.805053	3945.853500	616.772461	-158.371674
12480.805053	3945.853500	615.543945	16.774763
12480.805053	3945.853500	614.314453	229.917267
12480.805053	3945.853500	613.085938	-59.347382
12480.805053	3945.853500	611.856445	-5.786932
12480.805053	3945.853500	610.626953	150.049362
12480.805053	3945.853500	609.397461	55.999382
12480.805053	3945.853500	608.166992	83.270523
12480.805053	3945.853500	606.936523	24.900986
12480.805053	3945.853500	605.706055	-26.330891
12480.805053	3945.853500	604.474609	160.138214
12480.805053	3945.853500	603.244141	37.565998
12480.805053	3945.853500	602.012695	-120.615746
12480.805053	3945.853500	600.780273	34.815151
12480.805053	3945.853500	599.548828	0.166771
12480.805053	3945.853500	598.316406	10.628174
12480.805053	3945.853500	597.083984	-2.670975
12480.805053	3945.853500	595.851563	-44.461575
12480.805053	3945.853500	594.618164	-41.166191
12480.805053	3945.853500	593.384766	11.935222
12480.805053	3945.853500	592.151367	-98.665573
12480.805053	3945.853500	590.917969	-168.917709
12480.805053	3945.853500	589.683594	140.196655
12480.805053	3945.853500	588.449219	-15.441245
12480.805053	3945.853500	587.214844	-45.417271
12480.805053	3945.853500	585.979492	144.962692
12480.805053	3945.853500	584.745117	212.070450
12480.805053	3945.853500	583.509766	328.872772
12480.805053	3945.853500	582.273438	156.724670
12480.805053	3945.853500	581.038086	268.736328
12480.805053	3945.853500	579.801758	181.867111
12480.805053	3945.853500	578.565430	125.790810
12480.805053	3945.853500	577.329102	31.876673
12480.805053	3945.853500	576.091797	179.263611
12480.805053	3945.853500	574.854492	224.891525
12480.805053	3945.853500	573.617188	45.877228
12480.805053	3945.853500	572.378906	-0.691150
12480.805053	3945.853500	571.141602	101.653526
12480.805053	3945.853500	569.903320	156.689453
12480.805053	3945.853500	568.664063	152.635971
12480.805053	3945.853500	567.425781	191.099380
12480.805053	3945.853500	566.186523	-30.209507
12480.805053	3945.853500	564.947266	220.748352
12480.805053	3945.853500	563.708008	150.589249
12480.805053	3945.853500	562.467773	196.089325
12480.805053	3945.853500	561.227539	135.399887
12480.805053	3945.853500	559.987305	298.828186
12480.805053	3945.853500	558.747070	374.930450
12480.805053	3945.853500	557.505859	300.096527
12480.805053	3945.853500	556.264648	446.887451
12480.805053	3945.853500	555.023438	306.085510
12480.805053	3945.853500	553.781250	269.022949
12480.805053	3945.853500	552.539063	170.729492
12480.805053	3945.853500	551.296875	58.351170
12480.805053	3945.853500	550.054688	268.636597
12480.805053	3945.853500	548.811523	144.522507
12480.805053	3945.853500	547.569336	213.484665
12480.805053	3945.853500	546.325195	18.847416
12480.805053	3945.853500	545.082031	-36.880043
12480.805053	3945.853500	543.837891	-19.657728
12480.805053	3945.853500	542.593750	46.954105
12480.805053	3945.853500	541.349609	148.816284
12480.805053	3945.853500	540.105469	83.738869
12480.805053	3945.853500	538.860352	89.204987
12480.805053	3945.853500	537.615234	33.584980
12480.805053	3945.853500	536.369141	-97.180008
12480.805053	3945.853500	535.124023	-2.391862
12480.805053	3945.853500	533.877930	106.454315
12480.805053	3945.853500	532.631836	-35.944580
12480.805053	3945.853500	531.384766	-46.826115
12480.805053	3945.853500	530.138672	-38.912247
12480.805053	3945.853500	528.891602	-28.644815
12480.805053	3945.853500	527.643555	-16.025887
12480.805053	3945.853500	526.396484	-254.335648
12480.805053	3945.853500	525.148438	-117.372849
12480.805053	3945.853500	523.900391	99.250130
12480.805053	3945.853500	522.652344	-202.170059
12480.805053	3945.853500	521.403320	-149.620529
12480.805053	3945.853500	520.154297	-80.678116
12480.805053	3945.853500	518.905273	-91.385574
12480.805053	3945.853500	517.656250	-177.006882
12480.805053	3945.853500	516.406250	60.510372
12480.805053	3945.853500	515.156250	-15.714499
12480.805053	3945.853500	513.906250	-61.466537
12480.805053	3945.853500	512.655273	-95.487297
12480.805053	3945.853500	511.404297	-63.978386
12480.805053	3945.853500	510.153320	-114.320633
12480.805053	3945.853500	508.902344	-258.152679
12480.805053	3945.853500	507.650391	-23.201004
12480.805053	3945.853500	506.398438	-195.006256
12480.805053	3945.853500	505.146484	-86.317024
12480.805053	3945.853500	503.893555	-80.453087
12480.805053	3945.853500	502.641602	-177.342606
12480.805053	3945.853500	501.388672	-157.417068
12480.805053	3945.853500	500.134766	-32.426121
12480.805053	3945.853500	498.881836	55.183807
12480.805053	3945.853500	497.627930	-85.932831
12480.805053	3945.853500	496.374023	-117.313156
12480.805053	3945.853500	495.119141	-151.000214
12480.805053	3945.853500	493.865234	-72.710220
12480.805053	3945.853500	492.610352	-20.090511
12480.805053	3945.853500	491.355469	-116.675003
12480.805053	3945.853500	490.099609	43.167477
12480.805053	3945.853500	488.843750	-55.695244
12480.805053	3945.853500	487.587891	-82.282784
12480.805053	3945.853500	486.332031	63.511173
12480.805053	3945.853500	485.075195	62.545208
12480.805053	3945.853500	483.818359	177.998459
12480.805053	3945.853500	482.561523	174.700714
12480.805053	3945.853500	481.304688	122.543282
12480.805053	3945.853500	480.046875	161.153625
12480.805053	3945.853500	478.789063	13.661826
12480.805053	3945.853500	477.531250	152.295914
12480.805053	3945.853500	476.272461	188.565567
12480.805053	3945.853500	475.013672	264.343353
12480.805053	3945.853500	473.754883	116.973358
12480.805053	3945.853500	472.496094	50.996407
12480.805053	3945.853500	471.236328	26.862885
12480.805053	3945.853500	469.976563	32.933868
12480.805053	3945.853500	468.716797	27.389664
12480.805053	3945.853500	467.456055	-84.954308
12480.805053	3945.853500	466.196289	143.957260
12480.805053	3945.853500	464.935547	94.283348
12480.805053	3945.853500	463.673828	39.980358
12480.805053	3945.853500	462.413086	55.283596
12480.805053	3945.853500	461.151367	-73.220924
12480.805053	3945.853500	459.889648	-9.235623
12480.805053	3945.853500	458.626953	68.613029
12480.805053	3945.853500	457.364258	9.670826
12480.805053	3945.853500	456.101563	108.300514
12480.805053	3945.853500	454.838867	-75.762695
12480.805053	3945.853500	453.575195	117.757683
12480.805053	3945.853500	452.312500	77.292839
12480.805053	3945.853500	451.047852	266.009827
12480.805053	3945.853500	449.784180	42.613827
12480.805053	3945.853500	448.519531	46.063358
12480.805053	3945.853500	447.254883	183.667099
12480.805053	3945.853500	445.990234	62.102585
12480.805053	3945.853500	444.725586	190.314835
12480.805053	3945.853500	443.459961	249.060425
12480.805053	3945.853500	442.194336	215.269379
12480.805053	3945.853500	440.927734	1.171642
12480.805053	3945.853500	439.662109	290.835297
12480.805053	3945.853500	438.395508	115.977890
12480.805053	3945.853500	437.127930	340.699066
12480.805053	3945.853500	435.861328	82.656670
12480.805053	3945.853500	434.593750	152.481308
12480.805053	3945.853500	433.326172	104.491241
12480.805053	3945.853500	432.058594	91.063156
12480.805053	3945.853500	430.790039	259.823303
12480.805053	3945.853500	429.521484	179.312927
12480.805053	3945.853500	428.252930	140.262421
12480.805053	3945.853500	426.984375	225.643219
12480.805053	3945.853500	425.714844	223.294769
12480.805053	3945.853500	424.445313	158.623322
12480.805053	3945.853500	423.174805	398.019196
12480.805053	3945.853500	421.905273	284.751709
12480.805053	3945.853500	420.634766	397.123657
12480.805053	3945.853500	419.364258	228.408325
12480.805053	3945.853500	418.092773	59.639698
12480.805053	3945.853500	416.822266	134.795334
12480.805053	3945.853500	415.550781	156.854523
12480.805053	3945.853500	414.278320	342.106567
12480.805053	3945.853500	413.006836	306.326080
12480.805053	3945.853500	411.734375	51.941570
12480.805053	3945.853500	410.461914	163.075180
12480.805053	3945.853500	409.188477	149.867615
12480.805053	3945.853500	407.916016	-17.472042
12480.805053	3945.853500	406.642578	-26.380596
12480.805053	3945.853500	405.368164	38.038105
12480.805053	3945.853500	404.094727	111.433929
12480.805053	3945.853500	402.820313	92.753593
12480.805053	3945.853500	401.545898	112.906708
12480.805053	3945.853500	400.270508	121.361534
12480.805053	3945.853500	398.996094	12.577602
12480.805053	3945.853500	397.720703	55.026638
12480.805053	3945.853500	396.444336	12.355565
12480.805053	3945.853500	395.168945	-78.683578
12480.805053	3945.853500	393.892578	45.575207
12480.805053	3945.853500	392.616211	-16.138145
12480.805053	3945.853500	391.339844	125.871964
12480.805053	3945.853500	390.062500	70.502647
12480.805053	3945.853500	388.785156	37.786140
12480.805053	3945.853500	387.507813	-68.489235
12480.805053	3945.853500	386.229492	227.960159
12480.805053	3945.853500	384.951172	260.719330
12480.805053	3945.853500	383.672852	112.345161
12480.805053	3945.853500	382.394531	110.154510
12480.805053	3945.853500	381.115234	153.375610
12480.805053	3945.853500	379.835938	150.490128
12480.805053	3945.853500	378.556641	-40.256409
12480.805053	3945.853500	377.277344	173.371582
12480.805053	3945.853500	375.997070	96.239594
12480.805053	3945.853500	374.716797	119.302696
12480.805053	3945.853500	373.435547	-11.124922
12480.805053	3945.853500	372.155273	31.705093
12480.805053	3945.853500	370.874023	108.343155
12480.805053	3945.853500	369.591797	-7.285483
12480.805053	3945.853500	368.310547	209.981873
12480.805053	3945.853500	367.028320	166.515305
12480.805053	3945.853500	365.746094	79.247559
12480.805053	3945.853500	364.463867	96.474083
12480.805053	3945.853500	363.180664	-9.970972
12480.805053	3945.853500	361.897461	92.905052
12480.805053	3945.853500	360.614258	10.559036
12480.805053	3945.853500	359.330078	12.034178
12480.805053	3945.853500	358.045898	-87.302437
12480.805053	3945.853500	356.761719	81.676254
12480.805053	3945.853500	355.477539	76.898819
12480.805053	3945.853500	354.192383	-67.394028
12480.805053	3945.853500	352.907227	8.616628
12480.805053	3945.853500	351.622070	-13.904099
12480.805053	3945.853500	350.336914	-5.187811
12480.805053	3945.853500	349.050781	46.087269
12480.805053	3945.853500	347.764648	-12.515030
12480.805053	3945.853500	346.477539	48.742500
12480.805053	3945.853500	345.191406	-143.092834
12480.805053	3945.853500	343.904297	-55.967613
12480.805053	3945.853500	342.616211	-96.909676
12480.805053	3945.853500	341.329102	-9.041203
12480.805053	3945.853500	340.041016	-99.200615
12480.805053	3945.853500	338.752930	27.939301
12480.805053	3945.853500	337.463867	-95.591324
12480.805053	3945.853500	336.175781	-165.379959
12480.805053	3945.853500	334.886719	47.724197
12480.805053	3945.853500	333.596680	-280.246460
12480.805053	3945.853500	332.307617	-193.734970
12480.805053	3945.853500	331.017578	-96.845268
12480.805053	3945.853500	329.727539	-143.789978
12480.805053	3945.853500	328.436523	-17.098478
12480.805053	3945.853500	327.146484	31.533556
12480.805053	3945.853500	325.855469	-74.978249
12480.805053	3945.853500	324.563477	-196.071793
12480.805053	3945.853500	323.272461	-75.715721
12480.805053	3945.853500	321.980469	-44.819202
12480.805053	3945.853500	320.688477	-159.926178
12480.805053	3945.853500	319.395508	-83.680145
12480.805053	3945.853500	318.103516	23.136848
12480.805053	3945.853500	316.810547	-79.451721
12480.805053	3945.853500	315.516602	-230.704849
12480.805053	3945.853500	314.223633	15.047687
12480.805053	3945.853500	312.929688	144.112183
12480.805053	3945.853500	311.635742	29.965555
12480.805053	3945.853500	310.340820	99.918503
12480.805053	3945.853500	309.045898	125.612076
12480.805053	3945.853500	307.750977	233.576721
12480.805053	3945.853500	306.456055	371.776123
12480.805053	3945.853500	305.160156	248.783066
12480.805053	3945.853500	303.865234	510.597351
12480.805053	3945.853500	302.568359	247.054596
12480.805053	3945.853500	301.272461	356.872772
12480.805053	3945.853500	299.975586	388.394165
12480.805053	3945.853500	298.678711	702.640747
