#X		#Y		#Wave		#Intensity
13268.714043	3884.293000	1999.980469	-133.792862
13268.714043	3884.293000	1999.016602	-93.623817
13268.714043	3884.293000	1998.052734	-37.716358
13268.714043	3884.293000	1997.087891	20.293095
13268.714043	3884.293000	1996.123047	-73.210854
13268.714043	3884.293000	1995.158203	33.628441
13268.714043	3884.293000	1994.193359	28.638641
13268.714043	3884.293000	1993.228516	-93.061752
13268.714043	3884.293000	1992.262695	54.836090
13268.714043	3884.293000	1991.297852	204.839554
13268.714043	3884.293000	1990.332031	25.328201
13268.714043	3884.293000	1989.366211	-122.241791
13268.714043	3884.293000	1988.399414	19.419983
13268.714043	3884.293000	1987.433594	34.597618
13268.714043	3884.293000	1986.466797	54.450409
13268.714043	3884.293000	1985.500977	81.449280
13268.714043	3884.293000	1984.534180	-101.946106
13268.714043	3884.293000	1983.567383	11.084552
13268.714043	3884.293000	1982.599609	244.927841
13268.714043	3884.293000	1981.632813	125.127411
13268.714043	3884.293000	1980.665039	-22.025124
13268.714043	3884.293000	1979.697266	-68.076233
13268.714043	3884.293000	1978.729492	21.495600
13268.714043	3884.293000	1977.761719	14.539881
13268.714043	3884.293000	1976.792969	64.165184
13268.714043	3884.293000	1975.825195	-2.418977
13268.714043	3884.293000	1974.856445	36.942333
13268.714043	3884.293000	1973.887695	-207.608887
13268.714043	3884.293000	1972.918945	87.954437
13268.714043	3884.293000	1971.949219	77.431709
13268.714043	3884.293000	1970.980469	86.475502
13268.714043	3884.293000	1970.010742	83.033295
13268.714043	3884.293000	1969.041016	15.355255
13268.714043	3884.293000	1968.071289	90.489311
13268.714043	3884.293000	1967.101563	2.836771
13268.714043	3884.293000	1966.130859	18.545540
13268.714043	3884.293000	1965.161133	21.802950
13268.714043	3884.293000	1964.190430	103.733704
13268.714043	3884.293000	1963.219727	143.657486
13268.714043	3884.293000	1962.249023	72.677200
13268.714043	3884.293000	1961.277344	33.605080
13268.714043	3884.293000	1960.306641	183.915268
13268.714043	3884.293000	1959.334961	147.086685
13268.714043	3884.293000	1958.363281	31.459099
13268.714043	3884.293000	1957.391602	178.928314
13268.714043	3884.293000	1956.419922	-45.038208
13268.714043	3884.293000	1955.447266	-136.255371
13268.714043	3884.293000	1954.474609	45.311855
13268.714043	3884.293000	1953.501953	35.047169
13268.714043	3884.293000	1952.529297	86.136391
13268.714043	3884.293000	1951.556641	63.436634
13268.714043	3884.293000	1950.583984	-57.568611
13268.714043	3884.293000	1949.610352	98.895523
13268.714043	3884.293000	1948.636719	105.470917
13268.714043	3884.293000	1947.663086	40.796543
13268.714043	3884.293000	1946.689453	138.074753
13268.714043	3884.293000	1945.715820	2.147940
13268.714043	3884.293000	1944.741211	82.118393
13268.714043	3884.293000	1943.767578	144.843506
13268.714043	3884.293000	1942.792969	104.494873
13268.714043	3884.293000	1941.818359	206.336716
13268.714043	3884.293000	1940.842773	43.330196
13268.714043	3884.293000	1939.868164	157.325378
13268.714043	3884.293000	1938.892578	129.103577
13268.714043	3884.293000	1937.916992	2.852687
13268.714043	3884.293000	1936.941406	65.249313
13268.714043	3884.293000	1935.965820	186.378204
13268.714043	3884.293000	1934.990234	33.168243
13268.714043	3884.293000	1934.013672	70.962677
13268.714043	3884.293000	1933.037109	30.388123
13268.714043	3884.293000	1932.060547	-125.220985
13268.714043	3884.293000	1931.083984	169.459488
13268.714043	3884.293000	1930.107422	52.994289
13268.714043	3884.293000	1929.129883	254.547531
13268.714043	3884.293000	1928.153320	-104.034477
13268.714043	3884.293000	1927.175781	48.546745
13268.714043	3884.293000	1926.198242	144.832993
13268.714043	3884.293000	1925.219727	-49.795170
13268.714043	3884.293000	1924.242188	-80.619034
13268.714043	3884.293000	1923.263672	79.142967
13268.714043	3884.293000	1922.285156	28.751627
13268.714043	3884.293000	1921.306641	29.668114
13268.714043	3884.293000	1920.328125	-57.329086
13268.714043	3884.293000	1919.349609	43.704468
13268.714043	3884.293000	1918.370117	-26.177719
13268.714043	3884.293000	1917.391602	-39.895054
13268.714043	3884.293000	1916.412109	-24.325556
13268.714043	3884.293000	1915.431641	-11.200772
13268.714043	3884.293000	1914.452148	-51.737656
13268.714043	3884.293000	1913.472656	-48.356110
13268.714043	3884.293000	1912.492188	133.026367
13268.714043	3884.293000	1911.511719	-63.525352
13268.714043	3884.293000	1910.531250	-47.939873
13268.714043	3884.293000	1909.550781	-193.193680
13268.714043	3884.293000	1908.569336	-21.639502
13268.714043	3884.293000	1907.588867	144.989655
13268.714043	3884.293000	1906.607422	-68.393105
13268.714043	3884.293000	1905.625977	37.319244
13268.714043	3884.293000	1904.644531	33.440014
13268.714043	3884.293000	1903.662109	-58.063850
13268.714043	3884.293000	1902.680664	-105.711845
13268.714043	3884.293000	1901.698242	36.465698
13268.714043	3884.293000	1900.715820	239.423172
13268.714043	3884.293000	1899.733398	133.396545
13268.714043	3884.293000	1898.750000	24.985926
13268.714043	3884.293000	1897.767578	-44.466694
13268.714043	3884.293000	1896.784180	46.565899
13268.714043	3884.293000	1895.800781	-44.721420
13268.714043	3884.293000	1894.817383	-118.952255
13268.714043	3884.293000	1893.833984	-88.667725
13268.714043	3884.293000	1892.850586	-145.836700
13268.714043	3884.293000	1891.866211	-6.244028
13268.714043	3884.293000	1890.881836	-223.659409
13268.714043	3884.293000	1889.897461	102.862717
13268.714043	3884.293000	1888.913086	-7.664721
13268.714043	3884.293000	1887.927734	-81.740021
13268.714043	3884.293000	1886.943359	-172.761047
13268.714043	3884.293000	1885.958008	27.386223
13268.714043	3884.293000	1884.972656	-41.776192
13268.714043	3884.293000	1883.987305	46.731289
13268.714043	3884.293000	1883.001953	-15.119599
13268.714043	3884.293000	1882.015625	-101.184677
13268.714043	3884.293000	1881.029297	-92.682297
13268.714043	3884.293000	1880.042969	39.412926
13268.714043	3884.293000	1879.056641	28.514023
13268.714043	3884.293000	1878.070313	-28.402018
13268.714043	3884.293000	1877.083984	16.430832
13268.714043	3884.293000	1876.096680	66.091698
13268.714043	3884.293000	1875.109375	64.894775
13268.714043	3884.293000	1874.122070	-45.227467
13268.714043	3884.293000	1873.134766	-126.263977
13268.714043	3884.293000	1872.146484	61.316948
13268.714043	3884.293000	1871.159180	-147.928558
13268.714043	3884.293000	1870.170898	-124.892525
13268.714043	3884.293000	1869.182617	-111.539192
13268.714043	3884.293000	1868.194336	143.597961
13268.714043	3884.293000	1867.205078	132.715088
13268.714043	3884.293000	1866.216797	25.155371
13268.714043	3884.293000	1865.227539	26.374832
13268.714043	3884.293000	1864.238281	78.326126
13268.714043	3884.293000	1863.249023	-130.635605
13268.714043	3884.293000	1862.259766	71.055191
13268.714043	3884.293000	1861.269531	74.653168
13268.714043	3884.293000	1860.279297	-44.886616
13268.714043	3884.293000	1859.290039	-7.489955
13268.714043	3884.293000	1858.298828	107.106262
13268.714043	3884.293000	1857.308594	14.140077
13268.714043	3884.293000	1856.318359	-35.379063
13268.714043	3884.293000	1855.327148	11.586088
13268.714043	3884.293000	1854.335938	41.639004
13268.714043	3884.293000	1853.344727	103.010681
13268.714043	3884.293000	1852.353516	67.917465
13268.714043	3884.293000	1851.362305	-37.074699
13268.714043	3884.293000	1850.370117	149.531769
13268.714043	3884.293000	1849.377930	-109.669411
13268.714043	3884.293000	1848.385742	129.836929
13268.714043	3884.293000	1847.393555	36.875957
13268.714043	3884.293000	1846.401367	61.917416
13268.714043	3884.293000	1845.408203	31.552011
13268.714043	3884.293000	1844.415039	18.023932
13268.714043	3884.293000	1843.421875	57.421047
13268.714043	3884.293000	1842.428711	24.594410
13268.714043	3884.293000	1841.435547	-5.840277
13268.714043	3884.293000	1840.441406	21.431192
13268.714043	3884.293000	1839.448242	195.356964
13268.714043	3884.293000	1838.454102	47.007320
13268.714043	3884.293000	1837.459961	-103.720551
13268.714043	3884.293000	1836.464844	-16.488655
13268.714043	3884.293000	1835.470703	224.468750
13268.714043	3884.293000	1834.475586	155.377014
13268.714043	3884.293000	1833.480469	67.060173
13268.714043	3884.293000	1832.485352	170.868271
13268.714043	3884.293000	1831.490234	178.554703
13268.714043	3884.293000	1830.495117	121.382133
13268.714043	3884.293000	1829.499023	225.004745
13268.714043	3884.293000	1828.502930	2.177896
13268.714043	3884.293000	1827.506836	36.122749
13268.714043	3884.293000	1826.510742	103.597580
13268.714043	3884.293000	1825.513672	137.422440
13268.714043	3884.293000	1824.517578	152.009872
13268.714043	3884.293000	1823.520508	154.556107
13268.714043	3884.293000	1822.523438	3.642437
13268.714043	3884.293000	1821.526367	92.400688
13268.714043	3884.293000	1820.529297	-17.804398
13268.714043	3884.293000	1819.531250	142.695633
13268.714043	3884.293000	1818.533203	118.649727
13268.714043	3884.293000	1817.535156	49.060349
13268.714043	3884.293000	1816.537109	-15.766331
13268.714043	3884.293000	1815.539063	122.860634
13268.714043	3884.293000	1814.540039	79.475182
13268.714043	3884.293000	1813.541992	225.101761
13268.714043	3884.293000	1812.542969	-24.157127
13268.714043	3884.293000	1811.543945	78.259369
13268.714043	3884.293000	1810.543945	34.685303
13268.714043	3884.293000	1809.544922	-30.448170
13268.714043	3884.293000	1808.544922	38.260834
13268.714043	3884.293000	1807.544922	61.467670
13268.714043	3884.293000	1806.544922	77.434143
13268.714043	3884.293000	1805.544922	-42.863083
13268.714043	3884.293000	1804.544922	183.217697
13268.714043	3884.293000	1803.543945	12.656197
13268.714043	3884.293000	1802.542969	-71.937332
13268.714043	3884.293000	1801.541992	96.518311
13268.714043	3884.293000	1800.541016	-47.870773
13268.714043	3884.293000	1799.539063	86.963760
13268.714043	3884.293000	1798.538086	-62.277943
13268.714043	3884.293000	1797.536133	-11.132238
13268.714043	3884.293000	1796.534180	-76.957664
13268.714043	3884.293000	1795.532227	31.266493
13268.714043	3884.293000	1794.529297	139.372437
13268.714043	3884.293000	1793.527344	11.356475
13268.714043	3884.293000	1792.524414	57.307087
13268.714043	3884.293000	1791.521484	146.060959
13268.714043	3884.293000	1790.518555	70.305367
13268.714043	3884.293000	1789.514648	108.840485
13268.714043	3884.293000	1788.511719	-64.682343
13268.714043	3884.293000	1787.507813	164.210464
13268.714043	3884.293000	1786.503906	107.240784
13268.714043	3884.293000	1785.500000	33.551010
13268.714043	3884.293000	1784.496094	26.447126
13268.714043	3884.293000	1783.491211	47.812931
13268.714043	3884.293000	1782.486328	138.080597
13268.714043	3884.293000	1781.481445	87.897446
13268.714043	3884.293000	1780.476563	1.979194
13268.714043	3884.293000	1779.471680	-12.660103
13268.714043	3884.293000	1778.465820	-8.365978
13268.714043	3884.293000	1777.460938	316.709534
13268.714043	3884.293000	1776.455078	228.094147
13268.714043	3884.293000	1775.449219	239.212372
13268.714043	3884.293000	1774.442383	-25.311892
13268.714043	3884.293000	1773.436523	132.923752
13268.714043	3884.293000	1772.429688	-3.432005
13268.714043	3884.293000	1771.422852	59.596012
13268.714043	3884.293000	1770.416016	203.213394
13268.714043	3884.293000	1769.409180	90.387932
13268.714043	3884.293000	1768.402344	131.740784
13268.714043	3884.293000	1767.394531	99.441780
13268.714043	3884.293000	1766.386719	50.462162
13268.714043	3884.293000	1765.378906	108.119896
13268.714043	3884.293000	1764.371094	18.669489
13268.714043	3884.293000	1763.362305	9.749227
13268.714043	3884.293000	1762.354492	7.856740
13268.714043	3884.293000	1761.345703	27.191286
13268.714043	3884.293000	1760.336914	131.712021
13268.714043	3884.293000	1759.328125	122.405464
13268.714043	3884.293000	1758.318359	60.900738
13268.714043	3884.293000	1757.308594	-76.442787
13268.714043	3884.293000	1756.299805	209.923584
13268.714043	3884.293000	1755.290039	65.314377
13268.714043	3884.293000	1754.279297	65.006409
13268.714043	3884.293000	1753.269531	55.147465
13268.714043	3884.293000	1752.258789	-30.507030
13268.714043	3884.293000	1751.249023	184.142258
13268.714043	3884.293000	1750.238281	53.376793
13268.714043	3884.293000	1749.226563	130.599472
13268.714043	3884.293000	1748.215820	30.428261
13268.714043	3884.293000	1747.204102	152.333603
13268.714043	3884.293000	1746.193359	80.356216
13268.714043	3884.293000	1745.181641	-83.830666
13268.714043	3884.293000	1744.168945	-4.787953
13268.714043	3884.293000	1743.157227	173.315720
13268.714043	3884.293000	1742.144531	162.366928
13268.714043	3884.293000	1741.132813	2.620283
13268.714043	3884.293000	1740.120117	41.074356
13268.714043	3884.293000	1739.106445	20.414894
13268.714043	3884.293000	1738.093750	68.090927
13268.714043	3884.293000	1737.080078	132.152298
13268.714043	3884.293000	1736.067383	26.305244
13268.714043	3884.293000	1735.053711	33.566078
13268.714043	3884.293000	1734.040039	36.010918
13268.714043	3884.293000	1733.025391	-79.499084
13268.714043	3884.293000	1732.011719	144.278275
13268.714043	3884.293000	1730.997070	120.480202
13268.714043	3884.293000	1729.982422	-115.408554
13268.714043	3884.293000	1728.967773	13.738122
13268.714043	3884.293000	1727.952148	-66.838135
13268.714043	3884.293000	1726.937500	40.866600
13268.714043	3884.293000	1725.921875	-138.738342
13268.714043	3884.293000	1724.906250	-75.980194
13268.714043	3884.293000	1723.890625	-41.577988
13268.714043	3884.293000	1722.875000	-40.219963
13268.714043	3884.293000	1721.858398	-100.121971
13268.714043	3884.293000	1720.841797	-51.928207
13268.714043	3884.293000	1719.825195	19.660917
13268.714043	3884.293000	1718.808594	44.113453
13268.714043	3884.293000	1717.791992	-77.249992
13268.714043	3884.293000	1716.774414	-226.871201
13268.714043	3884.293000	1715.756836	-165.096512
13268.714043	3884.293000	1714.739258	93.859581
13268.714043	3884.293000	1713.721680	-53.647099
13268.714043	3884.293000	1712.704102	-41.533672
13268.714043	3884.293000	1711.685547	-92.913185
13268.714043	3884.293000	1710.667969	156.063110
13268.714043	3884.293000	1709.649414	-52.742943
13268.714043	3884.293000	1708.630859	41.086704
13268.714043	3884.293000	1707.611328	73.787354
13268.714043	3884.293000	1706.592773	-67.151863
13268.714043	3884.293000	1705.573242	23.990627
13268.714043	3884.293000	1704.553711	-67.851593
13268.714043	3884.293000	1703.534180	9.008972
13268.714043	3884.293000	1702.513672	-50.182472
13268.714043	3884.293000	1701.494141	-29.768892
13268.714043	3884.293000	1700.473633	-35.233589
13268.714043	3884.293000	1699.453125	-106.364182
13268.714043	3884.293000	1698.432617	183.052780
13268.714043	3884.293000	1697.412109	198.352829
13268.714043	3884.293000	1696.390625	-48.616211
13268.714043	3884.293000	1695.369141	-38.147938
13268.714043	3884.293000	1694.347656	7.326619
13268.714043	3884.293000	1693.326172	-206.974640
13268.714043	3884.293000	1692.304688	133.046585
13268.714043	3884.293000	1691.282227	126.742653
13268.714043	3884.293000	1690.260742	-45.629848
13268.714043	3884.293000	1689.238281	-59.079254
13268.714043	3884.293000	1688.214844	72.281120
13268.714043	3884.293000	1687.192383	89.024239
13268.714043	3884.293000	1686.168945	82.302025
13268.714043	3884.293000	1685.146484	98.872322
13268.714043	3884.293000	1684.123047	-20.108837
13268.714043	3884.293000	1683.099609	292.828735
13268.714043	3884.293000	1682.075195	10.271689
13268.714043	3884.293000	1681.051758	189.886261
13268.714043	3884.293000	1680.027344	9.975886
13268.714043	3884.293000	1679.002930	72.697105
13268.714043	3884.293000	1677.978516	160.975510
13268.714043	3884.293000	1676.953125	193.156799
13268.714043	3884.293000	1675.928711	246.250168
13268.714043	3884.293000	1674.903320	219.970581
13268.714043	3884.293000	1673.877930	130.693710
13268.714043	3884.293000	1672.852539	335.007294
13268.714043	3884.293000	1671.826172	150.055603
13268.714043	3884.293000	1670.800781	228.349503
13268.714043	3884.293000	1669.774414	129.521347
13268.714043	3884.293000	1668.748047	140.104385
13268.714043	3884.293000	1667.721680	206.490128
13268.714043	3884.293000	1666.694336	286.732758
13268.714043	3884.293000	1665.667969	299.402405
13268.714043	3884.293000	1664.640625	270.102509
13268.714043	3884.293000	1663.613281	275.643036
13268.714043	3884.293000	1662.585938	341.590393
13268.714043	3884.293000	1661.557617	281.858856
13268.714043	3884.293000	1660.530273	552.252563
13268.714043	3884.293000	1659.501953	538.869507
13268.714043	3884.293000	1658.473633	553.318909
13268.714043	3884.293000	1657.444336	579.305847
13268.714043	3884.293000	1656.416016	744.630066
13268.714043	3884.293000	1655.386719	863.361877
13268.714043	3884.293000	1654.358398	717.264038
13268.714043	3884.293000	1653.328125	838.146912
13268.714043	3884.293000	1652.298828	893.945374
13268.714043	3884.293000	1651.269531	933.420105
13268.714043	3884.293000	1650.239258	1086.515259
13268.714043	3884.293000	1649.208984	1350.860962
13268.714043	3884.293000	1648.178711	1174.327393
13268.714043	3884.293000	1647.148438	1150.876465
13268.714043	3884.293000	1646.117188	1271.129150
13268.714043	3884.293000	1645.086914	1312.482666
13268.714043	3884.293000	1644.055664	1381.570068
13268.714043	3884.293000	1643.024414	1376.427979
13268.714043	3884.293000	1641.992188	1454.635986
13268.714043	3884.293000	1640.960938	1287.240356
13268.714043	3884.293000	1639.928711	1416.300659
13268.714043	3884.293000	1638.896484	1475.800659
13268.714043	3884.293000	1637.864258	1616.266235
13268.714043	3884.293000	1636.832031	1499.710083
13268.714043	3884.293000	1635.798828	1491.910889
13268.714043	3884.293000	1634.766602	1627.548096
13268.714043	3884.293000	1633.733398	1601.147461
13268.714043	3884.293000	1632.699219	1630.213135
13268.714043	3884.293000	1631.666016	1386.384766
13268.714043	3884.293000	1630.632813	1436.237549
13268.714043	3884.293000	1629.598633	1608.533813
13268.714043	3884.293000	1628.564453	1699.843628
13268.714043	3884.293000	1627.530273	1892.756226
13268.714043	3884.293000	1626.495117	1983.900635
13268.714043	3884.293000	1625.460938	1809.380615
13268.714043	3884.293000	1624.425781	2027.461914
13268.714043	3884.293000	1623.390625	1945.286377
13268.714043	3884.293000	1622.355469	2285.551514
13268.714043	3884.293000	1621.319336	2117.899902
13268.714043	3884.293000	1620.284180	2174.134766
13268.714043	3884.293000	1619.248047	2246.458984
13268.714043	3884.293000	1618.211914	2440.984619
13268.714043	3884.293000	1617.174805	2460.134521
13268.714043	3884.293000	1616.138672	2467.746826
13268.714043	3884.293000	1615.101563	2493.765869
13268.714043	3884.293000	1614.065430	2570.482422
13268.714043	3884.293000	1613.027344	2693.209717
13268.714043	3884.293000	1611.990234	2769.815430
13268.714043	3884.293000	1610.953125	2791.097412
13268.714043	3884.293000	1609.915039	2768.587402
13268.714043	3884.293000	1608.876953	2716.145020
13268.714043	3884.293000	1607.838867	2969.894287
13268.714043	3884.293000	1606.800781	3000.278076
13268.714043	3884.293000	1605.761719	2940.882080
13268.714043	3884.293000	1604.723633	3037.973145
13268.714043	3884.293000	1603.684570	3054.495850
13268.714043	3884.293000	1602.644531	3107.792480
13268.714043	3884.293000	1601.605469	3397.924316
13268.714043	3884.293000	1600.566406	3021.244873
13268.714043	3884.293000	1599.526367	3063.027832
13268.714043	3884.293000	1598.486328	3208.210693
13268.714043	3884.293000	1597.446289	3158.043945
13268.714043	3884.293000	1596.405273	3505.296387
13268.714043	3884.293000	1595.365234	3342.565918
13268.714043	3884.293000	1594.324219	3528.923096
13268.714043	3884.293000	1593.283203	3196.363281
13268.714043	3884.293000	1592.242188	3662.732666
13268.714043	3884.293000	1591.200195	3534.530273
13268.714043	3884.293000	1590.159180	3489.009277
13268.714043	3884.293000	1589.117188	3725.669189
13268.714043	3884.293000	1588.075195	3664.088135
13268.714043	3884.293000	1587.032227	3547.496338
13268.714043	3884.293000	1585.990234	3600.643311
13268.714043	3884.293000	1584.947266	3566.667725
13268.714043	3884.293000	1583.904297	3633.564453
13268.714043	3884.293000	1582.861328	3544.647461
13268.714043	3884.293000	1581.818359	3398.515625
13268.714043	3884.293000	1580.775391	3550.222656
13268.714043	3884.293000	1579.731445	3275.941162
13268.714043	3884.293000	1578.687500	3480.308838
13268.714043	3884.293000	1577.643555	3455.715576
13268.714043	3884.293000	1576.598633	3515.824951
13268.714043	3884.293000	1575.554688	3452.395264
13268.714043	3884.293000	1574.509766	3542.285156
13268.714043	3884.293000	1573.464844	3623.023438
13268.714043	3884.293000	1572.419922	3706.051025
13268.714043	3884.293000	1571.374023	3459.824707
13268.714043	3884.293000	1570.329102	3721.229248
13268.714043	3884.293000	1569.283203	3658.011230
13268.714043	3884.293000	1568.237305	4010.737793
13268.714043	3884.293000	1567.191406	3847.044434
13268.714043	3884.293000	1566.144531	3681.158203
13268.714043	3884.293000	1565.098633	3686.673340
13268.714043	3884.293000	1564.051758	3543.802490
13268.714043	3884.293000	1563.004883	3369.073486
13268.714043	3884.293000	1561.957031	3354.209961
13268.714043	3884.293000	1560.910156	3079.276855
13268.714043	3884.293000	1559.862305	3032.632568
13268.714043	3884.293000	1558.814453	3027.114258
13268.714043	3884.293000	1557.766602	2693.247314
13268.714043	3884.293000	1556.718750	2610.376953
13268.714043	3884.293000	1555.669922	2550.375732
13268.714043	3884.293000	1554.621094	2485.893555
13268.714043	3884.293000	1553.573242	2644.828125
13268.714043	3884.293000	1552.523438	2648.800537
13268.714043	3884.293000	1551.474609	2477.448486
13268.714043	3884.293000	1550.424805	2324.427490
13268.714043	3884.293000	1549.375000	2344.577881
13268.714043	3884.293000	1548.325195	2462.673340
13268.714043	3884.293000	1547.275391	2284.893799
13268.714043	3884.293000	1546.225586	2287.024170
13268.714043	3884.293000	1545.174805	2186.819580
13268.714043	3884.293000	1544.124023	2234.580078
13268.714043	3884.293000	1543.073242	2205.062500
13268.714043	3884.293000	1542.022461	2189.269043
13268.714043	3884.293000	1540.970703	2212.184326
13268.714043	3884.293000	1539.919922	2207.899658
13268.714043	3884.293000	1538.868164	2194.584961
13268.714043	3884.293000	1537.815430	2072.274414
13268.714043	3884.293000	1536.763672	1990.990601
13268.714043	3884.293000	1535.710938	1896.172241
13268.714043	3884.293000	1534.659180	1865.061157
13268.714043	3884.293000	1533.606445	2244.944092
13268.714043	3884.293000	1532.552734	2163.967773
13268.714043	3884.293000	1531.500000	1965.110962
13268.714043	3884.293000	1530.446289	1759.591187
13268.714043	3884.293000	1529.393555	1660.866455
13268.714043	3884.293000	1528.338867	1668.832886
13268.714043	3884.293000	1527.285156	1826.553345
13268.714043	3884.293000	1526.231445	1818.796509
13268.714043	3884.293000	1525.176758	1702.312866
13268.714043	3884.293000	1524.122070	1425.060059
13268.714043	3884.293000	1523.067383	1594.364136
13268.714043	3884.293000	1522.012695	1589.258423
13268.714043	3884.293000	1520.957031	1824.309937
13268.714043	3884.293000	1519.901367	1839.708374
13268.714043	3884.293000	1518.845703	1864.247681
13268.714043	3884.293000	1517.790039	1789.273438
13268.714043	3884.293000	1516.734375	1757.421265
13268.714043	3884.293000	1515.677734	1818.432617
13268.714043	3884.293000	1514.621094	1802.600220
13268.714043	3884.293000	1513.564453	1877.339966
13268.714043	3884.293000	1512.507813	1694.358765
13268.714043	3884.293000	1511.450195	1559.013550
13268.714043	3884.293000	1510.393555	1839.748169
13268.714043	3884.293000	1509.335938	1921.583496
13268.714043	3884.293000	1508.278320	1831.762939
13268.714043	3884.293000	1507.219727	1814.358643
13268.714043	3884.293000	1506.162109	1821.919922
13268.714043	3884.293000	1505.103516	1727.953003
13268.714043	3884.293000	1504.044922	1559.621460
13268.714043	3884.293000	1502.986328	1429.836304
13268.714043	3884.293000	1501.926758	1458.175049
13268.714043	3884.293000	1500.868164	1188.777954
13268.714043	3884.293000	1499.808594	1061.707520
13268.714043	3884.293000	1498.749023	1106.213013
13268.714043	3884.293000	1497.688477	1128.249268
13268.714043	3884.293000	1496.628906	1125.597290
13268.714043	3884.293000	1495.568359	802.958069
13268.714043	3884.293000	1494.507813	899.745422
13268.714043	3884.293000	1493.447266	1007.872070
13268.714043	3884.293000	1492.386719	577.651184
13268.714043	3884.293000	1491.325195	701.782410
13268.714043	3884.293000	1490.263672	481.437744
13268.714043	3884.293000	1489.202148	538.225281
13268.714043	3884.293000	1488.140625	482.555695
13268.714043	3884.293000	1487.079102	436.027344
13268.714043	3884.293000	1486.016602	340.122559
13268.714043	3884.293000	1484.954102	307.364319
13268.714043	3884.293000	1483.891602	258.993408
13268.714043	3884.293000	1482.829102	316.455719
13268.714043	3884.293000	1481.765625	349.276062
13268.714043	3884.293000	1480.702148	274.309845
13268.714043	3884.293000	1479.638672	183.776398
13268.714043	3884.293000	1478.575195	311.326630
13268.714043	3884.293000	1477.511719	59.316513
13268.714043	3884.293000	1476.447266	220.770401
13268.714043	3884.293000	1475.382813	236.296036
13268.714043	3884.293000	1474.318359	182.424194
13268.714043	3884.293000	1473.253906	330.645569
13268.714043	3884.293000	1472.189453	460.909851
13268.714043	3884.293000	1471.124023	566.588623
13268.714043	3884.293000	1470.058594	537.889526
13268.714043	3884.293000	1468.993164	679.631348
13268.714043	3884.293000	1467.927734	733.897583
13268.714043	3884.293000	1466.861328	503.981079
13268.714043	3884.293000	1465.794922	731.075378
13268.714043	3884.293000	1464.728516	700.717896
13268.714043	3884.293000	1463.662109	580.940308
13268.714043	3884.293000	1462.594727	463.922729
13268.714043	3884.293000	1461.528320	548.100098
13268.714043	3884.293000	1460.460938	534.047180
13268.714043	3884.293000	1459.393555	803.616760
13268.714043	3884.293000	1458.326172	747.476257
13268.714043	3884.293000	1457.257813	736.114746
13268.714043	3884.293000	1456.189453	715.497131
13268.714043	3884.293000	1455.121094	840.173401
13268.714043	3884.293000	1454.052734	601.097046
13268.714043	3884.293000	1452.984375	474.560242
13268.714043	3884.293000	1451.915039	432.551819
13268.714043	3884.293000	1450.845703	512.530945
13268.714043	3884.293000	1449.776367	597.208862
13268.714043	3884.293000	1448.707031	660.965637
13268.714043	3884.293000	1447.636719	588.401855
13268.714043	3884.293000	1446.567383	492.627625
13268.714043	3884.293000	1445.497070	680.401611
13268.714043	3884.293000	1444.425781	575.230286
13268.714043	3884.293000	1443.355469	671.505127
13268.714043	3884.293000	1442.285156	601.186279
13268.714043	3884.293000	1441.213867	585.882874
13268.714043	3884.293000	1440.142578	466.700256
13268.714043	3884.293000	1439.070313	435.933197
13268.714043	3884.293000	1437.999023	407.784485
13268.714043	3884.293000	1436.926758	365.310608
13268.714043	3884.293000	1435.854492	389.835052
13268.714043	3884.293000	1434.782227	446.960480
13268.714043	3884.293000	1433.709961	326.946655
13268.714043	3884.293000	1432.636719	203.550095
13268.714043	3884.293000	1431.563477	315.457031
13268.714043	3884.293000	1430.490234	576.141113
13268.714043	3884.293000	1429.416992	492.242035
13268.714043	3884.293000	1428.343750	432.509766
13268.714043	3884.293000	1427.269531	224.174057
13268.714043	3884.293000	1426.195313	175.355972
13268.714043	3884.293000	1425.121094	178.939285
13268.714043	3884.293000	1424.046875	253.556747
13268.714043	3884.293000	1422.971680	139.378036
13268.714043	3884.293000	1421.896484	106.626198
13268.714043	3884.293000	1420.821289	27.615608
13268.714043	3884.293000	1419.746094	-37.636242
13268.714043	3884.293000	1418.669922	-139.463120
13268.714043	3884.293000	1417.594727	25.668547
13268.714043	3884.293000	1416.518555	-67.847054
13268.714043	3884.293000	1415.442383	-63.037712
13268.714043	3884.293000	1414.365234	61.701756
13268.714043	3884.293000	1413.289063	70.111839
13268.714043	3884.293000	1412.211914	22.450035
13268.714043	3884.293000	1411.134766	-66.834473
13268.714043	3884.293000	1410.057617	175.108704
13268.714043	3884.293000	1408.979492	75.004494
13268.714043	3884.293000	1407.902344	-15.660886
13268.714043	3884.293000	1406.824219	51.536320
13268.714043	3884.293000	1405.746094	74.719414
13268.714043	3884.293000	1404.666992	-14.274912
13268.714043	3884.293000	1403.588867	-70.769096
13268.714043	3884.293000	1402.509766	175.801224
13268.714043	3884.293000	1401.430664	201.035370
13268.714043	3884.293000	1400.351563	-65.101120
13268.714043	3884.293000	1399.271484	192.821808
13268.714043	3884.293000	1398.192383	70.287987
13268.714043	3884.293000	1397.112305	174.570053
13268.714043	3884.293000	1396.031250	126.886795
13268.714043	3884.293000	1394.951172	155.052353
13268.714043	3884.293000	1393.871094	222.105347
13268.714043	3884.293000	1392.790039	106.901360
13268.714043	3884.293000	1391.708984	321.466187
13268.714043	3884.293000	1390.626953	253.038422
13268.714043	3884.293000	1389.545898	387.905487
13268.714043	3884.293000	1388.463867	216.112442
13268.714043	3884.293000	1387.381836	177.919907
13268.714043	3884.293000	1386.299805	28.653622
13268.714043	3884.293000	1385.217773	-33.543270
13268.714043	3884.293000	1384.134766	1.132940
13268.714043	3884.293000	1383.051758	-95.990265
13268.714043	3884.293000	1381.968750	84.253654
13268.714043	3884.293000	1380.885742	64.955055
13268.714043	3884.293000	1379.802734	-46.850414
13268.714043	3884.293000	1378.718750	169.625885
13268.714043	3884.293000	1377.634766	86.166855
13268.714043	3884.293000	1376.550781	61.456547
13268.714043	3884.293000	1375.465820	168.239990
13268.714043	3884.293000	1374.381836	210.538391
13268.714043	3884.293000	1373.296875	97.171532
13268.714043	3884.293000	1372.211914	166.718521
13268.714043	3884.293000	1371.126953	134.121170
13268.714043	3884.293000	1370.041016	50.864330
13268.714043	3884.293000	1368.955078	216.896835
13268.714043	3884.293000	1367.869141	23.642923
13268.714043	3884.293000	1366.783203	136.301224
13268.714043	3884.293000	1365.697266	-11.302688
13268.714043	3884.293000	1364.610352	62.222778
13268.714043	3884.293000	1363.523438	89.694031
13268.714043	3884.293000	1362.436523	-30.908106
13268.714043	3884.293000	1361.349609	-96.762001
13268.714043	3884.293000	1360.261719	-123.989319
13268.714043	3884.293000	1359.174805	-104.283104
13268.714043	3884.293000	1358.086914	-49.522678
13268.714043	3884.293000	1356.998047	-94.086319
13268.714043	3884.293000	1355.910156	68.894768
13268.714043	3884.293000	1354.821289	48.988155
13268.714043	3884.293000	1353.732422	2.400784
13268.714043	3884.293000	1352.643555	151.653442
13268.714043	3884.293000	1351.554688	-30.095398
13268.714043	3884.293000	1350.464844	96.930954
13268.714043	3884.293000	1349.375000	237.617676
13268.714043	3884.293000	1348.285156	340.284363
13268.714043	3884.293000	1347.195313	121.028908
13268.714043	3884.293000	1346.105469	204.642563
13268.714043	3884.293000	1345.014648	223.296036
13268.714043	3884.293000	1343.923828	320.331970
13268.714043	3884.293000	1342.833008	174.024017
13268.714043	3884.293000	1341.741211	348.982635
13268.714043	3884.293000	1340.650391	308.613586
13268.714043	3884.293000	1339.558594	107.910133
13268.714043	3884.293000	1338.466797	227.490723
13268.714043	3884.293000	1337.374023	-23.027964
13268.714043	3884.293000	1336.282227	92.598877
13268.714043	3884.293000	1335.189453	193.025406
13268.714043	3884.293000	1334.096680	111.754440
13268.714043	3884.293000	1333.003906	17.886688
13268.714043	3884.293000	1331.910156	53.764877
13268.714043	3884.293000	1330.817383	-173.630859
13268.714043	3884.293000	1329.723633	101.868248
13268.714043	3884.293000	1328.629883	67.559395
13268.714043	3884.293000	1327.535156	116.553223
13268.714043	3884.293000	1326.441406	11.349609
13268.714043	3884.293000	1325.346680	32.940292
13268.714043	3884.293000	1324.251953	202.202164
13268.714043	3884.293000	1323.156250	263.297943
13268.714043	3884.293000	1322.061523	345.878174
13268.714043	3884.293000	1320.965820	385.504547
13268.714043	3884.293000	1319.870117	404.930603
13268.714043	3884.293000	1318.774414	427.755981
13268.714043	3884.293000	1317.678711	250.479782
13268.714043	3884.293000	1316.582031	504.314056
13268.714043	3884.293000	1315.485352	249.726746
13268.714043	3884.293000	1314.388672	283.610474
13268.714043	3884.293000	1313.291016	397.689240
13268.714043	3884.293000	1312.194336	232.805313
13268.714043	3884.293000	1311.096680	245.651840
13268.714043	3884.293000	1309.999023	237.541992
13268.714043	3884.293000	1308.901367	329.780518
13268.714043	3884.293000	1307.802734	353.657196
13268.714043	3884.293000	1306.705078	340.247894
13268.714043	3884.293000	1305.606445	409.953491
13268.714043	3884.293000	1304.506836	518.376770
13268.714043	3884.293000	1303.408203	528.077515
13268.714043	3884.293000	1302.308594	509.203156
13268.714043	3884.293000	1301.208984	592.171692
13268.714043	3884.293000	1300.109375	601.114014
13268.714043	3884.293000	1299.009766	494.373871
13268.714043	3884.293000	1297.909180	533.669373
13268.714043	3884.293000	1296.808594	384.172180
13268.714043	3884.293000	1295.708008	440.304138
13268.714043	3884.293000	1294.607422	170.739059
13268.714043	3884.293000	1293.506836	34.278694
13268.714043	3884.293000	1292.405273	159.531128
13268.714043	3884.293000	1291.303711	156.569992
13268.714043	3884.293000	1290.202148	286.724365
13268.714043	3884.293000	1289.099609	241.906219
13268.714043	3884.293000	1287.998047	55.410698
13268.714043	3884.293000	1286.895508	71.974953
13268.714043	3884.293000	1285.792969	381.102936
13268.714043	3884.293000	1284.689453	173.445160
13268.714043	3884.293000	1283.586914	413.765015
13268.714043	3884.293000	1282.483398	344.765900
13268.714043	3884.293000	1281.379883	341.169342
13268.714043	3884.293000	1280.276367	530.177429
13268.714043	3884.293000	1279.171875	536.608887
13268.714043	3884.293000	1278.067383	329.675262
13268.714043	3884.293000	1276.962891	283.880402
13268.714043	3884.293000	1275.858398	141.451813
13268.714043	3884.293000	1274.753906	76.466576
13268.714043	3884.293000	1273.648438	213.759293
13268.714043	3884.293000	1272.542969	135.883057
13268.714043	3884.293000	1271.437500	157.409058
13268.714043	3884.293000	1270.331055	79.007050
13268.714043	3884.293000	1269.225586	13.541546
13268.714043	3884.293000	1268.119141	35.760288
13268.714043	3884.293000	1267.012695	85.075478
13268.714043	3884.293000	1265.906250	64.831764
13268.714043	3884.293000	1264.798828	29.369991
13268.714043	3884.293000	1263.691406	12.073888
13268.714043	3884.293000	1262.583984	51.543976
13268.714043	3884.293000	1261.476563	76.279221
13268.714043	3884.293000	1260.368164	16.853996
13268.714043	3884.293000	1259.260742	-33.707760
13268.714043	3884.293000	1258.152344	-177.851913
13268.714043	3884.293000	1257.043945	-168.515259
13268.714043	3884.293000	1255.934570	-124.551994
13268.714043	3884.293000	1254.825195	-85.014244
13268.714043	3884.293000	1253.716797	-124.912285
13268.714043	3884.293000	1252.606445	-161.712616
13268.714043	3884.293000	1251.497070	-145.423462
13268.714043	3884.293000	1250.387695	-42.055191
13268.714043	3884.293000	1249.277344	-147.927597
13268.714043	3884.293000	1248.166992	-107.689682
13268.714043	3884.293000	1247.055664	-49.536198
13268.714043	3884.293000	1245.945313	-155.435211
13268.714043	3884.293000	1244.833984	-262.810333
13268.714043	3884.293000	1243.722656	-161.109451
13268.714043	3884.293000	1242.611328	-188.008438
13268.714043	3884.293000	1241.499023	-8.429449
13268.714043	3884.293000	1240.387695	-85.136688
13268.714043	3884.293000	1239.275391	-16.953875
13268.714043	3884.293000	1238.162109	-9.558726
13268.714043	3884.293000	1237.049805	44.796127
13268.714043	3884.293000	1235.936523	198.714844
13268.714043	3884.293000	1234.823242	278.387970
13268.714043	3884.293000	1233.709961	287.322296
13268.714043	3884.293000	1232.596680	355.915253
13268.714043	3884.293000	1231.482422	392.926514
13268.714043	3884.293000	1230.369141	412.197021
13268.714043	3884.293000	1229.253906	497.217834
13268.714043	3884.293000	1228.139648	524.399231
13268.714043	3884.293000	1227.025391	608.948120
13268.714043	3884.293000	1225.910156	594.780518
13268.714043	3884.293000	1224.794922	550.199219
13268.714043	3884.293000	1223.679688	432.683685
13268.714043	3884.293000	1222.563477	531.806213
13268.714043	3884.293000	1221.447266	566.075500
13268.714043	3884.293000	1220.331055	357.273865
13268.714043	3884.293000	1219.214844	534.236206
13268.714043	3884.293000	1218.098633	556.879578
13268.714043	3884.293000	1216.981445	426.637634
13268.714043	3884.293000	1215.864258	491.203644
13268.714043	3884.293000	1214.747070	413.938019
13268.714043	3884.293000	1213.629883	537.879883
13268.714043	3884.293000	1212.511719	483.293884
13268.714043	3884.293000	1211.393555	164.381241
13268.714043	3884.293000	1210.275391	509.140961
13268.714043	3884.293000	1209.157227	440.889526
13268.714043	3884.293000	1208.038086	406.234467
13268.714043	3884.293000	1206.918945	401.724548
13268.714043	3884.293000	1205.799805	494.211426
13268.714043	3884.293000	1204.680664	319.159973
13268.714043	3884.293000	1203.560547	273.359375
13268.714043	3884.293000	1202.441406	317.035187
13268.714043	3884.293000	1201.321289	190.783264
13268.714043	3884.293000	1200.200195	304.941559
13268.714043	3884.293000	1199.080078	270.411469
13268.714043	3884.293000	1197.958984	367.290741
13268.714043	3884.293000	1196.837891	298.541412
13268.714043	3884.293000	1195.716797	468.644989
13268.714043	3884.293000	1194.594727	619.809570
13268.714043	3884.293000	1193.473633	651.998169
13268.714043	3884.293000	1192.351563	597.106323
13268.714043	3884.293000	1191.229492	680.700684
13268.714043	3884.293000	1190.106445	686.767517
13268.714043	3884.293000	1188.984375	774.469299
13268.714043	3884.293000	1187.861328	801.202393
13268.714043	3884.293000	1186.738281	811.435791
13268.714043	3884.293000	1185.614258	710.586487
13268.714043	3884.293000	1184.491211	916.112976
13268.714043	3884.293000	1183.367188	696.680115
13268.714043	3884.293000	1182.243164	840.617249
13268.714043	3884.293000	1181.119141	938.753723
13268.714043	3884.293000	1179.994141	1024.872681
13268.714043	3884.293000	1178.869141	955.290894
13268.714043	3884.293000	1177.744141	1189.101318
13268.714043	3884.293000	1176.619141	1189.111816
13268.714043	3884.293000	1175.493164	1186.779175
13268.714043	3884.293000	1174.368164	1173.270386
13268.714043	3884.293000	1173.242188	1102.558472
13268.714043	3884.293000	1172.115234	905.065674
13268.714043	3884.293000	1170.989258	789.900269
13268.714043	3884.293000	1169.862305	646.509949
13268.714043	3884.293000	1168.735352	574.609192
13268.714043	3884.293000	1167.608398	365.062592
13268.714043	3884.293000	1166.481445	429.576355
13268.714043	3884.293000	1165.353516	269.884613
13268.714043	3884.293000	1164.225586	238.322144
13268.714043	3884.293000	1163.097656	69.254448
13268.714043	3884.293000	1161.968750	35.213364
13268.714043	3884.293000	1160.840820	89.032539
13268.714043	3884.293000	1159.711914	89.916946
13268.714043	3884.293000	1158.583008	-3.826764
13268.714043	3884.293000	1157.453125	106.165184
13268.714043	3884.293000	1156.324219	20.302887
13268.714043	3884.293000	1155.194336	72.957108
13268.714043	3884.293000	1154.064453	51.068447
13268.714043	3884.293000	1152.933594	111.937080
13268.714043	3884.293000	1151.803711	85.327927
13268.714043	3884.293000	1150.672852	175.967926
13268.714043	3884.293000	1149.541992	-13.635743
13268.714043	3884.293000	1148.411133	50.897182
13268.714043	3884.293000	1147.279297	-74.196739
13268.714043	3884.293000	1146.147461	-13.905314
13268.714043	3884.293000	1145.015625	-29.860952
13268.714043	3884.293000	1143.883789	71.963127
13268.714043	3884.293000	1142.750977	18.026978
13268.714043	3884.293000	1141.619141	105.762299
13268.714043	3884.293000	1140.486328	-13.026477
13268.714043	3884.293000	1139.352539	140.468597
13268.714043	3884.293000	1138.219727	132.232208
13268.714043	3884.293000	1137.085938	177.779510
13268.714043	3884.293000	1135.952148	170.059662
13268.714043	3884.293000	1134.818359	34.689346
13268.714043	3884.293000	1133.683594	41.961361
13268.714043	3884.293000	1132.549805	196.912628
13268.714043	3884.293000	1131.415039	-53.750683
13268.714043	3884.293000	1130.279297	129.481567
13268.714043	3884.293000	1129.144531	56.067493
13268.714043	3884.293000	1128.008789	110.881966
13268.714043	3884.293000	1126.873047	310.902863
13268.714043	3884.293000	1125.737305	124.447174
13268.714043	3884.293000	1124.601563	193.877716
13268.714043	3884.293000	1123.464844	31.483046
13268.714043	3884.293000	1122.328125	148.417053
13268.714043	3884.293000	1121.191406	159.443039
13268.714043	3884.293000	1120.054688	77.568390
13268.714043	3884.293000	1118.916992	88.684052
13268.714043	3884.293000	1117.779297	150.526169
13268.714043	3884.293000	1116.641602	23.915663
13268.714043	3884.293000	1115.503906	19.761368
13268.714043	3884.293000	1114.365234	-55.652409
13268.714043	3884.293000	1113.226563	42.129467
13268.714043	3884.293000	1112.087891	-95.173607
13268.714043	3884.293000	1110.949219	-86.321709
13268.714043	3884.293000	1109.809570	103.262260
13268.714043	3884.293000	1108.669922	0.651841
13268.714043	3884.293000	1107.530273	75.790100
13268.714043	3884.293000	1106.390625	146.773438
13268.714043	3884.293000	1105.250000	119.794006
13268.714043	3884.293000	1104.109375	206.195129
13268.714043	3884.293000	1102.968750	139.007813
13268.714043	3884.293000	1101.828125	198.357742
13268.714043	3884.293000	1100.686523	290.741638
13268.714043	3884.293000	1099.544922	423.693451
13268.714043	3884.293000	1098.403320	270.670013
13268.714043	3884.293000	1097.261719	352.095917
13268.714043	3884.293000	1096.120117	377.752197
13268.714043	3884.293000	1094.977539	421.804230
13268.714043	3884.293000	1093.834961	454.656464
13268.714043	3884.293000	1092.691406	492.336487
13268.714043	3884.293000	1091.548828	331.526794
13268.714043	3884.293000	1090.405273	419.831543
13268.714043	3884.293000	1089.261719	261.198395
13268.714043	3884.293000	1088.118164	517.399658
13268.714043	3884.293000	1086.973633	226.740067
13268.714043	3884.293000	1085.829102	335.268005
13268.714043	3884.293000	1084.684570	310.022461
13268.714043	3884.293000	1083.540039	389.784546
13268.714043	3884.293000	1082.395508	402.078583
13268.714043	3884.293000	1081.250000	432.003937
13268.714043	3884.293000	1080.104492	391.158203
13268.714043	3884.293000	1078.958984	459.873352
13268.714043	3884.293000	1077.812500	293.068939
13268.714043	3884.293000	1076.666016	209.641556
13268.714043	3884.293000	1075.519531	224.639008
13268.714043	3884.293000	1074.373047	300.225311
13268.714043	3884.293000	1073.226563	392.626953
13268.714043	3884.293000	1072.079102	360.386383
13268.714043	3884.293000	1070.931641	304.010803
13268.714043	3884.293000	1069.784180	304.645752
13268.714043	3884.293000	1068.635742	264.396942
13268.714043	3884.293000	1067.487305	195.727859
13268.714043	3884.293000	1066.338867	285.303558
13268.714043	3884.293000	1065.190430	398.400452
13268.714043	3884.293000	1064.041992	8.921896
13268.714043	3884.293000	1062.892578	199.842468
13268.714043	3884.293000	1061.743164	180.969772
13268.714043	3884.293000	1060.593750	249.187653
13268.714043	3884.293000	1059.443359	122.088722
13268.714043	3884.293000	1058.292969	163.980789
13268.714043	3884.293000	1057.142578	52.316063
13268.714043	3884.293000	1055.992188	13.951082
13268.714043	3884.293000	1054.841797	26.540237
13268.714043	3884.293000	1053.690430	143.088013
13268.714043	3884.293000	1052.539063	46.586124
13268.714043	3884.293000	1051.387695	30.857916
13268.714043	3884.293000	1050.235352	0.102075
13268.714043	3884.293000	1049.083984	17.312679
13268.714043	3884.293000	1047.931641	-11.944620
13268.714043	3884.293000	1046.778320	-80.142014
13268.714043	3884.293000	1045.625977	204.398529
13268.714043	3884.293000	1044.472656	-31.890944
13268.714043	3884.293000	1043.319336	-47.942547
13268.714043	3884.293000	1042.166016	-71.685303
13268.714043	3884.293000	1041.012695	10.042594
13268.714043	3884.293000	1039.858398	77.565857
13268.714043	3884.293000	1038.704102	4.372553
13268.714043	3884.293000	1037.549805	168.014160
13268.714043	3884.293000	1036.394531	12.931935
13268.714043	3884.293000	1035.239258	-27.597282
13268.714043	3884.293000	1034.083984	105.581024
13268.714043	3884.293000	1032.928711	-16.665724
13268.714043	3884.293000	1031.773438	34.728142
13268.714043	3884.293000	1030.617188	143.930710
13268.714043	3884.293000	1029.460938	86.712753
13268.714043	3884.293000	1028.304688	-1.602220
13268.714043	3884.293000	1027.147461	-181.919022
13268.714043	3884.293000	1025.991211	11.167450
13268.714043	3884.293000	1024.833984	-50.525295
13268.714043	3884.293000	1023.675781	-27.665586
13268.714043	3884.293000	1022.518555	23.694000
13268.714043	3884.293000	1021.360352	108.517166
13268.714043	3884.293000	1020.202148	-1.963884
13268.714043	3884.293000	1019.043945	106.861496
13268.714043	3884.293000	1017.884766	89.471939
13268.714043	3884.293000	1016.726563	-129.533737
13268.714043	3884.293000	1015.567383	-11.213763
13268.714043	3884.293000	1014.407227	-86.597763
13268.714043	3884.293000	1013.248047	3.683938
13268.714043	3884.293000	1012.087891	-45.303669
13268.714043	3884.293000	1010.927734	-135.320602
13268.714043	3884.293000	1009.767578	-58.398270
13268.714043	3884.293000	1008.606445	-124.665321
13268.714043	3884.293000	1007.446289	-97.032829
13268.714043	3884.293000	1006.285156	-54.204811
13268.714043	3884.293000	1005.123047	39.432724
13268.714043	3884.293000	1003.961914	0.252228
13268.714043	3884.293000	1002.799805	-72.560463
13268.714043	3884.293000	1001.637695	46.963566
13268.714043	3884.293000	1000.475586	44.926270
13268.714043	3884.293000	999.312500	154.762604
13268.714043	3884.293000	998.149414	72.848381
13268.714043	3884.293000	996.986328	-57.764233
13268.714043	3884.293000	995.823242	-19.420534
13268.714043	3884.293000	994.659180	-98.162781
13268.714043	3884.293000	993.496094	-152.291000
13268.714043	3884.293000	992.332031	-43.861340
13268.714043	3884.293000	991.166992	-110.371567
13268.714043	3884.293000	990.002930	-130.814285
13268.714043	3884.293000	988.837891	-3.288874
13268.714043	3884.293000	987.672852	-79.583153
13268.714043	3884.293000	986.506836	-79.973541
13268.714043	3884.293000	985.341797	-167.394684
13268.714043	3884.293000	984.175781	20.269552
13268.714043	3884.293000	983.009766	-109.207443
13268.714043	3884.293000	981.843750	-9.482439
13268.714043	3884.293000	980.676758	-206.544937
13268.714043	3884.293000	979.509766	-72.711235
13268.714043	3884.293000	978.342773	23.790133
13268.714043	3884.293000	977.175781	18.606106
13268.714043	3884.293000	976.007813	26.647430
13268.714043	3884.293000	974.839844	60.379227
13268.714043	3884.293000	973.671875	95.565643
13268.714043	3884.293000	972.503906	212.396606
13268.714043	3884.293000	971.334961	161.151855
13268.714043	3884.293000	970.166016	110.041801
13268.714043	3884.293000	968.997070	125.115265
13268.714043	3884.293000	967.828125	181.944992
13268.714043	3884.293000	966.658203	157.042023
13268.714043	3884.293000	965.488281	155.128662
13268.714043	3884.293000	964.318359	118.809372
13268.714043	3884.293000	963.148438	128.615417
13268.714043	3884.293000	961.977539	103.673943
13268.714043	3884.293000	960.806641	97.477371
13268.714043	3884.293000	959.635742	-16.738930
13268.714043	3884.293000	958.463867	54.062225
13268.714043	3884.293000	957.292969	183.405579
13268.714043	3884.293000	956.121094	108.699455
13268.714043	3884.293000	954.948242	267.458405
13268.714043	3884.293000	953.776367	38.517448
13268.714043	3884.293000	952.603516	73.532249
13268.714043	3884.293000	951.430664	19.381771
13268.714043	3884.293000	950.257813	-4.983295
13268.714043	3884.293000	949.084961	10.744685
13268.714043	3884.293000	947.911133	75.151451
13268.714043	3884.293000	946.737305	68.857773
13268.714043	3884.293000	945.563477	-47.869240
13268.714043	3884.293000	944.388672	29.029211
13268.714043	3884.293000	943.213867	8.980137
13268.714043	3884.293000	942.039063	151.846832
13268.714043	3884.293000	940.864258	87.967697
13268.714043	3884.293000	939.688477	103.172409
13268.714043	3884.293000	938.513672	-22.277977
13268.714043	3884.293000	937.337891	10.426745
13268.714043	3884.293000	936.161133	67.349014
13268.714043	3884.293000	934.985352	108.902863
13268.714043	3884.293000	933.808594	135.088287
13268.714043	3884.293000	932.631836	295.204590
13268.714043	3884.293000	931.454102	239.881119
13268.714043	3884.293000	930.277344	191.154144
13268.714043	3884.293000	929.099609	65.412132
13268.714043	3884.293000	927.921875	194.724030
13268.714043	3884.293000	926.743164	258.010071
13268.714043	3884.293000	925.565430	154.199799
13268.714043	3884.293000	924.386719	199.848465
13268.714043	3884.293000	923.208008	190.551987
13268.714043	3884.293000	922.028320	179.020493
13268.714043	3884.293000	920.849609	290.472778
13268.714043	3884.293000	919.669922	293.656830
13268.714043	3884.293000	919.474609	37.857494
13268.714043	3884.293000	918.309570	61.389332
13268.714043	3884.293000	917.143555	141.964478
13268.714043	3884.293000	915.977539	196.150085
13268.714043	3884.293000	914.810547	44.042908
13268.714043	3884.293000	913.644531	-22.470119
13268.714043	3884.293000	912.477539	93.069649
13268.714043	3884.293000	911.310547	96.707954
13268.714043	3884.293000	910.143555	139.788498
13268.714043	3884.293000	908.975586	134.613007
13268.714043	3884.293000	907.807617	206.123260
13268.714043	3884.293000	906.639648	124.213249
13268.714043	3884.293000	905.471680	202.233490
13268.714043	3884.293000	904.303711	223.261047
13268.714043	3884.293000	903.134766	305.577576
13268.714043	3884.293000	901.965820	385.655151
13268.714043	3884.293000	900.796875	487.572296
13268.714043	3884.293000	899.626953	550.044250
13268.714043	3884.293000	898.457031	496.515228
13268.714043	3884.293000	897.287109	532.680542
13268.714043	3884.293000	896.117188	387.292450
13268.714043	3884.293000	894.947266	530.579895
13268.714043	3884.293000	893.776367	496.719910
13268.714043	3884.293000	892.605469	432.260315
13268.714043	3884.293000	891.434570	276.034027
13268.714043	3884.293000	890.262695	272.798065
13268.714043	3884.293000	889.091797	254.258240
13268.714043	3884.293000	887.919922	172.383270
13268.714043	3884.293000	886.748047	243.372925
13268.714043	3884.293000	885.575195	-17.494337
13268.714043	3884.293000	884.403320	53.483421
13268.714043	3884.293000	883.230469	264.080994
13268.714043	3884.293000	882.057617	103.695450
13268.714043	3884.293000	880.883789	87.330254
13268.714043	3884.293000	879.710938	25.163012
13268.714043	3884.293000	878.537109	231.197418
13268.714043	3884.293000	877.362305	12.060249
13268.714043	3884.293000	876.188477	170.047760
13268.714043	3884.293000	875.013672	269.131866
13268.714043	3884.293000	873.839844	8.701650
13268.714043	3884.293000	872.664063	1.036745
13268.714043	3884.293000	871.489258	-21.877754
13268.714043	3884.293000	870.313477	83.668259
13268.714043	3884.293000	869.138672	-126.470787
13268.714043	3884.293000	867.962891	83.504539
13268.714043	3884.293000	866.786133	71.448975
13268.714043	3884.293000	865.610352	35.460609
13268.714043	3884.293000	864.433594	3.832972
13268.714043	3884.293000	863.256836	-16.913828
13268.714043	3884.293000	862.079102	-50.700317
13268.714043	3884.293000	860.902344	-10.575356
13268.714043	3884.293000	859.724609	3.452261
13268.714043	3884.293000	858.546875	-28.158878
13268.714043	3884.293000	857.368164	-40.208736
13268.714043	3884.293000	856.190430	-43.571857
13268.714043	3884.293000	855.011719	74.664795
13268.714043	3884.293000	853.833008	-128.457214
13268.714043	3884.293000	852.654297	78.733223
13268.714043	3884.293000	851.474609	-159.032181
13268.714043	3884.293000	850.294922	39.396542
13268.714043	3884.293000	849.115234	-157.055145
13268.714043	3884.293000	847.935547	-99.683456
13268.714043	3884.293000	846.754883	57.405872
13268.714043	3884.293000	845.575195	-162.782776
13268.714043	3884.293000	844.393555	52.772938
13268.714043	3884.293000	843.212891	-22.139484
13268.714043	3884.293000	842.032227	-131.687820
13268.714043	3884.293000	840.850586	75.057343
13268.714043	3884.293000	839.668945	75.979813
13268.714043	3884.293000	838.486328	148.353683
13268.714043	3884.293000	837.304688	99.467979
13268.714043	3884.293000	836.122070	135.010422
13268.714043	3884.293000	834.939453	276.565491
13268.714043	3884.293000	833.756836	123.836899
13268.714043	3884.293000	832.573242	133.394089
13268.714043	3884.293000	831.389648	106.183334
13268.714043	3884.293000	830.206055	-7.500855
13268.714043	3884.293000	829.022461	95.023682
13268.714043	3884.293000	827.838867	44.060688
13268.714043	3884.293000	826.654297	49.298244
13268.714043	3884.293000	825.469727	-10.275897
13268.714043	3884.293000	824.284180	-59.025921
13268.714043	3884.293000	823.099609	160.007538
13268.714043	3884.293000	821.914063	74.537964
13268.714043	3884.293000	820.728516	99.186874
13268.714043	3884.293000	819.542969	33.185219
13268.714043	3884.293000	818.356445	-4.739445
13268.714043	3884.293000	817.169922	-223.852341
13268.714043	3884.293000	815.983398	25.134594
13268.714043	3884.293000	814.796875	8.794540
13268.714043	3884.293000	813.609375	115.344284
13268.714043	3884.293000	812.422852	32.171871
13268.714043	3884.293000	811.235352	-178.107941
13268.714043	3884.293000	810.046875	68.454460
13268.714043	3884.293000	808.859375	-81.435509
13268.714043	3884.293000	807.670898	48.706509
13268.714043	3884.293000	806.482422	-55.902832
13268.714043	3884.293000	805.293945	-82.972618
13268.714043	3884.293000	804.104492	-45.462902
13268.714043	3884.293000	802.915039	4.940133
13268.714043	3884.293000	801.725586	14.442897
13268.714043	3884.293000	800.536133	-133.079254
13268.714043	3884.293000	799.345703	-114.952629
13268.714043	3884.293000	798.155273	-105.436676
13268.714043	3884.293000	796.964844	-106.675591
13268.714043	3884.293000	795.774414	-153.049911
13268.714043	3884.293000	794.583008	-100.564697
13268.714043	3884.293000	793.392578	-54.552170
13268.714043	3884.293000	792.200195	251.329285
13268.714043	3884.293000	791.008789	198.464722
13268.714043	3884.293000	789.816406	192.852951
13268.714043	3884.293000	788.625000	-46.731308
13268.714043	3884.293000	787.432617	179.474380
13268.714043	3884.293000	786.239258	68.723213
13268.714043	3884.293000	785.046875	-61.295067
13268.714043	3884.293000	783.853516	-111.908875
13268.714043	3884.293000	782.660156	-132.487076
13268.714043	3884.293000	781.465820	-30.862484
13268.714043	3884.293000	780.272461	-36.456673
13268.714043	3884.293000	779.078125	17.948757
13268.714043	3884.293000	777.883789	57.327698
13268.714043	3884.293000	776.688477	90.259392
13268.714043	3884.293000	775.494141	91.043976
13268.714043	3884.293000	774.298828	81.117058
13268.714043	3884.293000	773.103516	227.458389
13268.714043	3884.293000	771.907227	245.317078
13268.714043	3884.293000	770.711914	4.239372
13268.714043	3884.293000	769.515625	-61.316238
13268.714043	3884.293000	768.318359	3.623529
13268.714043	3884.293000	767.122070	19.339327
13268.714043	3884.293000	765.924805	41.455585
13268.714043	3884.293000	764.727539	-24.089443
13268.714043	3884.293000	763.530273	15.102817
13268.714043	3884.293000	762.333008	150.420197
13268.714043	3884.293000	761.134766	-13.405399
13268.714043	3884.293000	759.936523	49.222977
13268.714043	3884.293000	758.738281	269.830841
13268.714043	3884.293000	757.540039	317.405609
13268.714043	3884.293000	756.340820	356.411530
13268.714043	3884.293000	755.141602	418.862091
13268.714043	3884.293000	753.942383	415.132385
13268.714043	3884.293000	752.742188	447.655365
13268.714043	3884.293000	751.541992	335.126190
13268.714043	3884.293000	750.341797	201.306641
13268.714043	3884.293000	749.141602	314.818848
13268.714043	3884.293000	747.941406	176.765976
13268.714043	3884.293000	746.740234	503.299103
13268.714043	3884.293000	745.539063	529.281372
13268.714043	3884.293000	744.337891	806.580566
13268.714043	3884.293000	743.135742	681.254456
13268.714043	3884.293000	741.933594	1043.538818
13268.714043	3884.293000	740.731445	903.278870
13268.714043	3884.293000	739.529297	1067.400513
13268.714043	3884.293000	738.326172	873.962341
13268.714043	3884.293000	737.124023	874.174744
13268.714043	3884.293000	735.919922	880.750854
13268.714043	3884.293000	734.716797	855.404907
13268.714043	3884.293000	733.513672	1308.407837
13268.714043	3884.293000	732.309570	1257.435181
13268.714043	3884.293000	731.105469	1244.714844
13268.714043	3884.293000	729.900391	923.895203
13268.714043	3884.293000	728.696289	802.866577
13268.714043	3884.293000	727.491211	503.465240
13268.714043	3884.293000	726.286133	546.029175
13268.714043	3884.293000	725.080078	529.110535
13268.714043	3884.293000	723.874023	263.842682
13268.714043	3884.293000	722.668945	363.650635
13268.714043	3884.293000	721.461914	338.218964
13268.714043	3884.293000	720.255859	359.436340
13268.714043	3884.293000	719.048828	408.188141
13268.714043	3884.293000	717.841797	365.720642
13268.714043	3884.293000	716.634766	323.243317
13268.714043	3884.293000	715.427734	217.173660
13268.714043	3884.293000	714.219727	170.451309
13268.714043	3884.293000	713.011719	263.539429
13268.714043	3884.293000	711.803711	134.164093
13268.714043	3884.293000	710.594727	178.456757
13268.714043	3884.293000	709.385742	55.444637
13268.714043	3884.293000	708.176758	112.373337
13268.714043	3884.293000	706.967773	207.339539
13268.714043	3884.293000	705.758789	96.997551
13268.714043	3884.293000	704.548828	162.247253
13268.714043	3884.293000	703.338867	214.746857
13268.714043	3884.293000	702.127930	241.817078
13268.714043	3884.293000	700.917969	273.068909
13268.714043	3884.293000	699.707031	84.458214
13268.714043	3884.293000	698.496094	360.787842
13268.714043	3884.293000	697.285156	569.358093
13268.714043	3884.293000	696.073242	613.047729
13268.714043	3884.293000	694.861328	696.806580
13268.714043	3884.293000	693.649414	776.270447
13268.714043	3884.293000	692.436523	541.132385
13268.714043	3884.293000	691.224609	607.855896
13268.714043	3884.293000	690.011719	381.215332
13268.714043	3884.293000	688.798828	384.578705
13268.714043	3884.293000	687.584961	396.337646
13268.714043	3884.293000	686.372070	365.876892
13268.714043	3884.293000	685.158203	529.350403
13268.714043	3884.293000	683.943359	380.754120
13268.714043	3884.293000	682.729492	360.729889
13268.714043	3884.293000	681.514648	378.596924
13268.714043	3884.293000	680.299805	482.781128
13268.714043	3884.293000	679.084961	412.074585
13268.714043	3884.293000	677.869141	368.728088
13268.714043	3884.293000	676.653320	407.457764
13268.714043	3884.293000	675.437500	416.660645
13268.714043	3884.293000	674.221680	392.145905
13268.714043	3884.293000	673.004883	367.596375
13268.714043	3884.293000	671.789063	538.628662
13268.714043	3884.293000	670.571289	619.115601
13268.714043	3884.293000	669.354492	560.755310
13268.714043	3884.293000	668.136719	456.127686
13268.714043	3884.293000	666.919922	387.224457
13268.714043	3884.293000	665.701172	257.367889
13268.714043	3884.293000	664.483398	465.739014
13268.714043	3884.293000	663.264648	226.608719
13268.714043	3884.293000	662.045898	382.304443
13268.714043	3884.293000	660.827148	439.213043
13268.714043	3884.293000	659.608398	479.256622
13268.714043	3884.293000	658.388672	227.537109
13268.714043	3884.293000	657.168945	286.390839
13268.714043	3884.293000	655.949219	372.439178
13268.714043	3884.293000	654.728516	359.831299
13268.714043	3884.293000	653.507813	305.242584
13268.714043	3884.293000	652.287109	481.220642
13268.714043	3884.293000	651.066406	340.595856
13268.714043	3884.293000	649.844727	258.650024
13268.714043	3884.293000	648.623047	499.315155
13268.714043	3884.293000	647.401367	473.819061
13268.714043	3884.293000	646.179688	410.587341
13268.714043	3884.293000	644.957031	437.356293
13268.714043	3884.293000	643.734375	449.408234
13268.714043	3884.293000	642.511719	563.948059
13268.714043	3884.293000	641.289063	490.076172
13268.714043	3884.293000	640.065430	593.991272
13268.714043	3884.293000	638.841797	474.024597
13268.714043	3884.293000	637.618164	571.518372
13268.714043	3884.293000	636.393555	503.762360
13268.714043	3884.293000	635.168945	634.541199
13268.714043	3884.293000	633.944336	472.656616
13268.714043	3884.293000	632.719727	421.515228
13268.714043	3884.293000	631.494141	399.582581
13268.714043	3884.293000	630.269531	396.401550
13268.714043	3884.293000	629.042969	397.340393
13268.714043	3884.293000	627.817383	335.601135
13268.714043	3884.293000	626.590820	374.009277
13268.714043	3884.293000	625.365234	289.239929
13268.714043	3884.293000	624.137695	271.204803
13268.714043	3884.293000	622.911133	415.808197
13268.714043	3884.293000	621.683594	366.365997
13268.714043	3884.293000	620.456055	173.037949
13268.714043	3884.293000	619.228516	284.054657
13268.714043	3884.293000	618.000977	305.361511
13268.714043	3884.293000	616.772461	199.510117
13268.714043	3884.293000	615.543945	308.202454
13268.714043	3884.293000	614.314453	260.598022
13268.714043	3884.293000	613.085938	258.768402
13268.714043	3884.293000	611.856445	231.903015
13268.714043	3884.293000	610.626953	209.158157
13268.714043	3884.293000	609.397461	267.521332
13268.714043	3884.293000	608.166992	198.900436
13268.714043	3884.293000	606.936523	17.938753
13268.714043	3884.293000	605.706055	57.427578
13268.714043	3884.293000	604.474609	103.082306
13268.714043	3884.293000	603.244141	55.128716
13268.714043	3884.293000	602.012695	13.376224
13268.714043	3884.293000	600.780273	158.582352
13268.714043	3884.293000	599.548828	-26.611280
13268.714043	3884.293000	598.316406	101.823769
13268.714043	3884.293000	597.083984	80.651894
13268.714043	3884.293000	595.851563	11.690869
13268.714043	3884.293000	594.618164	46.483063
13268.714043	3884.293000	593.384766	60.459042
13268.714043	3884.293000	592.151367	103.424423
13268.714043	3884.293000	590.917969	169.138962
13268.714043	3884.293000	589.683594	73.020897
13268.714043	3884.293000	588.449219	258.866272
13268.714043	3884.293000	587.214844	175.111130
13268.714043	3884.293000	585.979492	296.512543
13268.714043	3884.293000	584.745117	194.042847
13268.714043	3884.293000	583.509766	151.643341
13268.714043	3884.293000	582.273438	287.327698
13268.714043	3884.293000	581.038086	325.591431
13268.714043	3884.293000	579.801758	274.771240
13268.714043	3884.293000	578.565430	230.138184
13268.714043	3884.293000	577.329102	286.878448
13268.714043	3884.293000	576.091797	304.239716
13268.714043	3884.293000	574.854492	253.291992
13268.714043	3884.293000	573.617188	322.269867
13268.714043	3884.293000	572.378906	112.051865
13268.714043	3884.293000	571.141602	195.419266
13268.714043	3884.293000	569.903320	396.510651
13268.714043	3884.293000	568.664063	347.457550
13268.714043	3884.293000	567.425781	360.365234
13268.714043	3884.293000	566.186523	358.769623
13268.714043	3884.293000	564.947266	421.151276
13268.714043	3884.293000	563.708008	576.372375
13268.714043	3884.293000	562.467773	335.192596
13268.714043	3884.293000	561.227539	360.287048
13268.714043	3884.293000	559.987305	232.663391
13268.714043	3884.293000	558.747070	270.080383
13268.714043	3884.293000	557.505859	181.647278
13268.714043	3884.293000	556.264648	229.302994
13268.714043	3884.293000	555.023438	192.392181
13268.714043	3884.293000	553.781250	206.988510
13268.714043	3884.293000	552.539063	221.551468
13268.714043	3884.293000	551.296875	112.477028
13268.714043	3884.293000	550.054688	186.731049
13268.714043	3884.293000	548.811523	223.859818
13268.714043	3884.293000	547.569336	242.424164
13268.714043	3884.293000	546.325195	160.092667
13268.714043	3884.293000	545.082031	139.515213
13268.714043	3884.293000	543.837891	129.209656
13268.714043	3884.293000	542.593750	26.324158
13268.714043	3884.293000	541.349609	196.985794
13268.714043	3884.293000	540.105469	-29.272594
13268.714043	3884.293000	538.860352	-56.053680
13268.714043	3884.293000	537.615234	139.126785
13268.714043	3884.293000	536.369141	-259.629272
13268.714043	3884.293000	535.124023	-245.298737
13268.714043	3884.293000	533.877930	13.425671
13268.714043	3884.293000	532.631836	11.237225
13268.714043	3884.293000	531.384766	54.203697
13268.714043	3884.293000	530.138672	-19.850445
13268.714043	3884.293000	528.891602	-15.902138
13268.714043	3884.293000	527.643555	-44.792507
13268.714043	3884.293000	526.396484	69.916718
13268.714043	3884.293000	525.148438	47.164135
13268.714043	3884.293000	523.900391	174.097702
13268.714043	3884.293000	522.652344	-80.315590
13268.714043	3884.293000	521.403320	-39.494259
13268.714043	3884.293000	520.154297	-29.425106
13268.714043	3884.293000	518.905273	-183.248535
13268.714043	3884.293000	517.656250	74.683594
13268.714043	3884.293000	516.406250	-72.948074
13268.714043	3884.293000	515.156250	-17.827154
13268.714043	3884.293000	513.906250	-161.268845
13268.714043	3884.293000	512.655273	2.319569
13268.714043	3884.293000	511.404297	-42.843166
13268.714043	3884.293000	510.153320	-24.564472
13268.714043	3884.293000	508.902344	-49.228432
13268.714043	3884.293000	507.650391	-39.113865
13268.714043	3884.293000	506.398438	22.117035
13268.714043	3884.293000	505.146484	-55.641029
13268.714043	3884.293000	503.893555	-59.792339
13268.714043	3884.293000	502.641602	-125.208015
13268.714043	3884.293000	501.388672	111.706047
13268.714043	3884.293000	500.134766	36.102844
13268.714043	3884.293000	498.881836	-41.484562
13268.714043	3884.293000	497.627930	-116.979111
13268.714043	3884.293000	496.374023	-161.806885
13268.714043	3884.293000	495.119141	91.285583
13268.714043	3884.293000	493.865234	-57.550232
13268.714043	3884.293000	492.610352	28.232065
13268.714043	3884.293000	491.355469	-30.761538
13268.714043	3884.293000	490.099609	81.531029
13268.714043	3884.293000	488.843750	201.956390
13268.714043	3884.293000	487.587891	249.005676
13268.714043	3884.293000	486.332031	336.809204
13268.714043	3884.293000	485.075195	440.898254
13268.714043	3884.293000	483.818359	284.325287
13268.714043	3884.293000	482.561523	266.293762
13268.714043	3884.293000	481.304688	61.043709
13268.714043	3884.293000	480.046875	212.040497
13268.714043	3884.293000	478.789063	149.378342
13268.714043	3884.293000	477.531250	19.653608
13268.714043	3884.293000	476.272461	193.039185
13268.714043	3884.293000	475.013672	49.200371
13268.714043	3884.293000	473.754883	96.546890
13268.714043	3884.293000	472.496094	103.264786
13268.714043	3884.293000	471.236328	97.824257
13268.714043	3884.293000	469.976563	-55.873371
13268.714043	3884.293000	468.716797	56.605370
13268.714043	3884.293000	467.456055	89.879059
13268.714043	3884.293000	466.196289	27.763182
13268.714043	3884.293000	464.935547	-38.346783
13268.714043	3884.293000	463.673828	-47.568752
13268.714043	3884.293000	462.413086	168.462173
13268.714043	3884.293000	461.151367	-55.731537
13268.714043	3884.293000	459.889648	-26.286869
13268.714043	3884.293000	458.626953	80.230995
13268.714043	3884.293000	457.364258	-80.835648
13268.714043	3884.293000	456.101563	-97.897194
13268.714043	3884.293000	454.838867	-60.201534
13268.714043	3884.293000	453.575195	-131.877960
13268.714043	3884.293000	452.312500	15.259101
13268.714043	3884.293000	451.047852	40.871319
13268.714043	3884.293000	449.784180	-59.004448
13268.714043	3884.293000	448.519531	207.552628
13268.714043	3884.293000	447.254883	75.379539
13268.714043	3884.293000	445.990234	121.339668
13268.714043	3884.293000	444.725586	167.315811
13268.714043	3884.293000	443.459961	71.743134
13268.714043	3884.293000	442.194336	95.535805
13268.714043	3884.293000	440.927734	220.418915
13268.714043	3884.293000	439.662109	284.651703
13268.714043	3884.293000	438.395508	314.534576
13268.714043	3884.293000	437.127930	429.274994
13268.714043	3884.293000	435.861328	352.123901
13268.714043	3884.293000	434.593750	581.953247
13268.714043	3884.293000	433.326172	555.317932
13268.714043	3884.293000	432.058594	752.752380
13268.714043	3884.293000	430.790039	655.500427
13268.714043	3884.293000	429.521484	691.460327
13268.714043	3884.293000	428.252930	715.315002
13268.714043	3884.293000	426.984375	708.921265
13268.714043	3884.293000	425.714844	724.713928
13268.714043	3884.293000	424.445313	724.379517
13268.714043	3884.293000	423.174805	615.217773
13268.714043	3884.293000	421.905273	546.402161
13268.714043	3884.293000	420.634766	431.277069
13268.714043	3884.293000	419.364258	509.538177
13268.714043	3884.293000	418.092773	325.988983
13268.714043	3884.293000	416.822266	313.621216
13268.714043	3884.293000	415.550781	93.929901
13268.714043	3884.293000	414.278320	39.313133
13268.714043	3884.293000	413.006836	155.698303
13268.714043	3884.293000	411.734375	88.962570
13268.714043	3884.293000	410.461914	106.678413
13268.714043	3884.293000	409.188477	-74.698326
13268.714043	3884.293000	407.916016	87.680099
13268.714043	3884.293000	406.642578	-57.541138
13268.714043	3884.293000	405.368164	76.519043
13268.714043	3884.293000	404.094727	-4.479011
13268.714043	3884.293000	402.820313	28.960062
13268.714043	3884.293000	401.545898	34.198071
13268.714043	3884.293000	400.270508	-103.180588
13268.714043	3884.293000	398.996094	130.711029
13268.714043	3884.293000	397.720703	-0.795670
13268.714043	3884.293000	396.444336	76.287590
13268.714043	3884.293000	395.168945	62.971977
13268.714043	3884.293000	393.892578	-30.670120
13268.714043	3884.293000	392.616211	58.041702
13268.714043	3884.293000	391.339844	184.663803
13268.714043	3884.293000	390.062500	-29.589790
13268.714043	3884.293000	388.785156	-95.641716
13268.714043	3884.293000	387.507813	118.607498
13268.714043	3884.293000	386.229492	180.387787
13268.714043	3884.293000	384.951172	243.962479
13268.714043	3884.293000	383.672852	69.106979
13268.714043	3884.293000	382.394531	242.362457
13268.714043	3884.293000	381.115234	127.195343
13268.714043	3884.293000	379.835938	125.884415
13268.714043	3884.293000	378.556641	182.342010
13268.714043	3884.293000	377.277344	304.518188
13268.714043	3884.293000	375.997070	210.468216
13268.714043	3884.293000	374.716797	348.044922
13268.714043	3884.293000	373.435547	253.471817
13268.714043	3884.293000	372.155273	438.353607
13268.714043	3884.293000	370.874023	331.215149
13268.714043	3884.293000	369.591797	525.344055
13268.714043	3884.293000	368.310547	437.542084
13268.714043	3884.293000	367.028320	475.180115
13268.714043	3884.293000	365.746094	438.595398
13268.714043	3884.293000	364.463867	421.599091
13268.714043	3884.293000	363.180664	350.347107
13268.714043	3884.293000	361.897461	296.663544
13268.714043	3884.293000	360.614258	206.684540
13268.714043	3884.293000	359.330078	251.850861
13268.714043	3884.293000	358.045898	83.272842
13268.714043	3884.293000	356.761719	103.590706
13268.714043	3884.293000	355.477539	145.315323
13268.714043	3884.293000	354.192383	128.732330
13268.714043	3884.293000	352.907227	-43.706047
13268.714043	3884.293000	351.622070	-69.298462
13268.714043	3884.293000	350.336914	55.820541
13268.714043	3884.293000	349.050781	-42.609993
13268.714043	3884.293000	347.764648	-60.042492
13268.714043	3884.293000	346.477539	-44.305332
13268.714043	3884.293000	345.191406	-104.798393
13268.714043	3884.293000	343.904297	18.949232
13268.714043	3884.293000	342.616211	143.907227
13268.714043	3884.293000	341.329102	-0.216392
13268.714043	3884.293000	340.041016	202.678741
13268.714043	3884.293000	338.752930	251.733643
13268.714043	3884.293000	337.463867	186.729858
13268.714043	3884.293000	336.175781	55.407555
13268.714043	3884.293000	334.886719	60.245762
13268.714043	3884.293000	333.596680	-23.160389
13268.714043	3884.293000	332.307617	47.354187
13268.714043	3884.293000	331.017578	73.222603
13268.714043	3884.293000	329.727539	135.790054
13268.714043	3884.293000	328.436523	-92.235535
13268.714043	3884.293000	327.146484	-79.290375
13268.714043	3884.293000	325.855469	-65.461609
13268.714043	3884.293000	324.563477	64.162209
13268.714043	3884.293000	323.272461	162.895691
13268.714043	3884.293000	321.980469	-9.018440
13268.714043	3884.293000	320.688477	-166.217758
13268.714043	3884.293000	319.395508	-21.661486
13268.714043	3884.293000	318.103516	-36.788586
13268.714043	3884.293000	316.810547	150.609055
13268.714043	3884.293000	315.516602	-100.767822
13268.714043	3884.293000	314.223633	-34.878052
13268.714043	3884.293000	312.929688	3.810144
13268.714043	3884.293000	311.635742	139.888931
13268.714043	3884.293000	310.340820	41.069935
13268.714043	3884.293000	309.045898	134.452606
13268.714043	3884.293000	307.750977	-20.824741
13268.714043	3884.293000	306.456055	31.760159
13268.714043	3884.293000	305.160156	-12.215286
13268.714043	3884.293000	303.865234	187.030243
13268.714043	3884.293000	302.568359	-24.383043
13268.714043	3884.293000	301.272461	17.168076
13268.714043	3884.293000	299.975586	234.413162
13268.714043	3884.293000	298.678711	222.728790
