#X		#Y		#Wave		#Intensity
12472.851702	3942.181000	1999.980469	-87.709465
12472.851702	3942.181000	1999.016602	91.579445
12472.851702	3942.181000	1998.052734	-53.352333
12472.851702	3942.181000	1997.087891	-101.845856
12472.851702	3942.181000	1996.123047	-91.117424
12472.851702	3942.181000	1995.158203	53.124138
12472.851702	3942.181000	1994.193359	-102.618217
12472.851702	3942.181000	1993.228516	-60.436436
12472.851702	3942.181000	1992.262695	-11.069084
12472.851702	3942.181000	1991.297852	-93.139908
12472.851702	3942.181000	1990.332031	-91.245399
12472.851702	3942.181000	1989.366211	-49.967350
12472.851702	3942.181000	1988.399414	117.269684
12472.851702	3942.181000	1987.433594	-10.104170
12472.851702	3942.181000	1986.466797	-73.316521
12472.851702	3942.181000	1985.500977	-8.112524
12472.851702	3942.181000	1984.534180	-27.160282
12472.851702	3942.181000	1983.567383	-31.540224
12472.851702	3942.181000	1982.599609	0.988192
12472.851702	3942.181000	1981.632813	132.176773
12472.851702	3942.181000	1980.665039	3.782314
12472.851702	3942.181000	1979.697266	-38.266666
12472.851702	3942.181000	1978.729492	57.846958
12472.851702	3942.181000	1977.761719	74.782967
12472.851702	3942.181000	1976.792969	27.402346
12472.851702	3942.181000	1975.825195	-101.531357
12472.851702	3942.181000	1974.856445	-20.793091
12472.851702	3942.181000	1973.887695	37.596584
12472.851702	3942.181000	1972.918945	147.653290
12472.851702	3942.181000	1971.949219	99.727081
12472.851702	3942.181000	1970.980469	29.525455
12472.851702	3942.181000	1970.010742	57.865520
12472.851702	3942.181000	1969.041016	91.031403
12472.851702	3942.181000	1968.071289	131.491272
12472.851702	3942.181000	1967.101563	154.603851
12472.851702	3942.181000	1966.130859	-21.911898
12472.851702	3942.181000	1965.161133	-80.214249
12472.851702	3942.181000	1964.190430	184.024918
12472.851702	3942.181000	1963.219727	147.724396
12472.851702	3942.181000	1962.249023	170.451340
12472.851702	3942.181000	1961.277344	109.428780
12472.851702	3942.181000	1960.306641	16.382397
12472.851702	3942.181000	1959.334961	134.896011
12472.851702	3942.181000	1958.363281	122.946854
12472.851702	3942.181000	1957.391602	120.790070
12472.851702	3942.181000	1956.419922	106.295967
12472.851702	3942.181000	1955.447266	30.303892
12472.851702	3942.181000	1954.474609	3.459861
12472.851702	3942.181000	1953.501953	30.654408
12472.851702	3942.181000	1952.529297	30.777985
12472.851702	3942.181000	1951.556641	-74.762444
12472.851702	3942.181000	1950.583984	80.058167
12472.851702	3942.181000	1949.610352	89.909531
12472.851702	3942.181000	1948.636719	190.576019
12472.851702	3942.181000	1947.663086	207.723053
12472.851702	3942.181000	1946.689453	200.301147
12472.851702	3942.181000	1945.715820	136.427689
12472.851702	3942.181000	1944.741211	197.684036
12472.851702	3942.181000	1943.767578	229.471344
12472.851702	3942.181000	1942.792969	25.797670
12472.851702	3942.181000	1941.818359	8.543666
12472.851702	3942.181000	1940.842773	143.286438
12472.851702	3942.181000	1939.868164	67.178864
12472.851702	3942.181000	1938.892578	8.249193
12472.851702	3942.181000	1937.916992	199.259644
12472.851702	3942.181000	1936.941406	-58.103672
12472.851702	3942.181000	1935.965820	-70.442825
12472.851702	3942.181000	1934.990234	-183.176331
12472.851702	3942.181000	1934.013672	-117.133835
12472.851702	3942.181000	1933.037109	-117.204765
12472.851702	3942.181000	1932.060547	54.052486
12472.851702	3942.181000	1931.083984	-198.077728
12472.851702	3942.181000	1930.107422	2.505284
12472.851702	3942.181000	1929.129883	85.609329
12472.851702	3942.181000	1928.153320	-29.403593
12472.851702	3942.181000	1927.175781	-49.000038
12472.851702	3942.181000	1926.198242	-124.806267
12472.851702	3942.181000	1925.219727	-154.130844
12472.851702	3942.181000	1924.242188	31.626186
12472.851702	3942.181000	1923.263672	-24.565327
12472.851702	3942.181000	1922.285156	-158.894409
12472.851702	3942.181000	1921.306641	-195.459091
12472.851702	3942.181000	1920.328125	4.878839
12472.851702	3942.181000	1919.349609	58.665764
12472.851702	3942.181000	1918.370117	-51.102451
12472.851702	3942.181000	1917.391602	-109.557869
12472.851702	3942.181000	1916.412109	93.122772
12472.851702	3942.181000	1915.431641	-6.778938
12472.851702	3942.181000	1914.452148	-33.447063
12472.851702	3942.181000	1913.472656	-106.423042
12472.851702	3942.181000	1912.492188	-25.737524
12472.851702	3942.181000	1911.511719	6.178550
12472.851702	3942.181000	1910.531250	86.849670
12472.851702	3942.181000	1909.550781	18.854988
12472.851702	3942.181000	1908.569336	-129.501282
12472.851702	3942.181000	1907.588867	-43.920391
12472.851702	3942.181000	1906.607422	-77.697250
12472.851702	3942.181000	1905.625977	-160.146957
12472.851702	3942.181000	1904.644531	-50.204220
12472.851702	3942.181000	1903.662109	-200.749481
12472.851702	3942.181000	1902.680664	-244.132782
12472.851702	3942.181000	1901.698242	31.285513
12472.851702	3942.181000	1900.715820	-158.062866
12472.851702	3942.181000	1899.733398	-186.781754
12472.851702	3942.181000	1898.750000	-35.506535
12472.851702	3942.181000	1897.767578	74.392845
12472.851702	3942.181000	1896.784180	23.816822
12472.851702	3942.181000	1895.800781	-89.920326
12472.851702	3942.181000	1894.817383	158.495392
12472.851702	3942.181000	1893.833984	81.251945
12472.851702	3942.181000	1892.850586	42.920109
12472.851702	3942.181000	1891.866211	-2.670755
12472.851702	3942.181000	1890.881836	-28.803257
12472.851702	3942.181000	1889.897461	-181.163544
12472.851702	3942.181000	1888.913086	33.087608
12472.851702	3942.181000	1887.927734	181.742401
12472.851702	3942.181000	1886.943359	187.187119
12472.851702	3942.181000	1885.958008	-171.270554
12472.851702	3942.181000	1884.972656	-51.738625
12472.851702	3942.181000	1883.987305	-26.823313
12472.851702	3942.181000	1883.001953	-144.966782
12472.851702	3942.181000	1882.015625	18.154371
12472.851702	3942.181000	1881.029297	103.658546
12472.851702	3942.181000	1880.042969	-7.153296
12472.851702	3942.181000	1879.056641	-91.267349
12472.851702	3942.181000	1878.070313	-78.449097
12472.851702	3942.181000	1877.083984	-43.833199
12472.851702	3942.181000	1876.096680	237.766937
12472.851702	3942.181000	1875.109375	100.416855
12472.851702	3942.181000	1874.122070	55.102959
12472.851702	3942.181000	1873.134766	-70.060448
12472.851702	3942.181000	1872.146484	-161.301865
12472.851702	3942.181000	1871.159180	-54.131954
12472.851702	3942.181000	1870.170898	84.438492
12472.851702	3942.181000	1869.182617	56.087254
12472.851702	3942.181000	1868.194336	90.606300
12472.851702	3942.181000	1867.205078	-3.019087
12472.851702	3942.181000	1866.216797	82.241440
12472.851702	3942.181000	1865.227539	94.964874
12472.851702	3942.181000	1864.238281	110.091652
12472.851702	3942.181000	1863.249023	35.822876
12472.851702	3942.181000	1862.259766	-74.656937
12472.851702	3942.181000	1861.269531	82.926430
12472.851702	3942.181000	1860.279297	93.167725
12472.851702	3942.181000	1859.290039	88.906822
12472.851702	3942.181000	1858.298828	94.284828
12472.851702	3942.181000	1857.308594	-98.214554
12472.851702	3942.181000	1856.318359	25.373283
12472.851702	3942.181000	1855.327148	158.543137
12472.851702	3942.181000	1854.335938	-50.797714
12472.851702	3942.181000	1853.344727	-21.381811
12472.851702	3942.181000	1852.353516	126.121780
12472.851702	3942.181000	1851.362305	-13.266557
12472.851702	3942.181000	1850.370117	206.425385
12472.851702	3942.181000	1849.377930	146.529770
12472.851702	3942.181000	1848.385742	36.045498
12472.851702	3942.181000	1847.393555	-132.226791
12472.851702	3942.181000	1846.401367	-107.830208
12472.851702	3942.181000	1845.408203	229.498337
12472.851702	3942.181000	1844.415039	80.450508
12472.851702	3942.181000	1843.421875	46.940228
12472.851702	3942.181000	1842.428711	-157.424240
12472.851702	3942.181000	1841.435547	30.376480
12472.851702	3942.181000	1840.441406	88.188332
12472.851702	3942.181000	1839.448242	109.870789
12472.851702	3942.181000	1838.454102	148.336487
12472.851702	3942.181000	1837.459961	-17.579100
12472.851702	3942.181000	1836.464844	-181.070251
12472.851702	3942.181000	1835.470703	15.901530
12472.851702	3942.181000	1834.475586	-77.945740
12472.851702	3942.181000	1833.480469	118.845627
12472.851702	3942.181000	1832.485352	185.831177
12472.851702	3942.181000	1831.490234	156.700256
12472.851702	3942.181000	1830.495117	98.725220
12472.851702	3942.181000	1829.499023	-180.099030
12472.851702	3942.181000	1828.502930	-5.308697
12472.851702	3942.181000	1827.506836	147.770920
12472.851702	3942.181000	1826.510742	137.617279
12472.851702	3942.181000	1825.513672	125.015160
12472.851702	3942.181000	1824.517578	-9.931449
12472.851702	3942.181000	1823.520508	162.000366
12472.851702	3942.181000	1822.523438	46.162399
12472.851702	3942.181000	1821.526367	52.538002
12472.851702	3942.181000	1820.529297	22.911308
12472.851702	3942.181000	1819.531250	62.710361
12472.851702	3942.181000	1818.533203	-53.257717
12472.851702	3942.181000	1817.535156	91.791229
12472.851702	3942.181000	1816.537109	128.976334
12472.851702	3942.181000	1815.539063	20.056358
12472.851702	3942.181000	1814.540039	246.194458
12472.851702	3942.181000	1813.541992	19.906105
12472.851702	3942.181000	1812.542969	171.658157
12472.851702	3942.181000	1811.543945	5.137095
12472.851702	3942.181000	1810.543945	56.247066
12472.851702	3942.181000	1809.544922	88.141785
12472.851702	3942.181000	1808.544922	12.367704
12472.851702	3942.181000	1807.544922	15.430953
12472.851702	3942.181000	1806.544922	18.421455
12472.851702	3942.181000	1805.544922	-19.282766
12472.851702	3942.181000	1804.544922	64.789085
12472.851702	3942.181000	1803.543945	129.643265
12472.851702	3942.181000	1802.542969	53.504082
12472.851702	3942.181000	1801.541992	-60.885174
12472.851702	3942.181000	1800.541016	18.048891
12472.851702	3942.181000	1799.539063	25.270275
12472.851702	3942.181000	1798.538086	61.047668
12472.851702	3942.181000	1797.536133	-196.721405
12472.851702	3942.181000	1796.534180	-15.574821
12472.851702	3942.181000	1795.532227	17.557936
12472.851702	3942.181000	1794.529297	69.668861
12472.851702	3942.181000	1793.527344	26.320440
12472.851702	3942.181000	1792.524414	-71.920593
12472.851702	3942.181000	1791.521484	53.797977
12472.851702	3942.181000	1790.518555	53.105331
12472.851702	3942.181000	1789.514648	269.099548
12472.851702	3942.181000	1788.511719	172.923126
12472.851702	3942.181000	1787.507813	157.653732
12472.851702	3942.181000	1786.503906	37.545441
12472.851702	3942.181000	1785.500000	98.300720
12472.851702	3942.181000	1784.496094	-200.422852
12472.851702	3942.181000	1783.491211	107.631577
12472.851702	3942.181000	1782.486328	-29.395807
12472.851702	3942.181000	1781.481445	33.334259
12472.851702	3942.181000	1780.476563	162.535065
12472.851702	3942.181000	1779.471680	72.848618
12472.851702	3942.181000	1778.465820	-76.331886
12472.851702	3942.181000	1777.460938	9.751361
12472.851702	3942.181000	1776.455078	216.893021
12472.851702	3942.181000	1775.449219	15.214495
12472.851702	3942.181000	1774.442383	-86.722404
12472.851702	3942.181000	1773.436523	122.404388
12472.851702	3942.181000	1772.429688	46.410355
12472.851702	3942.181000	1771.422852	157.895828
12472.851702	3942.181000	1770.416016	84.099617
12472.851702	3942.181000	1769.409180	-87.066574
12472.851702	3942.181000	1768.402344	71.537468
12472.851702	3942.181000	1767.394531	-90.277946
12472.851702	3942.181000	1766.386719	-71.875839
12472.851702	3942.181000	1765.378906	129.011017
12472.851702	3942.181000	1764.371094	123.452576
12472.851702	3942.181000	1763.362305	98.824257
12472.851702	3942.181000	1762.354492	-46.759609
12472.851702	3942.181000	1761.345703	4.275290
12472.851702	3942.181000	1760.336914	-70.374802
12472.851702	3942.181000	1759.328125	13.598444
12472.851702	3942.181000	1758.318359	76.115921
12472.851702	3942.181000	1757.308594	17.752132
12472.851702	3942.181000	1756.299805	-2.811553
12472.851702	3942.181000	1755.290039	47.526424
12472.851702	3942.181000	1754.279297	83.535103
12472.851702	3942.181000	1753.269531	-107.697609
12472.851702	3942.181000	1752.258789	-159.406647
12472.851702	3942.181000	1751.249023	-123.688263
12472.851702	3942.181000	1750.238281	-97.555069
12472.851702	3942.181000	1749.226563	-19.534832
12472.851702	3942.181000	1748.215820	-31.462425
12472.851702	3942.181000	1747.204102	65.209526
12472.851702	3942.181000	1746.193359	-152.504791
12472.851702	3942.181000	1745.181641	7.722875
12472.851702	3942.181000	1744.168945	-203.040436
12472.851702	3942.181000	1743.157227	-123.366791
12472.851702	3942.181000	1742.144531	-50.922649
12472.851702	3942.181000	1741.132813	-54.140007
12472.851702	3942.181000	1740.120117	-38.591923
12472.851702	3942.181000	1739.106445	-162.383148
12472.851702	3942.181000	1738.093750	-80.978271
12472.851702	3942.181000	1737.080078	16.791306
12472.851702	3942.181000	1736.067383	-67.162582
12472.851702	3942.181000	1735.053711	-38.024277
12472.851702	3942.181000	1734.040039	-152.804520
12472.851702	3942.181000	1733.025391	-31.965399
12472.851702	3942.181000	1732.011719	-144.560028
12472.851702	3942.181000	1730.997070	-104.086952
12472.851702	3942.181000	1729.982422	-59.025223
12472.851702	3942.181000	1728.967773	-122.423492
12472.851702	3942.181000	1727.952148	4.814348
12472.851702	3942.181000	1726.937500	-124.702637
12472.851702	3942.181000	1725.921875	-160.136017
12472.851702	3942.181000	1724.906250	-63.876381
12472.851702	3942.181000	1723.890625	159.295273
12472.851702	3942.181000	1722.875000	74.108688
12472.851702	3942.181000	1721.858398	-29.977230
12472.851702	3942.181000	1720.841797	-33.013775
12472.851702	3942.181000	1719.825195	86.101913
12472.851702	3942.181000	1718.808594	122.793968
12472.851702	3942.181000	1717.791992	-45.096436
12472.851702	3942.181000	1716.774414	-130.798340
12472.851702	3942.181000	1715.756836	-146.093903
12472.851702	3942.181000	1714.739258	-109.812828
12472.851702	3942.181000	1713.721680	-0.850233
12472.851702	3942.181000	1712.704102	-75.169586
12472.851702	3942.181000	1711.685547	45.264343
12472.851702	3942.181000	1710.667969	76.374466
12472.851702	3942.181000	1709.649414	210.607697
12472.851702	3942.181000	1708.630859	49.077156
12472.851702	3942.181000	1707.611328	-196.949844
12472.851702	3942.181000	1706.592773	98.774651
12472.851702	3942.181000	1705.573242	-20.750423
12472.851702	3942.181000	1704.553711	42.525986
12472.851702	3942.181000	1703.534180	-173.242279
12472.851702	3942.181000	1702.513672	112.453903
12472.851702	3942.181000	1701.494141	170.685715
12472.851702	3942.181000	1700.473633	-127.280190
12472.851702	3942.181000	1699.453125	-45.813137
12472.851702	3942.181000	1698.432617	-53.456493
12472.851702	3942.181000	1697.412109	-168.887390
12472.851702	3942.181000	1696.390625	85.451660
12472.851702	3942.181000	1695.369141	-95.694008
12472.851702	3942.181000	1694.347656	1.573689
12472.851702	3942.181000	1693.326172	12.152865
12472.851702	3942.181000	1692.304688	-91.974380
12472.851702	3942.181000	1691.282227	-158.750900
12472.851702	3942.181000	1690.260742	-17.498037
12472.851702	3942.181000	1689.238281	100.219063
12472.851702	3942.181000	1688.214844	215.449661
12472.851702	3942.181000	1687.192383	66.513626
12472.851702	3942.181000	1686.168945	27.333588
12472.851702	3942.181000	1685.146484	-21.249754
12472.851702	3942.181000	1684.123047	109.902748
12472.851702	3942.181000	1683.099609	84.479942
12472.851702	3942.181000	1682.075195	7.607667
12472.851702	3942.181000	1681.051758	280.789398
12472.851702	3942.181000	1680.027344	143.065094
12472.851702	3942.181000	1679.002930	287.611237
12472.851702	3942.181000	1677.978516	187.089767
12472.851702	3942.181000	1676.953125	147.146729
12472.851702	3942.181000	1675.928711	354.313751
12472.851702	3942.181000	1674.903320	-9.860190
12472.851702	3942.181000	1673.877930	350.914185
12472.851702	3942.181000	1672.852539	417.839844
12472.851702	3942.181000	1671.826172	139.815445
12472.851702	3942.181000	1670.800781	437.217163
12472.851702	3942.181000	1669.774414	226.680222
12472.851702	3942.181000	1668.748047	325.849731
12472.851702	3942.181000	1667.721680	157.169022
12472.851702	3942.181000	1666.694336	302.700470
12472.851702	3942.181000	1665.667969	315.462555
12472.851702	3942.181000	1664.640625	446.797913
12472.851702	3942.181000	1663.613281	191.836411
12472.851702	3942.181000	1662.585938	236.941299
12472.851702	3942.181000	1661.557617	384.262634
12472.851702	3942.181000	1660.530273	398.946533
12472.851702	3942.181000	1659.501953	613.451172
12472.851702	3942.181000	1658.473633	772.026001
12472.851702	3942.181000	1657.444336	693.444885
12472.851702	3942.181000	1656.416016	573.024292
12472.851702	3942.181000	1655.386719	735.945740
12472.851702	3942.181000	1654.358398	696.714355
12472.851702	3942.181000	1653.328125	643.472656
12472.851702	3942.181000	1652.298828	604.132019
12472.851702	3942.181000	1651.269531	532.251343
12472.851702	3942.181000	1650.239258	534.578735
12472.851702	3942.181000	1649.208984	754.930603
12472.851702	3942.181000	1648.178711	648.073547
12472.851702	3942.181000	1647.148438	1141.862183
12472.851702	3942.181000	1646.117188	995.423462
12472.851702	3942.181000	1645.086914	832.773315
12472.851702	3942.181000	1644.055664	728.061829
12472.851702	3942.181000	1643.024414	901.420227
12472.851702	3942.181000	1641.992188	627.478088
12472.851702	3942.181000	1640.960938	995.267456
12472.851702	3942.181000	1639.928711	950.597290
12472.851702	3942.181000	1638.896484	912.841187
12472.851702	3942.181000	1637.864258	1092.672974
12472.851702	3942.181000	1636.832031	1149.710083
12472.851702	3942.181000	1635.798828	1095.579956
12472.851702	3942.181000	1634.766602	1127.052490
12472.851702	3942.181000	1633.733398	1290.311157
12472.851702	3942.181000	1632.699219	1444.194946
12472.851702	3942.181000	1631.666016	1332.065674
12472.851702	3942.181000	1630.632813	1360.970703
12472.851702	3942.181000	1629.598633	1371.314697
12472.851702	3942.181000	1628.564453	1494.860229
12472.851702	3942.181000	1627.530273	1398.809692
12472.851702	3942.181000	1626.495117	1482.938843
12472.851702	3942.181000	1625.460938	1627.068726
12472.851702	3942.181000	1624.425781	1547.093506
12472.851702	3942.181000	1623.390625	1649.513062
12472.851702	3942.181000	1622.355469	1818.804321
12472.851702	3942.181000	1621.319336	1840.276001
12472.851702	3942.181000	1620.284180	1928.643188
12472.851702	3942.181000	1619.248047	1590.129517
12472.851702	3942.181000	1618.211914	1911.404419
12472.851702	3942.181000	1617.174805	1584.486450
12472.851702	3942.181000	1616.138672	1760.329102
12472.851702	3942.181000	1615.101563	1712.454834
12472.851702	3942.181000	1614.065430	1876.633545
12472.851702	3942.181000	1613.027344	1920.869263
12472.851702	3942.181000	1611.990234	1939.740601
12472.851702	3942.181000	1610.953125	2055.331543
12472.851702	3942.181000	1609.915039	2018.845215
12472.851702	3942.181000	1608.876953	1747.497070
12472.851702	3942.181000	1607.838867	1872.200195
12472.851702	3942.181000	1606.800781	2261.530273
12472.851702	3942.181000	1605.761719	2086.885498
12472.851702	3942.181000	1604.723633	2294.238525
12472.851702	3942.181000	1603.684570	2064.426758
12472.851702	3942.181000	1602.644531	1908.273804
12472.851702	3942.181000	1601.605469	2251.161133
12472.851702	3942.181000	1600.566406	2359.415039
12472.851702	3942.181000	1599.526367	2451.515137
12472.851702	3942.181000	1598.486328	2451.651855
12472.851702	3942.181000	1597.446289	2258.786865
12472.851702	3942.181000	1596.405273	2603.513672
12472.851702	3942.181000	1595.365234	2626.583008
12472.851702	3942.181000	1594.324219	2576.146240
12472.851702	3942.181000	1593.283203	2449.969238
12472.851702	3942.181000	1592.242188	2596.993652
12472.851702	3942.181000	1591.200195	2459.377930
12472.851702	3942.181000	1590.159180	2438.855957
12472.851702	3942.181000	1589.117188	2537.621826
12472.851702	3942.181000	1588.075195	2631.768799
12472.851702	3942.181000	1587.032227	2718.992676
12472.851702	3942.181000	1585.990234	2831.429199
12472.851702	3942.181000	1584.947266	2870.465088
12472.851702	3942.181000	1583.904297	2753.657715
12472.851702	3942.181000	1582.861328	3014.979736
12472.851702	3942.181000	1581.818359	3008.181396
12472.851702	3942.181000	1580.775391	3056.372314
12472.851702	3942.181000	1579.731445	3164.084961
12472.851702	3942.181000	1578.687500	3253.458496
12472.851702	3942.181000	1577.643555	3173.423340
12472.851702	3942.181000	1576.598633	3219.300293
12472.851702	3942.181000	1575.554688	3061.549561
12472.851702	3942.181000	1574.509766	2883.277832
12472.851702	3942.181000	1573.464844	2899.521484
12472.851702	3942.181000	1572.419922	2899.775635
12472.851702	3942.181000	1571.374023	2650.824219
12472.851702	3942.181000	1570.329102	2989.504639
12472.851702	3942.181000	1569.283203	2692.696533
12472.851702	3942.181000	1568.237305	2656.531006
12472.851702	3942.181000	1567.191406	2656.965820
12472.851702	3942.181000	1566.144531	2890.402344
12472.851702	3942.181000	1565.098633	2705.877686
12472.851702	3942.181000	1564.051758	2875.352295
12472.851702	3942.181000	1563.004883	2736.615723
12472.851702	3942.181000	1561.957031	2566.003906
12472.851702	3942.181000	1560.910156	2534.710938
12472.851702	3942.181000	1559.862305	2268.462891
12472.851702	3942.181000	1558.814453	2166.595459
12472.851702	3942.181000	1557.766602	1984.991333
12472.851702	3942.181000	1556.718750	2024.673218
12472.851702	3942.181000	1555.669922	1850.079712
12472.851702	3942.181000	1554.621094	1869.336182
12472.851702	3942.181000	1553.573242	1815.726685
12472.851702	3942.181000	1552.523438	1930.752808
12472.851702	3942.181000	1551.474609	1788.398682
12472.851702	3942.181000	1550.424805	1573.257446
12472.851702	3942.181000	1549.375000	1599.613403
12472.851702	3942.181000	1548.325195	1532.674683
12472.851702	3942.181000	1547.275391	1841.370972
12472.851702	3942.181000	1546.225586	1640.257202
12472.851702	3942.181000	1545.174805	1430.163940
12472.851702	3942.181000	1544.124023	1361.245239
12472.851702	3942.181000	1543.073242	1337.898560
12472.851702	3942.181000	1542.022461	1273.691528
12472.851702	3942.181000	1540.970703	1364.147339
12472.851702	3942.181000	1539.919922	1406.912109
12472.851702	3942.181000	1538.868164	1440.619263
12472.851702	3942.181000	1537.815430	1547.068115
12472.851702	3942.181000	1536.763672	1396.862915
12472.851702	3942.181000	1535.710938	1512.495361
12472.851702	3942.181000	1534.659180	1612.269653
12472.851702	3942.181000	1533.606445	1534.977295
12472.851702	3942.181000	1532.552734	1444.151855
12472.851702	3942.181000	1531.500000	1639.387329
12472.851702	3942.181000	1530.446289	1364.937500
12472.851702	3942.181000	1529.393555	1401.463501
12472.851702	3942.181000	1528.338867	1095.549194
12472.851702	3942.181000	1527.285156	1268.303955
12472.851702	3942.181000	1526.231445	1130.468750
12472.851702	3942.181000	1525.176758	1115.152832
12472.851702	3942.181000	1524.122070	850.634766
12472.851702	3942.181000	1523.067383	837.802185
12472.851702	3942.181000	1522.012695	893.015320
12472.851702	3942.181000	1520.957031	801.055664
12472.851702	3942.181000	1519.901367	670.719971
12472.851702	3942.181000	1518.845703	572.213318
12472.851702	3942.181000	1517.790039	401.397766
12472.851702	3942.181000	1516.734375	368.782166
12472.851702	3942.181000	1515.677734	474.274323
12472.851702	3942.181000	1514.621094	301.561066
12472.851702	3942.181000	1513.564453	346.132568
12472.851702	3942.181000	1512.507813	289.016083
12472.851702	3942.181000	1511.450195	245.564041
12472.851702	3942.181000	1510.393555	44.003853
12472.851702	3942.181000	1509.335938	131.878555
12472.851702	3942.181000	1508.278320	16.453587
12472.851702	3942.181000	1507.219727	59.289745
12472.851702	3942.181000	1506.162109	108.991592
12472.851702	3942.181000	1505.103516	100.045250
12472.851702	3942.181000	1504.044922	-78.131905
12472.851702	3942.181000	1502.986328	-73.301788
12472.851702	3942.181000	1501.926758	-147.377747
12472.851702	3942.181000	1500.868164	227.706665
12472.851702	3942.181000	1499.808594	-56.001938
12472.851702	3942.181000	1498.749023	116.109581
12472.851702	3942.181000	1497.688477	304.027618
12472.851702	3942.181000	1496.628906	156.050278
12472.851702	3942.181000	1495.568359	353.107697
12472.851702	3942.181000	1494.507813	149.032318
12472.851702	3942.181000	1493.447266	136.667633
12472.851702	3942.181000	1492.386719	11.774109
12472.851702	3942.181000	1491.325195	78.474457
12472.851702	3942.181000	1490.263672	133.995209
12472.851702	3942.181000	1489.202148	119.806763
12472.851702	3942.181000	1488.140625	42.703743
12472.851702	3942.181000	1487.079102	177.293243
12472.851702	3942.181000	1486.016602	-126.843536
12472.851702	3942.181000	1484.954102	68.675613
12472.851702	3942.181000	1483.891602	106.783951
12472.851702	3942.181000	1482.829102	32.548500
12472.851702	3942.181000	1481.765625	32.633854
12472.851702	3942.181000	1480.702148	142.982315
12472.851702	3942.181000	1479.638672	-56.727787
12472.851702	3942.181000	1478.575195	-92.261497
12472.851702	3942.181000	1477.511719	-13.071366
12472.851702	3942.181000	1476.447266	297.514526
12472.851702	3942.181000	1475.382813	-45.303280
12472.851702	3942.181000	1474.318359	265.285278
12472.851702	3942.181000	1473.253906	169.814957
12472.851702	3942.181000	1472.189453	487.243286
12472.851702	3942.181000	1471.124023	291.018097
12472.851702	3942.181000	1470.058594	305.684052
12472.851702	3942.181000	1468.993164	582.795288
12472.851702	3942.181000	1467.927734	615.824036
12472.851702	3942.181000	1466.861328	491.826935
12472.851702	3942.181000	1465.794922	406.200623
12472.851702	3942.181000	1464.728516	860.225830
12472.851702	3942.181000	1463.662109	597.829834
12472.851702	3942.181000	1462.594727	537.270752
12472.851702	3942.181000	1461.528320	485.653748
12472.851702	3942.181000	1460.460938	454.674591
12472.851702	3942.181000	1459.393555	419.265350
12472.851702	3942.181000	1458.326172	338.767242
12472.851702	3942.181000	1457.257813	423.620697
12472.851702	3942.181000	1456.189453	310.314972
12472.851702	3942.181000	1455.121094	184.635635
12472.851702	3942.181000	1454.052734	189.568344
12472.851702	3942.181000	1452.984375	430.891785
12472.851702	3942.181000	1451.915039	166.958099
12472.851702	3942.181000	1450.845703	113.631844
12472.851702	3942.181000	1449.776367	217.427032
12472.851702	3942.181000	1448.707031	436.880096
12472.851702	3942.181000	1447.636719	545.892456
12472.851702	3942.181000	1446.567383	546.630981
12472.851702	3942.181000	1445.497070	465.835876
12472.851702	3942.181000	1444.425781	793.041931
12472.851702	3942.181000	1443.355469	957.628174
12472.851702	3942.181000	1442.285156	762.448303
12472.851702	3942.181000	1441.213867	842.260986
12472.851702	3942.181000	1440.142578	984.194031
12472.851702	3942.181000	1439.070313	858.775757
12472.851702	3942.181000	1437.999023	681.476685
12472.851702	3942.181000	1436.926758	778.967590
12472.851702	3942.181000	1435.854492	722.115051
12472.851702	3942.181000	1434.782227	813.636108
12472.851702	3942.181000	1433.709961	641.867798
12472.851702	3942.181000	1432.636719	550.618347
12472.851702	3942.181000	1431.563477	416.217773
12472.851702	3942.181000	1430.490234	200.535355
12472.851702	3942.181000	1429.416992	361.534088
12472.851702	3942.181000	1428.343750	126.066605
12472.851702	3942.181000	1427.269531	285.784546
12472.851702	3942.181000	1426.195313	106.074837
12472.851702	3942.181000	1425.121094	-134.346664
12472.851702	3942.181000	1424.046875	-96.702507
12472.851702	3942.181000	1422.971680	-176.182419
12472.851702	3942.181000	1421.896484	-252.754532
12472.851702	3942.181000	1420.821289	-277.411987
12472.851702	3942.181000	1419.746094	-334.308044
12472.851702	3942.181000	1418.669922	-87.417091
12472.851702	3942.181000	1417.594727	-253.719879
12472.851702	3942.181000	1416.518555	-56.776443
12472.851702	3942.181000	1415.442383	61.100533
12472.851702	3942.181000	1414.365234	-4.662500
12472.851702	3942.181000	1413.289063	-184.426224
12472.851702	3942.181000	1412.211914	-164.949875
12472.851702	3942.181000	1411.134766	-124.524269
12472.851702	3942.181000	1410.057617	109.612274
12472.851702	3942.181000	1408.979492	66.355530
12472.851702	3942.181000	1407.902344	-62.841049
12472.851702	3942.181000	1406.824219	74.209801
12472.851702	3942.181000	1405.746094	87.996880
12472.851702	3942.181000	1404.666992	182.433060
12472.851702	3942.181000	1403.588867	310.491211
12472.851702	3942.181000	1402.509766	14.956303
12472.851702	3942.181000	1401.430664	-52.833839
12472.851702	3942.181000	1400.351563	198.856003
12472.851702	3942.181000	1399.271484	307.258606
12472.851702	3942.181000	1398.192383	260.428589
12472.851702	3942.181000	1397.112305	333.211609
12472.851702	3942.181000	1396.031250	91.775848
12472.851702	3942.181000	1394.951172	76.585281
12472.851702	3942.181000	1393.871094	126.527191
12472.851702	3942.181000	1392.790039	176.558670
12472.851702	3942.181000	1391.708984	-39.649635
12472.851702	3942.181000	1390.626953	225.619370
12472.851702	3942.181000	1389.545898	338.427979
12472.851702	3942.181000	1388.463867	393.879669
12472.851702	3942.181000	1387.381836	583.917969
12472.851702	3942.181000	1386.299805	657.234985
12472.851702	3942.181000	1385.217773	739.544373
12472.851702	3942.181000	1384.134766	884.977905
12472.851702	3942.181000	1383.051758	1058.219849
12472.851702	3942.181000	1381.968750	963.738586
12472.851702	3942.181000	1380.885742	1221.157959
12472.851702	3942.181000	1379.802734	981.782104
12472.851702	3942.181000	1378.718750	1225.272949
12472.851702	3942.181000	1377.634766	1416.291504
12472.851702	3942.181000	1376.550781	1106.420410
12472.851702	3942.181000	1375.465820	1053.824707
12472.851702	3942.181000	1374.381836	805.736938
12472.851702	3942.181000	1373.296875	915.594910
12472.851702	3942.181000	1372.211914	889.057068
12472.851702	3942.181000	1371.126953	701.684692
12472.851702	3942.181000	1370.041016	730.831665
12472.851702	3942.181000	1368.955078	526.274292
12472.851702	3942.181000	1367.869141	396.374481
12472.851702	3942.181000	1366.783203	640.061462
12472.851702	3942.181000	1365.697266	373.335815
12472.851702	3942.181000	1364.610352	590.974976
12472.851702	3942.181000	1363.523438	461.987885
12472.851702	3942.181000	1362.436523	424.503052
12472.851702	3942.181000	1361.349609	546.072754
12472.851702	3942.181000	1360.261719	346.936707
12472.851702	3942.181000	1359.174805	407.581879
12472.851702	3942.181000	1358.086914	364.676849
12472.851702	3942.181000	1356.998047	96.210701
12472.851702	3942.181000	1355.910156	333.536835
12472.851702	3942.181000	1354.821289	388.117493
12472.851702	3942.181000	1353.732422	176.898071
12472.851702	3942.181000	1352.643555	211.445404
12472.851702	3942.181000	1351.554688	319.038269
12472.851702	3942.181000	1350.464844	217.066833
12472.851702	3942.181000	1349.375000	464.658569
12472.851702	3942.181000	1348.285156	347.820801
12472.851702	3942.181000	1347.195313	349.576355
12472.851702	3942.181000	1346.105469	214.007690
12472.851702	3942.181000	1345.014648	371.191986
12472.851702	3942.181000	1343.923828	454.785461
12472.851702	3942.181000	1342.833008	235.294357
12472.851702	3942.181000	1341.741211	132.309860
12472.851702	3942.181000	1340.650391	270.483887
12472.851702	3942.181000	1339.558594	226.558990
12472.851702	3942.181000	1338.466797	108.053162
12472.851702	3942.181000	1337.374023	31.848959
12472.851702	3942.181000	1336.282227	106.011490
12472.851702	3942.181000	1335.189453	0.608378
12472.851702	3942.181000	1334.096680	92.030182
12472.851702	3942.181000	1333.003906	107.016479
12472.851702	3942.181000	1331.910156	82.501114
12472.851702	3942.181000	1330.817383	113.101830
12472.851702	3942.181000	1329.723633	-19.628386
12472.851702	3942.181000	1328.629883	-145.102249
12472.851702	3942.181000	1327.535156	87.615440
12472.851702	3942.181000	1326.441406	156.861313
12472.851702	3942.181000	1325.346680	81.952812
12472.851702	3942.181000	1324.251953	194.819565
12472.851702	3942.181000	1323.156250	84.390320
12472.851702	3942.181000	1322.061523	278.550659
12472.851702	3942.181000	1320.965820	226.320999
12472.851702	3942.181000	1319.870117	46.123672
12472.851702	3942.181000	1318.774414	218.639587
12472.851702	3942.181000	1317.678711	-44.742321
12472.851702	3942.181000	1316.582031	45.753883
12472.851702	3942.181000	1315.485352	44.198605
12472.851702	3942.181000	1314.388672	7.511010
12472.851702	3942.181000	1313.291016	-18.622524
12472.851702	3942.181000	1312.194336	6.384973
12472.851702	3942.181000	1311.096680	15.447136
12472.851702	3942.181000	1309.999023	105.239334
12472.851702	3942.181000	1308.901367	59.123096
12472.851702	3942.181000	1307.802734	163.952225
12472.851702	3942.181000	1306.705078	-10.254642
12472.851702	3942.181000	1305.606445	78.670929
12472.851702	3942.181000	1304.506836	95.075081
12472.851702	3942.181000	1303.408203	174.557953
12472.851702	3942.181000	1302.308594	283.706451
12472.851702	3942.181000	1301.208984	366.121948
12472.851702	3942.181000	1300.109375	384.603424
12472.851702	3942.181000	1299.009766	238.364914
12472.851702	3942.181000	1297.909180	333.093933
12472.851702	3942.181000	1296.808594	367.547791
12472.851702	3942.181000	1295.708008	406.984436
12472.851702	3942.181000	1294.607422	735.925476
12472.851702	3942.181000	1293.506836	661.685486
12472.851702	3942.181000	1292.405273	567.579407
12472.851702	3942.181000	1291.303711	655.986023
12472.851702	3942.181000	1290.202148	707.807007
12472.851702	3942.181000	1289.099609	793.338745
12472.851702	3942.181000	1287.998047	971.898865
12472.851702	3942.181000	1286.895508	1093.010010
12472.851702	3942.181000	1285.792969	998.924683
12472.851702	3942.181000	1284.689453	652.657593
12472.851702	3942.181000	1283.586914	1106.407349
12472.851702	3942.181000	1282.483398	993.799927
12472.851702	3942.181000	1281.379883	974.946838
12472.851702	3942.181000	1280.276367	996.523926
12472.851702	3942.181000	1279.171875	901.403625
12472.851702	3942.181000	1278.067383	1028.439453
12472.851702	3942.181000	1276.962891	840.226318
12472.851702	3942.181000	1275.858398	433.156708
12472.851702	3942.181000	1274.753906	388.784546
12472.851702	3942.181000	1273.648438	9.143651
12472.851702	3942.181000	1272.542969	9.517844
12472.851702	3942.181000	1271.437500	-132.052750
12472.851702	3942.181000	1270.331055	5.206141
12472.851702	3942.181000	1269.225586	-294.725403
12472.851702	3942.181000	1268.119141	-170.240265
12472.851702	3942.181000	1267.012695	-102.594994
12472.851702	3942.181000	1265.906250	-247.390106
12472.851702	3942.181000	1264.798828	-171.098129
12472.851702	3942.181000	1263.691406	-155.143723
12472.851702	3942.181000	1262.583984	-340.448730
12472.851702	3942.181000	1261.476563	-131.235703
12472.851702	3942.181000	1260.368164	-170.688889
12472.851702	3942.181000	1259.260742	-136.120285
12472.851702	3942.181000	1258.152344	-17.879738
12472.851702	3942.181000	1257.043945	-50.750717
12472.851702	3942.181000	1255.934570	-78.160370
12472.851702	3942.181000	1254.825195	-47.087574
12472.851702	3942.181000	1253.716797	-74.653992
12472.851702	3942.181000	1252.606445	76.849342
12472.851702	3942.181000	1251.497070	-7.386045
12472.851702	3942.181000	1250.387695	-101.751068
12472.851702	3942.181000	1249.277344	-150.801483
12472.851702	3942.181000	1248.166992	-18.650288
12472.851702	3942.181000	1247.055664	81.148811
12472.851702	3942.181000	1245.945313	30.597008
12472.851702	3942.181000	1244.833984	16.836855
12472.851702	3942.181000	1243.722656	80.580376
12472.851702	3942.181000	1242.611328	104.767075
12472.851702	3942.181000	1241.499023	198.867874
12472.851702	3942.181000	1240.387695	352.426453
12472.851702	3942.181000	1239.275391	483.742126
12472.851702	3942.181000	1238.162109	572.966370
12472.851702	3942.181000	1237.049805	628.922913
12472.851702	3942.181000	1235.936523	824.925964
12472.851702	3942.181000	1234.823242	727.463562
12472.851702	3942.181000	1233.709961	1095.203613
12472.851702	3942.181000	1232.596680	1137.115112
12472.851702	3942.181000	1231.482422	1116.679810
12472.851702	3942.181000	1230.369141	1145.265259
12472.851702	3942.181000	1229.253906	973.392395
12472.851702	3942.181000	1228.139648	809.545105
12472.851702	3942.181000	1227.025391	810.261108
12472.851702	3942.181000	1225.910156	591.962036
12472.851702	3942.181000	1224.794922	521.245972
12472.851702	3942.181000	1223.679688	413.275055
12472.851702	3942.181000	1222.563477	429.462250
12472.851702	3942.181000	1221.447266	242.950439
12472.851702	3942.181000	1220.331055	201.852982
12472.851702	3942.181000	1219.214844	125.742188
12472.851702	3942.181000	1218.098633	199.085907
12472.851702	3942.181000	1216.981445	101.090210
12472.851702	3942.181000	1215.864258	-48.584587
12472.851702	3942.181000	1214.747070	147.097733
12472.851702	3942.181000	1213.629883	219.119659
12472.851702	3942.181000	1212.511719	-86.885880
12472.851702	3942.181000	1211.393555	1.130013
12472.851702	3942.181000	1210.275391	52.165474
12472.851702	3942.181000	1209.157227	61.049683
12472.851702	3942.181000	1208.038086	251.473267
12472.851702	3942.181000	1206.918945	353.387390
12472.851702	3942.181000	1205.799805	526.114441
12472.851702	3942.181000	1204.680664	806.735535
12472.851702	3942.181000	1203.560547	1040.902222
12472.851702	3942.181000	1202.441406	1389.111572
12472.851702	3942.181000	1201.321289	1881.256348
12472.851702	3942.181000	1200.200195	2268.036133
12472.851702	3942.181000	1199.080078	2935.731689
12472.851702	3942.181000	1197.958984	3478.693115
12472.851702	3942.181000	1196.837891	3532.933350
12472.851702	3942.181000	1195.716797	3383.248047
12472.851702	3942.181000	1194.594727	3092.552734
12472.851702	3942.181000	1193.473633	2496.822510
12472.851702	3942.181000	1192.351563	2186.218506
12472.851702	3942.181000	1191.229492	1902.299805
12472.851702	3942.181000	1190.106445	1603.544556
12472.851702	3942.181000	1188.984375	1472.336914
12472.851702	3942.181000	1187.861328	1323.851440
12472.851702	3942.181000	1186.738281	1253.611572
12472.851702	3942.181000	1185.614258	1132.665527
12472.851702	3942.181000	1184.491211	1055.591919
12472.851702	3942.181000	1183.367188	1177.726440
12472.851702	3942.181000	1182.243164	1107.535767
12472.851702	3942.181000	1181.119141	937.888184
12472.851702	3942.181000	1179.994141	768.869141
12472.851702	3942.181000	1178.869141	690.199219
12472.851702	3942.181000	1177.744141	826.071899
12472.851702	3942.181000	1176.619141	621.243164
12472.851702	3942.181000	1175.493164	791.003601
12472.851702	3942.181000	1174.368164	914.306824
12472.851702	3942.181000	1173.242188	763.584290
12472.851702	3942.181000	1172.115234	738.508118
12472.851702	3942.181000	1170.989258	466.379486
12472.851702	3942.181000	1169.862305	460.635834
12472.851702	3942.181000	1168.735352	277.939117
12472.851702	3942.181000	1167.608398	184.407684
12472.851702	3942.181000	1166.481445	243.715576
12472.851702	3942.181000	1165.353516	28.580086
12472.851702	3942.181000	1164.225586	127.529427
12472.851702	3942.181000	1163.097656	96.930016
12472.851702	3942.181000	1161.968750	318.467896
12472.851702	3942.181000	1160.840820	263.540192
12472.851702	3942.181000	1159.711914	466.879120
12472.851702	3942.181000	1158.583008	334.062744
12472.851702	3942.181000	1157.453125	275.395233
12472.851702	3942.181000	1156.324219	322.377380
12472.851702	3942.181000	1155.194336	147.364304
12472.851702	3942.181000	1154.064453	433.243744
12472.851702	3942.181000	1152.933594	438.319855
12472.851702	3942.181000	1151.803711	405.298553
12472.851702	3942.181000	1150.672852	395.792786
12472.851702	3942.181000	1149.541992	432.011597
12472.851702	3942.181000	1148.411133	279.936707
12472.851702	3942.181000	1147.279297	258.090942
12472.851702	3942.181000	1146.147461	135.573090
12472.851702	3942.181000	1145.015625	-7.702481
12472.851702	3942.181000	1143.883789	26.684431
12472.851702	3942.181000	1142.750977	-110.660400
12472.851702	3942.181000	1141.619141	-230.769897
12472.851702	3942.181000	1140.486328	-130.883041
12472.851702	3942.181000	1139.352539	-124.225159
12472.851702	3942.181000	1138.219727	-22.926689
12472.851702	3942.181000	1137.085938	-97.223785
12472.851702	3942.181000	1135.952148	-139.823090
12472.851702	3942.181000	1134.818359	61.508156
12472.851702	3942.181000	1133.683594	284.563080
12472.851702	3942.181000	1132.549805	404.282776
12472.851702	3942.181000	1131.415039	618.046143
12472.851702	3942.181000	1130.279297	664.054626
12472.851702	3942.181000	1129.144531	604.957458
12472.851702	3942.181000	1128.008789	697.898071
12472.851702	3942.181000	1126.873047	596.125183
12472.851702	3942.181000	1125.737305	367.698639
12472.851702	3942.181000	1124.601563	302.155975
12472.851702	3942.181000	1123.464844	234.520615
12472.851702	3942.181000	1122.328125	196.478836
12472.851702	3942.181000	1121.191406	267.522247
12472.851702	3942.181000	1120.054688	252.906174
12472.851702	3942.181000	1118.916992	212.594299
12472.851702	3942.181000	1117.779297	169.600250
12472.851702	3942.181000	1116.641602	172.980103
12472.851702	3942.181000	1115.503906	277.873932
12472.851702	3942.181000	1114.365234	140.546143
12472.851702	3942.181000	1113.226563	220.995819
12472.851702	3942.181000	1112.087891	159.899216
12472.851702	3942.181000	1110.949219	126.842697
12472.851702	3942.181000	1109.809570	145.166733
12472.851702	3942.181000	1108.669922	85.500450
12472.851702	3942.181000	1107.530273	89.301361
12472.851702	3942.181000	1106.390625	177.647095
12472.851702	3942.181000	1105.250000	216.432648
12472.851702	3942.181000	1104.109375	402.557861
12472.851702	3942.181000	1102.968750	352.983154
12472.851702	3942.181000	1101.828125	342.249115
12472.851702	3942.181000	1100.686523	501.812103
12472.851702	3942.181000	1099.544922	176.907089
12472.851702	3942.181000	1098.403320	335.470154
12472.851702	3942.181000	1097.261719	286.342621
12472.851702	3942.181000	1096.120117	251.450821
12472.851702	3942.181000	1094.977539	224.300766
12472.851702	3942.181000	1093.834961	124.941116
12472.851702	3942.181000	1092.691406	226.960861
12472.851702	3942.181000	1091.548828	103.936584
12472.851702	3942.181000	1090.405273	31.327871
12472.851702	3942.181000	1089.261719	87.044907
12472.851702	3942.181000	1088.118164	115.519913
12472.851702	3942.181000	1086.973633	278.975433
12472.851702	3942.181000	1085.829102	156.587463
12472.851702	3942.181000	1084.684570	-0.509649
12472.851702	3942.181000	1083.540039	84.046997
12472.851702	3942.181000	1082.395508	190.374222
12472.851702	3942.181000	1081.250000	223.486389
12472.851702	3942.181000	1080.104492	181.041138
12472.851702	3942.181000	1078.958984	-87.010696
12472.851702	3942.181000	1077.812500	-60.592384
12472.851702	3942.181000	1076.666016	182.322052
12472.851702	3942.181000	1075.519531	316.799652
12472.851702	3942.181000	1074.373047	267.036377
12472.851702	3942.181000	1073.226563	233.128586
12472.851702	3942.181000	1072.079102	372.781708
12472.851702	3942.181000	1070.931641	483.401825
12472.851702	3942.181000	1069.784180	491.985779
12472.851702	3942.181000	1068.635742	350.968292
12472.851702	3942.181000	1067.487305	328.549652
12472.851702	3942.181000	1066.338867	195.027405
12472.851702	3942.181000	1065.190430	-46.551880
12472.851702	3942.181000	1064.041992	35.160152
12472.851702	3942.181000	1062.892578	92.566841
12472.851702	3942.181000	1061.743164	-7.745561
12472.851702	3942.181000	1060.593750	54.162125
12472.851702	3942.181000	1059.443359	177.845444
12472.851702	3942.181000	1058.292969	44.418171
12472.851702	3942.181000	1057.142578	26.291170
12472.851702	3942.181000	1055.992188	19.803072
12472.851702	3942.181000	1054.841797	17.634302
12472.851702	3942.181000	1053.690430	70.904640
12472.851702	3942.181000	1052.539063	-46.026760
12472.851702	3942.181000	1051.387695	242.988312
12472.851702	3942.181000	1050.235352	277.275574
12472.851702	3942.181000	1049.083984	496.945587
12472.851702	3942.181000	1047.931641	563.475159
12472.851702	3942.181000	1046.778320	463.677429
12472.851702	3942.181000	1045.625977	630.347839
12472.851702	3942.181000	1044.472656	603.077148
12472.851702	3942.181000	1043.319336	285.542389
12472.851702	3942.181000	1042.166016	379.412262
12472.851702	3942.181000	1041.012695	530.978638
12472.851702	3942.181000	1039.858398	244.814804
12472.851702	3942.181000	1038.704102	-16.705700
12472.851702	3942.181000	1037.549805	53.071251
12472.851702	3942.181000	1036.394531	-35.158119
12472.851702	3942.181000	1035.239258	9.994534
12472.851702	3942.181000	1034.083984	35.530048
12472.851702	3942.181000	1032.928711	-144.618118
12472.851702	3942.181000	1031.773438	21.398548
12472.851702	3942.181000	1030.617188	-161.725952
12472.851702	3942.181000	1029.460938	-63.226002
12472.851702	3942.181000	1028.304688	-30.050949
12472.851702	3942.181000	1027.147461	59.035069
12472.851702	3942.181000	1025.991211	21.594147
12472.851702	3942.181000	1024.833984	9.671304
12472.851702	3942.181000	1023.675781	2.215499
12472.851702	3942.181000	1022.518555	-113.672737
12472.851702	3942.181000	1021.360352	-280.398895
12472.851702	3942.181000	1020.202148	-155.187149
12472.851702	3942.181000	1019.043945	72.874557
12472.851702	3942.181000	1017.884766	99.410347
12472.851702	3942.181000	1016.726563	55.631668
12472.851702	3942.181000	1015.567383	-104.128235
12472.851702	3942.181000	1014.407227	-131.905731
12472.851702	3942.181000	1013.248047	-105.711647
12472.851702	3942.181000	1012.087891	-108.481644
12472.851702	3942.181000	1010.927734	-77.654236
12472.851702	3942.181000	1009.767578	-160.334915
12472.851702	3942.181000	1008.606445	-191.576736
12472.851702	3942.181000	1007.446289	-77.512032
12472.851702	3942.181000	1006.285156	-122.163887
12472.851702	3942.181000	1005.123047	-74.551056
12472.851702	3942.181000	1003.961914	18.181787
12472.851702	3942.181000	1002.799805	116.487785
12472.851702	3942.181000	1001.637695	41.546097
12472.851702	3942.181000	1000.475586	-41.091518
12472.851702	3942.181000	999.312500	56.590809
12472.851702	3942.181000	998.149414	23.317347
12472.851702	3942.181000	996.986328	-99.503693
12472.851702	3942.181000	995.823242	101.415802
12472.851702	3942.181000	994.659180	-116.514954
12472.851702	3942.181000	993.496094	124.834839
12472.851702	3942.181000	992.332031	17.367525
12472.851702	3942.181000	991.166992	-56.892609
12472.851702	3942.181000	990.002930	83.992218
12472.851702	3942.181000	988.837891	-78.292763
12472.851702	3942.181000	987.672852	-27.253218
12472.851702	3942.181000	986.506836	226.039246
12472.851702	3942.181000	985.341797	-43.737873
12472.851702	3942.181000	984.175781	29.527964
12472.851702	3942.181000	983.009766	40.918243
12472.851702	3942.181000	981.843750	91.679123
12472.851702	3942.181000	980.676758	107.977982
12472.851702	3942.181000	979.509766	61.372082
12472.851702	3942.181000	978.342773	15.112473
12472.851702	3942.181000	977.175781	14.362314
12472.851702	3942.181000	976.007813	-147.704376
12472.851702	3942.181000	974.839844	-95.072121
12472.851702	3942.181000	973.671875	-20.990807
12472.851702	3942.181000	972.503906	75.339455
12472.851702	3942.181000	971.334961	114.372726
12472.851702	3942.181000	970.166016	10.226319
12472.851702	3942.181000	968.997070	11.485287
12472.851702	3942.181000	967.828125	105.943680
12472.851702	3942.181000	966.658203	-29.229794
12472.851702	3942.181000	965.488281	-1.645143
12472.851702	3942.181000	964.318359	-76.159676
12472.851702	3942.181000	963.148438	59.131020
12472.851702	3942.181000	961.977539	27.367119
12472.851702	3942.181000	960.806641	-46.517204
12472.851702	3942.181000	959.635742	156.721329
12472.851702	3942.181000	958.463867	121.976662
12472.851702	3942.181000	957.292969	188.848953
12472.851702	3942.181000	956.121094	65.753799
12472.851702	3942.181000	954.948242	104.533958
12472.851702	3942.181000	953.776367	145.495010
12472.851702	3942.181000	952.603516	209.898926
12472.851702	3942.181000	951.430664	229.026016
12472.851702	3942.181000	950.257813	251.740707
12472.851702	3942.181000	949.084961	218.294098
12472.851702	3942.181000	947.911133	142.115799
12472.851702	3942.181000	946.737305	132.582062
12472.851702	3942.181000	945.563477	239.420593
12472.851702	3942.181000	944.388672	115.846939
12472.851702	3942.181000	943.213867	-15.077886
12472.851702	3942.181000	942.039063	129.710724
12472.851702	3942.181000	940.864258	-122.472618
12472.851702	3942.181000	939.688477	79.266167
12472.851702	3942.181000	938.513672	76.487000
12472.851702	3942.181000	937.337891	92.737610
12472.851702	3942.181000	936.161133	89.873466
12472.851702	3942.181000	934.985352	115.536850
12472.851702	3942.181000	933.808594	93.610130
12472.851702	3942.181000	932.631836	202.296387
12472.851702	3942.181000	931.454102	68.613380
12472.851702	3942.181000	930.277344	129.612991
12472.851702	3942.181000	929.099609	285.408600
12472.851702	3942.181000	927.921875	153.975037
12472.851702	3942.181000	926.743164	155.385483
12472.851702	3942.181000	925.565430	201.799652
12472.851702	3942.181000	924.386719	186.520020
12472.851702	3942.181000	923.208008	90.508881
12472.851702	3942.181000	922.028320	139.172241
12472.851702	3942.181000	920.849609	223.329437
12472.851702	3942.181000	919.669922	228.636002
12472.851702	3942.181000	919.474609	272.710175
12472.851702	3942.181000	918.309570	238.095901
12472.851702	3942.181000	917.143555	179.741104
12472.851702	3942.181000	915.977539	-46.889660
12472.851702	3942.181000	914.810547	240.618118
12472.851702	3942.181000	913.644531	61.324608
12472.851702	3942.181000	912.477539	54.926739
12472.851702	3942.181000	911.310547	95.826782
12472.851702	3942.181000	910.143555	-102.433083
12472.851702	3942.181000	908.975586	14.108274
12472.851702	3942.181000	907.807617	-158.135010
12472.851702	3942.181000	906.639648	71.812843
12472.851702	3942.181000	905.471680	-166.714005
12472.851702	3942.181000	904.303711	-140.343292
12472.851702	3942.181000	903.134766	25.459105
12472.851702	3942.181000	901.965820	-104.340660
12472.851702	3942.181000	900.796875	73.090607
12472.851702	3942.181000	899.626953	-73.314667
12472.851702	3942.181000	898.457031	-262.238617
12472.851702	3942.181000	897.287109	73.200737
12472.851702	3942.181000	896.117188	-212.604782
12472.851702	3942.181000	894.947266	58.831341
12472.851702	3942.181000	893.776367	39.769417
12472.851702	3942.181000	892.605469	82.019722
12472.851702	3942.181000	891.434570	-71.640213
12472.851702	3942.181000	890.262695	-36.568371
12472.851702	3942.181000	889.091797	26.733953
12472.851702	3942.181000	887.919922	64.021263
12472.851702	3942.181000	886.748047	136.602112
12472.851702	3942.181000	885.575195	67.676933
12472.851702	3942.181000	884.403320	-36.626301
12472.851702	3942.181000	883.230469	31.059826
12472.851702	3942.181000	882.057617	86.885849
12472.851702	3942.181000	880.883789	-48.129631
12472.851702	3942.181000	879.710938	64.094856
12472.851702	3942.181000	878.537109	-78.029701
12472.851702	3942.181000	877.362305	-22.434875
12472.851702	3942.181000	876.188477	-112.819221
12472.851702	3942.181000	875.013672	60.292454
12472.851702	3942.181000	873.839844	-147.791382
12472.851702	3942.181000	872.664063	79.244644
12472.851702	3942.181000	871.489258	-15.996501
12472.851702	3942.181000	870.313477	-80.688438
12472.851702	3942.181000	869.138672	-53.744019
12472.851702	3942.181000	867.962891	69.483284
12472.851702	3942.181000	866.786133	-143.351212
12472.851702	3942.181000	865.610352	-43.748005
12472.851702	3942.181000	864.433594	-73.398705
12472.851702	3942.181000	863.256836	-79.609116
12472.851702	3942.181000	862.079102	-106.993179
12472.851702	3942.181000	860.902344	-117.990509
12472.851702	3942.181000	859.724609	-98.528412
12472.851702	3942.181000	858.546875	-212.848083
12472.851702	3942.181000	857.368164	-172.363434
12472.851702	3942.181000	856.190430	-24.076221
12472.851702	3942.181000	855.011719	-93.944405
12472.851702	3942.181000	853.833008	-13.811518
12472.851702	3942.181000	852.654297	-29.850256
12472.851702	3942.181000	851.474609	-59.990376
12472.851702	3942.181000	850.294922	-78.454208
12472.851702	3942.181000	849.115234	-197.673233
12472.851702	3942.181000	847.935547	-42.916824
12472.851702	3942.181000	846.754883	-61.521149
12472.851702	3942.181000	845.575195	-248.700134
12472.851702	3942.181000	844.393555	-40.348492
12472.851702	3942.181000	843.212891	-103.544823
12472.851702	3942.181000	842.032227	-73.193703
12472.851702	3942.181000	840.850586	-113.067070
12472.851702	3942.181000	839.668945	-127.251160
12472.851702	3942.181000	838.486328	-22.247471
12472.851702	3942.181000	837.304688	-87.963699
12472.851702	3942.181000	836.122070	-67.236076
12472.851702	3942.181000	834.939453	-203.103790
12472.851702	3942.181000	833.756836	-133.404587
12472.851702	3942.181000	832.573242	-194.564011
12472.851702	3942.181000	831.389648	-45.601616
12472.851702	3942.181000	830.206055	-32.148109
12472.851702	3942.181000	829.022461	121.291771
12472.851702	3942.181000	827.838867	155.610748
12472.851702	3942.181000	826.654297	105.880135
12472.851702	3942.181000	825.469727	28.132345
12472.851702	3942.181000	824.284180	34.323380
12472.851702	3942.181000	823.099609	150.048447
12472.851702	3942.181000	821.914063	158.447876
12472.851702	3942.181000	820.728516	138.829636
12472.851702	3942.181000	819.542969	-71.899902
12472.851702	3942.181000	818.356445	260.222870
12472.851702	3942.181000	817.169922	-29.730282
12472.851702	3942.181000	815.983398	57.639179
12472.851702	3942.181000	814.796875	-27.362944
12472.851702	3942.181000	813.609375	-14.611075
12472.851702	3942.181000	812.422852	-1.911673
12472.851702	3942.181000	811.235352	66.579010
12472.851702	3942.181000	810.046875	-41.802101
12472.851702	3942.181000	808.859375	61.462982
12472.851702	3942.181000	807.670898	-84.171875
12472.851702	3942.181000	806.482422	46.866375
12472.851702	3942.181000	805.293945	-138.311813
12472.851702	3942.181000	804.104492	187.797760
12472.851702	3942.181000	802.915039	44.397110
12472.851702	3942.181000	801.725586	161.178772
12472.851702	3942.181000	800.536133	301.090118
12472.851702	3942.181000	799.345703	183.159546
12472.851702	3942.181000	798.155273	151.127396
12472.851702	3942.181000	796.964844	188.692978
12472.851702	3942.181000	795.774414	365.428650
12472.851702	3942.181000	794.583008	377.322693
12472.851702	3942.181000	793.392578	266.229980
12472.851702	3942.181000	792.200195	394.003510
12472.851702	3942.181000	791.008789	382.562012
12472.851702	3942.181000	789.816406	95.223404
12472.851702	3942.181000	788.625000	264.535248
12472.851702	3942.181000	787.432617	243.724594
12472.851702	3942.181000	786.239258	202.026764
12472.851702	3942.181000	785.046875	153.352798
12472.851702	3942.181000	783.853516	44.445110
12472.851702	3942.181000	782.660156	55.931183
12472.851702	3942.181000	781.465820	-59.945293
12472.851702	3942.181000	780.272461	224.553177
12472.851702	3942.181000	779.078125	53.070095
12472.851702	3942.181000	777.883789	96.752602
12472.851702	3942.181000	776.688477	253.701660
12472.851702	3942.181000	775.494141	232.489044
12472.851702	3942.181000	774.298828	282.909332
12472.851702	3942.181000	773.103516	284.725037
12472.851702	3942.181000	771.907227	221.788956
12472.851702	3942.181000	770.711914	410.674103
12472.851702	3942.181000	769.515625	303.760681
12472.851702	3942.181000	768.318359	407.010651
12472.851702	3942.181000	767.122070	325.453247
12472.851702	3942.181000	765.924805	456.270294
12472.851702	3942.181000	764.727539	644.689392
12472.851702	3942.181000	763.530273	491.467468
12472.851702	3942.181000	762.333008	478.998138
12472.851702	3942.181000	761.134766	422.664215
12472.851702	3942.181000	759.936523	509.289093
12472.851702	3942.181000	758.738281	429.827972
12472.851702	3942.181000	757.540039	557.821960
12472.851702	3942.181000	756.340820	469.078461
12472.851702	3942.181000	755.141602	299.680847
12472.851702	3942.181000	753.942383	81.932915
12472.851702	3942.181000	752.742188	329.485718
12472.851702	3942.181000	751.541992	339.707886
12472.851702	3942.181000	750.341797	283.117065
12472.851702	3942.181000	749.141602	449.781738
12472.851702	3942.181000	747.941406	535.787964
12472.851702	3942.181000	746.740234	488.265106
12472.851702	3942.181000	745.539063	698.360291
12472.851702	3942.181000	744.337891	722.034607
12472.851702	3942.181000	743.135742	522.612549
12472.851702	3942.181000	741.933594	325.530548
12472.851702	3942.181000	740.731445	434.181152
12472.851702	3942.181000	739.529297	124.515732
12472.851702	3942.181000	738.326172	322.678070
12472.851702	3942.181000	737.124023	189.950150
12472.851702	3942.181000	735.919922	146.795380
12472.851702	3942.181000	734.716797	216.124603
12472.851702	3942.181000	733.513672	177.491776
12472.851702	3942.181000	732.309570	170.963409
12472.851702	3942.181000	731.105469	150.627472
12472.851702	3942.181000	729.900391	261.021118
12472.851702	3942.181000	728.696289	375.916992
12472.851702	3942.181000	727.491211	476.962555
12472.851702	3942.181000	726.286133	360.118927
12472.851702	3942.181000	725.080078	348.722931
12472.851702	3942.181000	723.874023	440.417419
12472.851702	3942.181000	722.668945	697.004517
12472.851702	3942.181000	721.461914	538.810791
12472.851702	3942.181000	720.255859	602.800903
12472.851702	3942.181000	719.048828	540.783020
12472.851702	3942.181000	717.841797	375.730255
12472.851702	3942.181000	716.634766	297.681763
12472.851702	3942.181000	715.427734	148.686554
12472.851702	3942.181000	714.219727	175.879013
12472.851702	3942.181000	713.011719	15.451126
12472.851702	3942.181000	711.803711	102.039757
12472.851702	3942.181000	710.594727	-14.945367
12472.851702	3942.181000	709.385742	114.964188
12472.851702	3942.181000	708.176758	11.659204
12472.851702	3942.181000	706.967773	-27.662909
12472.851702	3942.181000	705.758789	-233.777374
12472.851702	3942.181000	704.548828	-94.956253
12472.851702	3942.181000	703.338867	-109.231903
12472.851702	3942.181000	702.127930	-146.374481
12472.851702	3942.181000	700.917969	8.202651
12472.851702	3942.181000	699.707031	-140.851501
12472.851702	3942.181000	698.496094	-155.263550
12472.851702	3942.181000	697.285156	-146.897568
12472.851702	3942.181000	696.073242	-29.100975
12472.851702	3942.181000	694.861328	-96.091476
12472.851702	3942.181000	693.649414	67.162354
12472.851702	3942.181000	692.436523	70.758339
12472.851702	3942.181000	691.224609	144.960373
12472.851702	3942.181000	690.011719	248.708969
12472.851702	3942.181000	688.798828	236.206543
12472.851702	3942.181000	687.584961	139.407227
12472.851702	3942.181000	686.372070	377.314423
12472.851702	3942.181000	685.158203	230.371368
12472.851702	3942.181000	683.943359	210.901459
12472.851702	3942.181000	682.729492	332.483429
12472.851702	3942.181000	681.514648	287.902222
12472.851702	3942.181000	680.299805	388.870148
12472.851702	3942.181000	679.084961	394.251709
12472.851702	3942.181000	677.869141	676.960815
12472.851702	3942.181000	676.653320	404.894531
12472.851702	3942.181000	675.437500	405.613617
12472.851702	3942.181000	674.221680	542.623230
12472.851702	3942.181000	673.004883	543.239502
12472.851702	3942.181000	671.789063	403.014374
12472.851702	3942.181000	670.571289	453.542358
12472.851702	3942.181000	669.354492	404.129852
12472.851702	3942.181000	668.136719	338.813171
12472.851702	3942.181000	666.919922	343.838806
12472.851702	3942.181000	665.701172	398.733551
12472.851702	3942.181000	664.483398	140.557098
12472.851702	3942.181000	663.264648	342.810394
12472.851702	3942.181000	662.045898	599.360596
12472.851702	3942.181000	660.827148	200.660065
12472.851702	3942.181000	659.608398	146.578262
12472.851702	3942.181000	658.388672	357.590332
12472.851702	3942.181000	657.168945	382.718719
12472.851702	3942.181000	655.949219	339.859253
12472.851702	3942.181000	654.728516	219.991882
12472.851702	3942.181000	653.507813	333.330597
12472.851702	3942.181000	652.287109	202.136444
12472.851702	3942.181000	651.066406	313.106995
12472.851702	3942.181000	649.844727	374.221161
12472.851702	3942.181000	648.623047	358.370758
12472.851702	3942.181000	647.401367	419.390106
12472.851702	3942.181000	646.179688	398.956299
12472.851702	3942.181000	644.957031	618.121399
12472.851702	3942.181000	643.734375	491.367188
12472.851702	3942.181000	642.511719	364.638336
12472.851702	3942.181000	641.289063	472.887360
12472.851702	3942.181000	640.065430	605.905518
12472.851702	3942.181000	638.841797	544.633606
12472.851702	3942.181000	637.618164	440.464661
12472.851702	3942.181000	636.393555	444.656647
12472.851702	3942.181000	635.168945	342.752045
12472.851702	3942.181000	633.944336	322.092102
12472.851702	3942.181000	632.719727	301.415405
12472.851702	3942.181000	631.494141	57.438957
12472.851702	3942.181000	630.269531	424.612793
12472.851702	3942.181000	629.042969	358.756836
12472.851702	3942.181000	627.817383	935.272705
12472.851702	3942.181000	626.590820	1038.295898
12472.851702	3942.181000	625.365234	1476.945557
12472.851702	3942.181000	624.137695	1566.244629
12472.851702	3942.181000	622.911133	1349.216919
12472.851702	3942.181000	621.683594	1141.260620
12472.851702	3942.181000	620.456055	859.086487
12472.851702	3942.181000	619.228516	734.550232
12472.851702	3942.181000	618.000977	641.546936
12472.851702	3942.181000	616.772461	512.563904
12472.851702	3942.181000	615.543945	327.388062
12472.851702	3942.181000	614.314453	371.629730
12472.851702	3942.181000	613.085938	379.866425
12472.851702	3942.181000	611.856445	158.811508
12472.851702	3942.181000	610.626953	324.353607
12472.851702	3942.181000	609.397461	280.860321
12472.851702	3942.181000	608.166992	156.497574
12472.851702	3942.181000	606.936523	252.258530
12472.851702	3942.181000	605.706055	332.245178
12472.851702	3942.181000	604.474609	497.479889
12472.851702	3942.181000	603.244141	633.457336
12472.851702	3942.181000	602.012695	829.941589
12472.851702	3942.181000	600.780273	947.803101
12472.851702	3942.181000	599.548828	962.431152
12472.851702	3942.181000	598.316406	851.455994
12472.851702	3942.181000	597.083984	742.757507
12472.851702	3942.181000	595.851563	737.200378
12472.851702	3942.181000	594.618164	628.541321
12472.851702	3942.181000	593.384766	555.765808
12472.851702	3942.181000	592.151367	431.487457
12472.851702	3942.181000	590.917969	443.865051
12472.851702	3942.181000	589.683594	333.072174
12472.851702	3942.181000	588.449219	206.644119
12472.851702	3942.181000	587.214844	174.262955
12472.851702	3942.181000	585.979492	121.742935
12472.851702	3942.181000	584.745117	201.235245
12472.851702	3942.181000	583.509766	133.056396
12472.851702	3942.181000	582.273438	145.399216
12472.851702	3942.181000	581.038086	269.521332
12472.851702	3942.181000	579.801758	317.579071
12472.851702	3942.181000	578.565430	157.771820
12472.851702	3942.181000	577.329102	277.318726
12472.851702	3942.181000	576.091797	311.916840
12472.851702	3942.181000	574.854492	589.933472
12472.851702	3942.181000	573.617188	584.247925
12472.851702	3942.181000	572.378906	299.499634
12472.851702	3942.181000	571.141602	345.204041
12472.851702	3942.181000	569.903320	256.991028
12472.851702	3942.181000	568.664063	157.653030
12472.851702	3942.181000	567.425781	76.202553
12472.851702	3942.181000	566.186523	119.663025
12472.851702	3942.181000	564.947266	49.393932
12472.851702	3942.181000	563.708008	95.065575
12472.851702	3942.181000	562.467773	147.398361
12472.851702	3942.181000	561.227539	115.037857
12472.851702	3942.181000	559.987305	42.591862
12472.851702	3942.181000	558.747070	88.217949
12472.851702	3942.181000	557.505859	75.924576
12472.851702	3942.181000	556.264648	-0.922979
12472.851702	3942.181000	555.023438	86.968567
12472.851702	3942.181000	553.781250	150.340073
12472.851702	3942.181000	552.539063	122.469872
12472.851702	3942.181000	551.296875	-156.738434
12472.851702	3942.181000	550.054688	-57.768955
12472.851702	3942.181000	548.811523	158.996109
12472.851702	3942.181000	547.569336	55.574921
12472.851702	3942.181000	546.325195	-150.040085
12472.851702	3942.181000	545.082031	-171.136795
12472.851702	3942.181000	543.837891	-96.702576
12472.851702	3942.181000	542.593750	64.322968
12472.851702	3942.181000	541.349609	-16.756283
12472.851702	3942.181000	540.105469	97.568634
12472.851702	3942.181000	538.860352	-198.779892
12472.851702	3942.181000	537.615234	157.420578
12472.851702	3942.181000	536.369141	-72.251366
12472.851702	3942.181000	535.124023	59.743675
12472.851702	3942.181000	533.877930	23.137976
12472.851702	3942.181000	532.631836	-31.185980
12472.851702	3942.181000	531.384766	-47.802952
12472.851702	3942.181000	530.138672	-228.406113
12472.851702	3942.181000	528.891602	-27.817915
12472.851702	3942.181000	527.643555	-24.478804
12472.851702	3942.181000	526.396484	-25.561546
12472.851702	3942.181000	525.148438	-31.073202
12472.851702	3942.181000	523.900391	-1.156880
12472.851702	3942.181000	522.652344	46.457790
12472.851702	3942.181000	521.403320	-23.233797
12472.851702	3942.181000	520.154297	-33.156097
12472.851702	3942.181000	518.905273	-96.157967
12472.851702	3942.181000	517.656250	-207.783615
12472.851702	3942.181000	516.406250	-91.626595
12472.851702	3942.181000	515.156250	-194.361526
12472.851702	3942.181000	513.906250	-87.093231
12472.851702	3942.181000	512.655273	-200.834320
12472.851702	3942.181000	511.404297	-221.741943
12472.851702	3942.181000	510.153320	-107.911255
12472.851702	3942.181000	508.902344	-208.323242
12472.851702	3942.181000	507.650391	-121.041397
12472.851702	3942.181000	506.398438	-161.816788
12472.851702	3942.181000	505.146484	-107.686157
12472.851702	3942.181000	503.893555	-27.110580
12472.851702	3942.181000	502.641602	-224.498001
12472.851702	3942.181000	501.388672	-137.321777
12472.851702	3942.181000	500.134766	24.773735
12472.851702	3942.181000	498.881836	103.032837
12472.851702	3942.181000	497.627930	-19.309023
12472.851702	3942.181000	496.374023	-172.451477
12472.851702	3942.181000	495.119141	-120.666527
12472.851702	3942.181000	493.865234	-154.804749
12472.851702	3942.181000	492.610352	-208.759842
12472.851702	3942.181000	491.355469	-18.333195
12472.851702	3942.181000	490.099609	-182.376129
12472.851702	3942.181000	488.843750	-183.518250
12472.851702	3942.181000	487.587891	-178.074356
12472.851702	3942.181000	486.332031	-53.868050
12472.851702	3942.181000	485.075195	-28.700119
12472.851702	3942.181000	483.818359	-84.914268
12472.851702	3942.181000	482.561523	-130.133133
12472.851702	3942.181000	481.304688	59.804787
12472.851702	3942.181000	480.046875	78.243889
12472.851702	3942.181000	478.789063	17.565845
12472.851702	3942.181000	477.531250	-12.365905
12472.851702	3942.181000	476.272461	43.320110
12472.851702	3942.181000	475.013672	19.917517
12472.851702	3942.181000	473.754883	-7.898942
12472.851702	3942.181000	472.496094	-59.877449
12472.851702	3942.181000	471.236328	-21.923290
12472.851702	3942.181000	469.976563	18.168070
12472.851702	3942.181000	468.716797	143.727310
12472.851702	3942.181000	467.456055	67.468941
12472.851702	3942.181000	466.196289	-10.990639
12472.851702	3942.181000	464.935547	96.813942
12472.851702	3942.181000	463.673828	283.394562
12472.851702	3942.181000	462.413086	117.150780
12472.851702	3942.181000	461.151367	167.742798
12472.851702	3942.181000	459.889648	382.478210
12472.851702	3942.181000	458.626953	277.426086
12472.851702	3942.181000	457.364258	233.635101
12472.851702	3942.181000	456.101563	165.722198
12472.851702	3942.181000	454.838867	235.596115
12472.851702	3942.181000	453.575195	381.913177
12472.851702	3942.181000	452.312500	309.404968
12472.851702	3942.181000	451.047852	232.460022
12472.851702	3942.181000	449.784180	118.304459
12472.851702	3942.181000	448.519531	445.558289
12472.851702	3942.181000	447.254883	235.071594
12472.851702	3942.181000	445.990234	85.741615
12472.851702	3942.181000	444.725586	233.397141
12472.851702	3942.181000	443.459961	81.727196
12472.851702	3942.181000	442.194336	102.471283
12472.851702	3942.181000	440.927734	123.082649
12472.851702	3942.181000	439.662109	259.218964
12472.851702	3942.181000	438.395508	360.255737
12472.851702	3942.181000	437.127930	125.204315
12472.851702	3942.181000	435.861328	132.182495
12472.851702	3942.181000	434.593750	119.384155
12472.851702	3942.181000	433.326172	-37.424168
12472.851702	3942.181000	432.058594	165.264679
12472.851702	3942.181000	430.790039	123.668564
12472.851702	3942.181000	429.521484	260.548065
12472.851702	3942.181000	428.252930	161.983139
12472.851702	3942.181000	426.984375	80.700043
12472.851702	3942.181000	425.714844	95.043411
12472.851702	3942.181000	424.445313	48.247349
12472.851702	3942.181000	423.174805	179.694916
12472.851702	3942.181000	421.905273	128.142731
12472.851702	3942.181000	420.634766	259.095459
12472.851702	3942.181000	419.364258	191.882828
12472.851702	3942.181000	418.092773	152.725433
12472.851702	3942.181000	416.822266	337.241791
12472.851702	3942.181000	415.550781	393.208954
12472.851702	3942.181000	414.278320	199.028641
12472.851702	3942.181000	413.006836	232.765244
12472.851702	3942.181000	411.734375	83.782013
12472.851702	3942.181000	410.461914	245.078461
12472.851702	3942.181000	409.188477	-125.841385
12472.851702	3942.181000	407.916016	102.128716
12472.851702	3942.181000	406.642578	151.754761
12472.851702	3942.181000	405.368164	172.831497
12472.851702	3942.181000	404.094727	-16.800722
12472.851702	3942.181000	402.820313	14.486330
12472.851702	3942.181000	401.545898	30.239126
12472.851702	3942.181000	400.270508	125.816826
12472.851702	3942.181000	398.996094	54.136173
12472.851702	3942.181000	397.720703	-78.566315
12472.851702	3942.181000	396.444336	130.633194
12472.851702	3942.181000	395.168945	-48.293854
12472.851702	3942.181000	393.892578	207.630707
12472.851702	3942.181000	392.616211	175.116699
12472.851702	3942.181000	391.339844	183.301697
12472.851702	3942.181000	390.062500	-34.008400
12472.851702	3942.181000	388.785156	120.400307
12472.851702	3942.181000	387.507813	51.497597
12472.851702	3942.181000	386.229492	40.507446
12472.851702	3942.181000	384.951172	-27.188107
12472.851702	3942.181000	383.672852	96.996117
12472.851702	3942.181000	382.394531	2.344245
12472.851702	3942.181000	381.115234	47.604870
12472.851702	3942.181000	379.835938	27.486578
12472.851702	3942.181000	378.556641	39.198383
12472.851702	3942.181000	377.277344	-3.660360
12472.851702	3942.181000	375.997070	108.296616
12472.851702	3942.181000	374.716797	66.358429
12472.851702	3942.181000	373.435547	133.821854
12472.851702	3942.181000	372.155273	-40.980412
12472.851702	3942.181000	370.874023	96.325523
12472.851702	3942.181000	369.591797	-105.666389
12472.851702	3942.181000	368.310547	-45.251335
12472.851702	3942.181000	367.028320	70.430702
12472.851702	3942.181000	365.746094	-8.615263
12472.851702	3942.181000	364.463867	94.734161
12472.851702	3942.181000	363.180664	145.541168
12472.851702	3942.181000	361.897461	64.167778
12472.851702	3942.181000	360.614258	-114.873093
12472.851702	3942.181000	359.330078	-152.636475
12472.851702	3942.181000	358.045898	-42.756802
12472.851702	3942.181000	356.761719	-80.111931
12472.851702	3942.181000	355.477539	-98.995178
12472.851702	3942.181000	354.192383	-90.865250
12472.851702	3942.181000	352.907227	-27.783293
12472.851702	3942.181000	351.622070	-90.381721
12472.851702	3942.181000	350.336914	-35.739643
12472.851702	3942.181000	349.050781	62.953056
12472.851702	3942.181000	347.764648	136.929352
12472.851702	3942.181000	346.477539	89.496887
12472.851702	3942.181000	345.191406	148.392654
12472.851702	3942.181000	343.904297	218.992249
12472.851702	3942.181000	342.616211	344.187927
12472.851702	3942.181000	341.329102	107.679352
12472.851702	3942.181000	340.041016	37.385368
12472.851702	3942.181000	338.752930	141.786530
12472.851702	3942.181000	337.463867	133.334366
12472.851702	3942.181000	336.175781	-77.897049
12472.851702	3942.181000	334.886719	-39.587021
12472.851702	3942.181000	333.596680	-62.683998
12472.851702	3942.181000	332.307617	-108.525589
12472.851702	3942.181000	331.017578	-226.483215
12472.851702	3942.181000	329.727539	-290.137695
12472.851702	3942.181000	328.436523	-237.506271
12472.851702	3942.181000	327.146484	-259.134155
12472.851702	3942.181000	325.855469	-196.717941
12472.851702	3942.181000	324.563477	-163.759109
12472.851702	3942.181000	323.272461	-21.115068
12472.851702	3942.181000	321.980469	0.004981
12472.851702	3942.181000	320.688477	-119.550194
12472.851702	3942.181000	319.395508	-227.983063
12472.851702	3942.181000	318.103516	-122.166008
12472.851702	3942.181000	316.810547	-202.012970
12472.851702	3942.181000	315.516602	2.600744
12472.851702	3942.181000	314.223633	-33.912880
12472.851702	3942.181000	312.929688	-138.568542
12472.851702	3942.181000	311.635742	117.868011
12472.851702	3942.181000	310.340820	135.202728
12472.851702	3942.181000	309.045898	-7.419498
12472.851702	3942.181000	307.750977	304.590027
12472.851702	3942.181000	306.456055	283.702118
12472.851702	3942.181000	305.160156	386.448181
12472.851702	3942.181000	303.865234	318.576996
12472.851702	3942.181000	302.568359	702.454834
12472.851702	3942.181000	301.272461	602.254700
12472.851702	3942.181000	299.975586	693.618713
12472.851702	3942.181000	298.678711	904.009155
