#X		#Y		#Wave		#Intensity
12480.564043	3944.629333	1999.980469	-63.086292
12480.564043	3944.629333	1999.016602	42.911415
12480.564043	3944.629333	1998.052734	-31.790693
12480.564043	3944.629333	1997.087891	-166.183929
12480.564043	3944.629333	1996.123047	108.045494
12480.564043	3944.629333	1995.158203	136.693619
12480.564043	3944.629333	1994.193359	-114.767937
12480.564043	3944.629333	1993.228516	-91.487839
12480.564043	3944.629333	1992.262695	5.852127
12480.564043	3944.629333	1991.297852	142.550491
12480.564043	3944.629333	1990.332031	-79.857033
12480.564043	3944.629333	1989.366211	83.641144
12480.564043	3944.629333	1988.399414	-134.097153
12480.564043	3944.629333	1987.433594	68.562500
12480.564043	3944.629333	1986.466797	-60.411724
12480.564043	3944.629333	1985.500977	186.328888
12480.564043	3944.629333	1984.534180	99.080589
12480.564043	3944.629333	1983.567383	-3.118456
12480.564043	3944.629333	1982.599609	40.377743
12480.564043	3944.629333	1981.632813	286.317047
12480.564043	3944.629333	1980.665039	-75.669197
12480.564043	3944.629333	1979.697266	-81.991951
12480.564043	3944.629333	1978.729492	-98.316788
12480.564043	3944.629333	1977.761719	-141.914886
12480.564043	3944.629333	1976.792969	100.734131
12480.564043	3944.629333	1975.825195	103.780243
12480.564043	3944.629333	1974.856445	-226.402374
12480.564043	3944.629333	1973.887695	57.747929
12480.564043	3944.629333	1972.918945	-25.836573
12480.564043	3944.629333	1971.949219	-55.225517
12480.564043	3944.629333	1970.980469	-62.502884
12480.564043	3944.629333	1970.010742	147.083786
12480.564043	3944.629333	1969.041016	-47.719421
12480.564043	3944.629333	1968.071289	210.916656
12480.564043	3944.629333	1967.101563	25.879652
12480.564043	3944.629333	1966.130859	13.284286
12480.564043	3944.629333	1965.161133	249.388641
12480.564043	3944.629333	1964.190430	-68.726357
12480.564043	3944.629333	1963.219727	-49.477879
12480.564043	3944.629333	1962.249023	102.635391
12480.564043	3944.629333	1961.277344	143.887527
12480.564043	3944.629333	1960.306641	98.948776
12480.564043	3944.629333	1959.334961	78.583549
12480.564043	3944.629333	1958.363281	28.664476
12480.564043	3944.629333	1957.391602	20.531252
12480.564043	3944.629333	1956.419922	191.860382
12480.564043	3944.629333	1955.447266	87.747360
12480.564043	3944.629333	1954.474609	256.473755
12480.564043	3944.629333	1953.501953	56.479515
12480.564043	3944.629333	1952.529297	82.579414
12480.564043	3944.629333	1951.556641	118.470024
12480.564043	3944.629333	1950.583984	78.180817
12480.564043	3944.629333	1949.610352	195.049728
12480.564043	3944.629333	1948.636719	93.338493
12480.564043	3944.629333	1947.663086	89.838051
12480.564043	3944.629333	1946.689453	44.598045
12480.564043	3944.629333	1945.715820	171.128983
12480.564043	3944.629333	1944.741211	106.235107
12480.564043	3944.629333	1943.767578	-287.341553
12480.564043	3944.629333	1942.792969	-126.520668
12480.564043	3944.629333	1941.818359	44.039135
12480.564043	3944.629333	1940.842773	96.852692
12480.564043	3944.629333	1939.868164	73.654984
12480.564043	3944.629333	1938.892578	-5.903710
12480.564043	3944.629333	1937.916992	-151.592621
12480.564043	3944.629333	1936.941406	116.774849
12480.564043	3944.629333	1935.965820	17.647934
12480.564043	3944.629333	1934.990234	-59.404099
12480.564043	3944.629333	1934.013672	52.096973
12480.564043	3944.629333	1933.037109	90.118912
12480.564043	3944.629333	1932.060547	106.100922
12480.564043	3944.629333	1931.083984	11.963591
12480.564043	3944.629333	1930.107422	-184.892075
12480.564043	3944.629333	1929.129883	7.257922
12480.564043	3944.629333	1928.153320	-167.506470
12480.564043	3944.629333	1927.175781	117.491600
12480.564043	3944.629333	1926.198242	55.237057
12480.564043	3944.629333	1925.219727	44.341412
12480.564043	3944.629333	1924.242188	70.109924
12480.564043	3944.629333	1923.263672	105.647987
12480.564043	3944.629333	1922.285156	-0.510864
12480.564043	3944.629333	1921.306641	-13.810852
12480.564043	3944.629333	1920.328125	239.075256
12480.564043	3944.629333	1919.349609	167.148438
12480.564043	3944.629333	1918.370117	153.840240
12480.564043	3944.629333	1917.391602	-66.911705
12480.564043	3944.629333	1916.412109	129.693069
12480.564043	3944.629333	1915.431641	162.770645
12480.564043	3944.629333	1914.452148	-6.619412
12480.564043	3944.629333	1913.472656	63.060650
12480.564043	3944.629333	1912.492188	149.788010
12480.564043	3944.629333	1911.511719	56.083935
12480.564043	3944.629333	1910.531250	96.476395
12480.564043	3944.629333	1909.550781	44.252102
12480.564043	3944.629333	1908.569336	-15.258376
12480.564043	3944.629333	1907.588867	22.696594
12480.564043	3944.629333	1906.607422	9.493336
12480.564043	3944.629333	1905.625977	-84.064896
12480.564043	3944.629333	1904.644531	-33.939610
12480.564043	3944.629333	1903.662109	-90.939064
12480.564043	3944.629333	1902.680664	-150.351837
12480.564043	3944.629333	1901.698242	45.756817
12480.564043	3944.629333	1900.715820	22.831615
12480.564043	3944.629333	1899.733398	245.587662
12480.564043	3944.629333	1898.750000	-52.184837
12480.564043	3944.629333	1897.767578	-162.623215
12480.564043	3944.629333	1896.784180	-178.213760
12480.564043	3944.629333	1895.800781	49.257622
12480.564043	3944.629333	1894.817383	-129.199158
12480.564043	3944.629333	1893.833984	22.843769
12480.564043	3944.629333	1892.850586	-162.844971
12480.564043	3944.629333	1891.866211	-76.447037
12480.564043	3944.629333	1890.881836	46.334576
12480.564043	3944.629333	1889.897461	-132.000076
12480.564043	3944.629333	1888.913086	-162.206863
12480.564043	3944.629333	1887.927734	-61.356243
12480.564043	3944.629333	1886.943359	-200.785812
12480.564043	3944.629333	1885.958008	60.125130
12480.564043	3944.629333	1884.972656	-120.539314
12480.564043	3944.629333	1883.987305	-303.579010
12480.564043	3944.629333	1883.001953	-81.642509
12480.564043	3944.629333	1882.015625	-61.020184
12480.564043	3944.629333	1881.029297	-35.579117
12480.564043	3944.629333	1880.042969	-58.634865
12480.564043	3944.629333	1879.056641	73.359322
12480.564043	3944.629333	1878.070313	18.752888
12480.564043	3944.629333	1877.083984	5.316196
12480.564043	3944.629333	1876.096680	-175.227692
12480.564043	3944.629333	1875.109375	9.852824
12480.564043	3944.629333	1874.122070	-15.759803
12480.564043	3944.629333	1873.134766	-201.123398
12480.564043	3944.629333	1872.146484	-248.523834
12480.564043	3944.629333	1871.159180	-73.367531
12480.564043	3944.629333	1870.170898	60.570770
12480.564043	3944.629333	1869.182617	10.630238
12480.564043	3944.629333	1868.194336	-63.507713
12480.564043	3944.629333	1867.205078	-111.061783
12480.564043	3944.629333	1866.216797	-1.531825
12480.564043	3944.629333	1865.227539	-22.575768
12480.564043	3944.629333	1864.238281	-38.820110
12480.564043	3944.629333	1863.249023	-146.894989
12480.564043	3944.629333	1862.259766	112.135895
12480.564043	3944.629333	1861.269531	66.768394
12480.564043	3944.629333	1860.279297	166.229691
12480.564043	3944.629333	1859.290039	-91.639603
12480.564043	3944.629333	1858.298828	19.785101
12480.564043	3944.629333	1857.308594	37.014458
12480.564043	3944.629333	1856.318359	-121.923515
12480.564043	3944.629333	1855.327148	61.652317
12480.564043	3944.629333	1854.335938	141.407883
12480.564043	3944.629333	1853.344727	-75.486183
12480.564043	3944.629333	1852.353516	-17.540844
12480.564043	3944.629333	1851.362305	37.915524
12480.564043	3944.629333	1850.370117	180.043289
12480.564043	3944.629333	1849.377930	13.668822
12480.564043	3944.629333	1848.385742	119.494026
12480.564043	3944.629333	1847.393555	112.023560
12480.564043	3944.629333	1846.401367	116.531631
12480.564043	3944.629333	1845.408203	207.642197
12480.564043	3944.629333	1844.415039	53.136993
12480.564043	3944.629333	1843.421875	-127.850380
12480.564043	3944.629333	1842.428711	68.923042
12480.564043	3944.629333	1841.435547	8.145556
12480.564043	3944.629333	1840.441406	103.659569
12480.564043	3944.629333	1839.448242	196.661499
12480.564043	3944.629333	1838.454102	8.250356
12480.564043	3944.629333	1837.459961	86.663475
12480.564043	3944.629333	1836.464844	37.589684
12480.564043	3944.629333	1835.470703	48.532658
12480.564043	3944.629333	1834.475586	174.712921
12480.564043	3944.629333	1833.480469	202.282211
12480.564043	3944.629333	1832.485352	71.256020
12480.564043	3944.629333	1831.490234	105.876457
12480.564043	3944.629333	1830.495117	164.409058
12480.564043	3944.629333	1829.499023	119.623245
12480.564043	3944.629333	1828.502930	103.567642
12480.564043	3944.629333	1827.506836	121.023460
12480.564043	3944.629333	1826.510742	104.800232
12480.564043	3944.629333	1825.513672	213.211990
12480.564043	3944.629333	1824.517578	208.791641
12480.564043	3944.629333	1823.520508	302.579315
12480.564043	3944.629333	1822.523438	139.754166
12480.564043	3944.629333	1821.526367	173.420654
12480.564043	3944.629333	1820.529297	250.112045
12480.564043	3944.629333	1819.531250	65.545235
12480.564043	3944.629333	1818.533203	89.341148
12480.564043	3944.629333	1817.535156	153.743988
12480.564043	3944.629333	1816.537109	316.193298
12480.564043	3944.629333	1815.539063	224.730225
12480.564043	3944.629333	1814.540039	133.200165
12480.564043	3944.629333	1813.541992	295.265076
12480.564043	3944.629333	1812.542969	4.974063
12480.564043	3944.629333	1811.543945	140.483902
12480.564043	3944.629333	1810.543945	53.413124
12480.564043	3944.629333	1809.544922	109.748772
12480.564043	3944.629333	1808.544922	-30.086805
12480.564043	3944.629333	1807.544922	169.446472
12480.564043	3944.629333	1806.544922	103.527557
12480.564043	3944.629333	1805.544922	82.924286
12480.564043	3944.629333	1804.544922	86.111549
12480.564043	3944.629333	1803.543945	117.847885
12480.564043	3944.629333	1802.542969	228.266754
12480.564043	3944.629333	1801.541992	-117.492882
12480.564043	3944.629333	1800.541016	14.194352
12480.564043	3944.629333	1799.539063	109.914764
12480.564043	3944.629333	1798.538086	191.175400
12480.564043	3944.629333	1797.536133	164.928757
12480.564043	3944.629333	1796.534180	26.468170
12480.564043	3944.629333	1795.532227	-11.889517
12480.564043	3944.629333	1794.529297	185.706207
12480.564043	3944.629333	1793.527344	180.480362
12480.564043	3944.629333	1792.524414	203.736969
12480.564043	3944.629333	1791.521484	131.546371
12480.564043	3944.629333	1790.518555	166.484283
12480.564043	3944.629333	1789.514648	-210.827744
12480.564043	3944.629333	1788.511719	107.351105
12480.564043	3944.629333	1787.507813	-55.729843
12480.564043	3944.629333	1786.503906	145.396881
12480.564043	3944.629333	1785.500000	91.629326
12480.564043	3944.629333	1784.496094	28.243525
12480.564043	3944.629333	1783.491211	93.246185
12480.564043	3944.629333	1782.486328	101.007629
12480.564043	3944.629333	1781.481445	189.515854
12480.564043	3944.629333	1780.476563	23.412176
12480.564043	3944.629333	1779.471680	152.079132
12480.564043	3944.629333	1778.465820	111.787628
12480.564043	3944.629333	1777.460938	111.800720
12480.564043	3944.629333	1776.455078	47.524590
12480.564043	3944.629333	1775.449219	-21.602108
12480.564043	3944.629333	1774.442383	20.811235
12480.564043	3944.629333	1773.436523	-53.279903
12480.564043	3944.629333	1772.429688	74.357933
12480.564043	3944.629333	1771.422852	-9.465954
12480.564043	3944.629333	1770.416016	44.286427
12480.564043	3944.629333	1769.409180	50.431400
12480.564043	3944.629333	1768.402344	42.214031
12480.564043	3944.629333	1767.394531	-117.956230
12480.564043	3944.629333	1766.386719	-147.741089
12480.564043	3944.629333	1765.378906	97.435623
12480.564043	3944.629333	1764.371094	-98.591110
12480.564043	3944.629333	1763.362305	96.446167
12480.564043	3944.629333	1762.354492	-7.324378
12480.564043	3944.629333	1761.345703	-108.820084
12480.564043	3944.629333	1760.336914	-91.947945
12480.564043	3944.629333	1759.328125	-184.163895
12480.564043	3944.629333	1758.318359	-51.500778
12480.564043	3944.629333	1757.308594	66.780334
12480.564043	3944.629333	1756.299805	-167.824310
12480.564043	3944.629333	1755.290039	59.059624
12480.564043	3944.629333	1754.279297	39.618523
12480.564043	3944.629333	1753.269531	-15.417591
12480.564043	3944.629333	1752.258789	-191.207230
12480.564043	3944.629333	1751.249023	70.487938
12480.564043	3944.629333	1750.238281	43.469910
12480.564043	3944.629333	1749.226563	115.621437
12480.564043	3944.629333	1748.215820	-122.008812
12480.564043	3944.629333	1747.204102	-128.085312
12480.564043	3944.629333	1746.193359	38.210613
12480.564043	3944.629333	1745.181641	55.482643
12480.564043	3944.629333	1744.168945	23.015966
12480.564043	3944.629333	1743.157227	-30.802616
12480.564043	3944.629333	1742.144531	-94.176704
12480.564043	3944.629333	1741.132813	-103.344994
12480.564043	3944.629333	1740.120117	113.925026
12480.564043	3944.629333	1739.106445	17.150089
12480.564043	3944.629333	1738.093750	-32.512272
12480.564043	3944.629333	1737.080078	-188.430740
12480.564043	3944.629333	1736.067383	-63.762749
12480.564043	3944.629333	1735.053711	-94.889099
12480.564043	3944.629333	1734.040039	-114.335426
12480.564043	3944.629333	1733.025391	-159.831284
12480.564043	3944.629333	1732.011719	-127.650345
12480.564043	3944.629333	1730.997070	-36.710350
12480.564043	3944.629333	1729.982422	-136.723923
12480.564043	3944.629333	1728.967773	19.893534
12480.564043	3944.629333	1727.952148	-28.533279
12480.564043	3944.629333	1726.937500	-100.586456
12480.564043	3944.629333	1725.921875	-111.540199
12480.564043	3944.629333	1724.906250	-141.430740
12480.564043	3944.629333	1723.890625	-143.187057
12480.564043	3944.629333	1722.875000	-140.351395
12480.564043	3944.629333	1721.858398	-147.049789
12480.564043	3944.629333	1720.841797	-160.910782
12480.564043	3944.629333	1719.825195	57.879906
12480.564043	3944.629333	1718.808594	15.557412
12480.564043	3944.629333	1717.791992	-186.669449
12480.564043	3944.629333	1716.774414	-88.176163
12480.564043	3944.629333	1715.756836	169.922028
12480.564043	3944.629333	1714.739258	33.212868
12480.564043	3944.629333	1713.721680	-37.794968
12480.564043	3944.629333	1712.704102	102.431625
12480.564043	3944.629333	1711.685547	57.036297
12480.564043	3944.629333	1710.667969	63.203072
12480.564043	3944.629333	1709.649414	120.875526
12480.564043	3944.629333	1708.630859	23.580780
12480.564043	3944.629333	1707.611328	29.416267
12480.564043	3944.629333	1706.592773	-44.573818
12480.564043	3944.629333	1705.573242	-29.547155
12480.564043	3944.629333	1704.553711	83.837257
12480.564043	3944.629333	1703.534180	-91.216454
12480.564043	3944.629333	1702.513672	-78.839729
12480.564043	3944.629333	1701.494141	104.489113
12480.564043	3944.629333	1700.473633	69.782501
12480.564043	3944.629333	1699.453125	149.757904
12480.564043	3944.629333	1698.432617	63.353889
12480.564043	3944.629333	1697.412109	140.774643
12480.564043	3944.629333	1696.390625	-16.013050
12480.564043	3944.629333	1695.369141	136.086594
12480.564043	3944.629333	1694.347656	131.269974
12480.564043	3944.629333	1693.326172	182.513824
12480.564043	3944.629333	1692.304688	100.332916
12480.564043	3944.629333	1691.282227	43.805042
12480.564043	3944.629333	1690.260742	41.005531
12480.564043	3944.629333	1689.238281	222.777222
12480.564043	3944.629333	1688.214844	338.940430
12480.564043	3944.629333	1687.192383	174.593369
12480.564043	3944.629333	1686.168945	180.758224
12480.564043	3944.629333	1685.146484	312.990570
12480.564043	3944.629333	1684.123047	153.162842
12480.564043	3944.629333	1683.099609	247.821106
12480.564043	3944.629333	1682.075195	34.206669
12480.564043	3944.629333	1681.051758	226.730179
12480.564043	3944.629333	1680.027344	405.088837
12480.564043	3944.629333	1679.002930	11.701967
12480.564043	3944.629333	1677.978516	329.850189
12480.564043	3944.629333	1676.953125	195.345810
12480.564043	3944.629333	1675.928711	338.317932
12480.564043	3944.629333	1674.903320	583.728821
12480.564043	3944.629333	1673.877930	362.812622
12480.564043	3944.629333	1672.852539	351.652679
12480.564043	3944.629333	1671.826172	284.497650
12480.564043	3944.629333	1670.800781	399.024078
12480.564043	3944.629333	1669.774414	583.301086
12480.564043	3944.629333	1668.748047	716.218567
12480.564043	3944.629333	1667.721680	492.821655
12480.564043	3944.629333	1666.694336	688.421387
12480.564043	3944.629333	1665.667969	483.622498
12480.564043	3944.629333	1664.640625	697.653931
12480.564043	3944.629333	1663.613281	925.509216
12480.564043	3944.629333	1662.585938	615.943665
12480.564043	3944.629333	1661.557617	620.364685
12480.564043	3944.629333	1660.530273	1013.027954
12480.564043	3944.629333	1659.501953	987.056458
12480.564043	3944.629333	1658.473633	1040.069092
12480.564043	3944.629333	1657.444336	1262.625366
12480.564043	3944.629333	1656.416016	1022.753845
12480.564043	3944.629333	1655.386719	850.275513
12480.564043	3944.629333	1654.358398	1195.714966
12480.564043	3944.629333	1653.328125	1148.553955
12480.564043	3944.629333	1652.298828	1229.067383
12480.564043	3944.629333	1651.269531	1397.711670
12480.564043	3944.629333	1650.239258	1357.391724
12480.564043	3944.629333	1649.208984	1421.457275
12480.564043	3944.629333	1648.178711	1487.785889
12480.564043	3944.629333	1647.148438	1530.866943
12480.564043	3944.629333	1646.117188	1678.227051
12480.564043	3944.629333	1645.086914	1647.014160
12480.564043	3944.629333	1644.055664	1720.071289
12480.564043	3944.629333	1643.024414	1969.195435
12480.564043	3944.629333	1641.992188	1819.672729
12480.564043	3944.629333	1640.960938	2033.888550
12480.564043	3944.629333	1639.928711	2282.724121
12480.564043	3944.629333	1638.896484	2341.567871
12480.564043	3944.629333	1637.864258	2113.297852
12480.564043	3944.629333	1636.832031	2503.116211
12480.564043	3944.629333	1635.798828	2351.224365
12480.564043	3944.629333	1634.766602	2312.771240
12480.564043	3944.629333	1633.733398	2669.881348
12480.564043	3944.629333	1632.699219	2647.514893
12480.564043	3944.629333	1631.666016	2671.414063
12480.564043	3944.629333	1630.632813	2854.823730
12480.564043	3944.629333	1629.598633	3070.500732
12480.564043	3944.629333	1628.564453	2981.027344
12480.564043	3944.629333	1627.530273	3034.845215
12480.564043	3944.629333	1626.495117	3023.938965
12480.564043	3944.629333	1625.460938	3248.646973
12480.564043	3944.629333	1624.425781	3196.138428
12480.564043	3944.629333	1623.390625	3429.948975
12480.564043	3944.629333	1622.355469	3665.981445
12480.564043	3944.629333	1621.319336	3684.965820
12480.564043	3944.629333	1620.284180	3784.731201
12480.564043	3944.629333	1619.248047	3605.297607
12480.564043	3944.629333	1618.211914	3931.086670
12480.564043	3944.629333	1617.174805	3488.799072
12480.564043	3944.629333	1616.138672	3683.087402
12480.564043	3944.629333	1615.101563	3847.328857
12480.564043	3944.629333	1614.065430	4041.503174
12480.564043	3944.629333	1613.027344	3933.717285
12480.564043	3944.629333	1611.990234	4157.770996
12480.564043	3944.629333	1610.953125	4188.269043
12480.564043	3944.629333	1609.915039	4251.001953
12480.564043	3944.629333	1608.876953	4221.634766
12480.564043	3944.629333	1607.838867	4516.899902
12480.564043	3944.629333	1606.800781	4575.005859
12480.564043	3944.629333	1605.761719	4734.354492
12480.564043	3944.629333	1604.723633	4771.750000
12480.564043	3944.629333	1603.684570	4689.527832
12480.564043	3944.629333	1602.644531	4823.540527
12480.564043	3944.629333	1601.605469	4948.356934
12480.564043	3944.629333	1600.566406	4771.995605
12480.564043	3944.629333	1599.526367	4501.485840
12480.564043	3944.629333	1598.486328	4355.214844
12480.564043	3944.629333	1597.446289	4484.756836
12480.564043	3944.629333	1596.405273	4382.258301
12480.564043	3944.629333	1595.365234	4165.026367
12480.564043	3944.629333	1594.324219	4044.348145
12480.564043	3944.629333	1593.283203	4231.405273
12480.564043	3944.629333	1592.242188	4147.583008
12480.564043	3944.629333	1591.200195	4112.018555
12480.564043	3944.629333	1590.159180	4301.395508
12480.564043	3944.629333	1589.117188	4481.556641
12480.564043	3944.629333	1588.075195	4767.206055
12480.564043	3944.629333	1587.032227	4789.073730
12480.564043	3944.629333	1585.990234	4937.101563
12480.564043	3944.629333	1584.947266	5007.176758
12480.564043	3944.629333	1583.904297	4976.447266
12480.564043	3944.629333	1582.861328	5188.671875
12480.564043	3944.629333	1581.818359	5394.001465
12480.564043	3944.629333	1580.775391	5558.089355
12480.564043	3944.629333	1579.731445	5683.229492
12480.564043	3944.629333	1578.687500	5558.827637
12480.564043	3944.629333	1577.643555	5475.746094
12480.564043	3944.629333	1576.598633	5477.428223
12480.564043	3944.629333	1575.554688	5131.393555
12480.564043	3944.629333	1574.509766	5053.215332
12480.564043	3944.629333	1573.464844	4952.267090
12480.564043	3944.629333	1572.419922	4721.083496
12480.564043	3944.629333	1571.374023	4599.797852
12480.564043	3944.629333	1570.329102	4542.660645
12480.564043	3944.629333	1569.283203	4350.762207
12480.564043	3944.629333	1568.237305	4218.432129
12480.564043	3944.629333	1567.191406	3999.419678
12480.564043	3944.629333	1566.144531	3974.712891
12480.564043	3944.629333	1565.098633	4096.273438
12480.564043	3944.629333	1564.051758	4128.808594
12480.564043	3944.629333	1563.004883	3955.965088
12480.564043	3944.629333	1561.957031	3970.416992
12480.564043	3944.629333	1560.910156	3670.060791
12480.564043	3944.629333	1559.862305	3595.764404
12480.564043	3944.629333	1558.814453	3391.571045
12480.564043	3944.629333	1557.766602	3447.534912
12480.564043	3944.629333	1556.718750	3544.614258
12480.564043	3944.629333	1555.669922	3208.598145
12480.564043	3944.629333	1554.621094	3141.758545
12480.564043	3944.629333	1553.573242	3122.913574
12480.564043	3944.629333	1552.523438	3124.650146
12480.564043	3944.629333	1551.474609	2859.987305
12480.564043	3944.629333	1550.424805	2716.221680
12480.564043	3944.629333	1549.375000	2948.318115
12480.564043	3944.629333	1548.325195	2893.582031
12480.564043	3944.629333	1547.275391	2743.378174
12480.564043	3944.629333	1546.225586	2584.234863
12480.564043	3944.629333	1545.174805	2575.412842
12480.564043	3944.629333	1544.124023	2716.835205
12480.564043	3944.629333	1543.073242	2605.864258
12480.564043	3944.629333	1542.022461	2686.052002
12480.564043	3944.629333	1540.970703	2736.751709
12480.564043	3944.629333	1539.919922	2551.169922
12480.564043	3944.629333	1538.868164	2515.748535
12480.564043	3944.629333	1537.815430	2507.707764
12480.564043	3944.629333	1536.763672	2527.056641
12480.564043	3944.629333	1535.710938	2457.928711
12480.564043	3944.629333	1534.659180	2509.307373
12480.564043	3944.629333	1533.606445	2306.502197
12480.564043	3944.629333	1532.552734	2285.469971
12480.564043	3944.629333	1531.500000	2189.691162
12480.564043	3944.629333	1530.446289	1783.218384
12480.564043	3944.629333	1529.393555	1910.131226
12480.564043	3944.629333	1528.338867	1719.571899
12480.564043	3944.629333	1527.285156	1871.629517
12480.564043	3944.629333	1526.231445	1982.943604
12480.564043	3944.629333	1525.176758	1765.662720
12480.564043	3944.629333	1524.122070	1691.366577
12480.564043	3944.629333	1523.067383	1755.442871
12480.564043	3944.629333	1522.012695	1289.535034
12480.564043	3944.629333	1520.957031	1412.801758
12480.564043	3944.629333	1519.901367	1334.616455
12480.564043	3944.629333	1518.845703	1256.595947
12480.564043	3944.629333	1517.790039	1319.078003
12480.564043	3944.629333	1516.734375	1211.938477
12480.564043	3944.629333	1515.677734	1120.804321
12480.564043	3944.629333	1514.621094	1088.659668
12480.564043	3944.629333	1513.564453	1219.511963
12480.564043	3944.629333	1512.507813	864.268188
12480.564043	3944.629333	1511.450195	742.162415
12480.564043	3944.629333	1510.393555	658.681702
12480.564043	3944.629333	1509.335938	713.221497
12480.564043	3944.629333	1508.278320	763.362488
12480.564043	3944.629333	1507.219727	707.438904
12480.564043	3944.629333	1506.162109	602.000061
12480.564043	3944.629333	1505.103516	760.942505
12480.564043	3944.629333	1504.044922	481.967377
12480.564043	3944.629333	1502.986328	449.291077
12480.564043	3944.629333	1501.926758	822.993591
12480.564043	3944.629333	1500.868164	485.942169
12480.564043	3944.629333	1499.808594	751.496582
12480.564043	3944.629333	1498.749023	392.322968
12480.564043	3944.629333	1497.688477	304.037079
12480.564043	3944.629333	1496.628906	524.820313
12480.564043	3944.629333	1495.568359	270.034546
12480.564043	3944.629333	1494.507813	349.045532
12480.564043	3944.629333	1493.447266	274.955292
12480.564043	3944.629333	1492.386719	264.123627
12480.564043	3944.629333	1491.325195	52.981544
12480.564043	3944.629333	1490.263672	110.051353
12480.564043	3944.629333	1489.202148	-111.929199
12480.564043	3944.629333	1488.140625	-74.803482
12480.564043	3944.629333	1487.079102	86.242371
12480.564043	3944.629333	1486.016602	-96.895195
12480.564043	3944.629333	1484.954102	89.140350
12480.564043	3944.629333	1483.891602	43.586666
12480.564043	3944.629333	1482.829102	2.703846
12480.564043	3944.629333	1481.765625	-143.677551
12480.564043	3944.629333	1480.702148	-85.290474
12480.564043	3944.629333	1479.638672	188.973755
12480.564043	3944.629333	1478.575195	58.859558
12480.564043	3944.629333	1477.511719	95.160172
12480.564043	3944.629333	1476.447266	425.809357
12480.564043	3944.629333	1475.382813	462.366333
12480.564043	3944.629333	1474.318359	449.675079
12480.564043	3944.629333	1473.253906	547.085388
12480.564043	3944.629333	1472.189453	548.202026
12480.564043	3944.629333	1471.124023	351.935883
12480.564043	3944.629333	1470.058594	622.594421
12480.564043	3944.629333	1468.993164	893.001099
12480.564043	3944.629333	1467.927734	988.873840
12480.564043	3944.629333	1466.861328	946.006897
12480.564043	3944.629333	1465.794922	1147.267700
12480.564043	3944.629333	1464.728516	1223.140625
12480.564043	3944.629333	1463.662109	1010.856323
12480.564043	3944.629333	1462.594727	1301.700806
12480.564043	3944.629333	1461.528320	1183.843628
12480.564043	3944.629333	1460.460938	1240.199585
12480.564043	3944.629333	1459.393555	1435.416504
12480.564043	3944.629333	1458.326172	1518.288208
12480.564043	3944.629333	1457.257813	1813.624878
12480.564043	3944.629333	1456.189453	1478.687012
12480.564043	3944.629333	1455.121094	1442.021484
12480.564043	3944.629333	1454.052734	1447.452515
12480.564043	3944.629333	1452.984375	1194.984741
12480.564043	3944.629333	1451.915039	1134.111938
12480.564043	3944.629333	1450.845703	1248.966553
12480.564043	3944.629333	1449.776367	1182.586670
12480.564043	3944.629333	1448.707031	1142.804077
12480.564043	3944.629333	1447.636719	1084.016479
12480.564043	3944.629333	1446.567383	852.028259
12480.564043	3944.629333	1445.497070	898.758545
12480.564043	3944.629333	1444.425781	1121.862915
12480.564043	3944.629333	1443.355469	916.778870
12480.564043	3944.629333	1442.285156	1018.326782
12480.564043	3944.629333	1441.213867	1013.282898
12480.564043	3944.629333	1440.142578	857.869995
12480.564043	3944.629333	1439.070313	882.449463
12480.564043	3944.629333	1437.999023	1147.387817
12480.564043	3944.629333	1436.926758	1405.973755
12480.564043	3944.629333	1435.854492	1184.118652
12480.564043	3944.629333	1434.782227	977.515625
12480.564043	3944.629333	1433.709961	1068.485840
12480.564043	3944.629333	1432.636719	1176.577881
12480.564043	3944.629333	1431.563477	998.619873
12480.564043	3944.629333	1430.490234	805.104431
12480.564043	3944.629333	1429.416992	856.663208
12480.564043	3944.629333	1428.343750	832.435425
12480.564043	3944.629333	1427.269531	689.168884
12480.564043	3944.629333	1426.195313	645.016724
12480.564043	3944.629333	1425.121094	531.178772
12480.564043	3944.629333	1424.046875	832.027832
12480.564043	3944.629333	1422.971680	627.549255
12480.564043	3944.629333	1421.896484	1039.603760
12480.564043	3944.629333	1420.821289	1129.553223
12480.564043	3944.629333	1419.746094	1097.662842
12480.564043	3944.629333	1418.669922	1141.756470
12480.564043	3944.629333	1417.594727	1216.906860
12480.564043	3944.629333	1416.518555	1320.916626
12480.564043	3944.629333	1415.442383	1118.965942
12480.564043	3944.629333	1414.365234	1348.066528
12480.564043	3944.629333	1413.289063	1214.604370
12480.564043	3944.629333	1412.211914	1223.054199
12480.564043	3944.629333	1411.134766	1549.302490
12480.564043	3944.629333	1410.057617	1611.598511
12480.564043	3944.629333	1408.979492	1502.780396
12480.564043	3944.629333	1407.902344	1465.298706
12480.564043	3944.629333	1406.824219	1712.904907
12480.564043	3944.629333	1405.746094	1227.013062
12480.564043	3944.629333	1404.666992	1237.280762
12480.564043	3944.629333	1403.588867	1476.971191
12480.564043	3944.629333	1402.509766	1394.575195
12480.564043	3944.629333	1401.430664	1282.287231
12480.564043	3944.629333	1400.351563	1322.797363
12480.564043	3944.629333	1399.271484	1403.973633
12480.564043	3944.629333	1398.192383	1409.816040
12480.564043	3944.629333	1397.112305	1260.540405
12480.564043	3944.629333	1396.031250	1086.370972
12480.564043	3944.629333	1394.951172	1341.028687
12480.564043	3944.629333	1393.871094	1160.445313
12480.564043	3944.629333	1392.790039	1183.063232
12480.564043	3944.629333	1391.708984	1370.696777
12480.564043	3944.629333	1390.626953	1037.658569
12480.564043	3944.629333	1389.545898	1148.766724
12480.564043	3944.629333	1388.463867	1217.864868
12480.564043	3944.629333	1387.381836	1232.283691
12480.564043	3944.629333	1386.299805	1184.818115
12480.564043	3944.629333	1385.217773	905.406799
12480.564043	3944.629333	1384.134766	1174.462769
12480.564043	3944.629333	1383.051758	1061.070801
12480.564043	3944.629333	1381.968750	928.695862
12480.564043	3944.629333	1380.885742	931.683777
12480.564043	3944.629333	1379.802734	1065.806274
12480.564043	3944.629333	1378.718750	1133.258057
12480.564043	3944.629333	1377.634766	926.118286
12480.564043	3944.629333	1376.550781	942.735779
12480.564043	3944.629333	1375.465820	905.514526
12480.564043	3944.629333	1374.381836	781.546387
12480.564043	3944.629333	1373.296875	910.984131
12480.564043	3944.629333	1372.211914	720.286194
12480.564043	3944.629333	1371.126953	900.745605
12480.564043	3944.629333	1370.041016	1042.355957
12480.564043	3944.629333	1368.955078	1016.930603
12480.564043	3944.629333	1367.869141	949.533203
12480.564043	3944.629333	1366.783203	1011.815186
12480.564043	3944.629333	1365.697266	1038.189575
12480.564043	3944.629333	1364.610352	853.284241
12480.564043	3944.629333	1363.523438	875.267578
12480.564043	3944.629333	1362.436523	784.013611
12480.564043	3944.629333	1361.349609	849.810425
12480.564043	3944.629333	1360.261719	672.803711
12480.564043	3944.629333	1359.174805	631.114319
12480.564043	3944.629333	1358.086914	1066.138306
12480.564043	3944.629333	1356.998047	755.437378
12480.564043	3944.629333	1355.910156	1047.839722
12480.564043	3944.629333	1354.821289	1130.099365
12480.564043	3944.629333	1353.732422	1186.811523
12480.564043	3944.629333	1352.643555	1277.977905
12480.564043	3944.629333	1351.554688	1449.438599
12480.564043	3944.629333	1350.464844	1594.101685
12480.564043	3944.629333	1349.375000	1527.309082
12480.564043	3944.629333	1348.285156	1624.431641
12480.564043	3944.629333	1347.195313	1550.541626
12480.564043	3944.629333	1346.105469	1416.591187
12480.564043	3944.629333	1345.014648	1203.103271
12480.564043	3944.629333	1343.923828	1111.591919
12480.564043	3944.629333	1342.833008	1050.640137
12480.564043	3944.629333	1341.741211	938.918762
12480.564043	3944.629333	1340.650391	820.365051
12480.564043	3944.629333	1339.558594	543.593445
12480.564043	3944.629333	1338.466797	540.342957
12480.564043	3944.629333	1337.374023	414.661743
12480.564043	3944.629333	1336.282227	355.362457
12480.564043	3944.629333	1335.189453	420.061066
12480.564043	3944.629333	1334.096680	254.653519
12480.564043	3944.629333	1333.003906	377.625031
12480.564043	3944.629333	1331.910156	300.090485
12480.564043	3944.629333	1330.817383	261.302124
12480.564043	3944.629333	1329.723633	405.209747
12480.564043	3944.629333	1328.629883	483.769379
12480.564043	3944.629333	1327.535156	213.204651
12480.564043	3944.629333	1326.441406	394.317902
12480.564043	3944.629333	1325.346680	280.993134
12480.564043	3944.629333	1324.251953	233.479996
12480.564043	3944.629333	1323.156250	324.446777
12480.564043	3944.629333	1322.061523	661.916809
12480.564043	3944.629333	1320.965820	252.526642
12480.564043	3944.629333	1319.870117	413.521729
12480.564043	3944.629333	1318.774414	564.136292
12480.564043	3944.629333	1317.678711	388.280182
12480.564043	3944.629333	1316.582031	509.688599
12480.564043	3944.629333	1315.485352	532.383911
12480.564043	3944.629333	1314.388672	399.450928
12480.564043	3944.629333	1313.291016	660.469604
12480.564043	3944.629333	1312.194336	863.523560
12480.564043	3944.629333	1311.096680	962.603149
12480.564043	3944.629333	1309.999023	891.094666
12480.564043	3944.629333	1308.901367	790.612183
12480.564043	3944.629333	1307.802734	723.469482
12480.564043	3944.629333	1306.705078	816.546265
12480.564043	3944.629333	1305.606445	700.664551
12480.564043	3944.629333	1304.506836	919.353699
12480.564043	3944.629333	1303.408203	811.609192
12480.564043	3944.629333	1302.308594	899.123657
12480.564043	3944.629333	1301.208984	683.305359
12480.564043	3944.629333	1300.109375	816.337646
12480.564043	3944.629333	1299.009766	781.756409
12480.564043	3944.629333	1297.909180	985.089722
12480.564043	3944.629333	1296.808594	909.882446
12480.564043	3944.629333	1295.708008	856.102051
12480.564043	3944.629333	1294.607422	831.072510
12480.564043	3944.629333	1293.506836	956.697937
12480.564043	3944.629333	1292.405273	779.396240
12480.564043	3944.629333	1291.303711	779.704224
12480.564043	3944.629333	1290.202148	742.330566
12480.564043	3944.629333	1289.099609	733.376038
12480.564043	3944.629333	1287.998047	566.997864
12480.564043	3944.629333	1286.895508	563.958313
12480.564043	3944.629333	1285.792969	515.547791
12480.564043	3944.629333	1284.689453	390.865295
12480.564043	3944.629333	1283.586914	261.548096
12480.564043	3944.629333	1282.483398	437.229980
12480.564043	3944.629333	1281.379883	380.445282
12480.564043	3944.629333	1280.276367	127.200630
12480.564043	3944.629333	1279.171875	320.567810
12480.564043	3944.629333	1278.067383	510.907227
12480.564043	3944.629333	1276.962891	384.584869
12480.564043	3944.629333	1275.858398	274.083923
12480.564043	3944.629333	1274.753906	290.556458
12480.564043	3944.629333	1273.648438	268.126221
12480.564043	3944.629333	1272.542969	89.863441
12480.564043	3944.629333	1271.437500	194.394821
12480.564043	3944.629333	1270.331055	342.434052
12480.564043	3944.629333	1269.225586	196.216202
12480.564043	3944.629333	1268.119141	69.576126
12480.564043	3944.629333	1267.012695	259.936401
12480.564043	3944.629333	1265.906250	238.112289
12480.564043	3944.629333	1264.798828	246.384903
12480.564043	3944.629333	1263.691406	158.253983
12480.564043	3944.629333	1262.583984	130.888245
12480.564043	3944.629333	1261.476563	185.233780
12480.564043	3944.629333	1260.368164	247.617752
12480.564043	3944.629333	1259.260742	188.617661
12480.564043	3944.629333	1258.152344	99.256226
12480.564043	3944.629333	1257.043945	94.458809
12480.564043	3944.629333	1255.934570	156.213791
12480.564043	3944.629333	1254.825195	125.519737
12480.564043	3944.629333	1253.716797	45.325420
12480.564043	3944.629333	1252.606445	-118.261070
12480.564043	3944.629333	1251.497070	104.311966
12480.564043	3944.629333	1250.387695	16.136442
12480.564043	3944.629333	1249.277344	179.326767
12480.564043	3944.629333	1248.166992	163.487930
12480.564043	3944.629333	1247.055664	116.566406
12480.564043	3944.629333	1245.945313	-2.487463
12480.564043	3944.629333	1244.833984	112.004578
12480.564043	3944.629333	1243.722656	-31.414007
12480.564043	3944.629333	1242.611328	182.038864
12480.564043	3944.629333	1241.499023	-70.582901
12480.564043	3944.629333	1240.387695	119.928871
12480.564043	3944.629333	1239.275391	124.336441
12480.564043	3944.629333	1238.162109	-55.534142
12480.564043	3944.629333	1237.049805	9.350505
12480.564043	3944.629333	1235.936523	88.024132
12480.564043	3944.629333	1234.823242	74.966759
12480.564043	3944.629333	1233.709961	-98.897888
12480.564043	3944.629333	1232.596680	35.066807
12480.564043	3944.629333	1231.482422	269.582733
12480.564043	3944.629333	1230.369141	139.413834
12480.564043	3944.629333	1229.253906	200.264984
12480.564043	3944.629333	1228.139648	256.808105
12480.564043	3944.629333	1227.025391	89.853012
12480.564043	3944.629333	1225.910156	268.443756
12480.564043	3944.629333	1224.794922	24.465820
12480.564043	3944.629333	1223.679688	161.311691
12480.564043	3944.629333	1222.563477	183.525452
12480.564043	3944.629333	1221.447266	73.244530
12480.564043	3944.629333	1220.331055	92.148598
12480.564043	3944.629333	1219.214844	76.598938
12480.564043	3944.629333	1218.098633	74.297676
12480.564043	3944.629333	1216.981445	48.838642
12480.564043	3944.629333	1215.864258	-29.281246
12480.564043	3944.629333	1214.747070	-116.220192
12480.564043	3944.629333	1213.629883	-77.567070
12480.564043	3944.629333	1212.511719	-211.006424
12480.564043	3944.629333	1211.393555	-193.898651
12480.564043	3944.629333	1210.275391	-67.297447
12480.564043	3944.629333	1209.157227	-150.241837
12480.564043	3944.629333	1208.038086	-169.381302
12480.564043	3944.629333	1206.918945	-151.355392
12480.564043	3944.629333	1205.799805	-123.365234
12480.564043	3944.629333	1204.680664	-293.669586
12480.564043	3944.629333	1203.560547	-108.892570
12480.564043	3944.629333	1202.441406	-180.357971
12480.564043	3944.629333	1201.321289	-108.533943
12480.564043	3944.629333	1200.200195	-141.476166
12480.564043	3944.629333	1199.080078	-120.736649
12480.564043	3944.629333	1197.958984	-185.986893
12480.564043	3944.629333	1196.837891	-20.959843
12480.564043	3944.629333	1195.716797	-59.150517
12480.564043	3944.629333	1194.594727	-135.235046
12480.564043	3944.629333	1193.473633	-57.295380
12480.564043	3944.629333	1192.351563	42.007462
12480.564043	3944.629333	1191.229492	-17.733109
12480.564043	3944.629333	1190.106445	-119.202156
12480.564043	3944.629333	1188.984375	-145.450012
12480.564043	3944.629333	1187.861328	6.022166
12480.564043	3944.629333	1186.738281	-88.471329
12480.564043	3944.629333	1185.614258	-74.960411
12480.564043	3944.629333	1184.491211	-47.430595
12480.564043	3944.629333	1183.367188	25.273869
12480.564043	3944.629333	1182.243164	-133.711212
12480.564043	3944.629333	1181.119141	-114.398323
12480.564043	3944.629333	1179.994141	-7.815598
12480.564043	3944.629333	1178.869141	-99.675728
12480.564043	3944.629333	1177.744141	-25.154236
12480.564043	3944.629333	1176.619141	-24.905167
12480.564043	3944.629333	1175.493164	12.902554
12480.564043	3944.629333	1174.368164	105.591919
12480.564043	3944.629333	1173.242188	95.869698
12480.564043	3944.629333	1172.115234	48.731144
12480.564043	3944.629333	1170.989258	140.321854
12480.564043	3944.629333	1169.862305	102.487953
12480.564043	3944.629333	1168.735352	300.519226
12480.564043	3944.629333	1167.608398	76.118164
12480.564043	3944.629333	1166.481445	136.916931
12480.564043	3944.629333	1165.353516	55.620243
12480.564043	3944.629333	1164.225586	156.816956
12480.564043	3944.629333	1163.097656	173.912689
12480.564043	3944.629333	1161.968750	134.254639
12480.564043	3944.629333	1160.840820	174.366333
12480.564043	3944.629333	1159.711914	15.162380
12480.564043	3944.629333	1158.583008	113.547394
12480.564043	3944.629333	1157.453125	46.332191
12480.564043	3944.629333	1156.324219	131.367981
12480.564043	3944.629333	1155.194336	169.831650
12480.564043	3944.629333	1154.064453	114.295044
12480.564043	3944.629333	1152.933594	275.823700
12480.564043	3944.629333	1151.803711	190.341553
12480.564043	3944.629333	1150.672852	323.690094
12480.564043	3944.629333	1149.541992	235.746185
12480.564043	3944.629333	1148.411133	271.168488
12480.564043	3944.629333	1147.279297	208.899185
12480.564043	3944.629333	1146.147461	268.042877
12480.564043	3944.629333	1145.015625	256.489746
12480.564043	3944.629333	1143.883789	311.100616
12480.564043	3944.629333	1142.750977	278.789215
12480.564043	3944.629333	1141.619141	275.504150
12480.564043	3944.629333	1140.486328	180.272339
12480.564043	3944.629333	1139.352539	14.068831
12480.564043	3944.629333	1138.219727	23.383619
12480.564043	3944.629333	1137.085938	-29.397287
12480.564043	3944.629333	1135.952148	-53.586643
12480.564043	3944.629333	1134.818359	-27.735601
12480.564043	3944.629333	1133.683594	110.783920
12480.564043	3944.629333	1132.549805	265.200928
12480.564043	3944.629333	1131.415039	353.027771
12480.564043	3944.629333	1130.279297	464.265900
12480.564043	3944.629333	1129.144531	779.935669
12480.564043	3944.629333	1128.008789	708.618530
12480.564043	3944.629333	1126.873047	787.089111
12480.564043	3944.629333	1125.737305	660.926331
12480.564043	3944.629333	1124.601563	627.079041
12480.564043	3944.629333	1123.464844	517.758789
12480.564043	3944.629333	1122.328125	547.760254
12480.564043	3944.629333	1121.191406	635.824280
12480.564043	3944.629333	1120.054688	700.168518
12480.564043	3944.629333	1118.916992	523.016907
12480.564043	3944.629333	1117.779297	394.088165
12480.564043	3944.629333	1116.641602	473.620392
12480.564043	3944.629333	1115.503906	513.860413
12480.564043	3944.629333	1114.365234	478.402161
12480.564043	3944.629333	1113.226563	467.240082
12480.564043	3944.629333	1112.087891	415.898346
12480.564043	3944.629333	1110.949219	341.612213
12480.564043	3944.629333	1109.809570	377.496735
12480.564043	3944.629333	1108.669922	484.763519
12480.564043	3944.629333	1107.530273	429.297180
12480.564043	3944.629333	1106.390625	577.550720
12480.564043	3944.629333	1105.250000	642.965149
12480.564043	3944.629333	1104.109375	538.700623
12480.564043	3944.629333	1102.968750	470.024628
12480.564043	3944.629333	1101.828125	458.703644
12480.564043	3944.629333	1100.686523	733.562256
12480.564043	3944.629333	1099.544922	664.052917
12480.564043	3944.629333	1098.403320	703.264465
12480.564043	3944.629333	1097.261719	767.407654
12480.564043	3944.629333	1096.120117	573.103699
12480.564043	3944.629333	1094.977539	549.961853
12480.564043	3944.629333	1093.834961	585.274963
12480.564043	3944.629333	1092.691406	608.107300
12480.564043	3944.629333	1091.548828	496.560486
12480.564043	3944.629333	1090.405273	617.231018
12480.564043	3944.629333	1089.261719	704.858215
12480.564043	3944.629333	1088.118164	672.297485
12480.564043	3944.629333	1086.973633	657.563232
12480.564043	3944.629333	1085.829102	474.388031
12480.564043	3944.629333	1084.684570	613.425293
12480.564043	3944.629333	1083.540039	370.566681
12480.564043	3944.629333	1082.395508	494.006531
12480.564043	3944.629333	1081.250000	510.073303
12480.564043	3944.629333	1080.104492	481.804779
12480.564043	3944.629333	1078.958984	527.331909
12480.564043	3944.629333	1077.812500	576.117615
12480.564043	3944.629333	1076.666016	529.117004
12480.564043	3944.629333	1075.519531	543.689514
12480.564043	3944.629333	1074.373047	599.691711
12480.564043	3944.629333	1073.226563	620.365906
12480.564043	3944.629333	1072.079102	571.371094
12480.564043	3944.629333	1070.931641	500.122559
12480.564043	3944.629333	1069.784180	460.611725
12480.564043	3944.629333	1068.635742	343.885071
12480.564043	3944.629333	1067.487305	613.317200
12480.564043	3944.629333	1066.338867	484.244171
12480.564043	3944.629333	1065.190430	530.235535
12480.564043	3944.629333	1064.041992	703.488770
12480.564043	3944.629333	1062.892578	680.742371
12480.564043	3944.629333	1061.743164	500.561737
12480.564043	3944.629333	1060.593750	565.764526
12480.564043	3944.629333	1059.443359	421.845886
12480.564043	3944.629333	1058.292969	544.807983
12480.564043	3944.629333	1057.142578	417.873779
12480.564043	3944.629333	1055.992188	273.947754
12480.564043	3944.629333	1054.841797	297.551605
12480.564043	3944.629333	1053.690430	456.633392
12480.564043	3944.629333	1052.539063	152.274780
12480.564043	3944.629333	1051.387695	209.507248
12480.564043	3944.629333	1050.235352	155.804016
12480.564043	3944.629333	1049.083984	103.488983
12480.564043	3944.629333	1047.931641	185.152740
12480.564043	3944.629333	1046.778320	56.125462
12480.564043	3944.629333	1045.625977	-90.949203
12480.564043	3944.629333	1044.472656	106.543373
12480.564043	3944.629333	1043.319336	-0.775461
12480.564043	3944.629333	1042.166016	-19.646601
12480.564043	3944.629333	1041.012695	19.523052
12480.564043	3944.629333	1039.858398	136.065536
12480.564043	3944.629333	1038.704102	116.191330
12480.564043	3944.629333	1037.549805	291.209381
12480.564043	3944.629333	1036.394531	227.707428
12480.564043	3944.629333	1035.239258	83.774078
12480.564043	3944.629333	1034.083984	394.597198
12480.564043	3944.629333	1032.928711	357.311951
12480.564043	3944.629333	1031.773438	214.919662
12480.564043	3944.629333	1030.617188	91.125916
12480.564043	3944.629333	1029.460938	263.919128
12480.564043	3944.629333	1028.304688	336.661011
12480.564043	3944.629333	1027.147461	105.323586
12480.564043	3944.629333	1025.991211	314.434631
12480.564043	3944.629333	1024.833984	140.954376
12480.564043	3944.629333	1023.675781	352.080292
12480.564043	3944.629333	1022.518555	269.985046
12480.564043	3944.629333	1021.360352	199.317032
12480.564043	3944.629333	1020.202148	175.725296
12480.564043	3944.629333	1019.043945	87.640945
12480.564043	3944.629333	1017.884766	-17.426361
12480.564043	3944.629333	1016.726563	-37.111870
12480.564043	3944.629333	1015.567383	-62.241497
12480.564043	3944.629333	1014.407227	69.107887
12480.564043	3944.629333	1013.248047	-173.013046
12480.564043	3944.629333	1012.087891	-47.886612
12480.564043	3944.629333	1010.927734	1.309678
12480.564043	3944.629333	1009.767578	51.130966
12480.564043	3944.629333	1008.606445	175.553268
12480.564043	3944.629333	1007.446289	24.392506
12480.564043	3944.629333	1006.285156	170.861908
12480.564043	3944.629333	1005.123047	343.655151
12480.564043	3944.629333	1003.961914	169.313095
12480.564043	3944.629333	1002.799805	219.490067
12480.564043	3944.629333	1001.637695	363.864471
12480.564043	3944.629333	1000.475586	464.058929
12480.564043	3944.629333	999.312500	637.599731
12480.564043	3944.629333	998.149414	715.944885
12480.564043	3944.629333	996.986328	660.156311
12480.564043	3944.629333	995.823242	823.971863
12480.564043	3944.629333	994.659180	588.457825
12480.564043	3944.629333	993.496094	447.753571
12480.564043	3944.629333	992.332031	535.469666
12480.564043	3944.629333	991.166992	305.980377
12480.564043	3944.629333	990.002930	217.823059
12480.564043	3944.629333	988.837891	66.239662
12480.564043	3944.629333	987.672852	69.428795
12480.564043	3944.629333	986.506836	85.601860
12480.564043	3944.629333	985.341797	-68.437813
12480.564043	3944.629333	984.175781	-75.482841
12480.564043	3944.629333	983.009766	38.069897
12480.564043	3944.629333	981.843750	8.378159
12480.564043	3944.629333	980.676758	24.959740
12480.564043	3944.629333	979.509766	-73.626999
12480.564043	3944.629333	978.342773	11.661438
12480.564043	3944.629333	977.175781	-183.826752
12480.564043	3944.629333	976.007813	-70.977295
12480.564043	3944.629333	974.839844	-70.349777
12480.564043	3944.629333	973.671875	7.679364
12480.564043	3944.629333	972.503906	93.294266
12480.564043	3944.629333	971.334961	45.866856
12480.564043	3944.629333	970.166016	-78.669128
12480.564043	3944.629333	968.997070	6.721031
12480.564043	3944.629333	967.828125	-45.094948
12480.564043	3944.629333	966.658203	-96.060730
12480.564043	3944.629333	965.488281	-149.486542
12480.564043	3944.629333	964.318359	5.230680
12480.564043	3944.629333	963.148438	-19.028637
12480.564043	3944.629333	961.977539	178.242844
12480.564043	3944.629333	960.806641	10.341512
12480.564043	3944.629333	959.635742	29.880194
12480.564043	3944.629333	958.463867	-92.078217
12480.564043	3944.629333	957.292969	68.746361
12480.564043	3944.629333	956.121094	253.903931
12480.564043	3944.629333	954.948242	318.708374
12480.564043	3944.629333	953.776367	323.876556
12480.564043	3944.629333	952.603516	130.358612
12480.564043	3944.629333	951.430664	-73.050720
12480.564043	3944.629333	950.257813	63.269207
12480.564043	3944.629333	949.084961	-0.961357
12480.564043	3944.629333	947.911133	173.605286
12480.564043	3944.629333	946.737305	48.245468
12480.564043	3944.629333	945.563477	-93.211205
12480.564043	3944.629333	944.388672	169.258652
12480.564043	3944.629333	943.213867	-77.905479
12480.564043	3944.629333	942.039063	-72.742126
12480.564043	3944.629333	940.864258	2.211126
12480.564043	3944.629333	939.688477	-116.716820
12480.564043	3944.629333	938.513672	215.341171
12480.564043	3944.629333	937.337891	42.420265
12480.564043	3944.629333	936.161133	218.719131
12480.564043	3944.629333	934.985352	-141.188889
12480.564043	3944.629333	933.808594	91.423607
12480.564043	3944.629333	932.631836	389.191681
12480.564043	3944.629333	931.454102	139.570969
12480.564043	3944.629333	930.277344	365.183868
12480.564043	3944.629333	929.099609	482.539764
12480.564043	3944.629333	927.921875	345.447662
12480.564043	3944.629333	926.743164	354.683350
12480.564043	3944.629333	925.565430	456.211273
12480.564043	3944.629333	924.386719	204.254425
12480.564043	3944.629333	923.208008	427.207855
12480.564043	3944.629333	922.028320	116.776924
12480.564043	3944.629333	920.849609	-54.083488
12480.564043	3944.629333	919.669922	-51.966057
12480.564043	3944.629333	919.474609	54.357319
12480.564043	3944.629333	918.309570	83.637390
12480.564043	3944.629333	917.143555	142.107834
12480.564043	3944.629333	915.977539	-28.762928
12480.564043	3944.629333	914.810547	133.034012
12480.564043	3944.629333	913.644531	-13.104844
12480.564043	3944.629333	912.477539	49.719707
12480.564043	3944.629333	911.310547	170.890213
12480.564043	3944.629333	910.143555	-105.494278
12480.564043	3944.629333	908.975586	143.582794
12480.564043	3944.629333	907.807617	111.940582
12480.564043	3944.629333	906.639648	-25.193972
12480.564043	3944.629333	905.471680	102.471519
12480.564043	3944.629333	904.303711	-39.141666
12480.564043	3944.629333	903.134766	43.568855
12480.564043	3944.629333	901.965820	-48.689022
12480.564043	3944.629333	900.796875	4.796010
12480.564043	3944.629333	899.626953	87.377235
12480.564043	3944.629333	898.457031	69.053619
12480.564043	3944.629333	897.287109	-144.218445
12480.564043	3944.629333	896.117188	191.411987
12480.564043	3944.629333	894.947266	36.388599
12480.564043	3944.629333	893.776367	295.669067
12480.564043	3944.629333	892.605469	288.405762
12480.564043	3944.629333	891.434570	149.062820
12480.564043	3944.629333	890.262695	56.753139
12480.564043	3944.629333	889.091797	235.186493
12480.564043	3944.629333	887.919922	252.466202
12480.564043	3944.629333	886.748047	247.355011
12480.564043	3944.629333	885.575195	208.685425
12480.564043	3944.629333	884.403320	275.084320
12480.564043	3944.629333	883.230469	348.143158
12480.564043	3944.629333	882.057617	479.254608
12480.564043	3944.629333	880.883789	389.107513
12480.564043	3944.629333	879.710938	164.952927
12480.564043	3944.629333	878.537109	168.669205
12480.564043	3944.629333	877.362305	317.501678
12480.564043	3944.629333	876.188477	196.136017
12480.564043	3944.629333	875.013672	233.270828
12480.564043	3944.629333	873.839844	47.224594
12480.564043	3944.629333	872.664063	126.730064
12480.564043	3944.629333	871.489258	186.111588
12480.564043	3944.629333	870.313477	167.397736
12480.564043	3944.629333	869.138672	5.978356
12480.564043	3944.629333	867.962891	-68.453003
12480.564043	3944.629333	866.786133	73.319626
12480.564043	3944.629333	865.610352	103.602203
12480.564043	3944.629333	864.433594	162.820572
12480.564043	3944.629333	863.256836	3.716167
12480.564043	3944.629333	862.079102	-153.110336
12480.564043	3944.629333	860.902344	26.306244
12480.564043	3944.629333	859.724609	-10.286087
12480.564043	3944.629333	858.546875	-64.682976
12480.564043	3944.629333	857.368164	-21.168606
12480.564043	3944.629333	856.190430	15.639286
12480.564043	3944.629333	855.011719	-147.756546
12480.564043	3944.629333	853.833008	-17.569698
12480.564043	3944.629333	852.654297	74.753670
12480.564043	3944.629333	851.474609	-157.503342
12480.564043	3944.629333	850.294922	-131.886337
12480.564043	3944.629333	849.115234	-161.841507
12480.564043	3944.629333	847.935547	-225.119736
12480.564043	3944.629333	846.754883	-77.392090
12480.564043	3944.629333	845.575195	-182.878693
12480.564043	3944.629333	844.393555	-168.451355
12480.564043	3944.629333	843.212891	-145.164886
12480.564043	3944.629333	842.032227	-177.380829
12480.564043	3944.629333	840.850586	89.926941
12480.564043	3944.629333	839.668945	-64.353554
12480.564043	3944.629333	838.486328	100.777390
12480.564043	3944.629333	837.304688	103.961082
12480.564043	3944.629333	836.122070	5.154891
12480.564043	3944.629333	834.939453	-42.646702
12480.564043	3944.629333	833.756836	-19.531576
12480.564043	3944.629333	832.573242	251.697159
12480.564043	3944.629333	831.389648	110.802559
12480.564043	3944.629333	830.206055	100.613708
12480.564043	3944.629333	829.022461	159.053452
12480.564043	3944.629333	827.838867	115.626656
12480.564043	3944.629333	826.654297	187.291824
12480.564043	3944.629333	825.469727	-17.682100
12480.564043	3944.629333	824.284180	151.296173
12480.564043	3944.629333	823.099609	136.606415
12480.564043	3944.629333	821.914063	95.372650
12480.564043	3944.629333	820.728516	89.517128
12480.564043	3944.629333	819.542969	185.331787
12480.564043	3944.629333	818.356445	175.013306
12480.564043	3944.629333	817.169922	-5.453539
12480.564043	3944.629333	815.983398	103.534691
12480.564043	3944.629333	814.796875	-3.985000
12480.564043	3944.629333	813.609375	34.267010
12480.564043	3944.629333	812.422852	23.918674
12480.564043	3944.629333	811.235352	75.363281
12480.564043	3944.629333	810.046875	120.152435
12480.564043	3944.629333	808.859375	83.271561
12480.564043	3944.629333	807.670898	-79.347076
12480.564043	3944.629333	806.482422	-102.968651
12480.564043	3944.629333	805.293945	-75.880409
12480.564043	3944.629333	804.104492	-68.660301
12480.564043	3944.629333	802.915039	-76.886955
12480.564043	3944.629333	801.725586	99.979507
12480.564043	3944.629333	800.536133	-95.581589
12480.564043	3944.629333	799.345703	-150.103348
12480.564043	3944.629333	798.155273	6.799501
12480.564043	3944.629333	796.964844	-78.579285
12480.564043	3944.629333	795.774414	69.405624
12480.564043	3944.629333	794.583008	-79.811188
12480.564043	3944.629333	793.392578	-74.951073
12480.564043	3944.629333	792.200195	-92.110291
12480.564043	3944.629333	791.008789	-21.299442
12480.564043	3944.629333	789.816406	-97.873833
12480.564043	3944.629333	788.625000	34.435497
12480.564043	3944.629333	787.432617	80.942123
12480.564043	3944.629333	786.239258	-178.071030
12480.564043	3944.629333	785.046875	-144.760696
12480.564043	3944.629333	783.853516	11.538142
12480.564043	3944.629333	782.660156	-71.649483
12480.564043	3944.629333	781.465820	-143.842316
12480.564043	3944.629333	780.272461	56.209263
12480.564043	3944.629333	779.078125	-224.543747
12480.564043	3944.629333	777.883789	47.819263
12480.564043	3944.629333	776.688477	241.062653
12480.564043	3944.629333	775.494141	-35.228901
12480.564043	3944.629333	774.298828	-6.578143
12480.564043	3944.629333	773.103516	138.251953
12480.564043	3944.629333	771.907227	-131.334656
12480.564043	3944.629333	770.711914	-61.102795
12480.564043	3944.629333	769.515625	96.729324
12480.564043	3944.629333	768.318359	158.075424
12480.564043	3944.629333	767.122070	109.850471
12480.564043	3944.629333	765.924805	-216.503708
12480.564043	3944.629333	764.727539	-12.883773
12480.564043	3944.629333	763.530273	2.369149
12480.564043	3944.629333	762.333008	-39.312626
12480.564043	3944.629333	761.134766	17.463902
12480.564043	3944.629333	759.936523	107.007217
12480.564043	3944.629333	758.738281	-103.163452
12480.564043	3944.629333	757.540039	113.149818
12480.564043	3944.629333	756.340820	206.913177
12480.564043	3944.629333	755.141602	88.580696
12480.564043	3944.629333	753.942383	107.951851
12480.564043	3944.629333	752.742188	188.466370
12480.564043	3944.629333	751.541992	183.724854
12480.564043	3944.629333	750.341797	-13.239829
12480.564043	3944.629333	749.141602	64.982162
12480.564043	3944.629333	747.941406	25.254755
12480.564043	3944.629333	746.740234	188.502899
12480.564043	3944.629333	745.539063	43.960117
12480.564043	3944.629333	744.337891	65.262794
12480.564043	3944.629333	743.135742	66.893425
12480.564043	3944.629333	741.933594	123.015297
12480.564043	3944.629333	740.731445	146.377075
12480.564043	3944.629333	739.529297	-89.716858
12480.564043	3944.629333	738.326172	-51.126892
12480.564043	3944.629333	737.124023	-43.091309
12480.564043	3944.629333	735.919922	71.657990
12480.564043	3944.629333	734.716797	425.922546
12480.564043	3944.629333	733.513672	146.302917
12480.564043	3944.629333	732.309570	219.474731
12480.564043	3944.629333	731.105469	177.214752
12480.564043	3944.629333	729.900391	250.281570
12480.564043	3944.629333	728.696289	362.450958
12480.564043	3944.629333	727.491211	243.944458
12480.564043	3944.629333	726.286133	164.601501
12480.564043	3944.629333	725.080078	198.329010
12480.564043	3944.629333	723.874023	242.877533
12480.564043	3944.629333	722.668945	380.835663
12480.564043	3944.629333	721.461914	236.191284
12480.564043	3944.629333	720.255859	248.004684
12480.564043	3944.629333	719.048828	155.507858
12480.564043	3944.629333	717.841797	178.115570
12480.564043	3944.629333	716.634766	196.334366
12480.564043	3944.629333	715.427734	40.838737
12480.564043	3944.629333	714.219727	52.488491
12480.564043	3944.629333	713.011719	209.481750
12480.564043	3944.629333	711.803711	201.489120
12480.564043	3944.629333	710.594727	-21.275171
12480.564043	3944.629333	709.385742	-116.039673
12480.564043	3944.629333	708.176758	-56.868130
12480.564043	3944.629333	706.967773	-47.618256
12480.564043	3944.629333	705.758789	-192.284454
12480.564043	3944.629333	704.548828	-44.420242
12480.564043	3944.629333	703.338867	68.680611
12480.564043	3944.629333	702.127930	157.865921
12480.564043	3944.629333	700.917969	173.350372
12480.564043	3944.629333	699.707031	24.248791
12480.564043	3944.629333	698.496094	-5.786185
12480.564043	3944.629333	697.285156	70.186615
12480.564043	3944.629333	696.073242	314.842010
12480.564043	3944.629333	694.861328	206.762466
12480.564043	3944.629333	693.649414	94.359879
12480.564043	3944.629333	692.436523	116.015015
12480.564043	3944.629333	691.224609	144.105270
12480.564043	3944.629333	690.011719	254.267426
12480.564043	3944.629333	688.798828	228.204269
12480.564043	3944.629333	687.584961	234.512283
12480.564043	3944.629333	686.372070	186.775208
12480.564043	3944.629333	685.158203	288.016327
12480.564043	3944.629333	683.943359	501.437469
12480.564043	3944.629333	682.729492	425.475159
12480.564043	3944.629333	681.514648	476.826294
12480.564043	3944.629333	680.299805	383.546509
12480.564043	3944.629333	679.084961	354.976440
12480.564043	3944.629333	677.869141	604.591248
12480.564043	3944.629333	676.653320	823.867676
12480.564043	3944.629333	675.437500	609.677612
12480.564043	3944.629333	674.221680	509.767029
12480.564043	3944.629333	673.004883	560.695984
12480.564043	3944.629333	671.789063	579.240540
12480.564043	3944.629333	670.571289	485.716736
12480.564043	3944.629333	669.354492	538.630676
12480.564043	3944.629333	668.136719	468.743958
12480.564043	3944.629333	666.919922	368.704132
12480.564043	3944.629333	665.701172	283.719330
12480.564043	3944.629333	664.483398	362.261017
12480.564043	3944.629333	663.264648	464.382568
12480.564043	3944.629333	662.045898	549.206665
12480.564043	3944.629333	660.827148	526.427673
12480.564043	3944.629333	659.608398	346.662781
12480.564043	3944.629333	658.388672	431.312469
12480.564043	3944.629333	657.168945	492.238922
12480.564043	3944.629333	655.949219	482.188263
12480.564043	3944.629333	654.728516	409.795319
12480.564043	3944.629333	653.507813	655.242676
12480.564043	3944.629333	652.287109	580.601685
12480.564043	3944.629333	651.066406	482.328522
12480.564043	3944.629333	649.844727	705.996399
12480.564043	3944.629333	648.623047	564.723572
12480.564043	3944.629333	647.401367	507.133240
12480.564043	3944.629333	646.179688	546.044861
12480.564043	3944.629333	644.957031	629.923157
12480.564043	3944.629333	643.734375	612.948242
12480.564043	3944.629333	642.511719	608.795898
12480.564043	3944.629333	641.289063	763.190063
12480.564043	3944.629333	640.065430	765.338440
12480.564043	3944.629333	638.841797	735.305115
12480.564043	3944.629333	637.618164	795.193787
12480.564043	3944.629333	636.393555	863.572449
12480.564043	3944.629333	635.168945	899.763184
12480.564043	3944.629333	633.944336	674.760376
12480.564043	3944.629333	632.719727	700.183289
12480.564043	3944.629333	631.494141	665.641052
12480.564043	3944.629333	630.269531	560.481873
12480.564043	3944.629333	629.042969	622.127808
12480.564043	3944.629333	627.817383	645.218872
12480.564043	3944.629333	626.590820	452.344757
12480.564043	3944.629333	625.365234	308.667542
12480.564043	3944.629333	624.137695	261.156738
12480.564043	3944.629333	622.911133	190.127701
12480.564043	3944.629333	621.683594	208.788025
12480.564043	3944.629333	620.456055	500.734650
12480.564043	3944.629333	619.228516	209.663269
12480.564043	3944.629333	618.000977	83.033310
12480.564043	3944.629333	616.772461	154.880264
12480.564043	3944.629333	615.543945	58.100063
12480.564043	3944.629333	614.314453	87.172539
12480.564043	3944.629333	613.085938	180.178436
12480.564043	3944.629333	611.856445	-53.136948
12480.564043	3944.629333	610.626953	41.907673
12480.564043	3944.629333	609.397461	-3.796597
12480.564043	3944.629333	608.166992	57.020996
12480.564043	3944.629333	606.936523	51.730316
12480.564043	3944.629333	605.706055	-30.276512
12480.564043	3944.629333	604.474609	-105.899681
12480.564043	3944.629333	603.244141	16.482141
12480.564043	3944.629333	602.012695	-50.677101
12480.564043	3944.629333	600.780273	167.330124
12480.564043	3944.629333	599.548828	-178.637360
12480.564043	3944.629333	598.316406	0.944583
12480.564043	3944.629333	597.083984	27.284019
12480.564043	3944.629333	595.851563	134.380585
12480.564043	3944.629333	594.618164	-5.211919
12480.564043	3944.629333	593.384766	42.264473
12480.564043	3944.629333	592.151367	4.688339
12480.564043	3944.629333	590.917969	15.962681
12480.564043	3944.629333	589.683594	101.541641
12480.564043	3944.629333	588.449219	80.871788
12480.564043	3944.629333	587.214844	7.102251
12480.564043	3944.629333	585.979492	56.450809
12480.564043	3944.629333	584.745117	260.685150
12480.564043	3944.629333	583.509766	-59.298935
12480.564043	3944.629333	582.273438	26.011923
12480.564043	3944.629333	581.038086	-54.169144
12480.564043	3944.629333	579.801758	22.573111
12480.564043	3944.629333	578.565430	90.778259
12480.564043	3944.629333	577.329102	383.608185
12480.564043	3944.629333	576.091797	445.299133
12480.564043	3944.629333	574.854492	364.990387
12480.564043	3944.629333	573.617188	259.275452
12480.564043	3944.629333	572.378906	395.008759
12480.564043	3944.629333	571.141602	291.410553
12480.564043	3944.629333	569.903320	314.847076
12480.564043	3944.629333	568.664063	340.365936
12480.564043	3944.629333	567.425781	205.047867
12480.564043	3944.629333	566.186523	313.052948
12480.564043	3944.629333	564.947266	275.055756
12480.564043	3944.629333	563.708008	258.205505
12480.564043	3944.629333	562.467773	361.852661
12480.564043	3944.629333	561.227539	258.296753
12480.564043	3944.629333	559.987305	273.116791
12480.564043	3944.629333	558.747070	431.590851
12480.564043	3944.629333	557.505859	159.057648
12480.564043	3944.629333	556.264648	266.776764
12480.564043	3944.629333	555.023438	292.092743
12480.564043	3944.629333	553.781250	391.271027
12480.564043	3944.629333	552.539063	222.357315
12480.564043	3944.629333	551.296875	300.392456
12480.564043	3944.629333	550.054688	104.132111
12480.564043	3944.629333	548.811523	-14.013778
12480.564043	3944.629333	547.569336	116.725121
12480.564043	3944.629333	546.325195	357.026306
12480.564043	3944.629333	545.082031	-5.620186
12480.564043	3944.629333	543.837891	74.436783
12480.564043	3944.629333	542.593750	-134.194611
12480.564043	3944.629333	541.349609	103.841827
12480.564043	3944.629333	540.105469	-83.646530
12480.564043	3944.629333	538.860352	88.998260
12480.564043	3944.629333	537.615234	-41.569775
12480.564043	3944.629333	536.369141	15.233067
12480.564043	3944.629333	535.124023	116.208229
12480.564043	3944.629333	533.877930	-41.627972
12480.564043	3944.629333	532.631836	48.802242
12480.564043	3944.629333	531.384766	2.506366
12480.564043	3944.629333	530.138672	-14.326569
12480.564043	3944.629333	528.891602	134.907623
12480.564043	3944.629333	527.643555	183.204636
12480.564043	3944.629333	526.396484	136.944809
12480.564043	3944.629333	525.148438	181.034088
12480.564043	3944.629333	523.900391	168.408432
12480.564043	3944.629333	522.652344	214.588852
12480.564043	3944.629333	521.403320	195.676498
12480.564043	3944.629333	520.154297	124.310371
12480.564043	3944.629333	518.905273	124.330727
12480.564043	3944.629333	517.656250	-58.159519
12480.564043	3944.629333	516.406250	88.740509
12480.564043	3944.629333	515.156250	61.533928
12480.564043	3944.629333	513.906250	-99.830742
12480.564043	3944.629333	512.655273	139.242630
12480.564043	3944.629333	511.404297	42.915222
12480.564043	3944.629333	510.153320	-294.309845
12480.564043	3944.629333	508.902344	-90.924675
12480.564043	3944.629333	507.650391	-302.296082
12480.564043	3944.629333	506.398438	22.468340
12480.564043	3944.629333	505.146484	-77.859917
12480.564043	3944.629333	503.893555	-67.210312
12480.564043	3944.629333	502.641602	64.818893
12480.564043	3944.629333	501.388672	-234.170319
12480.564043	3944.629333	500.134766	-16.390001
12480.564043	3944.629333	498.881836	-237.835129
12480.564043	3944.629333	497.627930	-137.205566
12480.564043	3944.629333	496.374023	-191.289047
12480.564043	3944.629333	495.119141	-142.941101
12480.564043	3944.629333	493.865234	-109.224396
12480.564043	3944.629333	492.610352	-240.543015
12480.564043	3944.629333	491.355469	-277.813904
12480.564043	3944.629333	490.099609	-145.933823
12480.564043	3944.629333	488.843750	-160.233902
12480.564043	3944.629333	487.587891	-237.133850
12480.564043	3944.629333	486.332031	-92.806404
12480.564043	3944.629333	485.075195	-75.800880
12480.564043	3944.629333	483.818359	-60.883320
12480.564043	3944.629333	482.561523	87.493065
12480.564043	3944.629333	481.304688	110.713844
12480.564043	3944.629333	480.046875	-26.580164
12480.564043	3944.629333	478.789063	102.935478
12480.564043	3944.629333	477.531250	176.138275
12480.564043	3944.629333	476.272461	115.983261
12480.564043	3944.629333	475.013672	28.776024
12480.564043	3944.629333	473.754883	112.339134
12480.564043	3944.629333	472.496094	-14.397524
12480.564043	3944.629333	471.236328	123.230629
12480.564043	3944.629333	469.976563	50.621605
12480.564043	3944.629333	468.716797	5.075101
12480.564043	3944.629333	467.456055	5.286619
12480.564043	3944.629333	466.196289	84.505051
12480.564043	3944.629333	464.935547	182.375275
12480.564043	3944.629333	463.673828	226.132050
12480.564043	3944.629333	462.413086	284.395142
12480.564043	3944.629333	461.151367	253.258148
12480.564043	3944.629333	459.889648	286.499146
12480.564043	3944.629333	458.626953	87.084206
12480.564043	3944.629333	457.364258	114.039169
12480.564043	3944.629333	456.101563	62.058094
12480.564043	3944.629333	454.838867	174.016510
12480.564043	3944.629333	453.575195	194.573166
12480.564043	3944.629333	452.312500	212.998535
12480.564043	3944.629333	451.047852	308.093811
12480.564043	3944.629333	449.784180	401.019806
12480.564043	3944.629333	448.519531	431.641632
12480.564043	3944.629333	447.254883	451.817291
12480.564043	3944.629333	445.990234	84.389130
12480.564043	3944.629333	444.725586	141.775406
12480.564043	3944.629333	443.459961	397.907654
12480.564043	3944.629333	442.194336	529.583923
12480.564043	3944.629333	440.927734	313.257660
12480.564043	3944.629333	439.662109	274.959595
12480.564043	3944.629333	438.395508	137.228348
12480.564043	3944.629333	437.127930	233.260223
12480.564043	3944.629333	435.861328	198.811401
12480.564043	3944.629333	434.593750	449.676270
12480.564043	3944.629333	433.326172	301.212646
12480.564043	3944.629333	432.058594	251.915070
12480.564043	3944.629333	430.790039	179.757355
12480.564043	3944.629333	429.521484	357.529510
12480.564043	3944.629333	428.252930	43.352512
12480.564043	3944.629333	426.984375	185.648834
12480.564043	3944.629333	425.714844	267.817688
12480.564043	3944.629333	424.445313	256.864471
12480.564043	3944.629333	423.174805	185.860489
12480.564043	3944.629333	421.905273	279.807129
12480.564043	3944.629333	420.634766	321.920654
12480.564043	3944.629333	419.364258	508.210022
12480.564043	3944.629333	418.092773	490.008545
12480.564043	3944.629333	416.822266	420.043488
12480.564043	3944.629333	415.550781	471.496613
12480.564043	3944.629333	414.278320	417.554993
12480.564043	3944.629333	413.006836	328.355347
12480.564043	3944.629333	411.734375	294.545258
12480.564043	3944.629333	410.461914	344.922058
12480.564043	3944.629333	409.188477	425.868622
12480.564043	3944.629333	407.916016	210.007462
12480.564043	3944.629333	406.642578	479.712891
12480.564043	3944.629333	405.368164	329.135651
12480.564043	3944.629333	404.094727	320.267944
12480.564043	3944.629333	402.820313	162.933807
12480.564043	3944.629333	401.545898	206.858719
12480.564043	3944.629333	400.270508	190.749741
12480.564043	3944.629333	398.996094	275.002289
12480.564043	3944.629333	397.720703	424.576477
12480.564043	3944.629333	396.444336	170.901947
12480.564043	3944.629333	395.168945	200.429535
12480.564043	3944.629333	393.892578	219.217072
12480.564043	3944.629333	392.616211	229.321732
12480.564043	3944.629333	391.339844	273.847382
12480.564043	3944.629333	390.062500	-10.574717
12480.564043	3944.629333	388.785156	346.955292
12480.564043	3944.629333	387.507813	227.797928
12480.564043	3944.629333	386.229492	118.391701
12480.564043	3944.629333	384.951172	-24.342133
12480.564043	3944.629333	383.672852	39.498753
12480.564043	3944.629333	382.394531	74.014526
12480.564043	3944.629333	381.115234	50.497658
12480.564043	3944.629333	379.835938	134.955383
12480.564043	3944.629333	378.556641	233.060822
12480.564043	3944.629333	377.277344	62.137020
12480.564043	3944.629333	375.997070	-72.567352
12480.564043	3944.629333	374.716797	9.082033
12480.564043	3944.629333	373.435547	8.062255
12480.564043	3944.629333	372.155273	10.394929
12480.564043	3944.629333	370.874023	3.737343
12480.564043	3944.629333	369.591797	16.709713
12480.564043	3944.629333	368.310547	-40.666229
12480.564043	3944.629333	367.028320	36.050739
12480.564043	3944.629333	365.746094	124.118538
12480.564043	3944.629333	364.463867	45.701096
12480.564043	3944.629333	363.180664	109.392357
12480.564043	3944.629333	361.897461	-9.715416
12480.564043	3944.629333	360.614258	123.500053
12480.564043	3944.629333	359.330078	249.494049
12480.564043	3944.629333	358.045898	-42.075272
12480.564043	3944.629333	356.761719	138.939026
12480.564043	3944.629333	355.477539	-9.762952
12480.564043	3944.629333	354.192383	140.345642
12480.564043	3944.629333	352.907227	254.554581
12480.564043	3944.629333	351.622070	-50.527653
12480.564043	3944.629333	350.336914	303.881561
12480.564043	3944.629333	349.050781	53.487572
12480.564043	3944.629333	347.764648	115.756912
12480.564043	3944.629333	346.477539	23.829128
12480.564043	3944.629333	345.191406	105.807686
12480.564043	3944.629333	343.904297	-27.521412
12480.564043	3944.629333	342.616211	-125.608192
12480.564043	3944.629333	341.329102	-43.898689
12480.564043	3944.629333	340.041016	184.809418
12480.564043	3944.629333	338.752930	-86.656631
12480.564043	3944.629333	337.463867	4.529318
12480.564043	3944.629333	336.175781	79.862045
12480.564043	3944.629333	334.886719	-267.475159
12480.564043	3944.629333	333.596680	-181.333466
12480.564043	3944.629333	332.307617	-155.871155
12480.564043	3944.629333	331.017578	24.224804
12480.564043	3944.629333	329.727539	-254.727005
12480.564043	3944.629333	328.436523	-135.318283
12480.564043	3944.629333	327.146484	-90.937965
12480.564043	3944.629333	325.855469	-265.847809
12480.564043	3944.629333	324.563477	-195.095718
12480.564043	3944.629333	323.272461	-12.725487
12480.564043	3944.629333	321.980469	-3.042632
12480.564043	3944.629333	320.688477	32.877045
12480.564043	3944.629333	319.395508	72.593994
12480.564043	3944.629333	318.103516	16.819700
12480.564043	3944.629333	316.810547	70.194016
12480.564043	3944.629333	315.516602	121.108391
12480.564043	3944.629333	314.223633	-47.178127
12480.564043	3944.629333	312.929688	213.592789
12480.564043	3944.629333	311.635742	54.456951
12480.564043	3944.629333	310.340820	85.106903
12480.564043	3944.629333	309.045898	-18.509726
12480.564043	3944.629333	307.750977	-96.453285
12480.564043	3944.629333	306.456055	65.717812
12480.564043	3944.629333	305.160156	-153.456772
12480.564043	3944.629333	303.865234	-104.280716
12480.564043	3944.629333	302.568359	59.041519
12480.564043	3944.629333	301.272461	9.068734
12480.564043	3944.629333	299.975586	172.240692
12480.564043	3944.629333	298.678711	473.659546
