#X		#Y		#Wave		#Intensity
2918.638777	5602.075667	1999.980469	-58.170815
2918.638777	5602.075667	1999.016602	245.435272
2918.638777	5602.075667	1998.052734	131.897537
2918.638777	5602.075667	1997.087891	-241.531998
2918.638777	5602.075667	1996.123047	49.466434
2918.638777	5602.075667	1995.158203	152.356262
2918.638777	5602.075667	1994.193359	277.763123
2918.638777	5602.075667	1993.228516	135.943558
2918.638777	5602.075667	1992.262695	36.510696
2918.638777	5602.075667	1991.297852	-57.678955
2918.638777	5602.075667	1990.332031	-171.395660
2918.638777	5602.075667	1989.366211	-351.641418
2918.638777	5602.075667	1988.399414	-378.204224
2918.638777	5602.075667	1987.433594	-256.108154
2918.638777	5602.075667	1986.466797	328.628662
2918.638777	5602.075667	1985.500977	394.123932
2918.638777	5602.075667	1984.534180	-19.793732
2918.638777	5602.075667	1983.567383	-188.646881
2918.638777	5602.075667	1982.599609	169.141464
2918.638777	5602.075667	1981.632813	-11.625066
2918.638777	5602.075667	1980.665039	-271.182281
2918.638777	5602.075667	1979.697266	-174.783875
2918.638777	5602.075667	1978.729492	181.056137
2918.638777	5602.075667	1977.761719	250.552322
2918.638777	5602.075667	1976.792969	310.330017
2918.638777	5602.075667	1975.825195	69.167374
2918.638777	5602.075667	1974.856445	-87.836754
2918.638777	5602.075667	1973.887695	-37.372490
2918.638777	5602.075667	1972.918945	0.905835
2918.638777	5602.075667	1971.949219	-5.058928
2918.638777	5602.075667	1970.980469	87.771561
2918.638777	5602.075667	1970.010742	0.753967
2918.638777	5602.075667	1969.041016	-192.064209
2918.638777	5602.075667	1968.071289	-7.614412
2918.638777	5602.075667	1967.101563	253.293015
2918.638777	5602.075667	1966.130859	243.264206
2918.638777	5602.075667	1965.161133	-62.177761
2918.638777	5602.075667	1964.190430	4.468394
2918.638777	5602.075667	1963.219727	53.985840
2918.638777	5602.075667	1962.249023	-81.005875
2918.638777	5602.075667	1961.277344	74.592422
2918.638777	5602.075667	1960.306641	117.062408
2918.638777	5602.075667	1959.334961	63.684196
2918.638777	5602.075667	1958.363281	-176.503662
2918.638777	5602.075667	1957.391602	90.134155
2918.638777	5602.075667	1956.419922	71.549454
2918.638777	5602.075667	1955.447266	-32.966309
2918.638777	5602.075667	1954.474609	-4.613216
2918.638777	5602.075667	1953.501953	70.523499
2918.638777	5602.075667	1952.529297	118.698471
2918.638777	5602.075667	1951.556641	107.992554
2918.638777	5602.075667	1950.583984	237.377243
2918.638777	5602.075667	1949.610352	189.994339
2918.638777	5602.075667	1948.636719	137.801544
2918.638777	5602.075667	1947.663086	70.981369
2918.638777	5602.075667	1946.689453	129.431183
2918.638777	5602.075667	1945.715820	-261.117584
2918.638777	5602.075667	1944.741211	-231.919128
2918.638777	5602.075667	1943.767578	-246.817627
2918.638777	5602.075667	1942.792969	10.584000
2918.638777	5602.075667	1941.818359	142.899323
2918.638777	5602.075667	1940.842773	-94.959473
2918.638777	5602.075667	1939.868164	-460.131927
2918.638777	5602.075667	1938.892578	-23.745745
2918.638777	5602.075667	1937.916992	-18.707087
2918.638777	5602.075667	1936.941406	219.106277
2918.638777	5602.075667	1935.965820	-231.372864
2918.638777	5602.075667	1934.990234	136.270721
2918.638777	5602.075667	1934.013672	-37.270977
2918.638777	5602.075667	1933.037109	-151.958939
2918.638777	5602.075667	1932.060547	-87.903290
2918.638777	5602.075667	1931.083984	-202.469955
2918.638777	5602.075667	1930.107422	-82.095169
2918.638777	5602.075667	1929.129883	-436.276154
2918.638777	5602.075667	1928.153320	-117.750908
2918.638777	5602.075667	1927.175781	-60.954536
2918.638777	5602.075667	1926.198242	135.190903
2918.638777	5602.075667	1925.219727	-204.012817
2918.638777	5602.075667	1924.242188	55.659073
2918.638777	5602.075667	1923.263672	-87.906052
2918.638777	5602.075667	1922.285156	-153.233765
2918.638777	5602.075667	1921.306641	-98.848061
2918.638777	5602.075667	1920.328125	-10.292431
2918.638777	5602.075667	1919.349609	-112.204102
2918.638777	5602.075667	1918.370117	-94.462799
2918.638777	5602.075667	1917.391602	20.892574
2918.638777	5602.075667	1916.412109	55.677315
2918.638777	5602.075667	1915.431641	2.613603
2918.638777	5602.075667	1914.452148	-116.300301
2918.638777	5602.075667	1913.472656	52.596966
2918.638777	5602.075667	1912.492188	-7.785228
2918.638777	5602.075667	1911.511719	-180.304367
2918.638777	5602.075667	1910.531250	-301.589752
2918.638777	5602.075667	1909.550781	88.912926
2918.638777	5602.075667	1908.569336	-132.318619
2918.638777	5602.075667	1907.588867	75.253220
2918.638777	5602.075667	1906.607422	209.652588
2918.638777	5602.075667	1905.625977	20.094433
2918.638777	5602.075667	1904.644531	66.742508
2918.638777	5602.075667	1903.662109	171.759949
2918.638777	5602.075667	1902.680664	201.253128
2918.638777	5602.075667	1901.698242	-124.570511
2918.638777	5602.075667	1900.715820	55.726852
2918.638777	5602.075667	1899.733398	4.830513
2918.638777	5602.075667	1898.750000	14.708154
2918.638777	5602.075667	1897.767578	-245.365448
2918.638777	5602.075667	1896.784180	2.701560
2918.638777	5602.075667	1895.800781	-220.916412
2918.638777	5602.075667	1894.817383	-11.936352
2918.638777	5602.075667	1893.833984	-182.126053
2918.638777	5602.075667	1892.850586	-162.829422
2918.638777	5602.075667	1891.866211	-187.319351
2918.638777	5602.075667	1890.881836	81.965652
2918.638777	5602.075667	1889.897461	-221.898407
2918.638777	5602.075667	1888.913086	-28.091362
2918.638777	5602.075667	1887.927734	-106.249573
2918.638777	5602.075667	1886.943359	-194.155457
2918.638777	5602.075667	1885.958008	-88.019157
2918.638777	5602.075667	1884.972656	107.750534
2918.638777	5602.075667	1883.987305	-254.418747
2918.638777	5602.075667	1883.001953	-37.029030
2918.638777	5602.075667	1882.015625	29.894260
2918.638777	5602.075667	1881.029297	261.526642
2918.638777	5602.075667	1880.042969	18.006760
2918.638777	5602.075667	1879.056641	147.615799
2918.638777	5602.075667	1878.070313	-49.943123
2918.638777	5602.075667	1877.083984	229.609268
2918.638777	5602.075667	1876.096680	215.957993
2918.638777	5602.075667	1875.109375	199.790909
2918.638777	5602.075667	1874.122070	11.668546
2918.638777	5602.075667	1873.134766	157.499146
2918.638777	5602.075667	1872.146484	10.383411
2918.638777	5602.075667	1871.159180	3.537930
2918.638777	5602.075667	1870.170898	245.722565
2918.638777	5602.075667	1869.182617	-63.674973
2918.638777	5602.075667	1868.194336	76.659828
2918.638777	5602.075667	1867.205078	-3.159140
2918.638777	5602.075667	1866.216797	235.982330
2918.638777	5602.075667	1865.227539	95.516891
2918.638777	5602.075667	1864.238281	49.213699
2918.638777	5602.075667	1863.249023	169.486938
2918.638777	5602.075667	1862.259766	144.682480
2918.638777	5602.075667	1861.269531	-54.102066
2918.638777	5602.075667	1860.279297	244.404907
2918.638777	5602.075667	1859.290039	183.012619
2918.638777	5602.075667	1858.298828	-52.252728
2918.638777	5602.075667	1857.308594	243.282288
2918.638777	5602.075667	1856.318359	135.689697
2918.638777	5602.075667	1855.327148	-5.767555
2918.638777	5602.075667	1854.335938	-210.008438
2918.638777	5602.075667	1853.344727	198.107910
2918.638777	5602.075667	1852.353516	222.634491
2918.638777	5602.075667	1851.362305	283.165344
2918.638777	5602.075667	1850.370117	249.544830
2918.638777	5602.075667	1849.377930	100.143753
2918.638777	5602.075667	1848.385742	210.806168
2918.638777	5602.075667	1847.393555	306.825378
2918.638777	5602.075667	1846.401367	104.074783
2918.638777	5602.075667	1845.408203	271.995728
2918.638777	5602.075667	1844.415039	121.969559
2918.638777	5602.075667	1843.421875	-109.977951
2918.638777	5602.075667	1842.428711	281.186798
2918.638777	5602.075667	1841.435547	135.581421
2918.638777	5602.075667	1840.441406	189.496170
2918.638777	5602.075667	1839.448242	108.568443
2918.638777	5602.075667	1838.454102	-61.459667
2918.638777	5602.075667	1837.459961	-8.031835
2918.638777	5602.075667	1836.464844	64.430679
2918.638777	5602.075667	1835.470703	11.746312
2918.638777	5602.075667	1834.475586	225.585587
2918.638777	5602.075667	1833.480469	-122.910469
2918.638777	5602.075667	1832.485352	104.934456
2918.638777	5602.075667	1831.490234	37.177574
2918.638777	5602.075667	1830.495117	197.335068
2918.638777	5602.075667	1829.499023	-127.601326
2918.638777	5602.075667	1828.502930	39.359928
2918.638777	5602.075667	1827.506836	-50.651646
2918.638777	5602.075667	1826.510742	310.177094
2918.638777	5602.075667	1825.513672	-46.451851
2918.638777	5602.075667	1824.517578	18.918659
2918.638777	5602.075667	1823.520508	-28.614777
2918.638777	5602.075667	1822.523438	-90.702049
2918.638777	5602.075667	1821.526367	81.913406
2918.638777	5602.075667	1820.529297	45.806553
2918.638777	5602.075667	1819.531250	-31.216124
2918.638777	5602.075667	1818.533203	99.983391
2918.638777	5602.075667	1817.535156	94.433212
2918.638777	5602.075667	1816.537109	9.675163
2918.638777	5602.075667	1815.539063	-199.731354
2918.638777	5602.075667	1814.540039	67.029076
2918.638777	5602.075667	1813.541992	-111.599770
2918.638777	5602.075667	1812.542969	70.900604
2918.638777	5602.075667	1811.543945	131.132523
2918.638777	5602.075667	1810.543945	-98.261185
2918.638777	5602.075667	1809.544922	-167.553864
2918.638777	5602.075667	1808.544922	-21.871090
2918.638777	5602.075667	1807.544922	85.304382
2918.638777	5602.075667	1806.544922	17.770399
2918.638777	5602.075667	1805.544922	-49.944691
2918.638777	5602.075667	1804.544922	-194.294952
2918.638777	5602.075667	1803.543945	-83.244301
2918.638777	5602.075667	1802.542969	41.879898
2918.638777	5602.075667	1801.541992	4.385355
2918.638777	5602.075667	1800.541016	-45.246372
2918.638777	5602.075667	1799.539063	-23.485788
2918.638777	5602.075667	1798.538086	52.943302
2918.638777	5602.075667	1797.536133	-142.866241
2918.638777	5602.075667	1796.534180	-207.627182
2918.638777	5602.075667	1795.532227	-0.707450
2918.638777	5602.075667	1794.529297	-170.840225
2918.638777	5602.075667	1793.527344	-345.885834
2918.638777	5602.075667	1792.524414	-32.479900
2918.638777	5602.075667	1791.521484	-169.814560
2918.638777	5602.075667	1790.518555	-90.505684
2918.638777	5602.075667	1789.514648	-128.191711
2918.638777	5602.075667	1788.511719	-42.226799
2918.638777	5602.075667	1787.507813	95.852898
2918.638777	5602.075667	1786.503906	-66.331032
2918.638777	5602.075667	1785.500000	-97.761581
2918.638777	5602.075667	1784.496094	-19.931452
2918.638777	5602.075667	1783.491211	29.066629
2918.638777	5602.075667	1782.486328	-126.775665
2918.638777	5602.075667	1781.481445	-351.771332
2918.638777	5602.075667	1780.476563	-265.379761
2918.638777	5602.075667	1779.471680	-107.923660
2918.638777	5602.075667	1778.465820	-321.619781
2918.638777	5602.075667	1777.460938	65.864319
2918.638777	5602.075667	1776.455078	-55.576450
2918.638777	5602.075667	1775.449219	103.144981
2918.638777	5602.075667	1774.442383	97.650932
2918.638777	5602.075667	1773.436523	-171.679367
2918.638777	5602.075667	1772.429688	-146.722260
2918.638777	5602.075667	1771.422852	29.926733
2918.638777	5602.075667	1770.416016	30.626753
2918.638777	5602.075667	1769.409180	-177.747406
2918.638777	5602.075667	1768.402344	12.331427
2918.638777	5602.075667	1767.394531	-99.191620
2918.638777	5602.075667	1766.386719	14.407508
2918.638777	5602.075667	1765.378906	-83.322479
2918.638777	5602.075667	1764.371094	-254.752777
2918.638777	5602.075667	1763.362305	9.783639
2918.638777	5602.075667	1762.354492	-176.295685
2918.638777	5602.075667	1761.345703	-66.373680
2918.638777	5602.075667	1760.336914	-188.902527
2918.638777	5602.075667	1759.328125	-264.251373
2918.638777	5602.075667	1758.318359	-117.224907
2918.638777	5602.075667	1757.308594	65.022270
2918.638777	5602.075667	1756.299805	-34.724075
2918.638777	5602.075667	1755.290039	-309.841583
2918.638777	5602.075667	1754.279297	-251.455765
2918.638777	5602.075667	1753.269531	-233.529633
2918.638777	5602.075667	1752.258789	-194.586578
2918.638777	5602.075667	1751.249023	-66.002739
2918.638777	5602.075667	1750.238281	-280.593384
2918.638777	5602.075667	1749.226563	81.478958
2918.638777	5602.075667	1748.215820	161.921631
2918.638777	5602.075667	1747.204102	-195.128799
2918.638777	5602.075667	1746.193359	-124.594925
2918.638777	5602.075667	1745.181641	101.561333
2918.638777	5602.075667	1744.168945	-45.808731
2918.638777	5602.075667	1743.157227	16.830708
2918.638777	5602.075667	1742.144531	-27.061644
2918.638777	5602.075667	1741.132813	-82.952934
2918.638777	5602.075667	1740.120117	-273.611847
2918.638777	5602.075667	1739.106445	-129.392029
2918.638777	5602.075667	1738.093750	-287.415527
2918.638777	5602.075667	1737.080078	-150.799896
2918.638777	5602.075667	1736.067383	58.657970
2918.638777	5602.075667	1735.053711	255.984222
2918.638777	5602.075667	1734.040039	-235.350967
2918.638777	5602.075667	1733.025391	-241.237289
2918.638777	5602.075667	1732.011719	252.243088
2918.638777	5602.075667	1730.997070	111.505310
2918.638777	5602.075667	1729.982422	78.942383
2918.638777	5602.075667	1728.967773	208.662460
2918.638777	5602.075667	1727.952148	3.708531
2918.638777	5602.075667	1726.937500	238.869812
2918.638777	5602.075667	1725.921875	90.014503
2918.638777	5602.075667	1724.906250	-181.385056
2918.638777	5602.075667	1723.890625	85.896584
2918.638777	5602.075667	1722.875000	162.299774
2918.638777	5602.075667	1721.858398	-107.325020
2918.638777	5602.075667	1720.841797	62.661449
2918.638777	5602.075667	1719.825195	98.346092
2918.638777	5602.075667	1718.808594	-16.650974
2918.638777	5602.075667	1717.791992	-230.535767
2918.638777	5602.075667	1716.774414	-5.195059
2918.638777	5602.075667	1715.756836	-50.332191
2918.638777	5602.075667	1714.739258	289.534393
2918.638777	5602.075667	1713.721680	30.212414
2918.638777	5602.075667	1712.704102	160.525284
2918.638777	5602.075667	1711.685547	-141.399017
2918.638777	5602.075667	1710.667969	279.489563
2918.638777	5602.075667	1709.649414	275.236694
2918.638777	5602.075667	1708.630859	80.734352
2918.638777	5602.075667	1707.611328	-17.771044
2918.638777	5602.075667	1706.592773	-62.477764
2918.638777	5602.075667	1705.573242	-15.968558
2918.638777	5602.075667	1704.553711	435.877930
2918.638777	5602.075667	1703.534180	163.082581
2918.638777	5602.075667	1702.513672	379.926147
2918.638777	5602.075667	1701.494141	158.374466
2918.638777	5602.075667	1700.473633	28.026615
2918.638777	5602.075667	1699.453125	7.598765
2918.638777	5602.075667	1698.432617	52.539631
2918.638777	5602.075667	1697.412109	357.129974
2918.638777	5602.075667	1696.390625	378.139862
2918.638777	5602.075667	1695.369141	555.739380
2918.638777	5602.075667	1694.347656	169.174225
2918.638777	5602.075667	1693.326172	489.049469
2918.638777	5602.075667	1692.304688	223.874512
2918.638777	5602.075667	1691.282227	538.512390
2918.638777	5602.075667	1690.260742	287.069824
2918.638777	5602.075667	1689.238281	344.056274
2918.638777	5602.075667	1688.214844	354.053009
2918.638777	5602.075667	1687.192383	298.464752
2918.638777	5602.075667	1686.168945	691.229675
2918.638777	5602.075667	1685.146484	546.466064
2918.638777	5602.075667	1684.123047	957.343994
2918.638777	5602.075667	1683.099609	959.280029
2918.638777	5602.075667	1682.075195	694.870300
2918.638777	5602.075667	1681.051758	876.210938
2918.638777	5602.075667	1680.027344	847.250244
2918.638777	5602.075667	1679.002930	881.116333
2918.638777	5602.075667	1677.978516	1271.690063
2918.638777	5602.075667	1676.953125	1076.523804
2918.638777	5602.075667	1675.928711	1107.479248
2918.638777	5602.075667	1674.903320	1061.284180
2918.638777	5602.075667	1673.877930	1257.345337
2918.638777	5602.075667	1672.852539	1301.691650
2918.638777	5602.075667	1671.826172	1599.783569
2918.638777	5602.075667	1670.800781	1851.046387
2918.638777	5602.075667	1669.774414	1829.517456
2918.638777	5602.075667	1668.748047	1947.553223
2918.638777	5602.075667	1667.721680	1834.903809
2918.638777	5602.075667	1666.694336	1766.331299
2918.638777	5602.075667	1665.667969	1730.255127
2918.638777	5602.075667	1664.640625	1987.177856
2918.638777	5602.075667	1663.613281	2548.605225
2918.638777	5602.075667	1662.585938	2418.881348
2918.638777	5602.075667	1661.557617	2161.125244
2918.638777	5602.075667	1660.530273	2452.063965
2918.638777	5602.075667	1659.501953	2389.382813
2918.638777	5602.075667	1658.473633	2552.023682
2918.638777	5602.075667	1657.444336	2891.025391
2918.638777	5602.075667	1656.416016	3099.703857
2918.638777	5602.075667	1655.386719	2887.714111
2918.638777	5602.075667	1654.358398	3247.003418
2918.638777	5602.075667	1653.328125	3004.587158
2918.638777	5602.075667	1652.298828	3623.421387
2918.638777	5602.075667	1651.269531	3633.804688
2918.638777	5602.075667	1650.239258	3887.677002
2918.638777	5602.075667	1649.208984	3681.962402
2918.638777	5602.075667	1648.178711	4000.444092
2918.638777	5602.075667	1647.148438	4079.815918
2918.638777	5602.075667	1646.117188	4302.766602
2918.638777	5602.075667	1645.086914	4627.568848
2918.638777	5602.075667	1644.055664	5065.668945
2918.638777	5602.075667	1643.024414	5042.341309
2918.638777	5602.075667	1641.992188	5150.946777
2918.638777	5602.075667	1640.960938	5240.919922
2918.638777	5602.075667	1639.928711	5687.386230
2918.638777	5602.075667	1638.896484	5621.848145
2918.638777	5602.075667	1637.864258	5996.115234
2918.638777	5602.075667	1636.832031	6138.681641
2918.638777	5602.075667	1635.798828	6207.010742
2918.638777	5602.075667	1634.766602	5870.361816
2918.638777	5602.075667	1633.733398	6479.867188
2918.638777	5602.075667	1632.699219	6728.208984
2918.638777	5602.075667	1631.666016	6248.008301
2918.638777	5602.075667	1630.632813	7044.128418
2918.638777	5602.075667	1629.598633	6989.184570
2918.638777	5602.075667	1628.564453	7412.588379
2918.638777	5602.075667	1627.530273	7366.703613
2918.638777	5602.075667	1626.495117	7279.148926
2918.638777	5602.075667	1625.460938	7741.326172
2918.638777	5602.075667	1624.425781	7930.727539
2918.638777	5602.075667	1623.390625	8163.868652
2918.638777	5602.075667	1622.355469	8662.328125
2918.638777	5602.075667	1621.319336	8521.206055
2918.638777	5602.075667	1620.284180	9010.078125
2918.638777	5602.075667	1619.248047	9286.422852
2918.638777	5602.075667	1618.211914	9449.597656
2918.638777	5602.075667	1617.174805	9670.280273
2918.638777	5602.075667	1616.138672	10156.040039
2918.638777	5602.075667	1615.101563	10454.805664
2918.638777	5602.075667	1614.065430	10262.547852
2918.638777	5602.075667	1613.027344	10464.294922
2918.638777	5602.075667	1611.990234	10732.793945
2918.638777	5602.075667	1610.953125	10858.352539
2918.638777	5602.075667	1609.915039	11276.279297
2918.638777	5602.075667	1608.876953	11373.970703
2918.638777	5602.075667	1607.838867	10999.678711
2918.638777	5602.075667	1606.800781	11619.837891
2918.638777	5602.075667	1605.761719	11240.980469
2918.638777	5602.075667	1604.723633	11499.614258
2918.638777	5602.075667	1603.684570	10881.687500
2918.638777	5602.075667	1602.644531	11524.281250
2918.638777	5602.075667	1601.605469	12106.880859
2918.638777	5602.075667	1600.566406	11553.577148
2918.638777	5602.075667	1599.526367	11487.740234
2918.638777	5602.075667	1598.486328	11824.098633
2918.638777	5602.075667	1597.446289	11797.314453
2918.638777	5602.075667	1596.405273	11951.995117
2918.638777	5602.075667	1595.365234	12076.820313
2918.638777	5602.075667	1594.324219	12350.833984
2918.638777	5602.075667	1593.283203	12496.197266
2918.638777	5602.075667	1592.242188	12198.528320
2918.638777	5602.075667	1591.200195	12073.086914
2918.638777	5602.075667	1590.159180	12443.371094
2918.638777	5602.075667	1589.117188	12446.467773
2918.638777	5602.075667	1588.075195	12286.757813
2918.638777	5602.075667	1587.032227	12271.577148
2918.638777	5602.075667	1585.990234	12843.417969
2918.638777	5602.075667	1584.947266	12509.610352
2918.638777	5602.075667	1583.904297	12496.832031
2918.638777	5602.075667	1582.861328	12319.140625
2918.638777	5602.075667	1581.818359	11868.959961
2918.638777	5602.075667	1580.775391	12417.648438
2918.638777	5602.075667	1579.731445	12107.395508
2918.638777	5602.075667	1578.687500	11680.565430
2918.638777	5602.075667	1577.643555	10761.816406
2918.638777	5602.075667	1576.598633	10811.556641
2918.638777	5602.075667	1575.554688	10312.230469
2918.638777	5602.075667	1574.509766	10362.190430
2918.638777	5602.075667	1573.464844	10069.120117
2918.638777	5602.075667	1572.419922	10178.735352
2918.638777	5602.075667	1571.374023	9748.760742
2918.638777	5602.075667	1570.329102	9849.428711
2918.638777	5602.075667	1569.283203	9671.277344
2918.638777	5602.075667	1568.237305	9477.297852
2918.638777	5602.075667	1567.191406	9468.544922
2918.638777	5602.075667	1566.144531	9532.952148
2918.638777	5602.075667	1565.098633	9241.218750
2918.638777	5602.075667	1564.051758	9177.994141
2918.638777	5602.075667	1563.004883	8703.998047
2918.638777	5602.075667	1561.957031	9063.325195
2918.638777	5602.075667	1560.910156	8603.459961
2918.638777	5602.075667	1559.862305	8584.179688
2918.638777	5602.075667	1558.814453	8448.700195
2918.638777	5602.075667	1557.766602	8742.142578
2918.638777	5602.075667	1556.718750	8091.626465
2918.638777	5602.075667	1555.669922	8284.940430
2918.638777	5602.075667	1554.621094	8106.798340
2918.638777	5602.075667	1553.573242	8072.463379
2918.638777	5602.075667	1552.523438	7860.495605
2918.638777	5602.075667	1551.474609	8156.758789
2918.638777	5602.075667	1550.424805	7603.530762
2918.638777	5602.075667	1549.375000	7374.000977
2918.638777	5602.075667	1548.325195	7392.855469
2918.638777	5602.075667	1547.275391	6717.648438
2918.638777	5602.075667	1546.225586	6768.796387
2918.638777	5602.075667	1545.174805	6485.592773
2918.638777	5602.075667	1544.124023	6309.574219
2918.638777	5602.075667	1543.073242	6245.231445
2918.638777	5602.075667	1542.022461	5905.949707
2918.638777	5602.075667	1540.970703	6064.808594
2918.638777	5602.075667	1539.919922	5766.950684
2918.638777	5602.075667	1538.868164	5923.852539
2918.638777	5602.075667	1537.815430	5342.415527
2918.638777	5602.075667	1536.763672	5729.136230
2918.638777	5602.075667	1535.710938	5348.195801
2918.638777	5602.075667	1534.659180	5424.046387
2918.638777	5602.075667	1533.606445	5166.288574
2918.638777	5602.075667	1532.552734	5553.420898
2918.638777	5602.075667	1531.500000	5257.551758
2918.638777	5602.075667	1530.446289	4984.652344
2918.638777	5602.075667	1529.393555	4834.595215
2918.638777	5602.075667	1528.338867	5108.851563
2918.638777	5602.075667	1527.285156	5111.130371
2918.638777	5602.075667	1526.231445	4766.749023
2918.638777	5602.075667	1525.176758	4810.284668
2918.638777	5602.075667	1524.122070	4514.079590
2918.638777	5602.075667	1523.067383	4748.404297
2918.638777	5602.075667	1522.012695	4763.118164
2918.638777	5602.075667	1520.957031	4336.361816
2918.638777	5602.075667	1519.901367	4537.249023
2918.638777	5602.075667	1518.845703	4328.501465
2918.638777	5602.075667	1517.790039	4552.401855
2918.638777	5602.075667	1516.734375	4158.623047
2918.638777	5602.075667	1515.677734	4217.735352
2918.638777	5602.075667	1514.621094	3650.427490
2918.638777	5602.075667	1513.564453	3710.092041
2918.638777	5602.075667	1512.507813	3182.035889
2918.638777	5602.075667	1511.450195	3029.703857
2918.638777	5602.075667	1510.393555	2837.024170
2918.638777	5602.075667	1509.335938	2728.259033
2918.638777	5602.075667	1508.278320	2642.382324
2918.638777	5602.075667	1507.219727	2376.040771
2918.638777	5602.075667	1506.162109	2166.557129
2918.638777	5602.075667	1505.103516	2357.082031
2918.638777	5602.075667	1504.044922	2477.803223
2918.638777	5602.075667	1502.986328	1815.467163
2918.638777	5602.075667	1501.926758	2268.504639
2918.638777	5602.075667	1500.868164	2453.147949
2918.638777	5602.075667	1499.808594	2279.269287
2918.638777	5602.075667	1498.749023	2543.294922
2918.638777	5602.075667	1497.688477	2902.176514
2918.638777	5602.075667	1496.628906	2359.384277
2918.638777	5602.075667	1495.568359	2795.356934
2918.638777	5602.075667	1494.507813	3071.426025
2918.638777	5602.075667	1493.447266	3066.015137
2918.638777	5602.075667	1492.386719	2849.128418
2918.638777	5602.075667	1491.325195	2990.712891
2918.638777	5602.075667	1490.263672	2929.860840
2918.638777	5602.075667	1489.202148	2869.324219
2918.638777	5602.075667	1488.140625	2779.844727
2918.638777	5602.075667	1487.079102	2364.363770
2918.638777	5602.075667	1486.016602	1740.062500
2918.638777	5602.075667	1484.954102	1842.951294
2918.638777	5602.075667	1483.891602	2132.785645
2918.638777	5602.075667	1482.829102	1734.680908
2918.638777	5602.075667	1481.765625	1557.346069
2918.638777	5602.075667	1480.702148	1169.075928
2918.638777	5602.075667	1479.638672	880.161011
2918.638777	5602.075667	1478.575195	807.397888
2918.638777	5602.075667	1477.511719	514.784180
2918.638777	5602.075667	1476.447266	307.946686
2918.638777	5602.075667	1475.382813	13.875585
2918.638777	5602.075667	1474.318359	575.566528
2918.638777	5602.075667	1473.253906	64.624428
2918.638777	5602.075667	1472.189453	-198.970673
2918.638777	5602.075667	1471.124023	-484.551575
2918.638777	5602.075667	1470.058594	-552.020386
2918.638777	5602.075667	1468.993164	-200.285858
2918.638777	5602.075667	1467.927734	-430.721649
2918.638777	5602.075667	1466.861328	-362.823486
2918.638777	5602.075667	1465.794922	-362.026001
2918.638777	5602.075667	1464.728516	-347.503693
2918.638777	5602.075667	1463.662109	-191.429199
2918.638777	5602.075667	1462.594727	-93.627106
2918.638777	5602.075667	1461.528320	-162.504791
2918.638777	5602.075667	1460.460938	23.029751
2918.638777	5602.075667	1459.393555	-298.526611
2918.638777	5602.075667	1458.326172	-219.450073
2918.638777	5602.075667	1457.257813	248.863907
2918.638777	5602.075667	1456.189453	123.639709
2918.638777	5602.075667	1455.121094	114.097122
2918.638777	5602.075667	1454.052734	224.733231
2918.638777	5602.075667	1452.984375	66.882996
2918.638777	5602.075667	1451.915039	259.625153
2918.638777	5602.075667	1450.845703	569.947937
2918.638777	5602.075667	1449.776367	506.852234
2918.638777	5602.075667	1448.707031	1126.637695
2918.638777	5602.075667	1447.636719	1310.040649
2918.638777	5602.075667	1446.567383	1027.646118
2918.638777	5602.075667	1445.497070	979.947266
2918.638777	5602.075667	1444.425781	1204.688232
2918.638777	5602.075667	1443.355469	1424.768433
2918.638777	5602.075667	1442.285156	1361.137451
2918.638777	5602.075667	1441.213867	1253.480469
2918.638777	5602.075667	1440.142578	906.401428
2918.638777	5602.075667	1439.070313	772.242432
2918.638777	5602.075667	1437.999023	711.440430
2918.638777	5602.075667	1436.926758	810.724304
2918.638777	5602.075667	1435.854492	655.782349
2918.638777	5602.075667	1434.782227	296.792816
2918.638777	5602.075667	1433.709961	133.517883
2918.638777	5602.075667	1432.636719	282.633575
2918.638777	5602.075667	1431.563477	104.576698
2918.638777	5602.075667	1430.490234	-105.398453
2918.638777	5602.075667	1429.416992	-115.035675
2918.638777	5602.075667	1428.343750	168.952454
2918.638777	5602.075667	1427.269531	322.136139
2918.638777	5602.075667	1426.195313	-28.344603
2918.638777	5602.075667	1425.121094	-294.178986
2918.638777	5602.075667	1424.046875	-522.919556
2918.638777	5602.075667	1422.971680	-495.944061
2918.638777	5602.075667	1421.896484	-264.844452
2918.638777	5602.075667	1420.821289	-152.903824
2918.638777	5602.075667	1419.746094	13.815420
2918.638777	5602.075667	1418.669922	-161.078842
2918.638777	5602.075667	1417.594727	-183.256973
2918.638777	5602.075667	1416.518555	116.957962
2918.638777	5602.075667	1415.442383	378.997162
2918.638777	5602.075667	1414.365234	418.104523
2918.638777	5602.075667	1413.289063	71.163467
2918.638777	5602.075667	1412.211914	295.744171
2918.638777	5602.075667	1411.134766	589.809570
2918.638777	5602.075667	1410.057617	247.687576
2918.638777	5602.075667	1408.979492	353.891266
2918.638777	5602.075667	1407.902344	316.964508
2918.638777	5602.075667	1406.824219	224.549164
2918.638777	5602.075667	1405.746094	346.918762
2918.638777	5602.075667	1404.666992	441.368835
2918.638777	5602.075667	1403.588867	378.274445
2918.638777	5602.075667	1402.509766	-56.401615
2918.638777	5602.075667	1401.430664	13.761147
2918.638777	5602.075667	1400.351563	132.912674
2918.638777	5602.075667	1399.271484	131.516098
2918.638777	5602.075667	1398.192383	259.075714
2918.638777	5602.075667	1397.112305	247.754807
2918.638777	5602.075667	1396.031250	606.258911
2918.638777	5602.075667	1394.951172	601.615662
2918.638777	5602.075667	1393.871094	563.274963
2918.638777	5602.075667	1392.790039	555.715454
2918.638777	5602.075667	1391.708984	544.688293
2918.638777	5602.075667	1390.626953	946.692383
2918.638777	5602.075667	1389.545898	1089.698853
2918.638777	5602.075667	1388.463867	1253.776733
2918.638777	5602.075667	1387.381836	1451.232300
2918.638777	5602.075667	1386.299805	1452.062744
2918.638777	5602.075667	1385.217773	1508.677490
2918.638777	5602.075667	1384.134766	1866.133667
2918.638777	5602.075667	1383.051758	1329.304565
2918.638777	5602.075667	1381.968750	1662.489990
2918.638777	5602.075667	1380.885742	1751.525024
2918.638777	5602.075667	1379.802734	1815.756226
2918.638777	5602.075667	1378.718750	2205.869385
2918.638777	5602.075667	1377.634766	2108.595215
2918.638777	5602.075667	1376.550781	2540.497314
2918.638777	5602.075667	1375.465820	2375.978760
2918.638777	5602.075667	1374.381836	2659.210449
2918.638777	5602.075667	1373.296875	2851.422363
2918.638777	5602.075667	1372.211914	2906.212646
2918.638777	5602.075667	1371.126953	2807.716797
2918.638777	5602.075667	1370.041016	2414.531250
2918.638777	5602.075667	1368.955078	2122.319580
2918.638777	5602.075667	1367.869141	2084.839844
2918.638777	5602.075667	1366.783203	2052.165527
2918.638777	5602.075667	1365.697266	1945.060303
2918.638777	5602.075667	1364.610352	1383.620361
2918.638777	5602.075667	1363.523438	1349.983887
2918.638777	5602.075667	1362.436523	1553.087036
2918.638777	5602.075667	1361.349609	1546.488892
2918.638777	5602.075667	1360.261719	1492.803955
2918.638777	5602.075667	1359.174805	1089.802856
2918.638777	5602.075667	1358.086914	868.306274
2918.638777	5602.075667	1356.998047	620.815491
2918.638777	5602.075667	1355.910156	837.972351
2918.638777	5602.075667	1354.821289	503.983948
2918.638777	5602.075667	1353.732422	505.155579
2918.638777	5602.075667	1352.643555	588.188660
2918.638777	5602.075667	1351.554688	-59.934093
2918.638777	5602.075667	1350.464844	221.353546
2918.638777	5602.075667	1349.375000	-21.589813
2918.638777	5602.075667	1348.285156	475.021179
2918.638777	5602.075667	1347.195313	457.506958
2918.638777	5602.075667	1346.105469	255.047379
2918.638777	5602.075667	1345.014648	364.165100
2918.638777	5602.075667	1343.923828	518.275757
2918.638777	5602.075667	1342.833008	460.869568
2918.638777	5602.075667	1341.741211	412.911469
2918.638777	5602.075667	1340.650391	169.247467
2918.638777	5602.075667	1339.558594	638.366089
2918.638777	5602.075667	1338.466797	537.636414
2918.638777	5602.075667	1337.374023	640.098633
2918.638777	5602.075667	1336.282227	324.340515
2918.638777	5602.075667	1335.189453	441.983612
2918.638777	5602.075667	1334.096680	729.925110
2918.638777	5602.075667	1333.003906	500.307434
2918.638777	5602.075667	1331.910156	385.679779
2918.638777	5602.075667	1330.817383	332.599792
2918.638777	5602.075667	1329.723633	354.500183
2918.638777	5602.075667	1328.629883	96.675133
2918.638777	5602.075667	1327.535156	292.430634
2918.638777	5602.075667	1326.441406	342.962738
2918.638777	5602.075667	1325.346680	345.883972
2918.638777	5602.075667	1324.251953	328.950195
2918.638777	5602.075667	1323.156250	272.456696
2918.638777	5602.075667	1322.061523	448.564148
2918.638777	5602.075667	1320.965820	162.474884
2918.638777	5602.075667	1319.870117	496.074585
2918.638777	5602.075667	1318.774414	436.981995
2918.638777	5602.075667	1317.678711	200.807953
2918.638777	5602.075667	1316.582031	704.458496
2918.638777	5602.075667	1315.485352	564.443176
2918.638777	5602.075667	1314.388672	596.544739
2918.638777	5602.075667	1313.291016	866.825989
2918.638777	5602.075667	1312.194336	731.886536
2918.638777	5602.075667	1311.096680	587.225769
2918.638777	5602.075667	1309.999023	546.381348
2918.638777	5602.075667	1308.901367	683.264771
2918.638777	5602.075667	1307.802734	646.914673
2918.638777	5602.075667	1306.705078	810.146790
2918.638777	5602.075667	1305.606445	897.955078
2918.638777	5602.075667	1304.506836	661.829773
2918.638777	5602.075667	1303.408203	1202.985718
2918.638777	5602.075667	1302.308594	756.806824
2918.638777	5602.075667	1301.208984	995.883301
2918.638777	5602.075667	1300.109375	711.585632
2918.638777	5602.075667	1299.009766	601.692383
2918.638777	5602.075667	1297.909180	1194.855225
2918.638777	5602.075667	1296.808594	1270.124390
2918.638777	5602.075667	1295.708008	1137.829346
2918.638777	5602.075667	1294.607422	1175.250488
2918.638777	5602.075667	1293.506836	1050.166382
2918.638777	5602.075667	1292.405273	854.397461
2918.638777	5602.075667	1291.303711	775.981384
2918.638777	5602.075667	1290.202148	884.280640
2918.638777	5602.075667	1289.099609	613.405212
2918.638777	5602.075667	1287.998047	742.896240
2918.638777	5602.075667	1286.895508	754.664429
2918.638777	5602.075667	1285.792969	849.629150
2918.638777	5602.075667	1284.689453	602.590637
2918.638777	5602.075667	1283.586914	504.893188
2918.638777	5602.075667	1282.483398	614.753479
2918.638777	5602.075667	1281.379883	578.791443
2918.638777	5602.075667	1280.276367	622.978638
2918.638777	5602.075667	1279.171875	159.676743
2918.638777	5602.075667	1278.067383	129.366318
2918.638777	5602.075667	1276.962891	44.380386
2918.638777	5602.075667	1275.858398	-93.705864
2918.638777	5602.075667	1274.753906	175.827286
2918.638777	5602.075667	1273.648438	163.349915
2918.638777	5602.075667	1272.542969	74.826172
2918.638777	5602.075667	1271.437500	72.034355
2918.638777	5602.075667	1270.331055	287.864471
2918.638777	5602.075667	1269.225586	78.533569
2918.638777	5602.075667	1268.119141	57.848202
2918.638777	5602.075667	1267.012695	42.011997
2918.638777	5602.075667	1265.906250	245.951645
2918.638777	5602.075667	1264.798828	210.063660
2918.638777	5602.075667	1263.691406	-111.917534
2918.638777	5602.075667	1262.583984	-252.297668
2918.638777	5602.075667	1261.476563	23.789362
2918.638777	5602.075667	1260.368164	-29.511429
2918.638777	5602.075667	1259.260742	-40.135750
2918.638777	5602.075667	1258.152344	75.963455
2918.638777	5602.075667	1257.043945	325.545258
2918.638777	5602.075667	1255.934570	462.485565
2918.638777	5602.075667	1254.825195	181.453400
2918.638777	5602.075667	1253.716797	494.779388
2918.638777	5602.075667	1252.606445	310.205414
2918.638777	5602.075667	1251.497070	185.266693
2918.638777	5602.075667	1250.387695	294.892090
2918.638777	5602.075667	1249.277344	320.741241
2918.638777	5602.075667	1248.166992	48.252102
2918.638777	5602.075667	1247.055664	-93.048332
2918.638777	5602.075667	1245.945313	43.378345
2918.638777	5602.075667	1244.833984	-104.818871
2918.638777	5602.075667	1243.722656	-50.229774
2918.638777	5602.075667	1242.611328	-203.509781
2918.638777	5602.075667	1241.499023	-200.840469
2918.638777	5602.075667	1240.387695	-413.344360
2918.638777	5602.075667	1239.275391	-408.016266
2918.638777	5602.075667	1238.162109	-461.970306
2918.638777	5602.075667	1237.049805	-353.845123
2918.638777	5602.075667	1235.936523	-396.584290
2918.638777	5602.075667	1234.823242	-602.473511
2918.638777	5602.075667	1233.709961	-653.683716
2918.638777	5602.075667	1232.596680	-493.313812
2918.638777	5602.075667	1231.482422	-579.417786
2918.638777	5602.075667	1230.369141	-665.662170
2918.638777	5602.075667	1229.253906	-255.857330
2918.638777	5602.075667	1228.139648	-396.525177
2918.638777	5602.075667	1227.025391	-292.295898
2918.638777	5602.075667	1225.910156	-512.387390
2918.638777	5602.075667	1224.794922	-645.185425
2918.638777	5602.075667	1223.679688	-584.718384
2918.638777	5602.075667	1222.563477	-642.026367
2918.638777	5602.075667	1221.447266	-803.430664
2918.638777	5602.075667	1220.331055	-550.354248
2918.638777	5602.075667	1219.214844	-751.052002
2918.638777	5602.075667	1218.098633	-613.763367
2918.638777	5602.075667	1216.981445	-562.959778
2918.638777	5602.075667	1215.864258	-453.304565
2918.638777	5602.075667	1214.747070	-493.740112
2918.638777	5602.075667	1213.629883	-634.593567
2918.638777	5602.075667	1212.511719	-213.805267
2918.638777	5602.075667	1211.393555	22.162746
2918.638777	5602.075667	1210.275391	298.315369
2918.638777	5602.075667	1209.157227	466.528564
2918.638777	5602.075667	1208.038086	572.535889
2918.638777	5602.075667	1206.918945	932.215210
2918.638777	5602.075667	1205.799805	833.096802
2918.638777	5602.075667	1204.680664	915.529358
2918.638777	5602.075667	1203.560547	943.804993
2918.638777	5602.075667	1202.441406	911.864075
2918.638777	5602.075667	1201.321289	917.821045
2918.638777	5602.075667	1200.200195	1113.796143
2918.638777	5602.075667	1199.080078	1408.997314
2918.638777	5602.075667	1197.958984	1519.091797
2918.638777	5602.075667	1196.837891	2003.184082
2918.638777	5602.075667	1195.716797	2041.642578
2918.638777	5602.075667	1194.594727	1766.020874
2918.638777	5602.075667	1193.473633	1468.107666
2918.638777	5602.075667	1192.351563	1227.927246
2918.638777	5602.075667	1191.229492	899.451477
2918.638777	5602.075667	1190.106445	394.804352
2918.638777	5602.075667	1188.984375	338.872467
2918.638777	5602.075667	1187.861328	140.943451
2918.638777	5602.075667	1186.738281	224.960266
2918.638777	5602.075667	1185.614258	84.425621
2918.638777	5602.075667	1184.491211	-38.882862
2918.638777	5602.075667	1183.367188	140.874863
2918.638777	5602.075667	1182.243164	210.972107
2918.638777	5602.075667	1181.119141	44.242229
2918.638777	5602.075667	1179.994141	113.420105
2918.638777	5602.075667	1178.869141	348.029266
2918.638777	5602.075667	1177.744141	175.891418
2918.638777	5602.075667	1176.619141	131.072388
2918.638777	5602.075667	1175.493164	300.470917
2918.638777	5602.075667	1174.368164	126.352295
2918.638777	5602.075667	1173.242188	44.182472
2918.638777	5602.075667	1172.115234	289.021271
2918.638777	5602.075667	1170.989258	492.390381
2918.638777	5602.075667	1169.862305	344.673248
2918.638777	5602.075667	1168.735352	539.017334
2918.638777	5602.075667	1167.608398	370.207306
2918.638777	5602.075667	1166.481445	412.713562
2918.638777	5602.075667	1165.353516	478.559204
2918.638777	5602.075667	1164.225586	433.106903
2918.638777	5602.075667	1163.097656	420.541901
2918.638777	5602.075667	1161.968750	201.400726
2918.638777	5602.075667	1160.840820	234.109283
2918.638777	5602.075667	1159.711914	200.776093
2918.638777	5602.075667	1158.583008	390.170685
2918.638777	5602.075667	1157.453125	354.235535
2918.638777	5602.075667	1156.324219	230.670883
2918.638777	5602.075667	1155.194336	103.539581
2918.638777	5602.075667	1154.064453	189.449539
2918.638777	5602.075667	1152.933594	449.087036
2918.638777	5602.075667	1151.803711	393.375916
2918.638777	5602.075667	1150.672852	261.854828
2918.638777	5602.075667	1149.541992	112.468124
2918.638777	5602.075667	1148.411133	251.483368
2918.638777	5602.075667	1147.279297	406.369537
2918.638777	5602.075667	1146.147461	311.551971
2918.638777	5602.075667	1145.015625	331.505249
2918.638777	5602.075667	1143.883789	242.305634
2918.638777	5602.075667	1142.750977	328.714661
2918.638777	5602.075667	1141.619141	429.512177
2918.638777	5602.075667	1140.486328	407.242523
2918.638777	5602.075667	1139.352539	208.350769
2918.638777	5602.075667	1138.219727	291.426239
2918.638777	5602.075667	1137.085938	456.969574
2918.638777	5602.075667	1135.952148	433.428986
2918.638777	5602.075667	1134.818359	450.232422
2918.638777	5602.075667	1133.683594	580.497986
2918.638777	5602.075667	1132.549805	413.937592
2918.638777	5602.075667	1131.415039	635.699036
2918.638777	5602.075667	1130.279297	499.653351
2918.638777	5602.075667	1129.144531	644.829834
2918.638777	5602.075667	1128.008789	633.840332
2918.638777	5602.075667	1126.873047	329.366791
2918.638777	5602.075667	1125.737305	164.833527
2918.638777	5602.075667	1124.601563	227.737152
2918.638777	5602.075667	1123.464844	121.723907
2918.638777	5602.075667	1122.328125	60.785038
2918.638777	5602.075667	1121.191406	-6.303475
2918.638777	5602.075667	1120.054688	214.027344
2918.638777	5602.075667	1118.916992	311.436890
2918.638777	5602.075667	1117.779297	496.155426
2918.638777	5602.075667	1116.641602	329.160217
2918.638777	5602.075667	1115.503906	606.153198
2918.638777	5602.075667	1114.365234	597.004089
2918.638777	5602.075667	1113.226563	354.141205
2918.638777	5602.075667	1112.087891	357.584961
2918.638777	5602.075667	1110.949219	453.998230
2918.638777	5602.075667	1109.809570	220.498337
2918.638777	5602.075667	1108.669922	52.713554
2918.638777	5602.075667	1107.530273	-24.029011
2918.638777	5602.075667	1106.390625	-141.495987
2918.638777	5602.075667	1105.250000	-384.240570
2918.638777	5602.075667	1104.109375	-217.219604
2918.638777	5602.075667	1102.968750	-289.266052
2918.638777	5602.075667	1101.828125	-185.265549
2918.638777	5602.075667	1100.686523	-139.719147
2918.638777	5602.075667	1099.544922	-64.174683
2918.638777	5602.075667	1098.403320	9.644398
2918.638777	5602.075667	1097.261719	311.502960
2918.638777	5602.075667	1096.120117	45.669792
2918.638777	5602.075667	1094.977539	-4.880321
2918.638777	5602.075667	1093.834961	-35.489117
2918.638777	5602.075667	1092.691406	-211.131332
2918.638777	5602.075667	1091.548828	16.187298
2918.638777	5602.075667	1090.405273	-180.697021
2918.638777	5602.075667	1089.261719	-227.664246
2918.638777	5602.075667	1088.118164	-233.486389
2918.638777	5602.075667	1086.973633	-401.785461
2918.638777	5602.075667	1085.829102	-330.268860
2918.638777	5602.075667	1084.684570	-413.562103
2918.638777	5602.075667	1083.540039	-645.046387
2918.638777	5602.075667	1082.395508	-606.005310
2918.638777	5602.075667	1081.250000	-480.721771
2918.638777	5602.075667	1080.104492	-198.017410
2918.638777	5602.075667	1078.958984	4.377025
2918.638777	5602.075667	1077.812500	-306.896057
2918.638777	5602.075667	1076.666016	149.555237
2918.638777	5602.075667	1075.519531	193.195557
2918.638777	5602.075667	1074.373047	286.212250
2918.638777	5602.075667	1073.226563	192.343475
2918.638777	5602.075667	1072.079102	-38.042606
2918.638777	5602.075667	1070.931641	299.198944
2918.638777	5602.075667	1069.784180	20.661848
2918.638777	5602.075667	1068.635742	289.479431
2918.638777	5602.075667	1067.487305	173.121521
2918.638777	5602.075667	1066.338867	138.556870
2918.638777	5602.075667	1065.190430	14.232827
2918.638777	5602.075667	1064.041992	-63.579010
2918.638777	5602.075667	1062.892578	229.375015
2918.638777	5602.075667	1061.743164	156.071625
2918.638777	5602.075667	1060.593750	132.620392
2918.638777	5602.075667	1059.443359	-35.602448
2918.638777	5602.075667	1058.292969	-191.562881
2918.638777	5602.075667	1057.142578	-1.832914
2918.638777	5602.075667	1055.992188	3.681524
2918.638777	5602.075667	1054.841797	95.228806
2918.638777	5602.075667	1053.690430	-8.001150
2918.638777	5602.075667	1052.539063	-67.397095
2918.638777	5602.075667	1051.387695	251.691772
2918.638777	5602.075667	1050.235352	275.068176
2918.638777	5602.075667	1049.083984	262.034119
2918.638777	5602.075667	1047.931641	201.239380
2918.638777	5602.075667	1046.778320	165.799179
2918.638777	5602.075667	1045.625977	179.346756
2918.638777	5602.075667	1044.472656	364.499634
2918.638777	5602.075667	1043.319336	220.185257
2918.638777	5602.075667	1042.166016	283.925690
2918.638777	5602.075667	1041.012695	-85.797897
2918.638777	5602.075667	1039.858398	163.157623
2918.638777	5602.075667	1038.704102	295.179443
2918.638777	5602.075667	1037.549805	53.516392
2918.638777	5602.075667	1036.394531	307.592377
2918.638777	5602.075667	1035.239258	427.982727
2918.638777	5602.075667	1034.083984	227.033981
2918.638777	5602.075667	1032.928711	258.530182
2918.638777	5602.075667	1031.773438	340.907745
2918.638777	5602.075667	1030.617188	309.550812
2918.638777	5602.075667	1029.460938	429.307190
2918.638777	5602.075667	1028.304688	355.795013
2918.638777	5602.075667	1027.147461	369.966339
2918.638777	5602.075667	1025.991211	395.882721
2918.638777	5602.075667	1024.833984	376.382721
2918.638777	5602.075667	1023.675781	430.474670
2918.638777	5602.075667	1022.518555	389.629456
2918.638777	5602.075667	1021.360352	501.645630
2918.638777	5602.075667	1020.202148	483.437012
2918.638777	5602.075667	1019.043945	106.297676
2918.638777	5602.075667	1017.884766	-39.604630
2918.638777	5602.075667	1016.726563	190.855057
2918.638777	5602.075667	1015.567383	-328.856354
2918.638777	5602.075667	1014.407227	43.068565
2918.638777	5602.075667	1013.248047	70.109322
2918.638777	5602.075667	1012.087891	-289.799316
2918.638777	5602.075667	1010.927734	-58.763470
2918.638777	5602.075667	1009.767578	-235.557251
2918.638777	5602.075667	1008.606445	-307.592163
2918.638777	5602.075667	1007.446289	-137.203415
2918.638777	5602.075667	1006.285156	-391.871735
2918.638777	5602.075667	1005.123047	-78.205582
2918.638777	5602.075667	1003.961914	-60.906326
2918.638777	5602.075667	1002.799805	-30.959494
2918.638777	5602.075667	1001.637695	-24.213970
2918.638777	5602.075667	1000.475586	106.888359
2918.638777	5602.075667	999.312500	-101.748688
2918.638777	5602.075667	998.149414	-42.649269
2918.638777	5602.075667	996.986328	-153.782562
2918.638777	5602.075667	995.823242	-33.504433
2918.638777	5602.075667	994.659180	-89.905708
2918.638777	5602.075667	993.496094	-121.183014
2918.638777	5602.075667	992.332031	-24.959087
2918.638777	5602.075667	991.166992	130.403976
2918.638777	5602.075667	990.002930	279.503418
2918.638777	5602.075667	988.837891	562.342651
2918.638777	5602.075667	987.672852	562.025879
2918.638777	5602.075667	986.506836	565.328674
2918.638777	5602.075667	985.341797	566.837646
2918.638777	5602.075667	984.175781	186.393127
2918.638777	5602.075667	983.009766	340.424133
2918.638777	5602.075667	981.843750	20.123806
2918.638777	5602.075667	980.676758	81.366707
2918.638777	5602.075667	979.509766	184.076447
2918.638777	5602.075667	978.342773	49.225475
2918.638777	5602.075667	977.175781	55.721840
2918.638777	5602.075667	976.007813	-144.105255
2918.638777	5602.075667	974.839844	57.439816
2918.638777	5602.075667	973.671875	286.317841
2918.638777	5602.075667	972.503906	140.030670
2918.638777	5602.075667	971.334961	-244.844879
2918.638777	5602.075667	970.166016	-154.065796
2918.638777	5602.075667	968.997070	-18.614597
2918.638777	5602.075667	967.828125	98.664879
2918.638777	5602.075667	966.658203	19.501404
2918.638777	5602.075667	965.488281	116.781059
2918.638777	5602.075667	964.318359	280.767456
2918.638777	5602.075667	963.148438	125.364822
2918.638777	5602.075667	961.977539	153.000778
2918.638777	5602.075667	960.806641	-2.274092
2918.638777	5602.075667	959.635742	78.235489
2918.638777	5602.075667	958.463867	191.195145
2918.638777	5602.075667	957.292969	73.824219
2918.638777	5602.075667	956.121094	39.955845
2918.638777	5602.075667	954.948242	8.986219
2918.638777	5602.075667	953.776367	-298.806152
2918.638777	5602.075667	952.603516	-290.908997
2918.638777	5602.075667	951.430664	-457.856812
2918.638777	5602.075667	950.257813	-274.020691
2918.638777	5602.075667	949.084961	-402.244446
2918.638777	5602.075667	947.911133	-133.744019
2918.638777	5602.075667	946.737305	-223.131744
2918.638777	5602.075667	945.563477	-255.354874
2918.638777	5602.075667	944.388672	-87.227295
2918.638777	5602.075667	943.213867	-25.396215
2918.638777	5602.075667	942.039063	-91.250313
2918.638777	5602.075667	940.864258	181.024857
2918.638777	5602.075667	939.688477	104.591698
2918.638777	5602.075667	938.513672	74.986671
2918.638777	5602.075667	937.337891	518.499329
2918.638777	5602.075667	936.161133	346.186096
2918.638777	5602.075667	934.985352	444.302582
2918.638777	5602.075667	933.808594	440.731689
2918.638777	5602.075667	932.631836	391.656921
2918.638777	5602.075667	931.454102	509.195282
2918.638777	5602.075667	930.277344	501.036438
2918.638777	5602.075667	929.099609	579.549133
2918.638777	5602.075667	927.921875	714.268677
2918.638777	5602.075667	926.743164	758.014832
2918.638777	5602.075667	925.565430	788.641968
2918.638777	5602.075667	924.386719	760.641174
2918.638777	5602.075667	923.208008	797.667297
2918.638777	5602.075667	922.028320	1406.240967
2918.638777	5602.075667	920.849609	1419.224609
2918.638777	5602.075667	919.669922	1425.517456
2918.638777	5602.075667	919.474609	1487.302246
2918.638777	5602.075667	918.309570	1303.170654
2918.638777	5602.075667	917.143555	950.321960
2918.638777	5602.075667	915.977539	1062.615967
2918.638777	5602.075667	914.810547	796.377808
2918.638777	5602.075667	913.644531	625.333557
2918.638777	5602.075667	912.477539	685.623840
2918.638777	5602.075667	911.310547	222.829391
2918.638777	5602.075667	910.143555	190.186249
2918.638777	5602.075667	908.975586	157.525208
2918.638777	5602.075667	907.807617	111.884056
2918.638777	5602.075667	906.639648	154.766418
2918.638777	5602.075667	905.471680	-128.411987
2918.638777	5602.075667	904.303711	179.950089
2918.638777	5602.075667	903.134766	52.216438
2918.638777	5602.075667	901.965820	-23.705940
2918.638777	5602.075667	900.796875	180.825180
2918.638777	5602.075667	899.626953	240.747696
2918.638777	5602.075667	898.457031	197.115112
2918.638777	5602.075667	897.287109	170.729767
2918.638777	5602.075667	896.117188	381.444763
2918.638777	5602.075667	894.947266	484.302612
2918.638777	5602.075667	893.776367	584.953979
2918.638777	5602.075667	892.605469	575.686768
2918.638777	5602.075667	891.434570	725.789490
2918.638777	5602.075667	890.262695	554.979126
2918.638777	5602.075667	889.091797	692.085876
2918.638777	5602.075667	887.919922	710.749146
2918.638777	5602.075667	886.748047	770.288086
2918.638777	5602.075667	885.575195	776.011230
2918.638777	5602.075667	884.403320	478.416840
2918.638777	5602.075667	883.230469	460.534790
2918.638777	5602.075667	882.057617	496.414581
2918.638777	5602.075667	880.883789	-5.168415
2918.638777	5602.075667	879.710938	161.904938
2918.638777	5602.075667	878.537109	38.812912
2918.638777	5602.075667	877.362305	79.062614
2918.638777	5602.075667	876.188477	387.804352
2918.638777	5602.075667	875.013672	-10.133218
2918.638777	5602.075667	873.839844	-124.478783
2918.638777	5602.075667	872.664063	-191.531982
2918.638777	5602.075667	871.489258	84.852806
2918.638777	5602.075667	870.313477	75.744408
2918.638777	5602.075667	869.138672	45.191349
2918.638777	5602.075667	867.962891	162.670639
2918.638777	5602.075667	866.786133	-208.832321
2918.638777	5602.075667	865.610352	-312.161713
2918.638777	5602.075667	864.433594	-370.410858
2918.638777	5602.075667	863.256836	-250.733826
2918.638777	5602.075667	862.079102	-328.216858
2918.638777	5602.075667	860.902344	-176.425064
2918.638777	5602.075667	859.724609	-142.475189
2918.638777	5602.075667	858.546875	-397.617157
2918.638777	5602.075667	857.368164	-215.859177
2918.638777	5602.075667	856.190430	-239.655212
2918.638777	5602.075667	855.011719	-316.916931
2918.638777	5602.075667	853.833008	-233.646423
2918.638777	5602.075667	852.654297	-419.932861
2918.638777	5602.075667	851.474609	-362.288330
2918.638777	5602.075667	850.294922	-614.707275
2918.638777	5602.075667	849.115234	-424.441071
2918.638777	5602.075667	847.935547	-565.541870
2918.638777	5602.075667	846.754883	-550.545227
2918.638777	5602.075667	845.575195	-321.868774
2918.638777	5602.075667	844.393555	-738.379944
2918.638777	5602.075667	843.212891	-366.602936
2918.638777	5602.075667	842.032227	-135.880051
2918.638777	5602.075667	840.850586	-110.164886
2918.638777	5602.075667	839.668945	-31.071480
2918.638777	5602.075667	838.486328	-7.459678
2918.638777	5602.075667	837.304688	-94.774879
2918.638777	5602.075667	836.122070	-226.817230
2918.638777	5602.075667	834.939453	-241.474411
2918.638777	5602.075667	833.756836	-121.763824
2918.638777	5602.075667	832.573242	-260.016083
2918.638777	5602.075667	831.389648	-27.322134
2918.638777	5602.075667	830.206055	24.179390
2918.638777	5602.075667	829.022461	9.646743
2918.638777	5602.075667	827.838867	-87.922020
2918.638777	5602.075667	826.654297	178.749878
2918.638777	5602.075667	825.469727	-165.727676
2918.638777	5602.075667	824.284180	-241.806412
2918.638777	5602.075667	823.099609	-207.157349
2918.638777	5602.075667	821.914063	14.763334
2918.638777	5602.075667	820.728516	102.598495
2918.638777	5602.075667	819.542969	-20.142332
2918.638777	5602.075667	818.356445	-376.715637
2918.638777	5602.075667	817.169922	242.765427
2918.638777	5602.075667	815.983398	251.956757
2918.638777	5602.075667	814.796875	-174.493576
2918.638777	5602.075667	813.609375	43.073921
2918.638777	5602.075667	812.422852	169.227737
2918.638777	5602.075667	811.235352	34.123112
2918.638777	5602.075667	810.046875	497.925629
2918.638777	5602.075667	808.859375	352.248474
2918.638777	5602.075667	807.670898	542.034058
2918.638777	5602.075667	806.482422	462.254578
2918.638777	5602.075667	805.293945	467.401581
2918.638777	5602.075667	804.104492	491.667694
2918.638777	5602.075667	802.915039	596.540588
2918.638777	5602.075667	801.725586	576.289124
2918.638777	5602.075667	800.536133	592.109680
2918.638777	5602.075667	799.345703	790.227966
2918.638777	5602.075667	798.155273	738.235107
2918.638777	5602.075667	796.964844	419.337128
2918.638777	5602.075667	795.774414	278.517578
2918.638777	5602.075667	794.583008	245.787170
2918.638777	5602.075667	793.392578	308.359802
2918.638777	5602.075667	792.200195	491.597809
2918.638777	5602.075667	791.008789	158.357422
2918.638777	5602.075667	789.816406	307.723663
2918.638777	5602.075667	788.625000	404.146393
2918.638777	5602.075667	787.432617	394.790649
2918.638777	5602.075667	786.239258	292.409180
2918.638777	5602.075667	785.046875	289.443970
2918.638777	5602.075667	783.853516	652.182983
2918.638777	5602.075667	782.660156	524.478333
2918.638777	5602.075667	781.465820	232.028107
2918.638777	5602.075667	780.272461	463.596313
2918.638777	5602.075667	779.078125	67.797050
2918.638777	5602.075667	777.883789	197.954956
2918.638777	5602.075667	776.688477	-100.501610
2918.638777	5602.075667	775.494141	-149.775513
2918.638777	5602.075667	774.298828	-95.619995
2918.638777	5602.075667	773.103516	171.603928
2918.638777	5602.075667	771.907227	124.412361
2918.638777	5602.075667	770.711914	157.369934
2918.638777	5602.075667	769.515625	110.184158
2918.638777	5602.075667	768.318359	124.150253
2918.638777	5602.075667	767.122070	230.828888
2918.638777	5602.075667	765.924805	632.468445
2918.638777	5602.075667	764.727539	791.641418
2918.638777	5602.075667	763.530273	605.289307
2918.638777	5602.075667	762.333008	511.656464
2918.638777	5602.075667	761.134766	308.561340
2918.638777	5602.075667	759.936523	276.035278
2918.638777	5602.075667	758.738281	308.740479
2918.638777	5602.075667	757.540039	534.989502
2918.638777	5602.075667	756.340820	310.922852
2918.638777	5602.075667	755.141602	93.228134
2918.638777	5602.075667	753.942383	399.202209
2918.638777	5602.075667	752.742188	488.469788
2918.638777	5602.075667	751.541992	235.042725
2918.638777	5602.075667	750.341797	-22.522463
2918.638777	5602.075667	749.141602	148.604187
2918.638777	5602.075667	747.941406	298.608093
2918.638777	5602.075667	746.740234	225.887177
2918.638777	5602.075667	745.539063	432.420044
2918.638777	5602.075667	744.337891	397.392090
2918.638777	5602.075667	743.135742	192.320145
2918.638777	5602.075667	741.933594	333.526642
2918.638777	5602.075667	740.731445	19.347311
2918.638777	5602.075667	739.529297	263.197876
2918.638777	5602.075667	738.326172	607.555847
2918.638777	5602.075667	737.124023	85.756248
2918.638777	5602.075667	735.919922	494.866821
2918.638777	5602.075667	734.716797	568.399292
2918.638777	5602.075667	733.513672	874.420898
2918.638777	5602.075667	732.309570	1171.867798
2918.638777	5602.075667	731.105469	1280.605591
2918.638777	5602.075667	729.900391	1638.423950
2918.638777	5602.075667	728.696289	1556.340210
2918.638777	5602.075667	727.491211	1666.787231
2918.638777	5602.075667	726.286133	1728.970703
2918.638777	5602.075667	725.080078	1604.826294
2918.638777	5602.075667	723.874023	1660.548340
2918.638777	5602.075667	722.668945	1548.833008
2918.638777	5602.075667	721.461914	1250.976074
2918.638777	5602.075667	720.255859	1433.977905
2918.638777	5602.075667	719.048828	1138.162720
2918.638777	5602.075667	717.841797	1155.826538
2918.638777	5602.075667	716.634766	1029.217041
2918.638777	5602.075667	715.427734	1098.906006
2918.638777	5602.075667	714.219727	1176.812500
2918.638777	5602.075667	713.011719	1273.364014
2918.638777	5602.075667	711.803711	1576.427002
2918.638777	5602.075667	710.594727	1265.643311
2918.638777	5602.075667	709.385742	1215.702026
2918.638777	5602.075667	708.176758	1466.073486
2918.638777	5602.075667	706.967773	1232.315552
2918.638777	5602.075667	705.758789	1173.695557
2918.638777	5602.075667	704.548828	1194.200317
2918.638777	5602.075667	703.338867	1383.404175
2918.638777	5602.075667	702.127930	1282.717651
2918.638777	5602.075667	700.917969	1048.582031
2918.638777	5602.075667	699.707031	997.722900
2918.638777	5602.075667	698.496094	1219.580444
2918.638777	5602.075667	697.285156	1168.419800
2918.638777	5602.075667	696.073242	1104.643066
2918.638777	5602.075667	694.861328	1323.815796
2918.638777	5602.075667	693.649414	1422.045166
2918.638777	5602.075667	692.436523	1465.986694
2918.638777	5602.075667	691.224609	1330.862915
2918.638777	5602.075667	690.011719	1326.655396
2918.638777	5602.075667	688.798828	1494.862061
2918.638777	5602.075667	687.584961	1319.835449
2918.638777	5602.075667	686.372070	1412.818604
2918.638777	5602.075667	685.158203	1653.126099
2918.638777	5602.075667	683.943359	2121.683105
2918.638777	5602.075667	682.729492	2537.940674
2918.638777	5602.075667	681.514648	2922.698975
2918.638777	5602.075667	680.299805	3242.753906
2918.638777	5602.075667	679.084961	3805.351074
2918.638777	5602.075667	677.869141	4326.023926
2918.638777	5602.075667	676.653320	4350.400879
2918.638777	5602.075667	675.437500	4098.684570
2918.638777	5602.075667	674.221680	3546.158691
2918.638777	5602.075667	673.004883	3030.994141
2918.638777	5602.075667	671.789063	2719.016357
2918.638777	5602.075667	670.571289	2404.900635
2918.638777	5602.075667	669.354492	2096.934814
2918.638777	5602.075667	668.136719	2387.643799
2918.638777	5602.075667	666.919922	2269.971924
2918.638777	5602.075667	665.701172	2007.178711
2918.638777	5602.075667	664.483398	2168.737305
2918.638777	5602.075667	663.264648	2108.525391
2918.638777	5602.075667	662.045898	2027.431519
2918.638777	5602.075667	660.827148	1977.196533
2918.638777	5602.075667	659.608398	1585.427856
2918.638777	5602.075667	658.388672	1541.080688
2918.638777	5602.075667	657.168945	1420.024780
2918.638777	5602.075667	655.949219	1673.002686
2918.638777	5602.075667	654.728516	1677.613647
2918.638777	5602.075667	653.507813	1411.282837
2918.638777	5602.075667	652.287109	1419.631714
2918.638777	5602.075667	651.066406	1644.649658
2918.638777	5602.075667	649.844727	1507.925171
2918.638777	5602.075667	648.623047	1395.808228
2918.638777	5602.075667	647.401367	1533.297729
2918.638777	5602.075667	646.179688	1455.849609
2918.638777	5602.075667	644.957031	1638.198730
2918.638777	5602.075667	643.734375	1525.221191
2918.638777	5602.075667	642.511719	1542.002197
2918.638777	5602.075667	641.289063	1674.023315
2918.638777	5602.075667	640.065430	1801.626099
2918.638777	5602.075667	638.841797	2192.783691
2918.638777	5602.075667	637.618164	2274.409180
2918.638777	5602.075667	636.393555	2539.133057
2918.638777	5602.075667	635.168945	2556.308105
2918.638777	5602.075667	633.944336	2146.904297
2918.638777	5602.075667	632.719727	2231.626465
2918.638777	5602.075667	631.494141	2355.178711
2918.638777	5602.075667	630.269531	2035.919067
2918.638777	5602.075667	629.042969	2430.604980
2918.638777	5602.075667	627.817383	2271.451660
2918.638777	5602.075667	626.590820	1976.357056
2918.638777	5602.075667	625.365234	1997.855103
2918.638777	5602.075667	624.137695	1996.472534
2918.638777	5602.075667	622.911133	2068.856934
2918.638777	5602.075667	621.683594	1974.488770
2918.638777	5602.075667	620.456055	2155.257324
2918.638777	5602.075667	619.228516	2165.197754
2918.638777	5602.075667	618.000977	1903.777710
2918.638777	5602.075667	616.772461	1974.879395
2918.638777	5602.075667	615.543945	1832.195557
2918.638777	5602.075667	614.314453	1759.112183
2918.638777	5602.075667	613.085938	2059.318115
2918.638777	5602.075667	611.856445	2100.633789
2918.638777	5602.075667	610.626953	2074.000732
2918.638777	5602.075667	609.397461	2055.343994
2918.638777	5602.075667	608.166992	2163.574463
2918.638777	5602.075667	606.936523	1838.980591
2918.638777	5602.075667	605.706055	2047.168823
2918.638777	5602.075667	604.474609	2293.956299
2918.638777	5602.075667	603.244141	2378.574463
2918.638777	5602.075667	602.012695	2702.558105
2918.638777	5602.075667	600.780273	2045.269653
2918.638777	5602.075667	599.548828	2276.596436
2918.638777	5602.075667	598.316406	2055.220703
2918.638777	5602.075667	597.083984	1888.968018
2918.638777	5602.075667	595.851563	1540.463501
2918.638777	5602.075667	594.618164	1427.123047
2918.638777	5602.075667	593.384766	1115.228027
2918.638777	5602.075667	592.151367	1347.153564
2918.638777	5602.075667	590.917969	1572.630859
2918.638777	5602.075667	589.683594	1000.676758
2918.638777	5602.075667	588.449219	927.357056
2918.638777	5602.075667	587.214844	739.451660
2918.638777	5602.075667	585.979492	610.643555
2918.638777	5602.075667	584.745117	708.377563
2918.638777	5602.075667	583.509766	656.813843
2918.638777	5602.075667	582.273438	717.331909
2918.638777	5602.075667	581.038086	612.336731
2918.638777	5602.075667	579.801758	588.796448
2918.638777	5602.075667	578.565430	387.602844
2918.638777	5602.075667	577.329102	543.228027
2918.638777	5602.075667	576.091797	515.073364
2918.638777	5602.075667	574.854492	680.425781
2918.638777	5602.075667	573.617188	566.296753
2918.638777	5602.075667	572.378906	564.109009
2918.638777	5602.075667	571.141602	596.405090
2918.638777	5602.075667	569.903320	799.608887
2918.638777	5602.075667	568.664063	919.057861
2918.638777	5602.075667	567.425781	1038.313354
2918.638777	5602.075667	566.186523	1092.212646
2918.638777	5602.075667	564.947266	1306.720337
2918.638777	5602.075667	563.708008	1175.088745
2918.638777	5602.075667	562.467773	925.367371
2918.638777	5602.075667	561.227539	999.003601
2918.638777	5602.075667	559.987305	722.728699
2918.638777	5602.075667	558.747070	519.633179
2918.638777	5602.075667	557.505859	334.782104
2918.638777	5602.075667	556.264648	180.375671
2918.638777	5602.075667	555.023438	393.658966
2918.638777	5602.075667	553.781250	387.353302
2918.638777	5602.075667	552.539063	468.274597
2918.638777	5602.075667	551.296875	335.875214
2918.638777	5602.075667	550.054688	304.935730
2918.638777	5602.075667	548.811523	316.529053
2918.638777	5602.075667	547.569336	202.247803
2918.638777	5602.075667	546.325195	185.284531
2918.638777	5602.075667	545.082031	117.566925
2918.638777	5602.075667	543.837891	250.549988
2918.638777	5602.075667	542.593750	65.121017
2918.638777	5602.075667	541.349609	15.521966
2918.638777	5602.075667	540.105469	-25.999275
2918.638777	5602.075667	538.860352	-77.689934
2918.638777	5602.075667	537.615234	-84.832283
2918.638777	5602.075667	536.369141	27.467146
2918.638777	5602.075667	535.124023	119.462471
2918.638777	5602.075667	533.877930	-76.069054
2918.638777	5602.075667	532.631836	-178.430908
2918.638777	5602.075667	531.384766	-88.545860
2918.638777	5602.075667	530.138672	-8.796334
2918.638777	5602.075667	528.891602	78.995483
2918.638777	5602.075667	527.643555	164.722504
2918.638777	5602.075667	526.396484	64.451530
2918.638777	5602.075667	525.148438	-19.600367
2918.638777	5602.075667	523.900391	-216.752136
2918.638777	5602.075667	522.652344	-128.905731
2918.638777	5602.075667	521.403320	-103.690582
2918.638777	5602.075667	520.154297	-318.761597
2918.638777	5602.075667	518.905273	-339.850769
2918.638777	5602.075667	517.656250	-146.891357
2918.638777	5602.075667	516.406250	-36.709763
2918.638777	5602.075667	515.156250	-196.886887
2918.638777	5602.075667	513.906250	-171.316879
2918.638777	5602.075667	512.655273	-282.839661
2918.638777	5602.075667	511.404297	-242.983627
2918.638777	5602.075667	510.153320	-432.877380
2918.638777	5602.075667	508.902344	-543.973816
2918.638777	5602.075667	507.650391	-566.257080
2918.638777	5602.075667	506.398438	-384.920135
2918.638777	5602.075667	505.146484	-441.230408
2918.638777	5602.075667	503.893555	-324.207062
2918.638777	5602.075667	502.641602	-460.778259
2918.638777	5602.075667	501.388672	-496.513702
2918.638777	5602.075667	500.134766	-439.520538
2918.638777	5602.075667	498.881836	-243.542282
2918.638777	5602.075667	497.627930	-333.171570
2918.638777	5602.075667	496.374023	-165.149643
2918.638777	5602.075667	495.119141	-5.087102
2918.638777	5602.075667	493.865234	-176.627365
2918.638777	5602.075667	492.610352	-6.223677
2918.638777	5602.075667	491.355469	63.813389
2918.638777	5602.075667	490.099609	-16.687183
2918.638777	5602.075667	488.843750	224.436142
2918.638777	5602.075667	487.587891	206.590363
2918.638777	5602.075667	486.332031	534.307312
2918.638777	5602.075667	485.075195	376.287201
2918.638777	5602.075667	483.818359	445.338715
2918.638777	5602.075667	482.561523	221.622070
2918.638777	5602.075667	481.304688	291.119659
2918.638777	5602.075667	480.046875	73.986687
2918.638777	5602.075667	478.789063	-12.477388
2918.638777	5602.075667	477.531250	244.152512
2918.638777	5602.075667	476.272461	89.996407
2918.638777	5602.075667	475.013672	336.940399
2918.638777	5602.075667	473.754883	165.281967
2918.638777	5602.075667	472.496094	356.503784
2918.638777	5602.075667	471.236328	465.770630
2918.638777	5602.075667	469.976563	805.496094
2918.638777	5602.075667	468.716797	774.994141
2918.638777	5602.075667	467.456055	398.513214
2918.638777	5602.075667	466.196289	158.520630
2918.638777	5602.075667	464.935547	493.017639
2918.638777	5602.075667	463.673828	123.592941
2918.638777	5602.075667	462.413086	-83.436798
2918.638777	5602.075667	461.151367	155.689606
2918.638777	5602.075667	459.889648	25.194031
2918.638777	5602.075667	458.626953	66.855225
2918.638777	5602.075667	457.364258	-3.131515
2918.638777	5602.075667	456.101563	-50.865902
2918.638777	5602.075667	454.838867	-52.401215
2918.638777	5602.075667	453.575195	12.188841
2918.638777	5602.075667	452.312500	53.046558
2918.638777	5602.075667	451.047852	86.126228
2918.638777	5602.075667	449.784180	181.287659
2918.638777	5602.075667	448.519531	-20.608761
2918.638777	5602.075667	447.254883	-114.494034
2918.638777	5602.075667	445.990234	-367.641602
2918.638777	5602.075667	444.725586	-12.421174
2918.638777	5602.075667	443.459961	23.936655
2918.638777	5602.075667	442.194336	-298.213013
2918.638777	5602.075667	440.927734	-141.888763
2918.638777	5602.075667	439.662109	-25.281391
2918.638777	5602.075667	438.395508	25.723448
2918.638777	5602.075667	437.127930	-4.768643
2918.638777	5602.075667	435.861328	-19.164085
2918.638777	5602.075667	434.593750	46.185379
2918.638777	5602.075667	433.326172	268.824615
2918.638777	5602.075667	432.058594	441.750610
2918.638777	5602.075667	430.790039	584.864014
2918.638777	5602.075667	429.521484	517.232544
2918.638777	5602.075667	428.252930	360.245422
2918.638777	5602.075667	426.984375	622.755859
2918.638777	5602.075667	425.714844	823.589294
2918.638777	5602.075667	424.445313	442.253265
2918.638777	5602.075667	423.174805	200.122269
2918.638777	5602.075667	421.905273	150.713318
2918.638777	5602.075667	420.634766	260.118195
2918.638777	5602.075667	419.364258	496.457916
2918.638777	5602.075667	418.092773	403.177338
2918.638777	5602.075667	416.822266	444.760651
2918.638777	5602.075667	415.550781	527.849976
2918.638777	5602.075667	414.278320	485.802734
2918.638777	5602.075667	413.006836	693.438354
2918.638777	5602.075667	411.734375	567.731140
2918.638777	5602.075667	410.461914	620.221008
2918.638777	5602.075667	409.188477	702.141296
2918.638777	5602.075667	407.916016	478.646210
2918.638777	5602.075667	406.642578	688.684326
2918.638777	5602.075667	405.368164	595.286194
2918.638777	5602.075667	404.094727	665.865479
2918.638777	5602.075667	402.820313	348.015839
2918.638777	5602.075667	401.545898	601.754456
2918.638777	5602.075667	400.270508	455.204102
2918.638777	5602.075667	398.996094	302.244659
2918.638777	5602.075667	397.720703	293.123444
2918.638777	5602.075667	396.444336	125.183189
2918.638777	5602.075667	395.168945	-100.676323
2918.638777	5602.075667	393.892578	83.915802
2918.638777	5602.075667	392.616211	95.748871
2918.638777	5602.075667	391.339844	229.239075
2918.638777	5602.075667	390.062500	229.455750
2918.638777	5602.075667	388.785156	76.700714
2918.638777	5602.075667	387.507813	313.932098
2918.638777	5602.075667	386.229492	228.282272
2918.638777	5602.075667	384.951172	263.924896
2918.638777	5602.075667	383.672852	128.726974
2918.638777	5602.075667	382.394531	406.604431
2918.638777	5602.075667	381.115234	468.106537
2918.638777	5602.075667	379.835938	315.301392
2918.638777	5602.075667	378.556641	397.698853
2918.638777	5602.075667	377.277344	421.429901
2918.638777	5602.075667	375.997070	380.525696
2918.638777	5602.075667	374.716797	686.694946
2918.638777	5602.075667	373.435547	561.649475
2918.638777	5602.075667	372.155273	921.270203
2918.638777	5602.075667	370.874023	879.211548
2918.638777	5602.075667	369.591797	870.628540
2918.638777	5602.075667	368.310547	985.991577
2918.638777	5602.075667	367.028320	705.683716
2918.638777	5602.075667	365.746094	826.518555
2918.638777	5602.075667	364.463867	349.151978
2918.638777	5602.075667	363.180664	398.442352
2918.638777	5602.075667	361.897461	451.118896
2918.638777	5602.075667	360.614258	493.324005
2918.638777	5602.075667	359.330078	267.529388
2918.638777	5602.075667	358.045898	196.184540
2918.638777	5602.075667	356.761719	184.812576
2918.638777	5602.075667	355.477539	60.472889
2918.638777	5602.075667	354.192383	70.423950
2918.638777	5602.075667	352.907227	16.280554
2918.638777	5602.075667	351.622070	78.490021
2918.638777	5602.075667	350.336914	203.887405
2918.638777	5602.075667	349.050781	133.337845
2918.638777	5602.075667	347.764648	-64.463989
2918.638777	5602.075667	346.477539	61.278248
2918.638777	5602.075667	345.191406	-130.590149
2918.638777	5602.075667	343.904297	130.002625
2918.638777	5602.075667	342.616211	27.566175
2918.638777	5602.075667	341.329102	-85.064995
2918.638777	5602.075667	340.041016	-45.649364
2918.638777	5602.075667	338.752930	-267.488831
2918.638777	5602.075667	337.463867	-186.892975
2918.638777	5602.075667	336.175781	-164.142242
2918.638777	5602.075667	334.886719	-461.749329
2918.638777	5602.075667	333.596680	-301.097168
2918.638777	5602.075667	332.307617	-179.225494
2918.638777	5602.075667	331.017578	-202.094833
2918.638777	5602.075667	329.727539	-498.712250
2918.638777	5602.075667	328.436523	-375.340271
2918.638777	5602.075667	327.146484	-187.849121
2918.638777	5602.075667	325.855469	65.226959
2918.638777	5602.075667	324.563477	-257.033844
2918.638777	5602.075667	323.272461	-335.948273
2918.638777	5602.075667	321.980469	-326.400238
2918.638777	5602.075667	320.688477	-283.177124
2918.638777	5602.075667	319.395508	-351.090668
2918.638777	5602.075667	318.103516	-317.297668
2918.638777	5602.075667	316.810547	-500.381348
2918.638777	5602.075667	315.516602	-155.443054
2918.638777	5602.075667	314.223633	-479.917114
2918.638777	5602.075667	312.929688	-296.518158
2918.638777	5602.075667	311.635742	-90.943031
2918.638777	5602.075667	310.340820	151.925705
2918.638777	5602.075667	309.045898	264.460022
2918.638777	5602.075667	307.750977	158.837219
2918.638777	5602.075667	306.456055	463.910950
2918.638777	5602.075667	305.160156	528.652039
2918.638777	5602.075667	303.865234	906.189941
2918.638777	5602.075667	302.568359	1445.466797
2918.638777	5602.075667	301.272461	1884.160156
2918.638777	5602.075667	299.975586	2151.504639
2918.638777	5602.075667	298.678711	2410.922852
