#X		#Y		#Wave		#Intensity
3057.351702	5952.662000	1999.980469	-247.968597
3057.351702	5952.662000	1999.016602	390.687225
3057.351702	5952.662000	1998.052734	-89.354477
3057.351702	5952.662000	1997.087891	-140.790268
3057.351702	5952.662000	1996.123047	-160.281097
3057.351702	5952.662000	1995.158203	-98.288910
3057.351702	5952.662000	1994.193359	-6.863744
3057.351702	5952.662000	1993.228516	232.851395
3057.351702	5952.662000	1992.262695	212.270981
3057.351702	5952.662000	1991.297852	127.099876
3057.351702	5952.662000	1990.332031	207.552811
3057.351702	5952.662000	1989.366211	164.032822
3057.351702	5952.662000	1988.399414	98.052368
3057.351702	5952.662000	1987.433594	140.727570
3057.351702	5952.662000	1986.466797	10.075346
3057.351702	5952.662000	1985.500977	15.277694
3057.351702	5952.662000	1984.534180	20.298634
3057.351702	5952.662000	1983.567383	126.483818
3057.351702	5952.662000	1982.599609	66.890427
3057.351702	5952.662000	1981.632813	274.004913
3057.351702	5952.662000	1980.665039	13.998211
3057.351702	5952.662000	1979.697266	117.013893
3057.351702	5952.662000	1978.729492	-7.332970
3057.351702	5952.662000	1977.761719	73.156517
3057.351702	5952.662000	1976.792969	-253.811905
3057.351702	5952.662000	1975.825195	218.864166
3057.351702	5952.662000	1974.856445	190.332626
3057.351702	5952.662000	1973.887695	72.887268
3057.351702	5952.662000	1972.918945	229.182266
3057.351702	5952.662000	1971.949219	84.443573
3057.351702	5952.662000	1970.980469	230.626465
3057.351702	5952.662000	1970.010742	379.132874
3057.351702	5952.662000	1969.041016	108.482025
3057.351702	5952.662000	1968.071289	32.540237
3057.351702	5952.662000	1967.101563	35.400280
3057.351702	5952.662000	1966.130859	203.241837
3057.351702	5952.662000	1965.161133	306.922638
3057.351702	5952.662000	1964.190430	-3.201980
3057.351702	5952.662000	1963.219727	-32.586864
3057.351702	5952.662000	1962.249023	144.765350
3057.351702	5952.662000	1961.277344	68.505142
3057.351702	5952.662000	1960.306641	75.896347
3057.351702	5952.662000	1959.334961	149.673035
3057.351702	5952.662000	1958.363281	80.719841
3057.351702	5952.662000	1957.391602	11.761049
3057.351702	5952.662000	1956.419922	471.459290
3057.351702	5952.662000	1955.447266	304.064667
3057.351702	5952.662000	1954.474609	-15.683017
3057.351702	5952.662000	1953.501953	234.812088
3057.351702	5952.662000	1952.529297	187.896744
3057.351702	5952.662000	1951.556641	13.244689
3057.351702	5952.662000	1950.583984	300.400696
3057.351702	5952.662000	1949.610352	322.229370
3057.351702	5952.662000	1948.636719	17.501177
3057.351702	5952.662000	1947.663086	2.547646
3057.351702	5952.662000	1946.689453	122.586937
3057.351702	5952.662000	1945.715820	200.869324
3057.351702	5952.662000	1944.741211	207.976715
3057.351702	5952.662000	1943.767578	109.615860
3057.351702	5952.662000	1942.792969	-165.280273
3057.351702	5952.662000	1941.818359	192.559021
3057.351702	5952.662000	1940.842773	45.253380
3057.351702	5952.662000	1939.868164	-67.665703
3057.351702	5952.662000	1938.892578	365.967865
3057.351702	5952.662000	1937.916992	-40.960396
3057.351702	5952.662000	1936.941406	-70.458878
3057.351702	5952.662000	1935.965820	311.554779
3057.351702	5952.662000	1934.990234	277.146210
3057.351702	5952.662000	1934.013672	-41.239220
3057.351702	5952.662000	1933.037109	-156.306366
3057.351702	5952.662000	1932.060547	-129.352142
3057.351702	5952.662000	1931.083984	78.694664
3057.351702	5952.662000	1930.107422	32.250858
3057.351702	5952.662000	1929.129883	-70.412308
3057.351702	5952.662000	1928.153320	179.165756
3057.351702	5952.662000	1927.175781	135.255219
3057.351702	5952.662000	1926.198242	-84.630745
3057.351702	5952.662000	1925.219727	-67.312859
3057.351702	5952.662000	1924.242188	-101.290031
3057.351702	5952.662000	1923.263672	96.893394
3057.351702	5952.662000	1922.285156	45.856655
3057.351702	5952.662000	1921.306641	146.301071
3057.351702	5952.662000	1920.328125	70.915184
3057.351702	5952.662000	1919.349609	81.041809
3057.351702	5952.662000	1918.370117	-96.768936
3057.351702	5952.662000	1917.391602	6.190166
3057.351702	5952.662000	1916.412109	-7.988495
3057.351702	5952.662000	1915.431641	92.533821
3057.351702	5952.662000	1914.452148	-4.530189
3057.351702	5952.662000	1913.472656	100.891830
3057.351702	5952.662000	1912.492188	-37.531979
3057.351702	5952.662000	1911.511719	-36.915848
3057.351702	5952.662000	1910.531250	-167.893082
3057.351702	5952.662000	1909.550781	-123.330452
3057.351702	5952.662000	1908.569336	-59.265965
3057.351702	5952.662000	1907.588867	7.237865
3057.351702	5952.662000	1906.607422	-33.425716
3057.351702	5952.662000	1905.625977	274.179382
3057.351702	5952.662000	1904.644531	-24.548241
3057.351702	5952.662000	1903.662109	-272.021698
3057.351702	5952.662000	1902.680664	52.562241
3057.351702	5952.662000	1901.698242	114.245262
3057.351702	5952.662000	1900.715820	-1.674590
3057.351702	5952.662000	1899.733398	-188.071365
3057.351702	5952.662000	1898.750000	131.469833
3057.351702	5952.662000	1897.767578	1.078930
3057.351702	5952.662000	1896.784180	-68.470894
3057.351702	5952.662000	1895.800781	102.652283
3057.351702	5952.662000	1894.817383	-0.882826
3057.351702	5952.662000	1893.833984	-7.178028
3057.351702	5952.662000	1892.850586	151.730255
3057.351702	5952.662000	1891.866211	84.710892
3057.351702	5952.662000	1890.881836	66.291824
3057.351702	5952.662000	1889.897461	-112.352509
3057.351702	5952.662000	1888.913086	-196.252808
3057.351702	5952.662000	1887.927734	25.680418
3057.351702	5952.662000	1886.943359	-126.148163
3057.351702	5952.662000	1885.958008	-156.615860
3057.351702	5952.662000	1884.972656	-199.199814
3057.351702	5952.662000	1883.987305	-79.282410
3057.351702	5952.662000	1883.001953	40.587936
3057.351702	5952.662000	1882.015625	-26.259222
3057.351702	5952.662000	1881.029297	139.597305
3057.351702	5952.662000	1880.042969	70.320938
3057.351702	5952.662000	1879.056641	-187.923935
3057.351702	5952.662000	1878.070313	43.249722
3057.351702	5952.662000	1877.083984	-134.990829
3057.351702	5952.662000	1876.096680	-8.066217
3057.351702	5952.662000	1875.109375	-86.995743
3057.351702	5952.662000	1874.122070	76.148552
3057.351702	5952.662000	1873.134766	23.818054
3057.351702	5952.662000	1872.146484	75.532448
3057.351702	5952.662000	1871.159180	-117.138657
3057.351702	5952.662000	1870.170898	-162.215714
3057.351702	5952.662000	1869.182617	-279.852814
3057.351702	5952.662000	1868.194336	-25.117197
3057.351702	5952.662000	1867.205078	-208.065521
3057.351702	5952.662000	1866.216797	169.766525
3057.351702	5952.662000	1865.227539	163.192169
3057.351702	5952.662000	1864.238281	-53.614487
3057.351702	5952.662000	1863.249023	-26.398449
3057.351702	5952.662000	1862.259766	-129.650833
3057.351702	5952.662000	1861.269531	13.394674
3057.351702	5952.662000	1860.279297	-0.583808
3057.351702	5952.662000	1859.290039	-29.083755
3057.351702	5952.662000	1858.298828	94.419823
3057.351702	5952.662000	1857.308594	152.680405
3057.351702	5952.662000	1856.318359	34.760078
3057.351702	5952.662000	1855.327148	107.377968
3057.351702	5952.662000	1854.335938	341.487823
3057.351702	5952.662000	1853.344727	136.633682
3057.351702	5952.662000	1852.353516	-46.506687
3057.351702	5952.662000	1851.362305	-32.001556
3057.351702	5952.662000	1850.370117	20.989971
3057.351702	5952.662000	1849.377930	230.500046
3057.351702	5952.662000	1848.385742	73.723083
3057.351702	5952.662000	1847.393555	251.702118
3057.351702	5952.662000	1846.401367	239.318085
3057.351702	5952.662000	1845.408203	224.457474
3057.351702	5952.662000	1844.415039	96.397881
3057.351702	5952.662000	1843.421875	-22.062763
3057.351702	5952.662000	1842.428711	83.213341
3057.351702	5952.662000	1841.435547	111.388397
3057.351702	5952.662000	1840.441406	-105.862389
3057.351702	5952.662000	1839.448242	205.935043
3057.351702	5952.662000	1838.454102	-42.677673
3057.351702	5952.662000	1837.459961	179.873520
3057.351702	5952.662000	1836.464844	-11.136870
3057.351702	5952.662000	1835.470703	93.398727
3057.351702	5952.662000	1834.475586	80.077950
3057.351702	5952.662000	1833.480469	131.522095
3057.351702	5952.662000	1832.485352	238.087769
3057.351702	5952.662000	1831.490234	193.242950
3057.351702	5952.662000	1830.495117	114.705620
3057.351702	5952.662000	1829.499023	336.120789
3057.351702	5952.662000	1828.502930	84.592667
3057.351702	5952.662000	1827.506836	101.777779
3057.351702	5952.662000	1826.510742	385.125580
3057.351702	5952.662000	1825.513672	327.677216
3057.351702	5952.662000	1824.517578	267.744629
3057.351702	5952.662000	1823.520508	49.482048
3057.351702	5952.662000	1822.523438	380.116486
3057.351702	5952.662000	1821.526367	322.257599
3057.351702	5952.662000	1820.529297	204.399902
3057.351702	5952.662000	1819.531250	-11.762745
3057.351702	5952.662000	1818.533203	4.375105
3057.351702	5952.662000	1817.535156	199.995468
3057.351702	5952.662000	1816.537109	189.503052
3057.351702	5952.662000	1815.539063	193.251785
3057.351702	5952.662000	1814.540039	65.226036
3057.351702	5952.662000	1813.541992	202.748306
3057.351702	5952.662000	1812.542969	-76.221962
3057.351702	5952.662000	1811.543945	252.374756
3057.351702	5952.662000	1810.543945	-41.121170
3057.351702	5952.662000	1809.544922	4.913644
3057.351702	5952.662000	1808.544922	132.074417
3057.351702	5952.662000	1807.544922	266.218140
3057.351702	5952.662000	1806.544922	5.848303
3057.351702	5952.662000	1805.544922	-163.766891
3057.351702	5952.662000	1804.544922	-77.845566
3057.351702	5952.662000	1803.543945	194.194077
3057.351702	5952.662000	1802.542969	239.122849
3057.351702	5952.662000	1801.541992	45.128944
3057.351702	5952.662000	1800.541016	170.936722
3057.351702	5952.662000	1799.539063	124.697792
3057.351702	5952.662000	1798.538086	25.836592
3057.351702	5952.662000	1797.536133	-13.503645
3057.351702	5952.662000	1796.534180	113.991844
3057.351702	5952.662000	1795.532227	-18.668306
3057.351702	5952.662000	1794.529297	27.390545
3057.351702	5952.662000	1793.527344	221.088547
3057.351702	5952.662000	1792.524414	209.563660
3057.351702	5952.662000	1791.521484	54.900066
3057.351702	5952.662000	1790.518555	107.421936
3057.351702	5952.662000	1789.514648	83.524765
3057.351702	5952.662000	1788.511719	-78.656784
3057.351702	5952.662000	1787.507813	-19.492985
3057.351702	5952.662000	1786.503906	77.576805
3057.351702	5952.662000	1785.500000	34.002861
3057.351702	5952.662000	1784.496094	40.256016
3057.351702	5952.662000	1783.491211	-70.263191
3057.351702	5952.662000	1782.486328	-64.338127
3057.351702	5952.662000	1781.481445	179.269684
3057.351702	5952.662000	1780.476563	80.167870
3057.351702	5952.662000	1779.471680	-61.864990
3057.351702	5952.662000	1778.465820	128.780930
3057.351702	5952.662000	1777.460938	-101.492271
3057.351702	5952.662000	1776.455078	160.030792
3057.351702	5952.662000	1775.449219	22.138346
3057.351702	5952.662000	1774.442383	5.256090
3057.351702	5952.662000	1773.436523	73.713326
3057.351702	5952.662000	1772.429688	113.463470
3057.351702	5952.662000	1771.422852	58.058220
3057.351702	5952.662000	1770.416016	-9.371074
3057.351702	5952.662000	1769.409180	186.465149
3057.351702	5952.662000	1768.402344	75.970749
3057.351702	5952.662000	1767.394531	-150.913956
3057.351702	5952.662000	1766.386719	343.132263
3057.351702	5952.662000	1765.378906	23.439102
3057.351702	5952.662000	1764.371094	9.531646
3057.351702	5952.662000	1763.362305	-28.269510
3057.351702	5952.662000	1762.354492	177.883575
3057.351702	5952.662000	1761.345703	99.417480
3057.351702	5952.662000	1760.336914	98.978821
3057.351702	5952.662000	1759.328125	-57.973614
3057.351702	5952.662000	1758.318359	-129.808411
3057.351702	5952.662000	1757.308594	-43.161564
3057.351702	5952.662000	1756.299805	119.034798
3057.351702	5952.662000	1755.290039	195.765884
3057.351702	5952.662000	1754.279297	120.819214
3057.351702	5952.662000	1753.269531	-100.956886
3057.351702	5952.662000	1752.258789	190.460938
3057.351702	5952.662000	1751.249023	81.909050
3057.351702	5952.662000	1750.238281	157.634781
3057.351702	5952.662000	1749.226563	48.729481
3057.351702	5952.662000	1748.215820	50.788456
3057.351702	5952.662000	1747.204102	184.985809
3057.351702	5952.662000	1746.193359	-151.227905
3057.351702	5952.662000	1745.181641	-41.036671
3057.351702	5952.662000	1744.168945	-68.076515
3057.351702	5952.662000	1743.157227	74.746788
3057.351702	5952.662000	1742.144531	212.592087
3057.351702	5952.662000	1741.132813	175.538742
3057.351702	5952.662000	1740.120117	95.817215
3057.351702	5952.662000	1739.106445	91.433197
3057.351702	5952.662000	1738.093750	247.306015
3057.351702	5952.662000	1737.080078	82.132004
3057.351702	5952.662000	1736.067383	96.085129
3057.351702	5952.662000	1735.053711	128.693115
3057.351702	5952.662000	1734.040039	-249.075836
3057.351702	5952.662000	1733.025391	141.454910
3057.351702	5952.662000	1732.011719	72.159027
3057.351702	5952.662000	1730.997070	-60.920403
3057.351702	5952.662000	1729.982422	-31.598585
3057.351702	5952.662000	1728.967773	209.494232
3057.351702	5952.662000	1727.952148	54.708782
3057.351702	5952.662000	1726.937500	59.909790
3057.351702	5952.662000	1725.921875	-104.559425
3057.351702	5952.662000	1724.906250	-14.987718
3057.351702	5952.662000	1723.890625	-212.679047
3057.351702	5952.662000	1722.875000	31.783369
3057.351702	5952.662000	1721.858398	-288.518127
3057.351702	5952.662000	1720.841797	-110.350174
3057.351702	5952.662000	1719.825195	100.489258
3057.351702	5952.662000	1718.808594	73.661179
3057.351702	5952.662000	1717.791992	44.318806
3057.351702	5952.662000	1716.774414	35.940308
3057.351702	5952.662000	1715.756836	-5.495869
3057.351702	5952.662000	1714.739258	133.769043
3057.351702	5952.662000	1713.721680	-358.898743
3057.351702	5952.662000	1712.704102	-175.347824
3057.351702	5952.662000	1711.685547	-13.186633
3057.351702	5952.662000	1710.667969	0.906208
3057.351702	5952.662000	1709.649414	85.200996
3057.351702	5952.662000	1708.630859	37.915699
3057.351702	5952.662000	1707.611328	-112.750008
3057.351702	5952.662000	1706.592773	104.700371
3057.351702	5952.662000	1705.573242	-238.518661
3057.351702	5952.662000	1704.553711	-12.096632
3057.351702	5952.662000	1703.534180	-114.065529
3057.351702	5952.662000	1702.513672	-5.269273
3057.351702	5952.662000	1701.494141	-39.571117
3057.351702	5952.662000	1700.473633	150.841721
3057.351702	5952.662000	1699.453125	-169.547592
3057.351702	5952.662000	1698.432617	60.311127
3057.351702	5952.662000	1697.412109	93.270767
3057.351702	5952.662000	1696.390625	116.680077
3057.351702	5952.662000	1695.369141	41.636162
3057.351702	5952.662000	1694.347656	-42.888863
3057.351702	5952.662000	1693.326172	22.190426
3057.351702	5952.662000	1692.304688	35.641102
3057.351702	5952.662000	1691.282227	98.024246
3057.351702	5952.662000	1690.260742	-75.877602
3057.351702	5952.662000	1689.238281	-107.287582
3057.351702	5952.662000	1688.214844	15.398973
3057.351702	5952.662000	1687.192383	-39.665436
3057.351702	5952.662000	1686.168945	-174.304260
3057.351702	5952.662000	1685.146484	-129.149612
3057.351702	5952.662000	1684.123047	48.941406
3057.351702	5952.662000	1683.099609	133.434875
3057.351702	5952.662000	1682.075195	23.980795
3057.351702	5952.662000	1681.051758	-62.198414
3057.351702	5952.662000	1680.027344	17.179920
3057.351702	5952.662000	1679.002930	229.387100
3057.351702	5952.662000	1677.978516	226.784241
3057.351702	5952.662000	1676.953125	277.671265
3057.351702	5952.662000	1675.928711	419.379211
3057.351702	5952.662000	1674.903320	253.154602
3057.351702	5952.662000	1673.877930	252.365051
3057.351702	5952.662000	1672.852539	284.082733
3057.351702	5952.662000	1671.826172	543.978210
3057.351702	5952.662000	1670.800781	694.201965
3057.351702	5952.662000	1669.774414	383.077789
3057.351702	5952.662000	1668.748047	393.305908
3057.351702	5952.662000	1667.721680	694.440918
3057.351702	5952.662000	1666.694336	743.934326
3057.351702	5952.662000	1665.667969	697.912292
3057.351702	5952.662000	1664.640625	572.668274
3057.351702	5952.662000	1663.613281	659.065308
3057.351702	5952.662000	1662.585938	747.658020
3057.351702	5952.662000	1661.557617	1010.497192
3057.351702	5952.662000	1660.530273	1245.266479
3057.351702	5952.662000	1659.501953	1335.702026
3057.351702	5952.662000	1658.473633	1165.712158
3057.351702	5952.662000	1657.444336	1311.685425
3057.351702	5952.662000	1656.416016	1520.268799
3057.351702	5952.662000	1655.386719	1589.291870
3057.351702	5952.662000	1654.358398	1205.384521
3057.351702	5952.662000	1653.328125	1404.269775
3057.351702	5952.662000	1652.298828	1846.773682
3057.351702	5952.662000	1651.269531	1959.454468
3057.351702	5952.662000	1650.239258	1942.037964
3057.351702	5952.662000	1649.208984	1699.509521
3057.351702	5952.662000	1648.178711	2189.996094
3057.351702	5952.662000	1647.148438	2246.542969
3057.351702	5952.662000	1646.117188	2219.497070
3057.351702	5952.662000	1645.086914	2479.889648
3057.351702	5952.662000	1644.055664	2543.074463
3057.351702	5952.662000	1643.024414	2589.951172
3057.351702	5952.662000	1641.992188	2363.327393
3057.351702	5952.662000	1640.960938	2708.928467
3057.351702	5952.662000	1639.928711	2693.015625
3057.351702	5952.662000	1638.896484	2721.049805
3057.351702	5952.662000	1637.864258	2610.116699
3057.351702	5952.662000	1636.832031	2943.593994
3057.351702	5952.662000	1635.798828	3193.554443
3057.351702	5952.662000	1634.766602	3260.614746
3057.351702	5952.662000	1633.733398	3204.973389
3057.351702	5952.662000	1632.699219	3237.173340
3057.351702	5952.662000	1631.666016	3625.466309
3057.351702	5952.662000	1630.632813	3530.372314
3057.351702	5952.662000	1629.598633	3560.073975
3057.351702	5952.662000	1628.564453	3437.204102
3057.351702	5952.662000	1627.530273	3637.838867
3057.351702	5952.662000	1626.495117	3214.596191
3057.351702	5952.662000	1625.460938	3539.872559
3057.351702	5952.662000	1624.425781	3527.819336
3057.351702	5952.662000	1623.390625	3834.369629
3057.351702	5952.662000	1622.355469	3766.825195
3057.351702	5952.662000	1621.319336	3800.813477
3057.351702	5952.662000	1620.284180	3910.953369
3057.351702	5952.662000	1619.248047	3778.771240
3057.351702	5952.662000	1618.211914	3828.855225
3057.351702	5952.662000	1617.174805	3906.557129
3057.351702	5952.662000	1616.138672	4034.982666
3057.351702	5952.662000	1615.101563	4142.580078
3057.351702	5952.662000	1614.065430	4261.690918
3057.351702	5952.662000	1613.027344	4164.093750
3057.351702	5952.662000	1611.990234	4495.094238
3057.351702	5952.662000	1610.953125	4533.438477
3057.351702	5952.662000	1609.915039	4951.743164
3057.351702	5952.662000	1608.876953	4713.673340
3057.351702	5952.662000	1607.838867	4657.576660
3057.351702	5952.662000	1606.800781	4695.889160
3057.351702	5952.662000	1605.761719	4603.011719
3057.351702	5952.662000	1604.723633	5142.926758
3057.351702	5952.662000	1603.684570	5107.553711
3057.351702	5952.662000	1602.644531	5030.797363
3057.351702	5952.662000	1601.605469	5066.799316
3057.351702	5952.662000	1600.566406	5238.458496
3057.351702	5952.662000	1599.526367	5354.894043
3057.351702	5952.662000	1598.486328	5059.969238
3057.351702	5952.662000	1597.446289	5047.804199
3057.351702	5952.662000	1596.405273	5364.153809
3057.351702	5952.662000	1595.365234	5138.427734
3057.351702	5952.662000	1594.324219	5296.284668
3057.351702	5952.662000	1593.283203	4974.304199
3057.351702	5952.662000	1592.242188	5478.833008
3057.351702	5952.662000	1591.200195	4858.680664
3057.351702	5952.662000	1590.159180	5230.067871
3057.351702	5952.662000	1589.117188	5188.415527
3057.351702	5952.662000	1588.075195	5178.951172
3057.351702	5952.662000	1587.032227	5164.940918
3057.351702	5952.662000	1585.990234	5196.883789
3057.351702	5952.662000	1584.947266	4894.187500
3057.351702	5952.662000	1583.904297	4894.198242
3057.351702	5952.662000	1582.861328	4935.524414
3057.351702	5952.662000	1581.818359	4564.551270
3057.351702	5952.662000	1580.775391	4887.803223
3057.351702	5952.662000	1579.731445	4791.915039
3057.351702	5952.662000	1578.687500	4854.124512
3057.351702	5952.662000	1577.643555	4728.690430
3057.351702	5952.662000	1576.598633	4543.858887
3057.351702	5952.662000	1575.554688	4606.342773
3057.351702	5952.662000	1574.509766	4476.697754
3057.351702	5952.662000	1573.464844	4134.477051
3057.351702	5952.662000	1572.419922	4329.898926
3057.351702	5952.662000	1571.374023	4408.708984
3057.351702	5952.662000	1570.329102	4604.198730
3057.351702	5952.662000	1569.283203	4388.300293
3057.351702	5952.662000	1568.237305	4117.749023
3057.351702	5952.662000	1567.191406	4324.896973
3057.351702	5952.662000	1566.144531	4162.013672
3057.351702	5952.662000	1565.098633	3967.359375
3057.351702	5952.662000	1564.051758	3973.799316
3057.351702	5952.662000	1563.004883	3669.892578
3057.351702	5952.662000	1561.957031	4023.518555
3057.351702	5952.662000	1560.910156	4089.632080
3057.351702	5952.662000	1559.862305	4112.470215
3057.351702	5952.662000	1558.814453	4012.251953
3057.351702	5952.662000	1557.766602	4026.229004
3057.351702	5952.662000	1556.718750	3750.755127
3057.351702	5952.662000	1555.669922	3995.263184
3057.351702	5952.662000	1554.621094	4100.777832
3057.351702	5952.662000	1553.573242	4142.606934
3057.351702	5952.662000	1552.523438	4405.509766
3057.351702	5952.662000	1551.474609	4515.855957
3057.351702	5952.662000	1550.424805	4234.558105
3057.351702	5952.662000	1549.375000	4263.187988
3057.351702	5952.662000	1548.325195	4517.331543
3057.351702	5952.662000	1547.275391	4537.089355
3057.351702	5952.662000	1546.225586	4561.541016
3057.351702	5952.662000	1545.174805	4410.923828
3057.351702	5952.662000	1544.124023	4162.709473
3057.351702	5952.662000	1543.073242	3967.059326
3057.351702	5952.662000	1542.022461	4037.686768
3057.351702	5952.662000	1540.970703	3824.250732
3057.351702	5952.662000	1539.919922	3779.284424
3057.351702	5952.662000	1538.868164	3602.674805
3057.351702	5952.662000	1537.815430	3239.972900
3057.351702	5952.662000	1536.763672	3636.324707
3057.351702	5952.662000	1535.710938	3562.539307
3057.351702	5952.662000	1534.659180	3443.566406
3057.351702	5952.662000	1533.606445	3440.577881
3057.351702	5952.662000	1532.552734	3703.316162
3057.351702	5952.662000	1531.500000	3625.747070
3057.351702	5952.662000	1530.446289	3548.369629
3057.351702	5952.662000	1529.393555	3144.566895
3057.351702	5952.662000	1528.338867	3171.993896
3057.351702	5952.662000	1527.285156	2827.735596
3057.351702	5952.662000	1526.231445	2463.397949
3057.351702	5952.662000	1525.176758	2509.644775
3057.351702	5952.662000	1524.122070	2474.483887
3057.351702	5952.662000	1523.067383	2208.420898
3057.351702	5952.662000	1522.012695	2345.891113
3057.351702	5952.662000	1520.957031	2066.746338
3057.351702	5952.662000	1519.901367	1772.062134
3057.351702	5952.662000	1518.845703	2007.471069
3057.351702	5952.662000	1517.790039	1919.302612
3057.351702	5952.662000	1516.734375	1670.695190
3057.351702	5952.662000	1515.677734	1691.632324
3057.351702	5952.662000	1514.621094	1886.958008
3057.351702	5952.662000	1513.564453	1605.187622
3057.351702	5952.662000	1512.507813	1348.615479
3057.351702	5952.662000	1511.450195	1463.122192
3057.351702	5952.662000	1510.393555	1308.828003
3057.351702	5952.662000	1509.335938	958.176636
3057.351702	5952.662000	1508.278320	937.774475
3057.351702	5952.662000	1507.219727	901.768738
3057.351702	5952.662000	1506.162109	671.775757
3057.351702	5952.662000	1505.103516	726.609985
3057.351702	5952.662000	1504.044922	573.937622
3057.351702	5952.662000	1502.986328	419.295044
3057.351702	5952.662000	1501.926758	416.133179
3057.351702	5952.662000	1500.868164	424.499634
3057.351702	5952.662000	1499.808594	412.775482
3057.351702	5952.662000	1498.749023	428.352203
3057.351702	5952.662000	1497.688477	356.197113
3057.351702	5952.662000	1496.628906	-31.323719
3057.351702	5952.662000	1495.568359	111.254539
3057.351702	5952.662000	1494.507813	-14.173692
3057.351702	5952.662000	1493.447266	248.242310
3057.351702	5952.662000	1492.386719	-56.908451
3057.351702	5952.662000	1491.325195	-170.260986
3057.351702	5952.662000	1490.263672	11.673854
3057.351702	5952.662000	1489.202148	78.955704
3057.351702	5952.662000	1488.140625	-157.430054
3057.351702	5952.662000	1487.079102	45.382820
3057.351702	5952.662000	1486.016602	52.592403
3057.351702	5952.662000	1484.954102	35.301826
3057.351702	5952.662000	1483.891602	-33.466496
3057.351702	5952.662000	1482.829102	-52.483143
3057.351702	5952.662000	1481.765625	153.573883
3057.351702	5952.662000	1480.702148	108.041077
3057.351702	5952.662000	1479.638672	114.466125
3057.351702	5952.662000	1478.575195	-135.013412
3057.351702	5952.662000	1477.511719	332.499756
3057.351702	5952.662000	1476.447266	276.707611
3057.351702	5952.662000	1475.382813	299.896484
3057.351702	5952.662000	1474.318359	599.252686
3057.351702	5952.662000	1473.253906	865.157776
3057.351702	5952.662000	1472.189453	1030.071411
3057.351702	5952.662000	1471.124023	872.243652
3057.351702	5952.662000	1470.058594	728.240662
3057.351702	5952.662000	1468.993164	813.119751
3057.351702	5952.662000	1467.927734	918.811157
3057.351702	5952.662000	1466.861328	1192.304199
3057.351702	5952.662000	1465.794922	1246.534912
3057.351702	5952.662000	1464.728516	1406.037354
3057.351702	5952.662000	1463.662109	1199.313721
3057.351702	5952.662000	1462.594727	1466.565063
3057.351702	5952.662000	1461.528320	1537.582642
3057.351702	5952.662000	1460.460938	1235.443726
3057.351702	5952.662000	1459.393555	1516.628052
3057.351702	5952.662000	1458.326172	1869.505249
3057.351702	5952.662000	1457.257813	1713.355347
3057.351702	5952.662000	1456.189453	1576.493164
3057.351702	5952.662000	1455.121094	1547.296021
3057.351702	5952.662000	1454.052734	1990.637207
3057.351702	5952.662000	1452.984375	1893.026855
3057.351702	5952.662000	1451.915039	1868.830322
3057.351702	5952.662000	1450.845703	1986.417480
3057.351702	5952.662000	1449.776367	1877.146118
3057.351702	5952.662000	1448.707031	1642.325073
3057.351702	5952.662000	1447.636719	1983.052856
3057.351702	5952.662000	1446.567383	1553.500000
3057.351702	5952.662000	1445.497070	1336.180664
3057.351702	5952.662000	1444.425781	1497.362915
3057.351702	5952.662000	1443.355469	1511.561523
3057.351702	5952.662000	1442.285156	1379.240845
3057.351702	5952.662000	1441.213867	1549.854492
3057.351702	5952.662000	1440.142578	1405.865479
3057.351702	5952.662000	1439.070313	1691.300049
3057.351702	5952.662000	1437.999023	1431.429810
3057.351702	5952.662000	1436.926758	1423.753296
3057.351702	5952.662000	1435.854492	1379.640259
3057.351702	5952.662000	1434.782227	1379.303589
3057.351702	5952.662000	1433.709961	1432.067383
3057.351702	5952.662000	1432.636719	1116.439941
3057.351702	5952.662000	1431.563477	1231.276489
3057.351702	5952.662000	1430.490234	1329.473145
3057.351702	5952.662000	1429.416992	1015.529785
3057.351702	5952.662000	1428.343750	1065.483276
3057.351702	5952.662000	1427.269531	1108.794312
3057.351702	5952.662000	1426.195313	1130.826294
3057.351702	5952.662000	1425.121094	1086.039917
3057.351702	5952.662000	1424.046875	976.059937
3057.351702	5952.662000	1422.971680	837.170044
3057.351702	5952.662000	1421.896484	1226.262085
3057.351702	5952.662000	1420.821289	1221.275024
3057.351702	5952.662000	1419.746094	1300.220215
3057.351702	5952.662000	1418.669922	1192.218262
3057.351702	5952.662000	1417.594727	1041.341187
3057.351702	5952.662000	1416.518555	1047.041992
3057.351702	5952.662000	1415.442383	1087.302490
3057.351702	5952.662000	1414.365234	1161.246338
3057.351702	5952.662000	1413.289063	1011.123047
3057.351702	5952.662000	1412.211914	1070.041748
3057.351702	5952.662000	1411.134766	1137.373779
3057.351702	5952.662000	1410.057617	1246.482056
3057.351702	5952.662000	1408.979492	998.723450
3057.351702	5952.662000	1407.902344	1155.868530
3057.351702	5952.662000	1406.824219	1239.491577
3057.351702	5952.662000	1405.746094	1243.449097
3057.351702	5952.662000	1404.666992	1338.061890
3057.351702	5952.662000	1403.588867	1375.084839
3057.351702	5952.662000	1402.509766	1305.576416
3057.351702	5952.662000	1401.430664	1392.353027
3057.351702	5952.662000	1400.351563	1339.443237
3057.351702	5952.662000	1399.271484	1712.735229
3057.351702	5952.662000	1398.192383	1588.973511
3057.351702	5952.662000	1397.112305	1358.928101
3057.351702	5952.662000	1396.031250	1654.516724
3057.351702	5952.662000	1394.951172	1659.574097
3057.351702	5952.662000	1393.871094	1538.623779
3057.351702	5952.662000	1392.790039	1680.662720
3057.351702	5952.662000	1391.708984	1154.391724
3057.351702	5952.662000	1390.626953	1610.488037
3057.351702	5952.662000	1389.545898	1566.131470
3057.351702	5952.662000	1388.463867	1568.935425
3057.351702	5952.662000	1387.381836	1397.996094
3057.351702	5952.662000	1386.299805	1688.079956
3057.351702	5952.662000	1385.217773	1576.078491
3057.351702	5952.662000	1384.134766	1615.080444
3057.351702	5952.662000	1383.051758	1843.247070
3057.351702	5952.662000	1381.968750	1680.565796
3057.351702	5952.662000	1380.885742	2064.267578
3057.351702	5952.662000	1379.802734	1583.152222
3057.351702	5952.662000	1378.718750	1714.057373
3057.351702	5952.662000	1377.634766	2052.977295
3057.351702	5952.662000	1376.550781	1952.813232
3057.351702	5952.662000	1375.465820	1688.358276
3057.351702	5952.662000	1374.381836	2014.856201
3057.351702	5952.662000	1373.296875	1632.045654
3057.351702	5952.662000	1372.211914	1564.593506
3057.351702	5952.662000	1371.126953	1579.617432
3057.351702	5952.662000	1370.041016	1549.904297
3057.351702	5952.662000	1368.955078	1498.274292
3057.351702	5952.662000	1367.869141	1380.886475
3057.351702	5952.662000	1366.783203	1400.067139
3057.351702	5952.662000	1365.697266	1339.813354
3057.351702	5952.662000	1364.610352	1127.986572
3057.351702	5952.662000	1363.523438	1191.025391
3057.351702	5952.662000	1362.436523	1392.477173
3057.351702	5952.662000	1361.349609	1065.191895
3057.351702	5952.662000	1360.261719	1144.395508
3057.351702	5952.662000	1359.174805	974.338867
3057.351702	5952.662000	1358.086914	899.237122
3057.351702	5952.662000	1356.998047	921.530762
3057.351702	5952.662000	1355.910156	731.188232
3057.351702	5952.662000	1354.821289	984.931641
3057.351702	5952.662000	1353.732422	950.795044
3057.351702	5952.662000	1352.643555	965.052246
3057.351702	5952.662000	1351.554688	1145.023804
3057.351702	5952.662000	1350.464844	1014.538879
3057.351702	5952.662000	1349.375000	1015.874817
3057.351702	5952.662000	1348.285156	1116.002441
3057.351702	5952.662000	1347.195313	988.551147
3057.351702	5952.662000	1346.105469	927.251465
3057.351702	5952.662000	1345.014648	1067.447021
3057.351702	5952.662000	1343.923828	1118.285278
3057.351702	5952.662000	1342.833008	938.569214
3057.351702	5952.662000	1341.741211	1017.879089
3057.351702	5952.662000	1340.650391	772.039307
3057.351702	5952.662000	1339.558594	726.599304
3057.351702	5952.662000	1338.466797	937.328491
3057.351702	5952.662000	1337.374023	830.267090
3057.351702	5952.662000	1336.282227	847.270935
3057.351702	5952.662000	1335.189453	944.834290
3057.351702	5952.662000	1334.096680	822.104797
3057.351702	5952.662000	1333.003906	713.658691
3057.351702	5952.662000	1331.910156	816.568054
3057.351702	5952.662000	1330.817383	880.077698
3057.351702	5952.662000	1329.723633	601.685486
3057.351702	5952.662000	1328.629883	712.006836
3057.351702	5952.662000	1327.535156	886.905518
3057.351702	5952.662000	1326.441406	983.177673
3057.351702	5952.662000	1325.346680	935.629028
3057.351702	5952.662000	1324.251953	1015.141907
3057.351702	5952.662000	1323.156250	1167.002441
3057.351702	5952.662000	1322.061523	1154.798706
3057.351702	5952.662000	1320.965820	1006.440857
3057.351702	5952.662000	1319.870117	678.381042
3057.351702	5952.662000	1318.774414	784.017578
3057.351702	5952.662000	1317.678711	820.584839
3057.351702	5952.662000	1316.582031	894.492737
3057.351702	5952.662000	1315.485352	762.712280
3057.351702	5952.662000	1314.388672	814.044067
3057.351702	5952.662000	1313.291016	807.705261
3057.351702	5952.662000	1312.194336	668.634521
3057.351702	5952.662000	1311.096680	931.231079
3057.351702	5952.662000	1309.999023	887.623230
3057.351702	5952.662000	1308.901367	927.519836
3057.351702	5952.662000	1307.802734	1032.837891
3057.351702	5952.662000	1306.705078	1068.995117
3057.351702	5952.662000	1305.606445	1140.440796
3057.351702	5952.662000	1304.506836	990.376282
3057.351702	5952.662000	1303.408203	1084.169922
3057.351702	5952.662000	1302.308594	1273.720703
3057.351702	5952.662000	1301.208984	1253.316284
3057.351702	5952.662000	1300.109375	1314.216187
3057.351702	5952.662000	1299.009766	1387.349854
3057.351702	5952.662000	1297.909180	1379.906616
3057.351702	5952.662000	1296.808594	1759.124634
3057.351702	5952.662000	1295.708008	1781.431519
3057.351702	5952.662000	1294.607422	1623.795654
3057.351702	5952.662000	1293.506836	1642.992188
3057.351702	5952.662000	1292.405273	1513.355713
3057.351702	5952.662000	1291.303711	1383.096191
3057.351702	5952.662000	1290.202148	1391.106079
3057.351702	5952.662000	1289.099609	1163.319702
3057.351702	5952.662000	1287.998047	943.545471
3057.351702	5952.662000	1286.895508	1203.851563
3057.351702	5952.662000	1285.792969	1079.754272
3057.351702	5952.662000	1284.689453	1112.981201
3057.351702	5952.662000	1283.586914	943.070679
3057.351702	5952.662000	1282.483398	1015.556274
3057.351702	5952.662000	1281.379883	800.658997
3057.351702	5952.662000	1280.276367	975.784973
3057.351702	5952.662000	1279.171875	778.634705
3057.351702	5952.662000	1278.067383	712.964172
3057.351702	5952.662000	1276.962891	715.279053
3057.351702	5952.662000	1275.858398	530.522278
3057.351702	5952.662000	1274.753906	377.805023
3057.351702	5952.662000	1273.648438	237.294907
3057.351702	5952.662000	1272.542969	409.556244
3057.351702	5952.662000	1271.437500	505.014435
3057.351702	5952.662000	1270.331055	212.886322
3057.351702	5952.662000	1269.225586	164.116409
3057.351702	5952.662000	1268.119141	34.363186
3057.351702	5952.662000	1267.012695	96.090950
3057.351702	5952.662000	1265.906250	-31.378340
3057.351702	5952.662000	1264.798828	-44.249531
3057.351702	5952.662000	1263.691406	-218.968643
3057.351702	5952.662000	1262.583984	-41.528187
3057.351702	5952.662000	1261.476563	258.343048
3057.351702	5952.662000	1260.368164	46.457970
3057.351702	5952.662000	1259.260742	182.211411
3057.351702	5952.662000	1258.152344	-93.475563
3057.351702	5952.662000	1257.043945	58.569897
3057.351702	5952.662000	1255.934570	74.854218
3057.351702	5952.662000	1254.825195	85.995476
3057.351702	5952.662000	1253.716797	-69.984100
3057.351702	5952.662000	1252.606445	63.216801
3057.351702	5952.662000	1251.497070	149.835373
3057.351702	5952.662000	1250.387695	208.651581
3057.351702	5952.662000	1249.277344	285.039215
3057.351702	5952.662000	1248.166992	513.768555
3057.351702	5952.662000	1247.055664	420.883301
3057.351702	5952.662000	1245.945313	522.674133
3057.351702	5952.662000	1244.833984	427.849884
3057.351702	5952.662000	1243.722656	263.548035
3057.351702	5952.662000	1242.611328	672.297546
3057.351702	5952.662000	1241.499023	489.208740
3057.351702	5952.662000	1240.387695	386.027161
3057.351702	5952.662000	1239.275391	422.805634
3057.351702	5952.662000	1238.162109	308.528320
3057.351702	5952.662000	1237.049805	434.194672
3057.351702	5952.662000	1235.936523	314.050934
3057.351702	5952.662000	1234.823242	286.668030
3057.351702	5952.662000	1233.709961	82.287888
3057.351702	5952.662000	1232.596680	283.431854
3057.351702	5952.662000	1231.482422	245.030563
3057.351702	5952.662000	1230.369141	246.772980
3057.351702	5952.662000	1229.253906	26.123219
3057.351702	5952.662000	1228.139648	3.017220
3057.351702	5952.662000	1227.025391	82.231346
3057.351702	5952.662000	1225.910156	165.289948
3057.351702	5952.662000	1224.794922	-25.159750
3057.351702	5952.662000	1223.679688	277.811798
3057.351702	5952.662000	1222.563477	97.750389
3057.351702	5952.662000	1221.447266	165.037689
3057.351702	5952.662000	1220.331055	2.370856
3057.351702	5952.662000	1219.214844	41.325966
3057.351702	5952.662000	1218.098633	182.805283
3057.351702	5952.662000	1216.981445	160.645538
3057.351702	5952.662000	1215.864258	160.300812
3057.351702	5952.662000	1214.747070	229.489807
3057.351702	5952.662000	1213.629883	232.663651
3057.351702	5952.662000	1212.511719	422.424591
3057.351702	5952.662000	1211.393555	275.914368
3057.351702	5952.662000	1210.275391	124.820496
3057.351702	5952.662000	1209.157227	132.055054
3057.351702	5952.662000	1208.038086	231.634262
3057.351702	5952.662000	1206.918945	195.885590
3057.351702	5952.662000	1205.799805	-15.501461
3057.351702	5952.662000	1204.680664	-150.028809
3057.351702	5952.662000	1203.560547	35.614498
3057.351702	5952.662000	1202.441406	99.275421
3057.351702	5952.662000	1201.321289	266.692993
3057.351702	5952.662000	1200.200195	99.718689
3057.351702	5952.662000	1199.080078	-45.395878
3057.351702	5952.662000	1197.958984	91.843880
3057.351702	5952.662000	1196.837891	75.086319
3057.351702	5952.662000	1195.716797	211.890198
3057.351702	5952.662000	1194.594727	161.228180
3057.351702	5952.662000	1193.473633	246.594772
3057.351702	5952.662000	1192.351563	141.646072
3057.351702	5952.662000	1191.229492	-100.086327
3057.351702	5952.662000	1190.106445	167.414963
3057.351702	5952.662000	1188.984375	222.539520
3057.351702	5952.662000	1187.861328	204.550415
3057.351702	5952.662000	1186.738281	114.813530
3057.351702	5952.662000	1185.614258	22.957336
3057.351702	5952.662000	1184.491211	105.094734
3057.351702	5952.662000	1183.367188	125.919884
3057.351702	5952.662000	1182.243164	45.947456
3057.351702	5952.662000	1181.119141	44.750023
3057.351702	5952.662000	1179.994141	152.938171
3057.351702	5952.662000	1178.869141	262.044434
3057.351702	5952.662000	1177.744141	27.674629
3057.351702	5952.662000	1176.619141	138.141647
3057.351702	5952.662000	1175.493164	102.848755
3057.351702	5952.662000	1174.368164	21.638981
3057.351702	5952.662000	1173.242188	106.593788
3057.351702	5952.662000	1172.115234	200.291473
3057.351702	5952.662000	1170.989258	120.892075
3057.351702	5952.662000	1169.862305	179.039047
3057.351702	5952.662000	1168.735352	-91.466599
3057.351702	5952.662000	1167.608398	-22.225883
3057.351702	5952.662000	1166.481445	225.048813
3057.351702	5952.662000	1165.353516	90.033485
3057.351702	5952.662000	1164.225586	34.670235
3057.351702	5952.662000	1163.097656	-155.854797
3057.351702	5952.662000	1161.968750	6.796202
3057.351702	5952.662000	1160.840820	13.402416
3057.351702	5952.662000	1159.711914	-102.529137
3057.351702	5952.662000	1158.583008	-181.577225
3057.351702	5952.662000	1157.453125	-191.795013
3057.351702	5952.662000	1156.324219	-208.281296
3057.351702	5952.662000	1155.194336	-126.981018
3057.351702	5952.662000	1154.064453	-404.740051
3057.351702	5952.662000	1152.933594	-106.115799
3057.351702	5952.662000	1151.803711	-101.346756
3057.351702	5952.662000	1150.672852	-107.437286
3057.351702	5952.662000	1149.541992	-232.582321
3057.351702	5952.662000	1148.411133	-262.482208
3057.351702	5952.662000	1147.279297	-154.732025
3057.351702	5952.662000	1146.147461	-225.340714
3057.351702	5952.662000	1145.015625	-67.623833
3057.351702	5952.662000	1143.883789	-185.580490
3057.351702	5952.662000	1142.750977	-107.976074
3057.351702	5952.662000	1141.619141	-112.560417
3057.351702	5952.662000	1140.486328	29.757801
3057.351702	5952.662000	1139.352539	-25.485685
3057.351702	5952.662000	1138.219727	136.672974
3057.351702	5952.662000	1137.085938	35.224777
3057.351702	5952.662000	1135.952148	26.728426
3057.351702	5952.662000	1134.818359	244.087296
3057.351702	5952.662000	1133.683594	378.490234
3057.351702	5952.662000	1132.549805	281.013794
3057.351702	5952.662000	1131.415039	678.764954
3057.351702	5952.662000	1130.279297	665.650757
3057.351702	5952.662000	1129.144531	829.352051
3057.351702	5952.662000	1128.008789	985.693909
3057.351702	5952.662000	1126.873047	842.665833
3057.351702	5952.662000	1125.737305	579.913635
3057.351702	5952.662000	1124.601563	737.049744
3057.351702	5952.662000	1123.464844	788.060913
3057.351702	5952.662000	1122.328125	629.011536
3057.351702	5952.662000	1121.191406	759.100098
3057.351702	5952.662000	1120.054688	548.478271
3057.351702	5952.662000	1118.916992	632.540527
3057.351702	5952.662000	1117.779297	562.607727
3057.351702	5952.662000	1116.641602	652.270996
3057.351702	5952.662000	1115.503906	687.598206
3057.351702	5952.662000	1114.365234	534.590698
3057.351702	5952.662000	1113.226563	485.155792
3057.351702	5952.662000	1112.087891	375.032349
3057.351702	5952.662000	1110.949219	325.347778
3057.351702	5952.662000	1109.809570	147.609756
3057.351702	5952.662000	1108.669922	320.302521
3057.351702	5952.662000	1107.530273	212.109283
3057.351702	5952.662000	1106.390625	429.045227
3057.351702	5952.662000	1105.250000	447.222015
3057.351702	5952.662000	1104.109375	285.568939
3057.351702	5952.662000	1102.968750	516.574890
3057.351702	5952.662000	1101.828125	499.054932
3057.351702	5952.662000	1100.686523	651.912292
3057.351702	5952.662000	1099.544922	756.373718
3057.351702	5952.662000	1098.403320	672.659607
3057.351702	5952.662000	1097.261719	626.278625
3057.351702	5952.662000	1096.120117	589.639587
3057.351702	5952.662000	1094.977539	621.559143
3057.351702	5952.662000	1093.834961	593.727783
3057.351702	5952.662000	1092.691406	737.172913
3057.351702	5952.662000	1091.548828	496.541260
3057.351702	5952.662000	1090.405273	537.451111
3057.351702	5952.662000	1089.261719	665.745911
3057.351702	5952.662000	1088.118164	518.146240
3057.351702	5952.662000	1086.973633	396.066528
3057.351702	5952.662000	1085.829102	483.298035
3057.351702	5952.662000	1084.684570	690.540894
3057.351702	5952.662000	1083.540039	593.062683
3057.351702	5952.662000	1082.395508	670.195374
3057.351702	5952.662000	1081.250000	682.500305
3057.351702	5952.662000	1080.104492	870.445251
3057.351702	5952.662000	1078.958984	759.732422
3057.351702	5952.662000	1077.812500	805.913879
3057.351702	5952.662000	1076.666016	760.278320
3057.351702	5952.662000	1075.519531	732.967407
3057.351702	5952.662000	1074.373047	650.129761
3057.351702	5952.662000	1073.226563	537.323181
3057.351702	5952.662000	1072.079102	605.107849
3057.351702	5952.662000	1070.931641	531.518372
3057.351702	5952.662000	1069.784180	542.510986
3057.351702	5952.662000	1068.635742	480.215912
3057.351702	5952.662000	1067.487305	646.185730
3057.351702	5952.662000	1066.338867	522.334900
3057.351702	5952.662000	1065.190430	693.905823
3057.351702	5952.662000	1064.041992	628.766968
3057.351702	5952.662000	1062.892578	897.474609
3057.351702	5952.662000	1061.743164	1079.833252
3057.351702	5952.662000	1060.593750	918.275818
3057.351702	5952.662000	1059.443359	762.251831
3057.351702	5952.662000	1058.292969	639.498840
3057.351702	5952.662000	1057.142578	786.598328
3057.351702	5952.662000	1055.992188	809.866150
3057.351702	5952.662000	1054.841797	910.886780
3057.351702	5952.662000	1053.690430	735.311096
3057.351702	5952.662000	1052.539063	778.427429
3057.351702	5952.662000	1051.387695	678.361206
3057.351702	5952.662000	1050.235352	783.257080
3057.351702	5952.662000	1049.083984	553.944458
3057.351702	5952.662000	1047.931641	532.784180
3057.351702	5952.662000	1046.778320	668.169128
3057.351702	5952.662000	1045.625977	569.418640
3057.351702	5952.662000	1044.472656	564.384216
3057.351702	5952.662000	1043.319336	506.406036
3057.351702	5952.662000	1042.166016	696.011230
3057.351702	5952.662000	1041.012695	678.829224
3057.351702	5952.662000	1039.858398	778.288940
3057.351702	5952.662000	1038.704102	777.840515
3057.351702	5952.662000	1037.549805	824.960327
3057.351702	5952.662000	1036.394531	918.041565
3057.351702	5952.662000	1035.239258	1014.268372
3057.351702	5952.662000	1034.083984	1160.680542
3057.351702	5952.662000	1032.928711	1207.157837
3057.351702	5952.662000	1031.773438	1041.326904
3057.351702	5952.662000	1030.617188	1333.890015
3057.351702	5952.662000	1029.460938	1564.578003
3057.351702	5952.662000	1028.304688	1312.141602
3057.351702	5952.662000	1027.147461	1440.394165
3057.351702	5952.662000	1025.991211	1392.939941
3057.351702	5952.662000	1024.833984	1320.729858
3057.351702	5952.662000	1023.675781	1354.645142
3057.351702	5952.662000	1022.518555	1332.004028
3057.351702	5952.662000	1021.360352	1060.450806
3057.351702	5952.662000	1020.202148	1002.221375
3057.351702	5952.662000	1019.043945	933.052856
3057.351702	5952.662000	1017.884766	762.125854
3057.351702	5952.662000	1016.726563	720.563538
3057.351702	5952.662000	1015.567383	686.089111
3057.351702	5952.662000	1014.407227	627.927795
3057.351702	5952.662000	1013.248047	771.544495
3057.351702	5952.662000	1012.087891	364.161560
3057.351702	5952.662000	1010.927734	483.830444
3057.351702	5952.662000	1009.767578	297.890106
3057.351702	5952.662000	1008.606445	378.325745
3057.351702	5952.662000	1007.446289	356.202118
3057.351702	5952.662000	1006.285156	533.475952
3057.351702	5952.662000	1005.123047	505.484833
3057.351702	5952.662000	1003.961914	530.581421
3057.351702	5952.662000	1002.799805	150.221664
3057.351702	5952.662000	1001.637695	529.407227
3057.351702	5952.662000	1000.475586	386.803284
3057.351702	5952.662000	999.312500	364.569122
3057.351702	5952.662000	998.149414	541.356079
3057.351702	5952.662000	996.986328	494.675110
3057.351702	5952.662000	995.823242	375.183624
3057.351702	5952.662000	994.659180	278.009216
3057.351702	5952.662000	993.496094	290.497742
3057.351702	5952.662000	992.332031	329.648285
3057.351702	5952.662000	991.166992	344.158997
3057.351702	5952.662000	990.002930	333.832397
3057.351702	5952.662000	988.837891	333.745148
3057.351702	5952.662000	987.672852	547.062378
3057.351702	5952.662000	986.506836	514.482239
3057.351702	5952.662000	985.341797	398.601196
3057.351702	5952.662000	984.175781	332.684479
3057.351702	5952.662000	983.009766	306.817596
3057.351702	5952.662000	981.843750	154.398254
3057.351702	5952.662000	980.676758	61.560810
3057.351702	5952.662000	979.509766	130.399811
3057.351702	5952.662000	978.342773	397.972198
3057.351702	5952.662000	977.175781	331.320282
3057.351702	5952.662000	976.007813	152.362198
3057.351702	5952.662000	974.839844	317.062042
3057.351702	5952.662000	973.671875	-22.422611
3057.351702	5952.662000	972.503906	358.791351
3057.351702	5952.662000	971.334961	366.630524
3057.351702	5952.662000	970.166016	492.828949
3057.351702	5952.662000	968.997070	248.771713
3057.351702	5952.662000	967.828125	283.359528
3057.351702	5952.662000	966.658203	391.301941
3057.351702	5952.662000	965.488281	389.735596
3057.351702	5952.662000	964.318359	429.323944
3057.351702	5952.662000	963.148438	276.965790
3057.351702	5952.662000	961.977539	134.853683
3057.351702	5952.662000	960.806641	155.656937
3057.351702	5952.662000	959.635742	483.209869
3057.351702	5952.662000	958.463867	338.271240
3057.351702	5952.662000	957.292969	296.288361
3057.351702	5952.662000	956.121094	325.837921
3057.351702	5952.662000	954.948242	254.497208
3057.351702	5952.662000	953.776367	199.579193
3057.351702	5952.662000	952.603516	464.648407
3057.351702	5952.662000	951.430664	503.172607
3057.351702	5952.662000	950.257813	407.300568
3057.351702	5952.662000	949.084961	208.873459
3057.351702	5952.662000	947.911133	286.381866
3057.351702	5952.662000	946.737305	277.790833
3057.351702	5952.662000	945.563477	465.413239
3057.351702	5952.662000	944.388672	390.223846
3057.351702	5952.662000	943.213867	375.262085
3057.351702	5952.662000	942.039063	410.290070
3057.351702	5952.662000	940.864258	383.238739
3057.351702	5952.662000	939.688477	674.152039
3057.351702	5952.662000	938.513672	641.260437
3057.351702	5952.662000	937.337891	867.723694
3057.351702	5952.662000	936.161133	646.605347
3057.351702	5952.662000	934.985352	883.138245
3057.351702	5952.662000	933.808594	923.654541
3057.351702	5952.662000	932.631836	1059.984253
3057.351702	5952.662000	931.454102	1112.176636
3057.351702	5952.662000	930.277344	1196.426025
3057.351702	5952.662000	929.099609	1206.656738
3057.351702	5952.662000	927.921875	1140.947998
3057.351702	5952.662000	926.743164	1362.660522
3057.351702	5952.662000	925.565430	1065.238770
3057.351702	5952.662000	924.386719	977.436035
3057.351702	5952.662000	923.208008	1023.298340
3057.351702	5952.662000	922.028320	711.953857
3057.351702	5952.662000	920.849609	576.220337
3057.351702	5952.662000	919.669922	577.152527
3057.351702	5952.662000	919.474609	490.501434
3057.351702	5952.662000	918.309570	320.849060
3057.351702	5952.662000	917.143555	432.334595
3057.351702	5952.662000	915.977539	312.509277
3057.351702	5952.662000	914.810547	138.882599
3057.351702	5952.662000	913.644531	100.774811
3057.351702	5952.662000	912.477539	210.056366
3057.351702	5952.662000	911.310547	225.646729
3057.351702	5952.662000	910.143555	209.332153
3057.351702	5952.662000	908.975586	77.518509
3057.351702	5952.662000	907.807617	-76.172546
3057.351702	5952.662000	906.639648	146.285461
3057.351702	5952.662000	905.471680	221.384827
3057.351702	5952.662000	904.303711	-111.374367
3057.351702	5952.662000	903.134766	126.768990
3057.351702	5952.662000	901.965820	-18.983232
3057.351702	5952.662000	900.796875	169.283066
3057.351702	5952.662000	899.626953	176.571121
3057.351702	5952.662000	898.457031	193.764435
3057.351702	5952.662000	897.287109	379.804443
3057.351702	5952.662000	896.117188	174.419693
3057.351702	5952.662000	894.947266	487.442200
3057.351702	5952.662000	893.776367	377.380859
3057.351702	5952.662000	892.605469	336.823334
3057.351702	5952.662000	891.434570	244.655396
3057.351702	5952.662000	890.262695	198.146561
3057.351702	5952.662000	889.091797	423.441101
3057.351702	5952.662000	887.919922	198.353546
3057.351702	5952.662000	886.748047	201.404251
3057.351702	5952.662000	885.575195	200.471054
3057.351702	5952.662000	884.403320	128.156265
3057.351702	5952.662000	883.230469	83.603409
3057.351702	5952.662000	882.057617	116.333748
3057.351702	5952.662000	880.883789	-27.284712
3057.351702	5952.662000	879.710938	58.908009
3057.351702	5952.662000	878.537109	135.150955
3057.351702	5952.662000	877.362305	427.163605
3057.351702	5952.662000	876.188477	-13.377439
3057.351702	5952.662000	875.013672	9.365399
3057.351702	5952.662000	873.839844	28.131216
3057.351702	5952.662000	872.664063	195.253555
3057.351702	5952.662000	871.489258	202.089706
3057.351702	5952.662000	870.313477	52.692978
3057.351702	5952.662000	869.138672	338.311218
3057.351702	5952.662000	867.962891	88.124611
3057.351702	5952.662000	866.786133	278.745087
3057.351702	5952.662000	865.610352	232.177353
3057.351702	5952.662000	864.433594	248.839767
3057.351702	5952.662000	863.256836	121.311134
3057.351702	5952.662000	862.079102	-85.155159
3057.351702	5952.662000	860.902344	42.110558
3057.351702	5952.662000	859.724609	155.505096
3057.351702	5952.662000	858.546875	91.240990
3057.351702	5952.662000	857.368164	-134.787827
3057.351702	5952.662000	856.190430	-45.102192
3057.351702	5952.662000	855.011719	-69.843422
3057.351702	5952.662000	853.833008	-33.447525
3057.351702	5952.662000	852.654297	-6.922874
3057.351702	5952.662000	851.474609	-144.002563
3057.351702	5952.662000	850.294922	-95.786690
3057.351702	5952.662000	849.115234	90.325676
3057.351702	5952.662000	847.935547	99.080963
3057.351702	5952.662000	846.754883	5.425721
3057.351702	5952.662000	845.575195	-222.079056
3057.351702	5952.662000	844.393555	-59.706734
3057.351702	5952.662000	843.212891	112.442581
3057.351702	5952.662000	842.032227	-26.383867
3057.351702	5952.662000	840.850586	-29.400755
3057.351702	5952.662000	839.668945	-162.233780
3057.351702	5952.662000	838.486328	-100.316414
3057.351702	5952.662000	837.304688	-34.488213
3057.351702	5952.662000	836.122070	-70.902451
3057.351702	5952.662000	834.939453	-217.356796
3057.351702	5952.662000	833.756836	-4.159750
3057.351702	5952.662000	832.573242	-193.778030
3057.351702	5952.662000	831.389648	-247.786728
3057.351702	5952.662000	830.206055	-193.763931
3057.351702	5952.662000	829.022461	-88.710579
3057.351702	5952.662000	827.838867	39.858692
3057.351702	5952.662000	826.654297	119.316910
3057.351702	5952.662000	825.469727	-26.895514
3057.351702	5952.662000	824.284180	295.806335
3057.351702	5952.662000	823.099609	82.942886
3057.351702	5952.662000	821.914063	93.714264
3057.351702	5952.662000	820.728516	-32.747822
3057.351702	5952.662000	819.542969	-4.306780
3057.351702	5952.662000	818.356445	-75.817223
3057.351702	5952.662000	817.169922	-57.166073
3057.351702	5952.662000	815.983398	-62.025391
3057.351702	5952.662000	814.796875	-39.459843
3057.351702	5952.662000	813.609375	-81.517471
3057.351702	5952.662000	812.422852	-70.696671
3057.351702	5952.662000	811.235352	-136.210495
3057.351702	5952.662000	810.046875	60.524746
3057.351702	5952.662000	808.859375	-247.585114
3057.351702	5952.662000	807.670898	-41.122345
3057.351702	5952.662000	806.482422	30.315981
3057.351702	5952.662000	805.293945	93.905266
3057.351702	5952.662000	804.104492	155.515289
3057.351702	5952.662000	802.915039	381.272552
3057.351702	5952.662000	801.725586	520.958801
3057.351702	5952.662000	800.536133	719.196716
3057.351702	5952.662000	799.345703	530.612732
3057.351702	5952.662000	798.155273	324.530579
3057.351702	5952.662000	796.964844	-41.565910
3057.351702	5952.662000	795.774414	43.400875
3057.351702	5952.662000	794.583008	173.216568
3057.351702	5952.662000	793.392578	271.756439
3057.351702	5952.662000	792.200195	344.891205
3057.351702	5952.662000	791.008789	330.222595
3057.351702	5952.662000	789.816406	245.355560
3057.351702	5952.662000	788.625000	191.711212
3057.351702	5952.662000	787.432617	56.216724
3057.351702	5952.662000	786.239258	162.419266
3057.351702	5952.662000	785.046875	233.499664
3057.351702	5952.662000	783.853516	479.858673
3057.351702	5952.662000	782.660156	204.158569
3057.351702	5952.662000	781.465820	446.507019
3057.351702	5952.662000	780.272461	879.527222
3057.351702	5952.662000	779.078125	833.552429
3057.351702	5952.662000	777.883789	1075.583740
3057.351702	5952.662000	776.688477	951.739380
3057.351702	5952.662000	775.494141	1427.035278
3057.351702	5952.662000	774.298828	830.569031
3057.351702	5952.662000	773.103516	708.750977
3057.351702	5952.662000	771.907227	448.948334
3057.351702	5952.662000	770.711914	387.474701
3057.351702	5952.662000	769.515625	500.888611
3057.351702	5952.662000	768.318359	289.801392
3057.351702	5952.662000	767.122070	282.724945
3057.351702	5952.662000	765.924805	9.586791
3057.351702	5952.662000	764.727539	101.543282
3057.351702	5952.662000	763.530273	-99.669296
3057.351702	5952.662000	762.333008	-151.388855
3057.351702	5952.662000	761.134766	91.812035
3057.351702	5952.662000	759.936523	45.840725
3057.351702	5952.662000	758.738281	-4.018693
3057.351702	5952.662000	757.540039	178.804001
3057.351702	5952.662000	756.340820	270.401123
3057.351702	5952.662000	755.141602	160.349030
3057.351702	5952.662000	753.942383	154.955170
3057.351702	5952.662000	752.742188	227.028580
3057.351702	5952.662000	751.541992	151.819443
3057.351702	5952.662000	750.341797	117.275810
3057.351702	5952.662000	749.141602	167.904327
3057.351702	5952.662000	747.941406	413.994843
3057.351702	5952.662000	746.740234	179.950912
3057.351702	5952.662000	745.539063	125.923180
3057.351702	5952.662000	744.337891	358.202423
3057.351702	5952.662000	743.135742	155.137375
3057.351702	5952.662000	741.933594	-11.144700
3057.351702	5952.662000	740.731445	12.072748
3057.351702	5952.662000	739.529297	301.991608
3057.351702	5952.662000	738.326172	270.924255
3057.351702	5952.662000	737.124023	266.871979
3057.351702	5952.662000	735.919922	475.268494
3057.351702	5952.662000	734.716797	405.403107
3057.351702	5952.662000	733.513672	683.094055
3057.351702	5952.662000	732.309570	504.990356
3057.351702	5952.662000	731.105469	431.135620
3057.351702	5952.662000	729.900391	455.672913
3057.351702	5952.662000	728.696289	634.493713
3057.351702	5952.662000	727.491211	458.242950
3057.351702	5952.662000	726.286133	565.506287
3057.351702	5952.662000	725.080078	813.418762
3057.351702	5952.662000	723.874023	1063.089722
3057.351702	5952.662000	722.668945	1193.094360
3057.351702	5952.662000	721.461914	1473.277710
3057.351702	5952.662000	720.255859	1483.556885
3057.351702	5952.662000	719.048828	1605.478027
3057.351702	5952.662000	717.841797	1609.804321
3057.351702	5952.662000	716.634766	1537.041870
3057.351702	5952.662000	715.427734	1373.761963
3057.351702	5952.662000	714.219727	1112.321533
3057.351702	5952.662000	713.011719	1000.996399
3057.351702	5952.662000	711.803711	1060.852661
3057.351702	5952.662000	710.594727	855.180847
3057.351702	5952.662000	709.385742	976.413208
3057.351702	5952.662000	708.176758	907.181152
3057.351702	5952.662000	706.967773	761.007813
3057.351702	5952.662000	705.758789	772.392822
3057.351702	5952.662000	704.548828	710.673340
3057.351702	5952.662000	703.338867	502.901031
3057.351702	5952.662000	702.127930	827.107239
3057.351702	5952.662000	700.917969	674.900085
3057.351702	5952.662000	699.707031	666.640320
3057.351702	5952.662000	698.496094	652.532349
3057.351702	5952.662000	697.285156	523.200867
3057.351702	5952.662000	696.073242	639.392639
3057.351702	5952.662000	694.861328	682.549500
3057.351702	5952.662000	693.649414	664.222046
3057.351702	5952.662000	692.436523	751.250610
3057.351702	5952.662000	691.224609	550.608704
3057.351702	5952.662000	690.011719	685.331970
3057.351702	5952.662000	688.798828	356.199463
3057.351702	5952.662000	687.584961	496.439087
3057.351702	5952.662000	686.372070	328.155884
3057.351702	5952.662000	685.158203	594.508850
3057.351702	5952.662000	683.943359	527.516968
3057.351702	5952.662000	682.729492	881.542847
3057.351702	5952.662000	681.514648	1024.799561
3057.351702	5952.662000	680.299805	1007.167480
3057.351702	5952.662000	679.084961	1356.699341
3057.351702	5952.662000	677.869141	1520.454224
3057.351702	5952.662000	676.653320	1829.339478
3057.351702	5952.662000	675.437500	2063.422119
3057.351702	5952.662000	674.221680	2606.908447
3057.351702	5952.662000	673.004883	3446.224365
3057.351702	5952.662000	671.789063	4099.754395
3057.351702	5952.662000	670.571289	4187.504395
3057.351702	5952.662000	669.354492	4047.848877
3057.351702	5952.662000	668.136719	3337.259277
3057.351702	5952.662000	666.919922	2672.661377
3057.351702	5952.662000	665.701172	2307.828857
3057.351702	5952.662000	664.483398	2156.728760
3057.351702	5952.662000	663.264648	1980.758057
3057.351702	5952.662000	662.045898	1842.876221
3057.351702	5952.662000	660.827148	1643.903687
3057.351702	5952.662000	659.608398	1355.280884
3057.351702	5952.662000	658.388672	1295.364990
3057.351702	5952.662000	657.168945	1292.508057
3057.351702	5952.662000	655.949219	1179.016235
3057.351702	5952.662000	654.728516	1008.286926
3057.351702	5952.662000	653.507813	1100.302002
3057.351702	5952.662000	652.287109	839.900574
3057.351702	5952.662000	651.066406	655.615295
3057.351702	5952.662000	649.844727	448.425446
3057.351702	5952.662000	648.623047	583.689209
3057.351702	5952.662000	647.401367	857.630737
3057.351702	5952.662000	646.179688	718.583496
3057.351702	5952.662000	644.957031	872.293152
3057.351702	5952.662000	643.734375	521.980713
3057.351702	5952.662000	642.511719	589.848877
3057.351702	5952.662000	641.289063	718.359253
3057.351702	5952.662000	640.065430	799.165466
3057.351702	5952.662000	638.841797	1077.351318
3057.351702	5952.662000	637.618164	1191.946777
3057.351702	5952.662000	636.393555	972.157043
3057.351702	5952.662000	635.168945	879.506836
3057.351702	5952.662000	633.944336	849.385742
3057.351702	5952.662000	632.719727	691.995667
3057.351702	5952.662000	631.494141	581.948730
3057.351702	5952.662000	630.269531	693.734436
3057.351702	5952.662000	629.042969	837.549133
3057.351702	5952.662000	627.817383	490.111572
3057.351702	5952.662000	626.590820	550.213806
3057.351702	5952.662000	625.365234	617.735168
3057.351702	5952.662000	624.137695	755.171570
3057.351702	5952.662000	622.911133	547.640686
3057.351702	5952.662000	621.683594	624.137085
3057.351702	5952.662000	620.456055	605.780029
3057.351702	5952.662000	619.228516	602.431213
3057.351702	5952.662000	618.000977	419.128174
3057.351702	5952.662000	616.772461	689.914673
3057.351702	5952.662000	615.543945	969.901855
3057.351702	5952.662000	614.314453	1365.002563
3057.351702	5952.662000	613.085938	1723.871216
3057.351702	5952.662000	611.856445	2413.315186
3057.351702	5952.662000	610.626953	2694.010986
3057.351702	5952.662000	609.397461	2689.064453
3057.351702	5952.662000	608.166992	2136.005615
3057.351702	5952.662000	606.936523	1741.727539
3057.351702	5952.662000	605.706055	1173.715820
3057.351702	5952.662000	604.474609	1185.514526
3057.351702	5952.662000	603.244141	744.077942
3057.351702	5952.662000	602.012695	651.875305
3057.351702	5952.662000	600.780273	644.487427
3057.351702	5952.662000	599.548828	697.352783
3057.351702	5952.662000	598.316406	844.368896
3057.351702	5952.662000	597.083984	1040.223511
3057.351702	5952.662000	595.851563	845.559326
3057.351702	5952.662000	594.618164	937.376282
3057.351702	5952.662000	593.384766	422.143677
3057.351702	5952.662000	592.151367	592.896118
3057.351702	5952.662000	590.917969	55.095989
3057.351702	5952.662000	589.683594	218.057343
3057.351702	5952.662000	588.449219	292.318512
3057.351702	5952.662000	587.214844	272.290283
3057.351702	5952.662000	585.979492	1.790475
3057.351702	5952.662000	584.745117	73.807358
3057.351702	5952.662000	583.509766	104.269966
3057.351702	5952.662000	582.273438	-14.014515
3057.351702	5952.662000	581.038086	-149.277893
3057.351702	5952.662000	579.801758	14.361670
3057.351702	5952.662000	578.565430	-115.444092
3057.351702	5952.662000	577.329102	34.743328
3057.351702	5952.662000	576.091797	79.516930
3057.351702	5952.662000	574.854492	101.623604
3057.351702	5952.662000	573.617188	149.914093
3057.351702	5952.662000	572.378906	171.780167
3057.351702	5952.662000	571.141602	77.145973
3057.351702	5952.662000	569.903320	179.539963
3057.351702	5952.662000	568.664063	163.550186
3057.351702	5952.662000	567.425781	241.304474
3057.351702	5952.662000	566.186523	272.025360
3057.351702	5952.662000	564.947266	272.638428
3057.351702	5952.662000	563.708008	335.045624
3057.351702	5952.662000	562.467773	631.667847
3057.351702	5952.662000	561.227539	759.397827
3057.351702	5952.662000	559.987305	652.758789
3057.351702	5952.662000	558.747070	774.658569
3057.351702	5952.662000	557.505859	600.471313
3057.351702	5952.662000	556.264648	407.562775
3057.351702	5952.662000	555.023438	574.151611
3057.351702	5952.662000	553.781250	482.271942
3057.351702	5952.662000	552.539063	637.408081
3057.351702	5952.662000	551.296875	511.756317
3057.351702	5952.662000	550.054688	556.337219
3057.351702	5952.662000	548.811523	396.971161
3057.351702	5952.662000	547.569336	794.867371
3057.351702	5952.662000	546.325195	354.988586
3057.351702	5952.662000	545.082031	451.698700
3057.351702	5952.662000	543.837891	353.971313
3057.351702	5952.662000	542.593750	-102.462723
3057.351702	5952.662000	541.349609	-80.553215
3057.351702	5952.662000	540.105469	124.332024
3057.351702	5952.662000	538.860352	-74.202354
3057.351702	5952.662000	537.615234	134.265182
3057.351702	5952.662000	536.369141	47.735844
3057.351702	5952.662000	535.124023	112.379562
3057.351702	5952.662000	533.877930	-41.293892
3057.351702	5952.662000	532.631836	90.449684
3057.351702	5952.662000	531.384766	-148.956787
3057.351702	5952.662000	530.138672	-136.568817
3057.351702	5952.662000	528.891602	67.782639
3057.351702	5952.662000	527.643555	400.618744
3057.351702	5952.662000	526.396484	556.341003
3057.351702	5952.662000	525.148438	1047.281738
3057.351702	5952.662000	523.900391	1267.993530
3057.351702	5952.662000	522.652344	1360.159790
3057.351702	5952.662000	521.403320	1165.625854
3057.351702	5952.662000	520.154297	1058.674683
3057.351702	5952.662000	518.905273	860.624512
3057.351702	5952.662000	517.656250	982.666504
3057.351702	5952.662000	516.406250	820.114868
3057.351702	5952.662000	515.156250	806.436157
3057.351702	5952.662000	513.906250	658.952515
3057.351702	5952.662000	512.655273	745.765320
3057.351702	5952.662000	511.404297	914.358643
3057.351702	5952.662000	510.153320	1107.089722
3057.351702	5952.662000	508.902344	922.723877
3057.351702	5952.662000	507.650391	918.628357
3057.351702	5952.662000	506.398438	914.601440
3057.351702	5952.662000	505.146484	838.252258
3057.351702	5952.662000	503.893555	630.229370
3057.351702	5952.662000	502.641602	457.640839
3057.351702	5952.662000	501.388672	778.655396
3057.351702	5952.662000	500.134766	515.370483
3057.351702	5952.662000	498.881836	747.403320
3057.351702	5952.662000	497.627930	560.430786
3057.351702	5952.662000	496.374023	555.279846
3057.351702	5952.662000	495.119141	737.384521
3057.351702	5952.662000	493.865234	921.376831
3057.351702	5952.662000	492.610352	836.799500
3057.351702	5952.662000	491.355469	833.851807
3057.351702	5952.662000	490.099609	979.128235
3057.351702	5952.662000	488.843750	1046.710693
3057.351702	5952.662000	487.587891	1219.875610
3057.351702	5952.662000	486.332031	1448.596558
3057.351702	5952.662000	485.075195	1403.544312
3057.351702	5952.662000	483.818359	1391.931152
3057.351702	5952.662000	482.561523	1432.230103
3057.351702	5952.662000	481.304688	1221.219604
3057.351702	5952.662000	480.046875	1372.695190
3057.351702	5952.662000	478.789063	1284.014771
3057.351702	5952.662000	477.531250	1252.788208
3057.351702	5952.662000	476.272461	1450.750732
3057.351702	5952.662000	475.013672	1571.210693
3057.351702	5952.662000	473.754883	1769.314697
3057.351702	5952.662000	472.496094	1889.953247
3057.351702	5952.662000	471.236328	2472.066895
3057.351702	5952.662000	469.976563	3109.437500
3057.351702	5952.662000	468.716797	3683.967041
3057.351702	5952.662000	467.456055	4016.785645
3057.351702	5952.662000	466.196289	4113.604004
3057.351702	5952.662000	464.935547	4110.979492
3057.351702	5952.662000	463.673828	3535.288330
3057.351702	5952.662000	462.413086	3225.371338
3057.351702	5952.662000	461.151367	2401.725586
3057.351702	5952.662000	459.889648	2099.872559
3057.351702	5952.662000	458.626953	1822.244751
3057.351702	5952.662000	457.364258	1434.430054
3057.351702	5952.662000	456.101563	1094.805176
3057.351702	5952.662000	454.838867	1051.791748
3057.351702	5952.662000	453.575195	681.437195
3057.351702	5952.662000	452.312500	489.851990
3057.351702	5952.662000	451.047852	366.542694
3057.351702	5952.662000	449.784180	177.260391
3057.351702	5952.662000	448.519531	56.233002
3057.351702	5952.662000	447.254883	86.129440
3057.351702	5952.662000	445.990234	-17.976049
3057.351702	5952.662000	444.725586	-131.066086
3057.351702	5952.662000	443.459961	26.044498
3057.351702	5952.662000	442.194336	-57.330448
3057.351702	5952.662000	440.927734	-107.482628
3057.351702	5952.662000	439.662109	-260.255737
3057.351702	5952.662000	438.395508	-141.220871
3057.351702	5952.662000	437.127930	-14.768323
3057.351702	5952.662000	435.861328	-225.760941
3057.351702	5952.662000	434.593750	20.124380
3057.351702	5952.662000	433.326172	95.503220
3057.351702	5952.662000	432.058594	-120.516327
3057.351702	5952.662000	430.790039	-19.257002
3057.351702	5952.662000	429.521484	-159.815521
3057.351702	5952.662000	428.252930	-71.207947
3057.351702	5952.662000	426.984375	109.033707
3057.351702	5952.662000	425.714844	-16.535593
3057.351702	5952.662000	424.445313	42.944523
3057.351702	5952.662000	423.174805	-42.141590
3057.351702	5952.662000	421.905273	68.694679
3057.351702	5952.662000	420.634766	-16.241613
3057.351702	5952.662000	419.364258	273.900116
3057.351702	5952.662000	418.092773	168.916702
3057.351702	5952.662000	416.822266	29.271168
3057.351702	5952.662000	415.550781	59.702568
3057.351702	5952.662000	414.278320	135.813171
3057.351702	5952.662000	413.006836	277.669922
3057.351702	5952.662000	411.734375	265.985016
3057.351702	5952.662000	410.461914	301.761658
3057.351702	5952.662000	409.188477	14.255994
3057.351702	5952.662000	407.916016	13.456819
3057.351702	5952.662000	406.642578	18.052441
3057.351702	5952.662000	405.368164	20.729044
3057.351702	5952.662000	404.094727	-173.736954
3057.351702	5952.662000	402.820313	71.362091
3057.351702	5952.662000	401.545898	-84.993935
3057.351702	5952.662000	400.270508	146.921036
3057.351702	5952.662000	398.996094	-35.229664
3057.351702	5952.662000	397.720703	10.316794
3057.351702	5952.662000	396.444336	343.521179
3057.351702	5952.662000	395.168945	2.323034
3057.351702	5952.662000	393.892578	-18.429979
3057.351702	5952.662000	392.616211	168.136597
3057.351702	5952.662000	391.339844	13.891318
3057.351702	5952.662000	390.062500	30.478912
3057.351702	5952.662000	388.785156	-42.446590
3057.351702	5952.662000	387.507813	120.805244
3057.351702	5952.662000	386.229492	27.116192
3057.351702	5952.662000	384.951172	358.591705
3057.351702	5952.662000	383.672852	-90.511841
3057.351702	5952.662000	382.394531	285.371552
3057.351702	5952.662000	381.115234	68.116943
3057.351702	5952.662000	379.835938	-27.838415
3057.351702	5952.662000	378.556641	173.604004
3057.351702	5952.662000	377.277344	101.938309
3057.351702	5952.662000	375.997070	396.453979
3057.351702	5952.662000	374.716797	82.023705
3057.351702	5952.662000	373.435547	251.625320
3057.351702	5952.662000	372.155273	289.782990
3057.351702	5952.662000	370.874023	111.251587
3057.351702	5952.662000	369.591797	82.523361
3057.351702	5952.662000	368.310547	114.634491
3057.351702	5952.662000	367.028320	176.649460
3057.351702	5952.662000	365.746094	139.829941
3057.351702	5952.662000	364.463867	103.870644
3057.351702	5952.662000	363.180664	-21.885557
3057.351702	5952.662000	361.897461	445.509125
3057.351702	5952.662000	360.614258	176.310287
3057.351702	5952.662000	359.330078	-61.350388
3057.351702	5952.662000	358.045898	-88.307693
3057.351702	5952.662000	356.761719	106.110176
3057.351702	5952.662000	355.477539	51.243732
3057.351702	5952.662000	354.192383	-189.499222
3057.351702	5952.662000	352.907227	185.212936
3057.351702	5952.662000	351.622070	-69.175888
3057.351702	5952.662000	350.336914	-77.289566
3057.351702	5952.662000	349.050781	-41.820148
3057.351702	5952.662000	347.764648	-35.111168
3057.351702	5952.662000	346.477539	31.294109
3057.351702	5952.662000	345.191406	45.364418
3057.351702	5952.662000	343.904297	115.357765
3057.351702	5952.662000	342.616211	107.561066
3057.351702	5952.662000	341.329102	-10.463531
3057.351702	5952.662000	340.041016	140.208435
3057.351702	5952.662000	338.752930	274.278595
3057.351702	5952.662000	337.463867	207.641235
3057.351702	5952.662000	336.175781	494.130005
3057.351702	5952.662000	334.886719	174.067825
3057.351702	5952.662000	333.596680	239.293396
3057.351702	5952.662000	332.307617	13.676795
3057.351702	5952.662000	331.017578	66.655708
3057.351702	5952.662000	329.727539	-122.646927
3057.351702	5952.662000	328.436523	180.676590
3057.351702	5952.662000	327.146484	106.537773
3057.351702	5952.662000	325.855469	85.278458
3057.351702	5952.662000	324.563477	149.168243
3057.351702	5952.662000	323.272461	-121.133957
3057.351702	5952.662000	321.980469	-65.311668
3057.351702	5952.662000	320.688477	-162.104416
3057.351702	5952.662000	319.395508	-93.259903
3057.351702	5952.662000	318.103516	42.262920
3057.351702	5952.662000	316.810547	-239.404068
3057.351702	5952.662000	315.516602	-82.599258
3057.351702	5952.662000	314.223633	-121.860046
3057.351702	5952.662000	312.929688	-152.530991
3057.351702	5952.662000	311.635742	-92.032661
3057.351702	5952.662000	310.340820	-53.759972
3057.351702	5952.662000	309.045898	-86.202805
3057.351702	5952.662000	307.750977	-146.359772
3057.351702	5952.662000	306.456055	88.680244
3057.351702	5952.662000	305.160156	119.723724
3057.351702	5952.662000	303.865234	124.563210
3057.351702	5952.662000	302.568359	127.864861
3057.351702	5952.662000	301.272461	212.300018
3057.351702	5952.662000	299.975586	463.491302
3057.351702	5952.662000	298.678711	203.863495
