#X		#Y		#Wave		#Intensity
2921.048883	5611.869000	1999.980469	-89.125481
2921.048883	5611.869000	1999.016602	62.313595
2921.048883	5611.869000	1998.052734	109.338562
2921.048883	5611.869000	1997.087891	-57.019169
2921.048883	5611.869000	1996.123047	26.682758
2921.048883	5611.869000	1995.158203	-33.564774
2921.048883	5611.869000	1994.193359	-27.151867
2921.048883	5611.869000	1993.228516	11.222672
2921.048883	5611.869000	1992.262695	76.600220
2921.048883	5611.869000	1991.297852	186.289200
2921.048883	5611.869000	1990.332031	162.086472
2921.048883	5611.869000	1989.366211	100.572021
2921.048883	5611.869000	1988.399414	-228.305832
2921.048883	5611.869000	1987.433594	127.909073
2921.048883	5611.869000	1986.466797	-28.118349
2921.048883	5611.869000	1985.500977	-55.699924
2921.048883	5611.869000	1984.534180	-95.804527
2921.048883	5611.869000	1983.567383	-22.370146
2921.048883	5611.869000	1982.599609	-40.562492
2921.048883	5611.869000	1981.632813	12.738296
2921.048883	5611.869000	1980.665039	125.152374
2921.048883	5611.869000	1979.697266	-152.868286
2921.048883	5611.869000	1978.729492	-376.608063
2921.048883	5611.869000	1977.761719	36.580204
2921.048883	5611.869000	1976.792969	74.267609
2921.048883	5611.869000	1975.825195	0.740290
2921.048883	5611.869000	1974.856445	60.360188
2921.048883	5611.869000	1973.887695	117.363770
2921.048883	5611.869000	1972.918945	403.621368
2921.048883	5611.869000	1971.949219	68.173660
2921.048883	5611.869000	1970.980469	-35.488262
2921.048883	5611.869000	1970.010742	1.300501
2921.048883	5611.869000	1969.041016	-146.895264
2921.048883	5611.869000	1968.071289	182.946686
2921.048883	5611.869000	1967.101563	-63.989410
2921.048883	5611.869000	1966.130859	112.783234
2921.048883	5611.869000	1965.161133	87.429314
2921.048883	5611.869000	1964.190430	-53.744461
2921.048883	5611.869000	1963.219727	48.792633
2921.048883	5611.869000	1962.249023	212.746887
2921.048883	5611.869000	1961.277344	27.074949
2921.048883	5611.869000	1960.306641	222.800385
2921.048883	5611.869000	1959.334961	115.768684
2921.048883	5611.869000	1958.363281	-70.009903
2921.048883	5611.869000	1957.391602	31.951784
2921.048883	5611.869000	1956.419922	57.583195
2921.048883	5611.869000	1955.447266	-103.699966
2921.048883	5611.869000	1954.474609	-38.852299
2921.048883	5611.869000	1953.501953	-25.697496
2921.048883	5611.869000	1952.529297	102.875252
2921.048883	5611.869000	1951.556641	103.602646
2921.048883	5611.869000	1950.583984	209.890274
2921.048883	5611.869000	1949.610352	45.962627
2921.048883	5611.869000	1948.636719	49.001770
2921.048883	5611.869000	1947.663086	135.454102
2921.048883	5611.869000	1946.689453	-141.406921
2921.048883	5611.869000	1945.715820	1.399141
2921.048883	5611.869000	1944.741211	48.428272
2921.048883	5611.869000	1943.767578	-56.681885
2921.048883	5611.869000	1942.792969	-88.215927
2921.048883	5611.869000	1941.818359	-56.023193
2921.048883	5611.869000	1940.842773	-77.810791
2921.048883	5611.869000	1939.868164	81.759155
2921.048883	5611.869000	1938.892578	145.661301
2921.048883	5611.869000	1937.916992	64.947571
2921.048883	5611.869000	1936.941406	-233.791794
2921.048883	5611.869000	1935.965820	94.568512
2921.048883	5611.869000	1934.990234	300.339325
2921.048883	5611.869000	1934.013672	50.610767
2921.048883	5611.869000	1933.037109	128.970764
2921.048883	5611.869000	1932.060547	35.956535
2921.048883	5611.869000	1931.083984	-37.468987
2921.048883	5611.869000	1930.107422	-0.794080
2921.048883	5611.869000	1929.129883	-211.209274
2921.048883	5611.869000	1928.153320	57.779530
2921.048883	5611.869000	1927.175781	67.461136
2921.048883	5611.869000	1926.198242	145.571701
2921.048883	5611.869000	1925.219727	45.205582
2921.048883	5611.869000	1924.242188	69.493538
2921.048883	5611.869000	1923.263672	176.831482
2921.048883	5611.869000	1922.285156	15.393901
2921.048883	5611.869000	1921.306641	-23.875298
2921.048883	5611.869000	1920.328125	61.396439
2921.048883	5611.869000	1919.349609	190.569901
2921.048883	5611.869000	1918.370117	-53.803944
2921.048883	5611.869000	1917.391602	102.163353
2921.048883	5611.869000	1916.412109	-132.368149
2921.048883	5611.869000	1915.431641	-78.939247
2921.048883	5611.869000	1914.452148	-120.674248
2921.048883	5611.869000	1913.472656	27.821352
2921.048883	5611.869000	1912.492188	-31.010193
2921.048883	5611.869000	1911.511719	-60.577702
2921.048883	5611.869000	1910.531250	2.476318
2921.048883	5611.869000	1909.550781	33.814014
2921.048883	5611.869000	1908.569336	-210.199707
2921.048883	5611.869000	1907.588867	72.056854
2921.048883	5611.869000	1906.607422	66.792923
2921.048883	5611.869000	1905.625977	183.277267
2921.048883	5611.869000	1904.644531	-41.153336
2921.048883	5611.869000	1903.662109	-173.012131
2921.048883	5611.869000	1902.680664	123.513908
2921.048883	5611.869000	1901.698242	-76.485390
2921.048883	5611.869000	1900.715820	-52.597820
2921.048883	5611.869000	1899.733398	88.023003
2921.048883	5611.869000	1898.750000	-111.899078
2921.048883	5611.869000	1897.767578	-158.574493
2921.048883	5611.869000	1896.784180	-217.403946
2921.048883	5611.869000	1895.800781	32.462196
2921.048883	5611.869000	1894.817383	104.817451
2921.048883	5611.869000	1893.833984	31.346884
2921.048883	5611.869000	1892.850586	-131.995895
2921.048883	5611.869000	1891.866211	-28.126007
2921.048883	5611.869000	1890.881836	226.242645
2921.048883	5611.869000	1889.897461	-60.919819
2921.048883	5611.869000	1888.913086	-15.436239
2921.048883	5611.869000	1887.927734	-42.799065
2921.048883	5611.869000	1886.943359	-125.980377
2921.048883	5611.869000	1885.958008	62.566738
2921.048883	5611.869000	1884.972656	-54.606022
2921.048883	5611.869000	1883.987305	-142.655609
2921.048883	5611.869000	1883.001953	213.027603
2921.048883	5611.869000	1882.015625	-15.693604
2921.048883	5611.869000	1881.029297	170.117233
2921.048883	5611.869000	1880.042969	65.030609
2921.048883	5611.869000	1879.056641	-86.077309
2921.048883	5611.869000	1878.070313	-4.601857
2921.048883	5611.869000	1877.083984	-7.954028
2921.048883	5611.869000	1876.096680	133.956238
2921.048883	5611.869000	1875.109375	86.940445
2921.048883	5611.869000	1874.122070	-78.698578
2921.048883	5611.869000	1873.134766	-149.920685
2921.048883	5611.869000	1872.146484	-75.966103
2921.048883	5611.869000	1871.159180	22.120369
2921.048883	5611.869000	1870.170898	74.177536
2921.048883	5611.869000	1869.182617	92.323624
2921.048883	5611.869000	1868.194336	103.171951
2921.048883	5611.869000	1867.205078	58.377586
2921.048883	5611.869000	1866.216797	-32.360840
2921.048883	5611.869000	1865.227539	-159.353363
2921.048883	5611.869000	1864.238281	136.476364
2921.048883	5611.869000	1863.249023	26.327553
2921.048883	5611.869000	1862.259766	-112.803749
2921.048883	5611.869000	1861.269531	-73.239326
2921.048883	5611.869000	1860.279297	-33.732761
2921.048883	5611.869000	1859.290039	87.783783
2921.048883	5611.869000	1858.298828	-44.198181
2921.048883	5611.869000	1857.308594	226.779892
2921.048883	5611.869000	1856.318359	280.485962
2921.048883	5611.869000	1855.327148	73.623299
2921.048883	5611.869000	1854.335938	-2.988207
2921.048883	5611.869000	1853.344727	-197.767593
2921.048883	5611.869000	1852.353516	63.085804
2921.048883	5611.869000	1851.362305	130.971313
2921.048883	5611.869000	1850.370117	107.203270
2921.048883	5611.869000	1849.377930	333.954315
2921.048883	5611.869000	1848.385742	189.600327
2921.048883	5611.869000	1847.393555	91.002502
2921.048883	5611.869000	1846.401367	-55.777740
2921.048883	5611.869000	1845.408203	100.775795
2921.048883	5611.869000	1844.415039	69.461006
2921.048883	5611.869000	1843.421875	122.324661
2921.048883	5611.869000	1842.428711	64.421318
2921.048883	5611.869000	1841.435547	-133.053818
2921.048883	5611.869000	1840.441406	23.042088
2921.048883	5611.869000	1839.448242	-114.366112
2921.048883	5611.869000	1838.454102	-107.536644
2921.048883	5611.869000	1837.459961	81.912834
2921.048883	5611.869000	1836.464844	40.491093
2921.048883	5611.869000	1835.470703	54.281734
2921.048883	5611.869000	1834.475586	82.406860
2921.048883	5611.869000	1833.480469	124.857483
2921.048883	5611.869000	1832.485352	8.711627
2921.048883	5611.869000	1831.490234	65.415482
2921.048883	5611.869000	1830.495117	191.638885
2921.048883	5611.869000	1829.499023	-6.300290
2921.048883	5611.869000	1828.502930	-105.853043
2921.048883	5611.869000	1827.506836	144.851639
2921.048883	5611.869000	1826.510742	196.272675
2921.048883	5611.869000	1825.513672	113.274521
2921.048883	5611.869000	1824.517578	147.727615
2921.048883	5611.869000	1823.520508	287.569855
2921.048883	5611.869000	1822.523438	50.930798
2921.048883	5611.869000	1821.526367	89.905151
2921.048883	5611.869000	1820.529297	-3.013951
2921.048883	5611.869000	1819.531250	186.701538
2921.048883	5611.869000	1818.533203	139.123962
2921.048883	5611.869000	1817.535156	-25.874636
2921.048883	5611.869000	1816.537109	218.530960
2921.048883	5611.869000	1815.539063	60.574154
2921.048883	5611.869000	1814.540039	22.249397
2921.048883	5611.869000	1813.541992	89.140053
2921.048883	5611.869000	1812.542969	234.856979
2921.048883	5611.869000	1811.543945	-50.157677
2921.048883	5611.869000	1810.543945	152.726929
2921.048883	5611.869000	1809.544922	-82.149208
2921.048883	5611.869000	1808.544922	-27.762840
2921.048883	5611.869000	1807.544922	-83.452660
2921.048883	5611.869000	1806.544922	161.894730
2921.048883	5611.869000	1805.544922	110.760880
2921.048883	5611.869000	1804.544922	9.373462
2921.048883	5611.869000	1803.543945	24.948633
2921.048883	5611.869000	1802.542969	-100.482597
2921.048883	5611.869000	1801.541992	43.821133
2921.048883	5611.869000	1800.541016	116.349274
2921.048883	5611.869000	1799.539063	-76.188255
2921.048883	5611.869000	1798.538086	-147.059464
2921.048883	5611.869000	1797.536133	80.200150
2921.048883	5611.869000	1796.534180	202.307846
2921.048883	5611.869000	1795.532227	-9.625783
2921.048883	5611.869000	1794.529297	-76.150070
2921.048883	5611.869000	1793.527344	0.281578
2921.048883	5611.869000	1792.524414	71.794785
2921.048883	5611.869000	1791.521484	-16.501005
2921.048883	5611.869000	1790.518555	-61.993172
2921.048883	5611.869000	1789.514648	11.515552
2921.048883	5611.869000	1788.511719	-48.490555
2921.048883	5611.869000	1787.507813	-46.687683
2921.048883	5611.869000	1786.503906	-249.754822
2921.048883	5611.869000	1785.500000	-48.204269
2921.048883	5611.869000	1784.496094	74.611824
2921.048883	5611.869000	1783.491211	161.560059
2921.048883	5611.869000	1782.486328	186.498093
2921.048883	5611.869000	1781.481445	94.754501
2921.048883	5611.869000	1780.476563	-25.614590
2921.048883	5611.869000	1779.471680	-24.802057
2921.048883	5611.869000	1778.465820	-2.727940
2921.048883	5611.869000	1777.460938	4.959970
2921.048883	5611.869000	1776.455078	33.896603
2921.048883	5611.869000	1775.449219	0.924911
2921.048883	5611.869000	1774.442383	50.968201
2921.048883	5611.869000	1773.436523	-141.370300
2921.048883	5611.869000	1772.429688	-34.585476
2921.048883	5611.869000	1771.422852	117.135918
2921.048883	5611.869000	1770.416016	259.177307
2921.048883	5611.869000	1769.409180	-66.473328
2921.048883	5611.869000	1768.402344	-67.072182
2921.048883	5611.869000	1767.394531	-143.721085
2921.048883	5611.869000	1766.386719	-75.792648
2921.048883	5611.869000	1765.378906	-62.561550
2921.048883	5611.869000	1764.371094	-66.062210
2921.048883	5611.869000	1763.362305	-133.705475
2921.048883	5611.869000	1762.354492	139.833481
2921.048883	5611.869000	1761.345703	-3.911426
2921.048883	5611.869000	1760.336914	136.555206
2921.048883	5611.869000	1759.328125	160.773254
2921.048883	5611.869000	1758.318359	130.370422
2921.048883	5611.869000	1757.308594	35.917740
2921.048883	5611.869000	1756.299805	-108.335518
2921.048883	5611.869000	1755.290039	175.719360
2921.048883	5611.869000	1754.279297	353.034058
2921.048883	5611.869000	1753.269531	-215.109085
2921.048883	5611.869000	1752.258789	21.081512
2921.048883	5611.869000	1751.249023	-5.458010
2921.048883	5611.869000	1750.238281	-46.321262
2921.048883	5611.869000	1749.226563	-54.216599
2921.048883	5611.869000	1748.215820	-121.323288
2921.048883	5611.869000	1747.204102	378.623749
2921.048883	5611.869000	1746.193359	-64.488823
2921.048883	5611.869000	1745.181641	-68.187378
2921.048883	5611.869000	1744.168945	152.348129
2921.048883	5611.869000	1743.157227	-59.463554
2921.048883	5611.869000	1742.144531	238.628799
2921.048883	5611.869000	1741.132813	7.729022
2921.048883	5611.869000	1740.120117	48.179691
2921.048883	5611.869000	1739.106445	95.547050
2921.048883	5611.869000	1738.093750	-69.550583
2921.048883	5611.869000	1737.080078	-206.427582
2921.048883	5611.869000	1736.067383	241.480209
2921.048883	5611.869000	1735.053711	-67.791451
2921.048883	5611.869000	1734.040039	106.184280
2921.048883	5611.869000	1733.025391	-144.300552
2921.048883	5611.869000	1732.011719	-208.645584
2921.048883	5611.869000	1730.997070	-242.484894
2921.048883	5611.869000	1729.982422	39.203625
2921.048883	5611.869000	1728.967773	23.907688
2921.048883	5611.869000	1727.952148	-95.133904
2921.048883	5611.869000	1726.937500	61.197105
2921.048883	5611.869000	1725.921875	-93.374123
2921.048883	5611.869000	1724.906250	-153.884354
2921.048883	5611.869000	1723.890625	-26.271559
2921.048883	5611.869000	1722.875000	-58.800869
2921.048883	5611.869000	1721.858398	61.415325
2921.048883	5611.869000	1720.841797	132.074219
2921.048883	5611.869000	1719.825195	110.887329
2921.048883	5611.869000	1718.808594	-89.066673
2921.048883	5611.869000	1717.791992	105.756760
2921.048883	5611.869000	1716.774414	-249.471069
2921.048883	5611.869000	1715.756836	-165.375519
2921.048883	5611.869000	1714.739258	43.049896
2921.048883	5611.869000	1713.721680	63.399593
2921.048883	5611.869000	1712.704102	139.968201
2921.048883	5611.869000	1711.685547	169.417755
2921.048883	5611.869000	1710.667969	-85.239845
2921.048883	5611.869000	1709.649414	-109.976212
2921.048883	5611.869000	1708.630859	83.365448
2921.048883	5611.869000	1707.611328	-61.282696
2921.048883	5611.869000	1706.592773	241.958420
2921.048883	5611.869000	1705.573242	-3.729333
2921.048883	5611.869000	1704.553711	-19.699398
2921.048883	5611.869000	1703.534180	-31.093521
2921.048883	5611.869000	1702.513672	191.723145
2921.048883	5611.869000	1701.494141	-5.036167
2921.048883	5611.869000	1700.473633	62.850445
2921.048883	5611.869000	1699.453125	139.964722
2921.048883	5611.869000	1698.432617	-89.818405
2921.048883	5611.869000	1697.412109	38.573288
2921.048883	5611.869000	1696.390625	342.339569
2921.048883	5611.869000	1695.369141	-44.504726
2921.048883	5611.869000	1694.347656	-24.181284
2921.048883	5611.869000	1693.326172	227.623383
2921.048883	5611.869000	1692.304688	252.344879
2921.048883	5611.869000	1691.282227	122.591705
2921.048883	5611.869000	1690.260742	392.601959
2921.048883	5611.869000	1689.238281	150.453903
2921.048883	5611.869000	1688.214844	95.245026
2921.048883	5611.869000	1687.192383	154.469849
2921.048883	5611.869000	1686.168945	229.902451
2921.048883	5611.869000	1685.146484	162.740875
2921.048883	5611.869000	1684.123047	350.036224
2921.048883	5611.869000	1683.099609	455.437408
2921.048883	5611.869000	1682.075195	490.648071
2921.048883	5611.869000	1681.051758	409.066193
2921.048883	5611.869000	1680.027344	367.070343
2921.048883	5611.869000	1679.002930	436.982788
2921.048883	5611.869000	1677.978516	544.095703
2921.048883	5611.869000	1676.953125	485.469757
2921.048883	5611.869000	1675.928711	501.409149
2921.048883	5611.869000	1674.903320	598.825867
2921.048883	5611.869000	1673.877930	691.453796
2921.048883	5611.869000	1672.852539	455.373230
2921.048883	5611.869000	1671.826172	447.609436
2921.048883	5611.869000	1670.800781	437.453705
2921.048883	5611.869000	1669.774414	739.287109
2921.048883	5611.869000	1668.748047	1029.278442
2921.048883	5611.869000	1667.721680	648.569763
2921.048883	5611.869000	1666.694336	870.779602
2921.048883	5611.869000	1665.667969	634.376953
2921.048883	5611.869000	1664.640625	847.038025
2921.048883	5611.869000	1663.613281	1129.330566
2921.048883	5611.869000	1662.585938	1018.360413
2921.048883	5611.869000	1661.557617	946.870972
2921.048883	5611.869000	1660.530273	654.483276
2921.048883	5611.869000	1659.501953	771.235229
2921.048883	5611.869000	1658.473633	894.844360
2921.048883	5611.869000	1657.444336	1034.582153
2921.048883	5611.869000	1656.416016	1032.501831
2921.048883	5611.869000	1655.386719	1158.088135
2921.048883	5611.869000	1654.358398	1141.921753
2921.048883	5611.869000	1653.328125	1283.542480
2921.048883	5611.869000	1652.298828	1183.640137
2921.048883	5611.869000	1651.269531	1132.456787
2921.048883	5611.869000	1650.239258	1573.160156
2921.048883	5611.869000	1649.208984	1435.942993
2921.048883	5611.869000	1648.178711	1317.279419
2921.048883	5611.869000	1647.148438	1650.842896
2921.048883	5611.869000	1646.117188	1854.353638
2921.048883	5611.869000	1645.086914	1686.836670
2921.048883	5611.869000	1644.055664	1799.766235
2921.048883	5611.869000	1643.024414	1951.999390
2921.048883	5611.869000	1641.992188	1965.090332
2921.048883	5611.869000	1640.960938	2077.761475
2921.048883	5611.869000	1639.928711	2257.486816
2921.048883	5611.869000	1638.896484	2404.684082
2921.048883	5611.869000	1637.864258	2482.329834
2921.048883	5611.869000	1636.832031	2425.655762
2921.048883	5611.869000	1635.798828	2623.507080
2921.048883	5611.869000	1634.766602	2469.577393
2921.048883	5611.869000	1633.733398	2433.629639
2921.048883	5611.869000	1632.699219	2693.688477
2921.048883	5611.869000	1631.666016	2953.637695
2921.048883	5611.869000	1630.632813	3292.065918
2921.048883	5611.869000	1629.598633	3223.482422
2921.048883	5611.869000	1628.564453	3420.674561
2921.048883	5611.869000	1627.530273	3405.188721
2921.048883	5611.869000	1626.495117	3576.788086
2921.048883	5611.869000	1625.460938	3819.924316
2921.048883	5611.869000	1624.425781	3956.696045
2921.048883	5611.869000	1623.390625	4128.030762
2921.048883	5611.869000	1622.355469	4100.762695
2921.048883	5611.869000	1621.319336	4445.046875
2921.048883	5611.869000	1620.284180	4281.558594
2921.048883	5611.869000	1619.248047	4081.190674
2921.048883	5611.869000	1618.211914	4418.324219
2921.048883	5611.869000	1617.174805	4160.313965
2921.048883	5611.869000	1616.138672	4462.703613
2921.048883	5611.869000	1615.101563	4322.343750
2921.048883	5611.869000	1614.065430	4103.696289
2921.048883	5611.869000	1613.027344	4433.522949
2921.048883	5611.869000	1611.990234	4247.170410
2921.048883	5611.869000	1610.953125	4201.405762
2921.048883	5611.869000	1609.915039	4107.279297
2921.048883	5611.869000	1608.876953	4043.126953
2921.048883	5611.869000	1607.838867	4570.649902
2921.048883	5611.869000	1606.800781	4598.517578
2921.048883	5611.869000	1605.761719	4851.882324
2921.048883	5611.869000	1604.723633	4743.967285
2921.048883	5611.869000	1603.684570	4659.088867
2921.048883	5611.869000	1602.644531	4753.629395
2921.048883	5611.869000	1601.605469	4891.861328
2921.048883	5611.869000	1600.566406	4797.867188
2921.048883	5611.869000	1599.526367	5041.788574
2921.048883	5611.869000	1598.486328	4959.316895
2921.048883	5611.869000	1597.446289	4888.389648
2921.048883	5611.869000	1596.405273	4817.497070
2921.048883	5611.869000	1595.365234	4840.849609
2921.048883	5611.869000	1594.324219	4696.574219
2921.048883	5611.869000	1593.283203	4391.682617
2921.048883	5611.869000	1592.242188	4412.887207
2921.048883	5611.869000	1591.200195	4358.365723
2921.048883	5611.869000	1590.159180	4416.354004
2921.048883	5611.869000	1589.117188	4015.535889
2921.048883	5611.869000	1588.075195	4493.354004
2921.048883	5611.869000	1587.032227	4223.449707
2921.048883	5611.869000	1585.990234	4086.693115
2921.048883	5611.869000	1584.947266	4135.686035
2921.048883	5611.869000	1583.904297	3843.234863
2921.048883	5611.869000	1582.861328	3807.579346
2921.048883	5611.869000	1581.818359	3662.025879
2921.048883	5611.869000	1580.775391	3793.728760
2921.048883	5611.869000	1579.731445	3600.237061
2921.048883	5611.869000	1578.687500	3578.593262
2921.048883	5611.869000	1577.643555	3131.248047
2921.048883	5611.869000	1576.598633	3521.762695
2921.048883	5611.869000	1575.554688	3555.248535
2921.048883	5611.869000	1574.509766	3236.455322
2921.048883	5611.869000	1573.464844	3519.412842
2921.048883	5611.869000	1572.419922	3690.271484
2921.048883	5611.869000	1571.374023	3147.756836
2921.048883	5611.869000	1570.329102	3346.196045
2921.048883	5611.869000	1569.283203	3124.078125
2921.048883	5611.869000	1568.237305	3126.057617
2921.048883	5611.869000	1567.191406	3102.985596
2921.048883	5611.869000	1566.144531	3034.297363
2921.048883	5611.869000	1565.098633	2588.924805
2921.048883	5611.869000	1564.051758	2853.884766
2921.048883	5611.869000	1563.004883	3009.249268
2921.048883	5611.869000	1561.957031	2954.641113
2921.048883	5611.869000	1560.910156	2578.411865
2921.048883	5611.869000	1559.862305	2476.178223
2921.048883	5611.869000	1558.814453	2551.994873
2921.048883	5611.869000	1557.766602	2438.585693
2921.048883	5611.869000	1556.718750	2117.825439
2921.048883	5611.869000	1555.669922	2431.019043
2921.048883	5611.869000	1554.621094	2133.353516
2921.048883	5611.869000	1553.573242	2118.491211
2921.048883	5611.869000	1552.523438	2012.567627
2921.048883	5611.869000	1551.474609	1966.030518
2921.048883	5611.869000	1550.424805	2083.573242
2921.048883	5611.869000	1549.375000	1952.985229
2921.048883	5611.869000	1548.325195	1688.238892
2921.048883	5611.869000	1547.275391	1583.034912
2921.048883	5611.869000	1546.225586	1839.808350
2921.048883	5611.869000	1545.174805	1636.988281
2921.048883	5611.869000	1544.124023	1393.414551
2921.048883	5611.869000	1543.073242	1666.319092
2921.048883	5611.869000	1542.022461	1634.537476
2921.048883	5611.869000	1540.970703	1607.416992
2921.048883	5611.869000	1539.919922	1400.882568
2921.048883	5611.869000	1538.868164	1610.401245
2921.048883	5611.869000	1537.815430	1801.769531
2921.048883	5611.869000	1536.763672	1507.077881
2921.048883	5611.869000	1535.710938	1644.135498
2921.048883	5611.869000	1534.659180	1363.469482
2921.048883	5611.869000	1533.606445	1466.704468
2921.048883	5611.869000	1532.552734	1374.808838
2921.048883	5611.869000	1531.500000	1596.269775
2921.048883	5611.869000	1530.446289	1654.400146
2921.048883	5611.869000	1529.393555	1513.034058
2921.048883	5611.869000	1528.338867	1455.746460
2921.048883	5611.869000	1527.285156	1205.890869
2921.048883	5611.869000	1526.231445	1128.575928
2921.048883	5611.869000	1525.176758	1146.617432
2921.048883	5611.869000	1524.122070	781.800232
2921.048883	5611.869000	1523.067383	927.074524
2921.048883	5611.869000	1522.012695	968.232727
2921.048883	5611.869000	1520.957031	1115.954712
2921.048883	5611.869000	1519.901367	887.869934
2921.048883	5611.869000	1518.845703	741.528625
2921.048883	5611.869000	1517.790039	977.935791
2921.048883	5611.869000	1516.734375	718.782104
2921.048883	5611.869000	1515.677734	778.904358
2921.048883	5611.869000	1514.621094	558.646240
2921.048883	5611.869000	1513.564453	496.954132
2921.048883	5611.869000	1512.507813	378.909332
2921.048883	5611.869000	1511.450195	493.927246
2921.048883	5611.869000	1510.393555	477.967712
2921.048883	5611.869000	1509.335938	453.124207
2921.048883	5611.869000	1508.278320	676.999146
2921.048883	5611.869000	1507.219727	162.221527
2921.048883	5611.869000	1506.162109	201.187256
2921.048883	5611.869000	1505.103516	409.653198
2921.048883	5611.869000	1504.044922	442.101929
2921.048883	5611.869000	1502.986328	427.304047
2921.048883	5611.869000	1501.926758	322.395020
2921.048883	5611.869000	1500.868164	186.122696
2921.048883	5611.869000	1499.808594	433.571594
2921.048883	5611.869000	1498.749023	536.744934
2921.048883	5611.869000	1497.688477	405.517120
2921.048883	5611.869000	1496.628906	312.855286
2921.048883	5611.869000	1495.568359	317.321777
2921.048883	5611.869000	1494.507813	351.264832
2921.048883	5611.869000	1493.447266	9.077905
2921.048883	5611.869000	1492.386719	268.705231
2921.048883	5611.869000	1491.325195	-77.483780
2921.048883	5611.869000	1490.263672	-340.032257
2921.048883	5611.869000	1489.202148	21.357456
2921.048883	5611.869000	1488.140625	-238.491531
2921.048883	5611.869000	1487.079102	-124.459297
2921.048883	5611.869000	1486.016602	-59.798645
2921.048883	5611.869000	1484.954102	0.522462
2921.048883	5611.869000	1483.891602	96.995010
2921.048883	5611.869000	1482.829102	-94.225975
2921.048883	5611.869000	1481.765625	-208.742264
2921.048883	5611.869000	1480.702148	-37.551884
2921.048883	5611.869000	1479.638672	-153.894379
2921.048883	5611.869000	1478.575195	33.330505
2921.048883	5611.869000	1477.511719	5.004295
2921.048883	5611.869000	1476.447266	241.932281
2921.048883	5611.869000	1475.382813	254.369354
2921.048883	5611.869000	1474.318359	91.911835
2921.048883	5611.869000	1473.253906	255.177475
2921.048883	5611.869000	1472.189453	335.260620
2921.048883	5611.869000	1471.124023	240.939987
2921.048883	5611.869000	1470.058594	200.594543
2921.048883	5611.869000	1468.993164	223.027512
2921.048883	5611.869000	1467.927734	138.372208
2921.048883	5611.869000	1466.861328	139.158081
2921.048883	5611.869000	1465.794922	84.257370
2921.048883	5611.869000	1464.728516	145.108017
2921.048883	5611.869000	1463.662109	-133.076645
2921.048883	5611.869000	1462.594727	116.610458
2921.048883	5611.869000	1461.528320	-24.487215
2921.048883	5611.869000	1460.460938	201.545837
2921.048883	5611.869000	1459.393555	336.900940
2921.048883	5611.869000	1458.326172	-7.331756
2921.048883	5611.869000	1457.257813	334.898315
2921.048883	5611.869000	1456.189453	476.981079
2921.048883	5611.869000	1455.121094	355.647247
2921.048883	5611.869000	1454.052734	495.494781
2921.048883	5611.869000	1452.984375	514.041504
2921.048883	5611.869000	1451.915039	413.760651
2921.048883	5611.869000	1450.845703	515.269653
2921.048883	5611.869000	1449.776367	684.879211
2921.048883	5611.869000	1448.707031	759.226318
2921.048883	5611.869000	1447.636719	865.275024
2921.048883	5611.869000	1446.567383	726.916077
2921.048883	5611.869000	1445.497070	531.114929
2921.048883	5611.869000	1444.425781	404.587067
2921.048883	5611.869000	1443.355469	397.854767
2921.048883	5611.869000	1442.285156	448.751617
2921.048883	5611.869000	1441.213867	550.715576
2921.048883	5611.869000	1440.142578	367.848175
2921.048883	5611.869000	1439.070313	226.142456
2921.048883	5611.869000	1437.999023	62.558029
2921.048883	5611.869000	1436.926758	286.368011
2921.048883	5611.869000	1435.854492	427.936890
2921.048883	5611.869000	1434.782227	420.786072
2921.048883	5611.869000	1433.709961	393.243622
2921.048883	5611.869000	1432.636719	440.524200
2921.048883	5611.869000	1431.563477	441.727783
2921.048883	5611.869000	1430.490234	282.147186
2921.048883	5611.869000	1429.416992	300.118195
2921.048883	5611.869000	1428.343750	139.435608
2921.048883	5611.869000	1427.269531	371.342285
2921.048883	5611.869000	1426.195313	367.521149
2921.048883	5611.869000	1425.121094	326.208252
2921.048883	5611.869000	1424.046875	129.536209
2921.048883	5611.869000	1422.971680	63.492744
2921.048883	5611.869000	1421.896484	304.365387
2921.048883	5611.869000	1420.821289	186.140137
2921.048883	5611.869000	1419.746094	-200.923538
2921.048883	5611.869000	1418.669922	64.543686
2921.048883	5611.869000	1417.594727	78.273087
2921.048883	5611.869000	1416.518555	111.814301
2921.048883	5611.869000	1415.442383	112.047310
2921.048883	5611.869000	1414.365234	193.096024
2921.048883	5611.869000	1413.289063	68.584679
2921.048883	5611.869000	1412.211914	112.167854
2921.048883	5611.869000	1411.134766	-60.527222
2921.048883	5611.869000	1410.057617	22.983347
2921.048883	5611.869000	1408.979492	39.304787
2921.048883	5611.869000	1407.902344	-51.598846
2921.048883	5611.869000	1406.824219	-56.619987
2921.048883	5611.869000	1405.746094	56.459335
2921.048883	5611.869000	1404.666992	400.252838
2921.048883	5611.869000	1403.588867	78.148804
2921.048883	5611.869000	1402.509766	82.242531
2921.048883	5611.869000	1401.430664	141.354706
2921.048883	5611.869000	1400.351563	291.080414
2921.048883	5611.869000	1399.271484	156.559586
2921.048883	5611.869000	1398.192383	329.164917
2921.048883	5611.869000	1397.112305	365.542267
2921.048883	5611.869000	1396.031250	233.738388
2921.048883	5611.869000	1394.951172	402.878723
2921.048883	5611.869000	1393.871094	363.822235
2921.048883	5611.869000	1392.790039	478.799683
2921.048883	5611.869000	1391.708984	291.108490
2921.048883	5611.869000	1390.626953	229.596924
2921.048883	5611.869000	1389.545898	479.859222
2921.048883	5611.869000	1388.463867	635.893677
2921.048883	5611.869000	1387.381836	676.836731
2921.048883	5611.869000	1386.299805	565.177795
2921.048883	5611.869000	1385.217773	753.419861
2921.048883	5611.869000	1384.134766	468.451324
2921.048883	5611.869000	1383.051758	1000.536743
2921.048883	5611.869000	1381.968750	973.186890
2921.048883	5611.869000	1380.885742	1103.596313
2921.048883	5611.869000	1379.802734	1149.818481
2921.048883	5611.869000	1378.718750	1210.361938
2921.048883	5611.869000	1377.634766	1148.390625
2921.048883	5611.869000	1376.550781	1312.331177
2921.048883	5611.869000	1375.465820	1078.477539
2921.048883	5611.869000	1374.381836	1009.713806
2921.048883	5611.869000	1373.296875	1085.277222
2921.048883	5611.869000	1372.211914	1171.883667
2921.048883	5611.869000	1371.126953	909.311401
2921.048883	5611.869000	1370.041016	1161.562012
2921.048883	5611.869000	1368.955078	1083.719849
2921.048883	5611.869000	1367.869141	774.625793
2921.048883	5611.869000	1366.783203	1021.597046
2921.048883	5611.869000	1365.697266	1057.732056
2921.048883	5611.869000	1364.610352	1126.742188
2921.048883	5611.869000	1363.523438	966.835938
2921.048883	5611.869000	1362.436523	1042.854004
2921.048883	5611.869000	1361.349609	889.256287
2921.048883	5611.869000	1360.261719	923.721252
2921.048883	5611.869000	1359.174805	852.079590
2921.048883	5611.869000	1358.086914	779.861938
2921.048883	5611.869000	1356.998047	801.583008
2921.048883	5611.869000	1355.910156	735.695618
2921.048883	5611.869000	1354.821289	1077.311279
2921.048883	5611.869000	1353.732422	572.082214
2921.048883	5611.869000	1352.643555	775.784668
2921.048883	5611.869000	1351.554688	641.497375
2921.048883	5611.869000	1350.464844	709.661926
2921.048883	5611.869000	1349.375000	614.385193
2921.048883	5611.869000	1348.285156	395.308350
2921.048883	5611.869000	1347.195313	512.197693
2921.048883	5611.869000	1346.105469	267.452209
2921.048883	5611.869000	1345.014648	433.602142
2921.048883	5611.869000	1343.923828	295.694916
2921.048883	5611.869000	1342.833008	296.486908
2921.048883	5611.869000	1341.741211	466.506744
2921.048883	5611.869000	1340.650391	248.126755
2921.048883	5611.869000	1339.558594	403.612671
2921.048883	5611.869000	1338.466797	447.919403
2921.048883	5611.869000	1337.374023	312.394348
2921.048883	5611.869000	1336.282227	360.676361
2921.048883	5611.869000	1335.189453	545.299744
2921.048883	5611.869000	1334.096680	354.441467
2921.048883	5611.869000	1333.003906	437.277802
2921.048883	5611.869000	1331.910156	401.375488
2921.048883	5611.869000	1330.817383	507.278320
2921.048883	5611.869000	1329.723633	757.918213
2921.048883	5611.869000	1328.629883	596.000854
2921.048883	5611.869000	1327.535156	569.284851
2921.048883	5611.869000	1326.441406	593.010193
2921.048883	5611.869000	1325.346680	480.047272
2921.048883	5611.869000	1324.251953	656.282837
2921.048883	5611.869000	1323.156250	477.608765
2921.048883	5611.869000	1322.061523	389.683990
2921.048883	5611.869000	1320.965820	477.225525
2921.048883	5611.869000	1319.870117	707.033630
2921.048883	5611.869000	1318.774414	515.157593
2921.048883	5611.869000	1317.678711	541.568359
2921.048883	5611.869000	1316.582031	607.545166
2921.048883	5611.869000	1315.485352	747.569397
2921.048883	5611.869000	1314.388672	415.842651
2921.048883	5611.869000	1313.291016	761.923584
2921.048883	5611.869000	1312.194336	302.822784
2921.048883	5611.869000	1311.096680	618.233582
2921.048883	5611.869000	1309.999023	428.238556
2921.048883	5611.869000	1308.901367	440.814514
2921.048883	5611.869000	1307.802734	831.713989
2921.048883	5611.869000	1306.705078	583.005188
2921.048883	5611.869000	1305.606445	496.683044
2921.048883	5611.869000	1304.506836	660.406433
2921.048883	5611.869000	1303.408203	526.750732
2921.048883	5611.869000	1302.308594	579.494690
2921.048883	5611.869000	1301.208984	609.214172
2921.048883	5611.869000	1300.109375	721.204346
2921.048883	5611.869000	1299.009766	704.512390
2921.048883	5611.869000	1297.909180	552.096558
2921.048883	5611.869000	1296.808594	589.981567
2921.048883	5611.869000	1295.708008	617.314148
2921.048883	5611.869000	1294.607422	427.977325
2921.048883	5611.869000	1293.506836	408.135376
2921.048883	5611.869000	1292.405273	164.282150
2921.048883	5611.869000	1291.303711	437.141144
2921.048883	5611.869000	1290.202148	265.017303
2921.048883	5611.869000	1289.099609	279.670197
2921.048883	5611.869000	1287.998047	234.509003
2921.048883	5611.869000	1286.895508	46.671978
2921.048883	5611.869000	1285.792969	228.843231
2921.048883	5611.869000	1284.689453	133.995560
2921.048883	5611.869000	1283.586914	-109.110909
2921.048883	5611.869000	1282.483398	-156.895981
2921.048883	5611.869000	1281.379883	-55.730499
2921.048883	5611.869000	1280.276367	-36.920921
2921.048883	5611.869000	1279.171875	18.671818
2921.048883	5611.869000	1278.067383	34.323177
2921.048883	5611.869000	1276.962891	-99.398308
2921.048883	5611.869000	1275.858398	-9.004185
2921.048883	5611.869000	1274.753906	42.554554
2921.048883	5611.869000	1273.648438	-55.416767
2921.048883	5611.869000	1272.542969	22.505484
2921.048883	5611.869000	1271.437500	123.005074
2921.048883	5611.869000	1270.331055	-147.651627
2921.048883	5611.869000	1269.225586	28.733675
2921.048883	5611.869000	1268.119141	93.718971
2921.048883	5611.869000	1267.012695	113.823402
2921.048883	5611.869000	1265.906250	73.472908
2921.048883	5611.869000	1264.798828	2.441878
2921.048883	5611.869000	1263.691406	-62.641312
2921.048883	5611.869000	1262.583984	-22.202259
2921.048883	5611.869000	1261.476563	-67.756416
2921.048883	5611.869000	1260.368164	-107.873039
2921.048883	5611.869000	1259.260742	4.858450
2921.048883	5611.869000	1258.152344	-43.200626
2921.048883	5611.869000	1257.043945	-209.345871
2921.048883	5611.869000	1255.934570	-244.865204
2921.048883	5611.869000	1254.825195	153.889099
2921.048883	5611.869000	1253.716797	-76.704895
2921.048883	5611.869000	1252.606445	-275.724030
2921.048883	5611.869000	1251.497070	-126.612556
2921.048883	5611.869000	1250.387695	-61.050880
2921.048883	5611.869000	1249.277344	81.042328
2921.048883	5611.869000	1248.166992	-96.179451
2921.048883	5611.869000	1247.055664	82.902252
2921.048883	5611.869000	1245.945313	-32.032841
2921.048883	5611.869000	1244.833984	-158.521423
2921.048883	5611.869000	1243.722656	-171.589737
2921.048883	5611.869000	1242.611328	-67.040268
2921.048883	5611.869000	1241.499023	-20.873671
2921.048883	5611.869000	1240.387695	-24.255922
2921.048883	5611.869000	1239.275391	-64.527390
2921.048883	5611.869000	1238.162109	-3.245453
2921.048883	5611.869000	1237.049805	-81.594620
2921.048883	5611.869000	1235.936523	-203.413315
2921.048883	5611.869000	1234.823242	-97.515823
2921.048883	5611.869000	1233.709961	-62.125500
2921.048883	5611.869000	1232.596680	92.194450
2921.048883	5611.869000	1231.482422	-161.947235
2921.048883	5611.869000	1230.369141	70.059975
2921.048883	5611.869000	1229.253906	65.784821
2921.048883	5611.869000	1228.139648	191.338867
2921.048883	5611.869000	1227.025391	60.505657
2921.048883	5611.869000	1225.910156	23.856743
2921.048883	5611.869000	1224.794922	-63.240353
2921.048883	5611.869000	1223.679688	-80.377083
2921.048883	5611.869000	1222.563477	-25.809099
2921.048883	5611.869000	1221.447266	-25.800619
2921.048883	5611.869000	1220.331055	-36.069065
2921.048883	5611.869000	1219.214844	-81.774223
2921.048883	5611.869000	1218.098633	26.359665
2921.048883	5611.869000	1216.981445	-171.072556
2921.048883	5611.869000	1215.864258	-55.530239
2921.048883	5611.869000	1214.747070	-72.285461
2921.048883	5611.869000	1213.629883	42.042076
2921.048883	5611.869000	1212.511719	-71.048592
2921.048883	5611.869000	1211.393555	138.178650
2921.048883	5611.869000	1210.275391	56.962513
2921.048883	5611.869000	1209.157227	-0.490498
2921.048883	5611.869000	1208.038086	96.329269
2921.048883	5611.869000	1206.918945	177.818283
2921.048883	5611.869000	1205.799805	56.755325
2921.048883	5611.869000	1204.680664	465.615509
2921.048883	5611.869000	1203.560547	239.558716
2921.048883	5611.869000	1202.441406	256.372070
2921.048883	5611.869000	1201.321289	387.910034
2921.048883	5611.869000	1200.200195	280.256958
2921.048883	5611.869000	1199.080078	336.345764
2921.048883	5611.869000	1197.958984	424.032623
2921.048883	5611.869000	1196.837891	314.108032
2921.048883	5611.869000	1195.716797	368.945618
2921.048883	5611.869000	1194.594727	377.284027
2921.048883	5611.869000	1193.473633	384.202393
2921.048883	5611.869000	1192.351563	525.839478
2921.048883	5611.869000	1191.229492	498.952911
2921.048883	5611.869000	1190.106445	467.905273
2921.048883	5611.869000	1188.984375	504.783936
2921.048883	5611.869000	1187.861328	606.265320
2921.048883	5611.869000	1186.738281	614.413147
2921.048883	5611.869000	1185.614258	799.345459
2921.048883	5611.869000	1184.491211	700.766479
2921.048883	5611.869000	1183.367188	817.770203
2921.048883	5611.869000	1182.243164	882.427368
2921.048883	5611.869000	1181.119141	774.937927
2921.048883	5611.869000	1179.994141	746.897278
2921.048883	5611.869000	1178.869141	959.494568
2921.048883	5611.869000	1177.744141	588.512817
2921.048883	5611.869000	1176.619141	755.194092
2921.048883	5611.869000	1175.493164	734.277039
2921.048883	5611.869000	1174.368164	703.605896
2921.048883	5611.869000	1173.242188	651.095764
2921.048883	5611.869000	1172.115234	647.283447
2921.048883	5611.869000	1170.989258	648.782104
2921.048883	5611.869000	1169.862305	758.729187
2921.048883	5611.869000	1168.735352	550.875122
2921.048883	5611.869000	1167.608398	694.571411
2921.048883	5611.869000	1166.481445	510.004517
2921.048883	5611.869000	1165.353516	676.022949
2921.048883	5611.869000	1164.225586	617.278931
2921.048883	5611.869000	1163.097656	264.404297
2921.048883	5611.869000	1161.968750	510.248291
2921.048883	5611.869000	1160.840820	449.296021
2921.048883	5611.869000	1159.711914	610.832764
2921.048883	5611.869000	1158.583008	357.940948
2921.048883	5611.869000	1157.453125	398.920746
2921.048883	5611.869000	1156.324219	522.264832
2921.048883	5611.869000	1155.194336	352.177734
2921.048883	5611.869000	1154.064453	419.412292
2921.048883	5611.869000	1152.933594	359.063263
2921.048883	5611.869000	1151.803711	446.245148
2921.048883	5611.869000	1150.672852	257.367004
2921.048883	5611.869000	1149.541992	153.134186
2921.048883	5611.869000	1148.411133	196.031250
2921.048883	5611.869000	1147.279297	346.830261
2921.048883	5611.869000	1146.147461	338.727203
2921.048883	5611.869000	1145.015625	341.867798
2921.048883	5611.869000	1143.883789	234.960327
2921.048883	5611.869000	1142.750977	94.458160
2921.048883	5611.869000	1141.619141	194.024643
2921.048883	5611.869000	1140.486328	334.156982
2921.048883	5611.869000	1139.352539	282.727264
2921.048883	5611.869000	1138.219727	260.262787
2921.048883	5611.869000	1137.085938	149.683075
2921.048883	5611.869000	1135.952148	8.853056
2921.048883	5611.869000	1134.818359	147.476288
2921.048883	5611.869000	1133.683594	230.985886
2921.048883	5611.869000	1132.549805	216.681778
2921.048883	5611.869000	1131.415039	175.761780
2921.048883	5611.869000	1130.279297	367.241699
2921.048883	5611.869000	1129.144531	420.269714
2921.048883	5611.869000	1128.008789	671.886902
2921.048883	5611.869000	1126.873047	566.958130
2921.048883	5611.869000	1125.737305	526.039734
2921.048883	5611.869000	1124.601563	363.942688
2921.048883	5611.869000	1123.464844	417.862122
2921.048883	5611.869000	1122.328125	334.156616
2921.048883	5611.869000	1121.191406	375.487885
2921.048883	5611.869000	1120.054688	382.036316
2921.048883	5611.869000	1118.916992	308.656647
2921.048883	5611.869000	1117.779297	384.884857
2921.048883	5611.869000	1116.641602	271.837769
2921.048883	5611.869000	1115.503906	151.073685
2921.048883	5611.869000	1114.365234	129.616058
2921.048883	5611.869000	1113.226563	205.483688
2921.048883	5611.869000	1112.087891	-39.405693
2921.048883	5611.869000	1110.949219	149.615662
2921.048883	5611.869000	1109.809570	195.077637
2921.048883	5611.869000	1108.669922	60.534714
2921.048883	5611.869000	1107.530273	60.483795
2921.048883	5611.869000	1106.390625	-41.954166
2921.048883	5611.869000	1105.250000	180.935883
2921.048883	5611.869000	1104.109375	112.652275
2921.048883	5611.869000	1102.968750	249.488892
2921.048883	5611.869000	1101.828125	110.056976
2921.048883	5611.869000	1100.686523	226.772354
2921.048883	5611.869000	1099.544922	283.613434
2921.048883	5611.869000	1098.403320	180.853577
2921.048883	5611.869000	1097.261719	390.070923
2921.048883	5611.869000	1096.120117	372.824127
2921.048883	5611.869000	1094.977539	172.768707
2921.048883	5611.869000	1093.834961	234.041931
2921.048883	5611.869000	1092.691406	227.345108
2921.048883	5611.869000	1091.548828	245.081375
2921.048883	5611.869000	1090.405273	154.161011
2921.048883	5611.869000	1089.261719	83.272545
2921.048883	5611.869000	1088.118164	-72.788963
2921.048883	5611.869000	1086.973633	-65.804131
2921.048883	5611.869000	1085.829102	72.816345
2921.048883	5611.869000	1084.684570	-0.184195
2921.048883	5611.869000	1083.540039	98.536255
2921.048883	5611.869000	1082.395508	158.649780
2921.048883	5611.869000	1081.250000	-62.153980
2921.048883	5611.869000	1080.104492	-80.344673
2921.048883	5611.869000	1078.958984	84.765472
2921.048883	5611.869000	1077.812500	311.677338
2921.048883	5611.869000	1076.666016	305.162842
2921.048883	5611.869000	1075.519531	285.190125
2921.048883	5611.869000	1074.373047	285.087646
2921.048883	5611.869000	1073.226563	170.850845
2921.048883	5611.869000	1072.079102	235.436172
2921.048883	5611.869000	1070.931641	290.792053
2921.048883	5611.869000	1069.784180	356.829956
2921.048883	5611.869000	1068.635742	639.156494
2921.048883	5611.869000	1067.487305	277.364929
2921.048883	5611.869000	1066.338867	487.980133
2921.048883	5611.869000	1065.190430	499.483063
2921.048883	5611.869000	1064.041992	509.665161
2921.048883	5611.869000	1062.892578	558.926514
2921.048883	5611.869000	1061.743164	371.597351
2921.048883	5611.869000	1060.593750	-27.117689
2921.048883	5611.869000	1059.443359	136.694824
2921.048883	5611.869000	1058.292969	89.947533
2921.048883	5611.869000	1057.142578	135.073624
2921.048883	5611.869000	1055.992188	104.023872
2921.048883	5611.869000	1054.841797	-24.538023
2921.048883	5611.869000	1053.690430	-78.829910
2921.048883	5611.869000	1052.539063	19.165916
2921.048883	5611.869000	1051.387695	-70.297935
2921.048883	5611.869000	1050.235352	-2.081174
2921.048883	5611.869000	1049.083984	-118.374603
2921.048883	5611.869000	1047.931641	-234.705994
2921.048883	5611.869000	1046.778320	81.436790
2921.048883	5611.869000	1045.625977	13.755174
2921.048883	5611.869000	1044.472656	-70.957863
2921.048883	5611.869000	1043.319336	-107.270599
2921.048883	5611.869000	1042.166016	73.820656
2921.048883	5611.869000	1041.012695	86.594009
2921.048883	5611.869000	1039.858398	29.601101
2921.048883	5611.869000	1038.704102	81.653008
2921.048883	5611.869000	1037.549805	246.339401
2921.048883	5611.869000	1036.394531	325.810333
2921.048883	5611.869000	1035.239258	-25.865999
2921.048883	5611.869000	1034.083984	28.975340
2921.048883	5611.869000	1032.928711	210.716064
2921.048883	5611.869000	1031.773438	143.014252
2921.048883	5611.869000	1030.617188	234.918976
2921.048883	5611.869000	1029.460938	63.696259
2921.048883	5611.869000	1028.304688	26.561831
2921.048883	5611.869000	1027.147461	295.072327
2921.048883	5611.869000	1025.991211	432.547852
2921.048883	5611.869000	1024.833984	-101.541939
2921.048883	5611.869000	1023.675781	390.360321
2921.048883	5611.869000	1022.518555	414.692444
2921.048883	5611.869000	1021.360352	286.967560
2921.048883	5611.869000	1020.202148	102.224022
2921.048883	5611.869000	1019.043945	70.038956
2921.048883	5611.869000	1017.884766	53.107094
2921.048883	5611.869000	1016.726563	23.935480
2921.048883	5611.869000	1015.567383	-246.026962
2921.048883	5611.869000	1014.407227	-299.420074
2921.048883	5611.869000	1013.248047	-211.257751
2921.048883	5611.869000	1012.087891	-85.295662
2921.048883	5611.869000	1010.927734	-208.179337
2921.048883	5611.869000	1009.767578	-94.503395
2921.048883	5611.869000	1008.606445	-105.488731
2921.048883	5611.869000	1007.446289	-39.762707
2921.048883	5611.869000	1006.285156	-7.734991
2921.048883	5611.869000	1005.123047	45.279873
2921.048883	5611.869000	1003.961914	38.251640
2921.048883	5611.869000	1002.799805	153.296616
2921.048883	5611.869000	1001.637695	181.588272
2921.048883	5611.869000	1000.475586	165.383591
2921.048883	5611.869000	999.312500	176.527618
2921.048883	5611.869000	998.149414	352.090515
2921.048883	5611.869000	996.986328	414.113495
2921.048883	5611.869000	995.823242	343.196350
2921.048883	5611.869000	994.659180	339.041260
2921.048883	5611.869000	993.496094	469.751160
2921.048883	5611.869000	992.332031	505.150116
2921.048883	5611.869000	991.166992	384.208923
2921.048883	5611.869000	990.002930	294.550293
2921.048883	5611.869000	988.837891	240.748077
2921.048883	5611.869000	987.672852	316.255859
2921.048883	5611.869000	986.506836	402.001099
2921.048883	5611.869000	985.341797	309.652924
2921.048883	5611.869000	984.175781	300.593323
2921.048883	5611.869000	983.009766	192.797653
2921.048883	5611.869000	981.843750	166.269028
2921.048883	5611.869000	980.676758	305.815521
2921.048883	5611.869000	979.509766	386.915588
2921.048883	5611.869000	978.342773	-1.654162
2921.048883	5611.869000	977.175781	62.345753
2921.048883	5611.869000	976.007813	157.711472
2921.048883	5611.869000	974.839844	328.485138
2921.048883	5611.869000	973.671875	-56.746056
2921.048883	5611.869000	972.503906	197.563019
2921.048883	5611.869000	971.334961	239.856781
2921.048883	5611.869000	970.166016	103.069160
2921.048883	5611.869000	968.997070	318.644745
2921.048883	5611.869000	967.828125	111.991028
2921.048883	5611.869000	966.658203	221.256332
2921.048883	5611.869000	965.488281	384.282959
2921.048883	5611.869000	964.318359	403.440338
2921.048883	5611.869000	963.148438	354.004089
2921.048883	5611.869000	961.977539	550.940735
2921.048883	5611.869000	960.806641	480.307617
2921.048883	5611.869000	959.635742	801.513184
2921.048883	5611.869000	958.463867	670.415466
2921.048883	5611.869000	957.292969	586.723877
2921.048883	5611.869000	956.121094	608.031189
2921.048883	5611.869000	954.948242	661.080750
2921.048883	5611.869000	953.776367	320.785187
2921.048883	5611.869000	952.603516	398.917786
2921.048883	5611.869000	951.430664	409.419891
2921.048883	5611.869000	950.257813	-80.402588
2921.048883	5611.869000	949.084961	194.477875
2921.048883	5611.869000	947.911133	139.497208
2921.048883	5611.869000	946.737305	143.042130
2921.048883	5611.869000	945.563477	259.196869
2921.048883	5611.869000	944.388672	115.570061
2921.048883	5611.869000	943.213867	52.865913
2921.048883	5611.869000	942.039063	-6.852887
2921.048883	5611.869000	940.864258	76.970490
2921.048883	5611.869000	939.688477	-22.117880
2921.048883	5611.869000	938.513672	164.325516
2921.048883	5611.869000	937.337891	135.563538
2921.048883	5611.869000	936.161133	87.878525
2921.048883	5611.869000	934.985352	205.845886
2921.048883	5611.869000	933.808594	357.995972
2921.048883	5611.869000	932.631836	314.709778
2921.048883	5611.869000	931.454102	266.762817
2921.048883	5611.869000	930.277344	289.557617
2921.048883	5611.869000	929.099609	173.334442
2921.048883	5611.869000	927.921875	410.607117
2921.048883	5611.869000	926.743164	508.805298
2921.048883	5611.869000	925.565430	801.934204
2921.048883	5611.869000	924.386719	463.870667
2921.048883	5611.869000	923.208008	454.830597
2921.048883	5611.869000	922.028320	423.862854
2921.048883	5611.869000	920.849609	366.118073
2921.048883	5611.869000	919.669922	367.143921
2921.048883	5611.869000	919.474609	423.009949
2921.048883	5611.869000	918.309570	457.784058
2921.048883	5611.869000	917.143555	336.767426
2921.048883	5611.869000	915.977539	420.217041
2921.048883	5611.869000	914.810547	189.774307
2921.048883	5611.869000	913.644531	93.215805
2921.048883	5611.869000	912.477539	-34.914833
2921.048883	5611.869000	911.310547	216.332642
2921.048883	5611.869000	910.143555	37.186668
2921.048883	5611.869000	908.975586	200.829666
2921.048883	5611.869000	907.807617	-359.747162
2921.048883	5611.869000	906.639648	-43.011696
2921.048883	5611.869000	905.471680	-231.644730
2921.048883	5611.869000	904.303711	-160.332947
2921.048883	5611.869000	903.134766	-86.610741
2921.048883	5611.869000	901.965820	-277.515320
2921.048883	5611.869000	900.796875	-441.630829
2921.048883	5611.869000	899.626953	-57.253407
2921.048883	5611.869000	898.457031	94.073807
2921.048883	5611.869000	897.287109	-9.334955
2921.048883	5611.869000	896.117188	-139.363724
2921.048883	5611.869000	894.947266	-36.558647
2921.048883	5611.869000	893.776367	-64.680702
2921.048883	5611.869000	892.605469	-163.060272
2921.048883	5611.869000	891.434570	-50.567757
2921.048883	5611.869000	890.262695	-122.222923
2921.048883	5611.869000	889.091797	-130.854401
2921.048883	5611.869000	887.919922	-202.424225
2921.048883	5611.869000	886.748047	-72.987564
2921.048883	5611.869000	885.575195	-4.098340
2921.048883	5611.869000	884.403320	-162.712326
2921.048883	5611.869000	883.230469	-101.048332
2921.048883	5611.869000	882.057617	71.896942
2921.048883	5611.869000	880.883789	-147.031006
2921.048883	5611.869000	879.710938	-196.574280
2921.048883	5611.869000	878.537109	15.041515
2921.048883	5611.869000	877.362305	115.404839
2921.048883	5611.869000	876.188477	-110.503967
2921.048883	5611.869000	875.013672	-63.260979
2921.048883	5611.869000	873.839844	-98.146706
2921.048883	5611.869000	872.664063	36.077656
2921.048883	5611.869000	871.489258	-1.172576
2921.048883	5611.869000	870.313477	123.375252
2921.048883	5611.869000	869.138672	76.522408
2921.048883	5611.869000	867.962891	116.596283
2921.048883	5611.869000	866.786133	168.747681
2921.048883	5611.869000	865.610352	-131.284866
2921.048883	5611.869000	864.433594	89.778313
2921.048883	5611.869000	863.256836	139.580505
2921.048883	5611.869000	862.079102	-42.041500
2921.048883	5611.869000	860.902344	-151.251755
2921.048883	5611.869000	859.724609	36.019543
2921.048883	5611.869000	858.546875	52.184074
2921.048883	5611.869000	857.368164	25.016150
2921.048883	5611.869000	856.190430	62.913933
2921.048883	5611.869000	855.011719	100.828209
2921.048883	5611.869000	853.833008	-104.381287
2921.048883	5611.869000	852.654297	10.634177
2921.048883	5611.869000	851.474609	82.320801
2921.048883	5611.869000	850.294922	101.081161
2921.048883	5611.869000	849.115234	-65.346436
2921.048883	5611.869000	847.935547	-94.597748
2921.048883	5611.869000	846.754883	42.098675
2921.048883	5611.869000	845.575195	15.304393
2921.048883	5611.869000	844.393555	-232.552933
2921.048883	5611.869000	843.212891	53.160404
2921.048883	5611.869000	842.032227	-84.032257
2921.048883	5611.869000	840.850586	-77.021568
2921.048883	5611.869000	839.668945	-53.172966
2921.048883	5611.869000	838.486328	-34.102673
2921.048883	5611.869000	837.304688	-5.409792
2921.048883	5611.869000	836.122070	-77.491669
2921.048883	5611.869000	834.939453	169.608337
2921.048883	5611.869000	833.756836	217.526718
2921.048883	5611.869000	832.573242	147.935303
2921.048883	5611.869000	831.389648	-24.710339
2921.048883	5611.869000	830.206055	-110.946678
2921.048883	5611.869000	829.022461	-0.567999
2921.048883	5611.869000	827.838867	-125.059036
2921.048883	5611.869000	826.654297	64.402489
2921.048883	5611.869000	825.469727	4.685930
2921.048883	5611.869000	824.284180	-110.060249
2921.048883	5611.869000	823.099609	74.575714
2921.048883	5611.869000	821.914063	53.281765
2921.048883	5611.869000	820.728516	-58.930340
2921.048883	5611.869000	819.542969	15.584392
2921.048883	5611.869000	818.356445	118.806442
2921.048883	5611.869000	817.169922	16.297251
2921.048883	5611.869000	815.983398	-43.097088
2921.048883	5611.869000	814.796875	131.875763
2921.048883	5611.869000	813.609375	-209.551788
2921.048883	5611.869000	812.422852	56.250244
2921.048883	5611.869000	811.235352	-5.399193
2921.048883	5611.869000	810.046875	-43.110104
2921.048883	5611.869000	808.859375	-37.793716
2921.048883	5611.869000	807.670898	-3.799973
2921.048883	5611.869000	806.482422	-84.404716
2921.048883	5611.869000	805.293945	-33.668278
2921.048883	5611.869000	804.104492	167.421982
2921.048883	5611.869000	802.915039	108.361618
2921.048883	5611.869000	801.725586	-22.226204
2921.048883	5611.869000	800.536133	28.522911
2921.048883	5611.869000	799.345703	-44.731934
2921.048883	5611.869000	798.155273	-5.889874
2921.048883	5611.869000	796.964844	125.910477
2921.048883	5611.869000	795.774414	90.847878
2921.048883	5611.869000	794.583008	441.800140
2921.048883	5611.869000	793.392578	132.760696
2921.048883	5611.869000	792.200195	226.361969
2921.048883	5611.869000	791.008789	108.006638
2921.048883	5611.869000	789.816406	280.149506
2921.048883	5611.869000	788.625000	188.026047
2921.048883	5611.869000	787.432617	117.364464
2921.048883	5611.869000	786.239258	422.648071
2921.048883	5611.869000	785.046875	90.317352
2921.048883	5611.869000	783.853516	83.941284
2921.048883	5611.869000	782.660156	72.811798
2921.048883	5611.869000	781.465820	351.706909
2921.048883	5611.869000	780.272461	3.029959
2921.048883	5611.869000	779.078125	96.472870
2921.048883	5611.869000	777.883789	242.138046
2921.048883	5611.869000	776.688477	33.830761
2921.048883	5611.869000	775.494141	112.942596
2921.048883	5611.869000	774.298828	156.401688
2921.048883	5611.869000	773.103516	71.650261
2921.048883	5611.869000	771.907227	212.386047
2921.048883	5611.869000	770.711914	70.688110
2921.048883	5611.869000	769.515625	-4.538957
2921.048883	5611.869000	768.318359	8.009113
2921.048883	5611.869000	767.122070	229.206329
2921.048883	5611.869000	765.924805	75.710083
2921.048883	5611.869000	764.727539	-32.706425
2921.048883	5611.869000	763.530273	112.471024
2921.048883	5611.869000	762.333008	68.021271
2921.048883	5611.869000	761.134766	-11.964657
2921.048883	5611.869000	759.936523	279.886078
2921.048883	5611.869000	758.738281	143.009491
2921.048883	5611.869000	757.540039	328.119934
2921.048883	5611.869000	756.340820	390.050476
2921.048883	5611.869000	755.141602	324.139771
2921.048883	5611.869000	753.942383	343.395142
2921.048883	5611.869000	752.742188	360.245178
2921.048883	5611.869000	751.541992	436.174164
2921.048883	5611.869000	750.341797	202.299637
2921.048883	5611.869000	749.141602	415.258728
2921.048883	5611.869000	747.941406	290.121155
2921.048883	5611.869000	746.740234	571.416870
2921.048883	5611.869000	745.539063	450.939850
2921.048883	5611.869000	744.337891	538.317322
2921.048883	5611.869000	743.135742	554.769653
2921.048883	5611.869000	741.933594	500.337799
2921.048883	5611.869000	740.731445	438.796539
2921.048883	5611.869000	739.529297	263.951874
2921.048883	5611.869000	738.326172	558.658569
2921.048883	5611.869000	737.124023	383.751862
2921.048883	5611.869000	735.919922	614.521057
2921.048883	5611.869000	734.716797	510.299408
2921.048883	5611.869000	733.513672	325.906555
2921.048883	5611.869000	732.309570	591.715698
2921.048883	5611.869000	731.105469	640.550354
2921.048883	5611.869000	729.900391	861.289429
2921.048883	5611.869000	728.696289	403.477692
2921.048883	5611.869000	727.491211	741.787598
2921.048883	5611.869000	726.286133	912.712830
2921.048883	5611.869000	725.080078	617.394775
2921.048883	5611.869000	723.874023	515.116272
2921.048883	5611.869000	722.668945	622.224976
2921.048883	5611.869000	721.461914	672.750305
2921.048883	5611.869000	720.255859	711.413391
2921.048883	5611.869000	719.048828	571.259705
2921.048883	5611.869000	717.841797	668.540283
2921.048883	5611.869000	716.634766	450.715302
2921.048883	5611.869000	715.427734	630.061462
2921.048883	5611.869000	714.219727	593.079712
2921.048883	5611.869000	713.011719	675.828125
2921.048883	5611.869000	711.803711	601.091003
2921.048883	5611.869000	710.594727	455.847717
2921.048883	5611.869000	709.385742	723.754150
2921.048883	5611.869000	708.176758	489.160095
2921.048883	5611.869000	706.967773	684.002380
2921.048883	5611.869000	705.758789	601.815491
2921.048883	5611.869000	704.548828	587.584229
2921.048883	5611.869000	703.338867	479.447327
2921.048883	5611.869000	702.127930	706.538818
2921.048883	5611.869000	700.917969	776.365723
2921.048883	5611.869000	699.707031	949.175415
2921.048883	5611.869000	698.496094	824.214294
2921.048883	5611.869000	697.285156	762.444641
2921.048883	5611.869000	696.073242	878.594910
2921.048883	5611.869000	694.861328	884.518188
2921.048883	5611.869000	693.649414	815.401489
2921.048883	5611.869000	692.436523	893.659363
2921.048883	5611.869000	691.224609	1072.394287
2921.048883	5611.869000	690.011719	1009.934204
2921.048883	5611.869000	688.798828	1436.282227
2921.048883	5611.869000	687.584961	1474.087036
2921.048883	5611.869000	686.372070	1574.881470
2921.048883	5611.869000	685.158203	1668.489990
2921.048883	5611.869000	683.943359	1843.731079
2921.048883	5611.869000	682.729492	2315.542480
2921.048883	5611.869000	681.514648	2600.113525
2921.048883	5611.869000	680.299805	2454.635010
2921.048883	5611.869000	679.084961	2661.717529
2921.048883	5611.869000	677.869141	2691.122803
2921.048883	5611.869000	676.653320	2351.547119
2921.048883	5611.869000	675.437500	2562.763916
2921.048883	5611.869000	674.221680	2526.411133
2921.048883	5611.869000	673.004883	2445.602051
2921.048883	5611.869000	671.789063	2490.632080
2921.048883	5611.869000	670.571289	2332.615234
2921.048883	5611.869000	669.354492	2344.711670
2921.048883	5611.869000	668.136719	1904.452637
2921.048883	5611.869000	666.919922	2081.791748
2921.048883	5611.869000	665.701172	1895.429077
2921.048883	5611.869000	664.483398	1897.677979
2921.048883	5611.869000	663.264648	1815.926636
2921.048883	5611.869000	662.045898	1561.746338
2921.048883	5611.869000	660.827148	1686.975098
2921.048883	5611.869000	659.608398	1683.980835
2921.048883	5611.869000	658.388672	1745.979614
2921.048883	5611.869000	657.168945	1733.344238
2921.048883	5611.869000	655.949219	1741.486816
2921.048883	5611.869000	654.728516	1761.085815
2921.048883	5611.869000	653.507813	1747.962769
2921.048883	5611.869000	652.287109	1734.680420
2921.048883	5611.869000	651.066406	1760.746826
2921.048883	5611.869000	649.844727	1668.129883
2921.048883	5611.869000	648.623047	1663.661743
2921.048883	5611.869000	647.401367	1431.415894
2921.048883	5611.869000	646.179688	1642.614258
2921.048883	5611.869000	644.957031	1809.438721
2921.048883	5611.869000	643.734375	1848.362183
2921.048883	5611.869000	642.511719	1754.824829
2921.048883	5611.869000	641.289063	1805.001831
2921.048883	5611.869000	640.065430	1813.226807
2921.048883	5611.869000	638.841797	1603.278320
2921.048883	5611.869000	637.618164	1831.466553
2921.048883	5611.869000	636.393555	1618.931519
2921.048883	5611.869000	635.168945	1545.371216
2921.048883	5611.869000	633.944336	1397.517822
2921.048883	5611.869000	632.719727	1393.186523
2921.048883	5611.869000	631.494141	1511.433105
2921.048883	5611.869000	630.269531	1478.940674
2921.048883	5611.869000	629.042969	1240.220581
2921.048883	5611.869000	627.817383	1274.568115
2921.048883	5611.869000	626.590820	1253.177002
2921.048883	5611.869000	625.365234	1173.783447
2921.048883	5611.869000	624.137695	1237.653320
2921.048883	5611.869000	622.911133	1273.573853
2921.048883	5611.869000	621.683594	1184.435303
2921.048883	5611.869000	620.456055	1053.546021
2921.048883	5611.869000	619.228516	1010.365540
2921.048883	5611.869000	618.000977	918.502563
2921.048883	5611.869000	616.772461	1004.386536
2921.048883	5611.869000	615.543945	1053.103271
2921.048883	5611.869000	614.314453	845.282227
2921.048883	5611.869000	613.085938	967.545715
2921.048883	5611.869000	611.856445	810.266479
2921.048883	5611.869000	610.626953	784.428467
2921.048883	5611.869000	609.397461	938.402466
2921.048883	5611.869000	608.166992	748.407471
2921.048883	5611.869000	606.936523	855.843994
2921.048883	5611.869000	605.706055	797.041016
2921.048883	5611.869000	604.474609	546.736816
2921.048883	5611.869000	603.244141	842.640076
2921.048883	5611.869000	602.012695	741.881775
2921.048883	5611.869000	600.780273	869.077698
2921.048883	5611.869000	599.548828	466.274506
2921.048883	5611.869000	598.316406	590.840698
2921.048883	5611.869000	597.083984	512.573853
2921.048883	5611.869000	595.851563	793.283752
2921.048883	5611.869000	594.618164	558.172913
2921.048883	5611.869000	593.384766	431.147736
2921.048883	5611.869000	592.151367	368.431396
2921.048883	5611.869000	590.917969	540.184509
2921.048883	5611.869000	589.683594	764.585022
2921.048883	5611.869000	588.449219	664.574097
2921.048883	5611.869000	587.214844	941.410278
2921.048883	5611.869000	585.979492	831.896240
2921.048883	5611.869000	584.745117	572.948303
2921.048883	5611.869000	583.509766	879.028503
2921.048883	5611.869000	582.273438	812.775085
2921.048883	5611.869000	581.038086	792.338684
2921.048883	5611.869000	579.801758	914.083008
2921.048883	5611.869000	578.565430	831.370789
2921.048883	5611.869000	577.329102	936.711731
2921.048883	5611.869000	576.091797	782.624084
2921.048883	5611.869000	574.854492	784.433594
2921.048883	5611.869000	573.617188	978.733398
2921.048883	5611.869000	572.378906	863.299255
2921.048883	5611.869000	571.141602	965.553223
2921.048883	5611.869000	569.903320	904.916687
2921.048883	5611.869000	568.664063	837.296021
2921.048883	5611.869000	567.425781	799.374878
2921.048883	5611.869000	566.186523	745.305481
2921.048883	5611.869000	564.947266	494.227570
2921.048883	5611.869000	563.708008	508.694427
2921.048883	5611.869000	562.467773	420.036224
2921.048883	5611.869000	561.227539	528.097046
2921.048883	5611.869000	559.987305	446.121857
2921.048883	5611.869000	558.747070	512.751160
2921.048883	5611.869000	557.505859	478.619690
2921.048883	5611.869000	556.264648	531.283875
2921.048883	5611.869000	555.023438	522.114929
2921.048883	5611.869000	553.781250	528.841125
2921.048883	5611.869000	552.539063	478.354309
2921.048883	5611.869000	551.296875	564.864563
2921.048883	5611.869000	550.054688	356.637787
2921.048883	5611.869000	548.811523	369.893402
2921.048883	5611.869000	547.569336	394.493866
2921.048883	5611.869000	546.325195	250.086380
2921.048883	5611.869000	545.082031	53.201141
2921.048883	5611.869000	543.837891	251.003372
2921.048883	5611.869000	542.593750	421.286011
2921.048883	5611.869000	541.349609	101.142288
2921.048883	5611.869000	540.105469	166.389023
2921.048883	5611.869000	538.860352	99.331596
2921.048883	5611.869000	537.615234	187.222198
2921.048883	5611.869000	536.369141	76.786102
2921.048883	5611.869000	535.124023	9.651537
2921.048883	5611.869000	533.877930	-2.849667
2921.048883	5611.869000	532.631836	-101.908432
2921.048883	5611.869000	531.384766	85.870422
2921.048883	5611.869000	530.138672	216.653442
2921.048883	5611.869000	528.891602	-41.779358
2921.048883	5611.869000	527.643555	91.173203
2921.048883	5611.869000	526.396484	139.904373
2921.048883	5611.869000	525.148438	145.378677
2921.048883	5611.869000	523.900391	64.441521
2921.048883	5611.869000	522.652344	190.384598
2921.048883	5611.869000	521.403320	-167.813904
2921.048883	5611.869000	520.154297	-3.267517
2921.048883	5611.869000	518.905273	70.344719
2921.048883	5611.869000	517.656250	0.848658
2921.048883	5611.869000	516.406250	-152.635864
2921.048883	5611.869000	515.156250	-208.423645
2921.048883	5611.869000	513.906250	-146.145889
2921.048883	5611.869000	512.655273	-38.504055
2921.048883	5611.869000	511.404297	-182.711472
2921.048883	5611.869000	510.153320	-172.589844
2921.048883	5611.869000	508.902344	-235.008759
2921.048883	5611.869000	507.650391	-152.276077
2921.048883	5611.869000	506.398438	-305.284058
2921.048883	5611.869000	505.146484	49.461823
2921.048883	5611.869000	503.893555	-171.425339
2921.048883	5611.869000	502.641602	-197.337509
2921.048883	5611.869000	501.388672	-100.902504
2921.048883	5611.869000	500.134766	9.119305
2921.048883	5611.869000	498.881836	96.526955
2921.048883	5611.869000	497.627930	-58.235977
2921.048883	5611.869000	496.374023	-228.707031
2921.048883	5611.869000	495.119141	-64.218506
2921.048883	5611.869000	493.865234	-60.311905
2921.048883	5611.869000	492.610352	52.199696
2921.048883	5611.869000	491.355469	148.912003
2921.048883	5611.869000	490.099609	-48.209446
2921.048883	5611.869000	488.843750	55.409271
2921.048883	5611.869000	487.587891	244.925858
2921.048883	5611.869000	486.332031	-98.671013
2921.048883	5611.869000	485.075195	160.970795
2921.048883	5611.869000	483.818359	75.117874
2921.048883	5611.869000	482.561523	226.433380
2921.048883	5611.869000	481.304688	479.343994
2921.048883	5611.869000	480.046875	504.317932
2921.048883	5611.869000	478.789063	680.535034
2921.048883	5611.869000	477.531250	525.207825
2921.048883	5611.869000	476.272461	523.380371
2921.048883	5611.869000	475.013672	415.690033
2921.048883	5611.869000	473.754883	364.503021
2921.048883	5611.869000	472.496094	200.761642
2921.048883	5611.869000	471.236328	472.039124
2921.048883	5611.869000	469.976563	236.458054
2921.048883	5611.869000	468.716797	145.224838
2921.048883	5611.869000	467.456055	281.544281
2921.048883	5611.869000	466.196289	267.094116
2921.048883	5611.869000	464.935547	477.815735
2921.048883	5611.869000	463.673828	193.492188
2921.048883	5611.869000	462.413086	195.125259
2921.048883	5611.869000	461.151367	66.394493
2921.048883	5611.869000	459.889648	21.027514
2921.048883	5611.869000	458.626953	108.420639
2921.048883	5611.869000	457.364258	310.514709
2921.048883	5611.869000	456.101563	319.351868
2921.048883	5611.869000	454.838867	92.367538
2921.048883	5611.869000	453.575195	368.745453
2921.048883	5611.869000	452.312500	23.006498
2921.048883	5611.869000	451.047852	0.817459
2921.048883	5611.869000	449.784180	212.204712
2921.048883	5611.869000	448.519531	57.736431
2921.048883	5611.869000	447.254883	17.854462
2921.048883	5611.869000	445.990234	-75.776367
2921.048883	5611.869000	444.725586	88.642242
2921.048883	5611.869000	443.459961	-137.140549
2921.048883	5611.869000	442.194336	-78.034103
2921.048883	5611.869000	440.927734	-77.186340
2921.048883	5611.869000	439.662109	123.172020
2921.048883	5611.869000	438.395508	184.565338
2921.048883	5611.869000	437.127930	178.757614
2921.048883	5611.869000	435.861328	18.465925
2921.048883	5611.869000	434.593750	147.094513
2921.048883	5611.869000	433.326172	271.206512
2921.048883	5611.869000	432.058594	30.463602
2921.048883	5611.869000	430.790039	-207.950302
2921.048883	5611.869000	429.521484	99.586174
2921.048883	5611.869000	428.252930	-56.014782
2921.048883	5611.869000	426.984375	-164.619751
2921.048883	5611.869000	425.714844	93.420059
2921.048883	5611.869000	424.445313	275.300232
2921.048883	5611.869000	423.174805	329.647949
2921.048883	5611.869000	421.905273	84.522888
2921.048883	5611.869000	420.634766	460.380371
2921.048883	5611.869000	419.364258	101.235260
2921.048883	5611.869000	418.092773	184.204422
2921.048883	5611.869000	416.822266	563.910278
2921.048883	5611.869000	415.550781	202.340424
2921.048883	5611.869000	414.278320	374.035461
2921.048883	5611.869000	413.006836	402.717224
2921.048883	5611.869000	411.734375	192.532730
2921.048883	5611.869000	410.461914	276.568420
2921.048883	5611.869000	409.188477	244.395752
2921.048883	5611.869000	407.916016	236.516373
2921.048883	5611.869000	406.642578	186.017624
2921.048883	5611.869000	405.368164	146.377548
2921.048883	5611.869000	404.094727	389.338043
2921.048883	5611.869000	402.820313	68.427269
2921.048883	5611.869000	401.545898	283.878265
2921.048883	5611.869000	400.270508	109.291763
2921.048883	5611.869000	398.996094	348.333496
2921.048883	5611.869000	397.720703	299.798645
2921.048883	5611.869000	396.444336	346.468048
2921.048883	5611.869000	395.168945	274.772369
2921.048883	5611.869000	393.892578	151.438812
2921.048883	5611.869000	392.616211	-110.214592
2921.048883	5611.869000	391.339844	-14.485733
2921.048883	5611.869000	390.062500	96.139000
2921.048883	5611.869000	388.785156	108.328629
2921.048883	5611.869000	387.507813	28.778467
2921.048883	5611.869000	386.229492	-35.909554
2921.048883	5611.869000	384.951172	85.190804
2921.048883	5611.869000	383.672852	129.996399
2921.048883	5611.869000	382.394531	162.879150
2921.048883	5611.869000	381.115234	214.850418
2921.048883	5611.869000	379.835938	132.816818
2921.048883	5611.869000	378.556641	209.573730
2921.048883	5611.869000	377.277344	347.414429
2921.048883	5611.869000	375.997070	-78.907127
2921.048883	5611.869000	374.716797	98.960052
2921.048883	5611.869000	373.435547	69.552956
2921.048883	5611.869000	372.155273	27.960562
2921.048883	5611.869000	370.874023	69.332893
2921.048883	5611.869000	369.591797	-240.457993
2921.048883	5611.869000	368.310547	221.278030
2921.048883	5611.869000	367.028320	336.143372
2921.048883	5611.869000	365.746094	-26.224993
2921.048883	5611.869000	364.463867	17.207457
2921.048883	5611.869000	363.180664	85.624123
2921.048883	5611.869000	361.897461	90.523170
2921.048883	5611.869000	360.614258	104.848839
2921.048883	5611.869000	359.330078	-172.135712
2921.048883	5611.869000	358.045898	101.767868
2921.048883	5611.869000	356.761719	219.069534
2921.048883	5611.869000	355.477539	151.088287
2921.048883	5611.869000	354.192383	34.768806
2921.048883	5611.869000	352.907227	82.097412
2921.048883	5611.869000	351.622070	16.938974
2921.048883	5611.869000	350.336914	84.291466
2921.048883	5611.869000	349.050781	334.699738
2921.048883	5611.869000	347.764648	-103.438583
2921.048883	5611.869000	346.477539	-49.738152
2921.048883	5611.869000	345.191406	-188.122055
2921.048883	5611.869000	343.904297	107.502373
2921.048883	5611.869000	342.616211	155.634048
2921.048883	5611.869000	341.329102	33.599815
2921.048883	5611.869000	340.041016	204.004044
2921.048883	5611.869000	338.752930	-42.691555
2921.048883	5611.869000	337.463867	7.196618
2921.048883	5611.869000	336.175781	-216.780655
2921.048883	5611.869000	334.886719	73.433846
2921.048883	5611.869000	333.596680	67.452400
2921.048883	5611.869000	332.307617	-113.455421
2921.048883	5611.869000	331.017578	-113.034843
2921.048883	5611.869000	329.727539	-74.403229
2921.048883	5611.869000	328.436523	28.611494
2921.048883	5611.869000	327.146484	-102.970718
2921.048883	5611.869000	325.855469	-361.578247
2921.048883	5611.869000	324.563477	-101.169121
2921.048883	5611.869000	323.272461	18.863136
2921.048883	5611.869000	321.980469	-293.847321
2921.048883	5611.869000	320.688477	-290.168915
2921.048883	5611.869000	319.395508	295.135010
2921.048883	5611.869000	318.103516	214.913147
2921.048883	5611.869000	316.810547	2.561749
2921.048883	5611.869000	315.516602	44.208523
2921.048883	5611.869000	314.223633	-48.509201
2921.048883	5611.869000	312.929688	-63.135456
2921.048883	5611.869000	311.635742	-192.707367
2921.048883	5611.869000	310.340820	-165.580811
2921.048883	5611.869000	309.045898	197.843628
2921.048883	5611.869000	307.750977	364.706909
2921.048883	5611.869000	306.456055	249.539627
2921.048883	5611.869000	305.160156	511.522919
2921.048883	5611.869000	303.865234	743.225403
2921.048883	5611.869000	302.568359	753.559814
2921.048883	5611.869000	301.272461	731.221313
2921.048883	5611.869000	299.975586	890.204834
2921.048883	5611.869000	298.678711	943.754883
