#X		#Y		#Wave		#Intensity
13301.647713	3903.741000	1999.980469	-61.727859
13301.647713	3903.741000	1999.016602	24.108973
13301.647713	3903.741000	1998.052734	19.720373
13301.647713	3903.741000	1997.087891	-24.535049
13301.647713	3903.741000	1996.123047	168.865860
13301.647713	3903.741000	1995.158203	12.699093
13301.647713	3903.741000	1994.193359	24.805014
13301.647713	3903.741000	1993.228516	24.327061
13301.647713	3903.741000	1992.262695	8.804854
13301.647713	3903.741000	1991.297852	-44.031517
13301.647713	3903.741000	1990.332031	44.042995
13301.647713	3903.741000	1989.366211	139.332474
13301.647713	3903.741000	1988.399414	-106.993248
13301.647713	3903.741000	1987.433594	0.321082
13301.647713	3903.741000	1986.466797	-80.516937
13301.647713	3903.741000	1985.500977	105.561401
13301.647713	3903.741000	1984.534180	110.954239
13301.647713	3903.741000	1983.567383	128.558350
13301.647713	3903.741000	1982.599609	121.303253
13301.647713	3903.741000	1981.632813	121.326546
13301.647713	3903.741000	1980.665039	29.817066
13301.647713	3903.741000	1979.697266	116.044586
13301.647713	3903.741000	1978.729492	98.402206
13301.647713	3903.741000	1977.761719	51.020470
13301.647713	3903.741000	1976.792969	-33.485420
13301.647713	3903.741000	1975.825195	96.648582
13301.647713	3903.741000	1974.856445	147.665421
13301.647713	3903.741000	1973.887695	136.882690
13301.647713	3903.741000	1972.918945	17.472946
13301.647713	3903.741000	1971.949219	55.848534
13301.647713	3903.741000	1970.980469	57.132984
13301.647713	3903.741000	1970.010742	122.425728
13301.647713	3903.741000	1969.041016	29.861561
13301.647713	3903.741000	1968.071289	99.898766
13301.647713	3903.741000	1967.101563	19.533888
13301.647713	3903.741000	1966.130859	27.808157
13301.647713	3903.741000	1965.161133	53.249664
13301.647713	3903.741000	1964.190430	31.824810
13301.647713	3903.741000	1963.219727	-56.133606
13301.647713	3903.741000	1962.249023	-11.193642
13301.647713	3903.741000	1961.277344	63.202816
13301.647713	3903.741000	1960.306641	44.009666
13301.647713	3903.741000	1959.334961	59.212097
13301.647713	3903.741000	1958.363281	-9.275352
13301.647713	3903.741000	1957.391602	-48.273788
13301.647713	3903.741000	1956.419922	158.584091
13301.647713	3903.741000	1955.447266	-37.860863
13301.647713	3903.741000	1954.474609	-3.225436
13301.647713	3903.741000	1953.501953	-44.824654
13301.647713	3903.741000	1952.529297	26.579378
13301.647713	3903.741000	1951.556641	-0.340954
13301.647713	3903.741000	1950.583984	56.224865
13301.647713	3903.741000	1949.610352	-59.159756
13301.647713	3903.741000	1948.636719	-10.029486
13301.647713	3903.741000	1947.663086	56.239491
13301.647713	3903.741000	1946.689453	102.824883
13301.647713	3903.741000	1945.715820	31.585962
13301.647713	3903.741000	1944.741211	-47.008991
13301.647713	3903.741000	1943.767578	73.096130
13301.647713	3903.741000	1942.792969	102.395500
13301.647713	3903.741000	1941.818359	31.135487
13301.647713	3903.741000	1940.842773	-96.499863
13301.647713	3903.741000	1939.868164	-5.949644
13301.647713	3903.741000	1938.892578	94.356659
13301.647713	3903.741000	1937.916992	-45.503201
13301.647713	3903.741000	1936.941406	27.808342
13301.647713	3903.741000	1935.965820	86.389786
13301.647713	3903.741000	1934.990234	-19.127693
13301.647713	3903.741000	1934.013672	71.257668
13301.647713	3903.741000	1933.037109	176.293594
13301.647713	3903.741000	1932.060547	92.834267
13301.647713	3903.741000	1931.083984	26.533848
13301.647713	3903.741000	1930.107422	116.837494
13301.647713	3903.741000	1929.129883	-74.194168
13301.647713	3903.741000	1928.153320	8.760782
13301.647713	3903.741000	1927.175781	-1.230950
13301.647713	3903.741000	1926.198242	-62.554028
13301.647713	3903.741000	1925.219727	-94.520515
13301.647713	3903.741000	1924.242188	0.610972
13301.647713	3903.741000	1923.263672	39.513966
13301.647713	3903.741000	1922.285156	151.696686
13301.647713	3903.741000	1921.306641	61.122486
13301.647713	3903.741000	1920.328125	-31.851297
13301.647713	3903.741000	1919.349609	-41.769455
13301.647713	3903.741000	1918.370117	87.465408
13301.647713	3903.741000	1917.391602	55.583088
13301.647713	3903.741000	1916.412109	-115.368019
13301.647713	3903.741000	1915.431641	-17.877636
13301.647713	3903.741000	1914.452148	-47.251289
13301.647713	3903.741000	1913.472656	81.920280
13301.647713	3903.741000	1912.492188	-37.657253
13301.647713	3903.741000	1911.511719	20.789238
13301.647713	3903.741000	1910.531250	-62.144707
13301.647713	3903.741000	1909.550781	-25.621630
13301.647713	3903.741000	1908.569336	10.899776
13301.647713	3903.741000	1907.588867	-28.094925
13301.647713	3903.741000	1906.607422	-3.736323
13301.647713	3903.741000	1905.625977	1.146161
13301.647713	3903.741000	1904.644531	40.127640
13301.647713	3903.741000	1903.662109	76.673431
13301.647713	3903.741000	1902.680664	-71.746559
13301.647713	3903.741000	1901.698242	-30.297081
13301.647713	3903.741000	1900.715820	-15.609510
13301.647713	3903.741000	1899.733398	11.249541
13301.647713	3903.741000	1898.750000	94.048088
13301.647713	3903.741000	1897.767578	1.762591
13301.647713	3903.741000	1896.784180	-75.888344
13301.647713	3903.741000	1895.800781	-65.993080
13301.647713	3903.741000	1894.817383	-26.924482
13301.647713	3903.741000	1893.833984	-9.722928
13301.647713	3903.741000	1892.850586	-60.531837
13301.647713	3903.741000	1891.866211	27.132839
13301.647713	3903.741000	1890.881836	-47.919243
13301.647713	3903.741000	1889.897461	64.018539
13301.647713	3903.741000	1888.913086	37.564896
13301.647713	3903.741000	1887.927734	54.819592
13301.647713	3903.741000	1886.943359	76.936028
13301.647713	3903.741000	1885.958008	55.387829
13301.647713	3903.741000	1884.972656	-58.312908
13301.647713	3903.741000	1883.987305	-40.998718
13301.647713	3903.741000	1883.001953	10.267866
13301.647713	3903.741000	1882.015625	30.010910
13301.647713	3903.741000	1881.029297	64.302216
13301.647713	3903.741000	1880.042969	59.819206
13301.647713	3903.741000	1879.056641	-0.377422
13301.647713	3903.741000	1878.070313	29.090899
13301.647713	3903.741000	1877.083984	-14.100893
13301.647713	3903.741000	1876.096680	17.800510
13301.647713	3903.741000	1875.109375	15.805731
13301.647713	3903.741000	1874.122070	6.559398
13301.647713	3903.741000	1873.134766	-72.859055
13301.647713	3903.741000	1872.146484	104.250702
13301.647713	3903.741000	1871.159180	44.216042
13301.647713	3903.741000	1870.170898	54.356224
13301.647713	3903.741000	1869.182617	-44.325085
13301.647713	3903.741000	1868.194336	-155.051483
13301.647713	3903.741000	1867.205078	-11.898751
13301.647713	3903.741000	1866.216797	145.710587
13301.647713	3903.741000	1865.227539	1.197632
13301.647713	3903.741000	1864.238281	-53.860287
13301.647713	3903.741000	1863.249023	60.202362
13301.647713	3903.741000	1862.259766	53.467606
13301.647713	3903.741000	1861.269531	22.591576
13301.647713	3903.741000	1860.279297	-32.412426
13301.647713	3903.741000	1859.290039	57.438107
13301.647713	3903.741000	1858.298828	-28.920645
13301.647713	3903.741000	1857.308594	-64.572365
13301.647713	3903.741000	1856.318359	-13.360454
13301.647713	3903.741000	1855.327148	90.896599
13301.647713	3903.741000	1854.335938	89.006462
13301.647713	3903.741000	1853.344727	-28.615850
13301.647713	3903.741000	1852.353516	-25.661797
13301.647713	3903.741000	1851.362305	-5.838456
13301.647713	3903.741000	1850.370117	-72.775856
13301.647713	3903.741000	1849.377930	16.913246
13301.647713	3903.741000	1848.385742	-11.466508
13301.647713	3903.741000	1847.393555	-39.839005
13301.647713	3903.741000	1846.401367	28.112591
13301.647713	3903.741000	1845.408203	-101.379471
13301.647713	3903.741000	1844.415039	86.899216
13301.647713	3903.741000	1843.421875	63.323582
13301.647713	3903.741000	1842.428711	73.436539
13301.647713	3903.741000	1841.435547	-0.658950
13301.647713	3903.741000	1840.441406	-19.415230
13301.647713	3903.741000	1839.448242	-45.384827
13301.647713	3903.741000	1838.454102	29.626741
13301.647713	3903.741000	1837.459961	22.870523
13301.647713	3903.741000	1836.464844	30.526957
13301.647713	3903.741000	1835.470703	45.380493
13301.647713	3903.741000	1834.475586	36.191959
13301.647713	3903.741000	1833.480469	58.222694
13301.647713	3903.741000	1832.485352	-11.026860
13301.647713	3903.741000	1831.490234	97.421753
13301.647713	3903.741000	1830.495117	-5.443230
13301.647713	3903.741000	1829.499023	117.338341
13301.647713	3903.741000	1828.502930	-4.718213
13301.647713	3903.741000	1827.506836	89.197121
13301.647713	3903.741000	1826.510742	173.467117
13301.647713	3903.741000	1825.513672	29.837519
13301.647713	3903.741000	1824.517578	44.514465
13301.647713	3903.741000	1823.520508	164.658920
13301.647713	3903.741000	1822.523438	64.211105
13301.647713	3903.741000	1821.526367	83.614357
13301.647713	3903.741000	1820.529297	-26.400396
13301.647713	3903.741000	1819.531250	115.156189
13301.647713	3903.741000	1818.533203	139.273239
13301.647713	3903.741000	1817.535156	122.649460
13301.647713	3903.741000	1816.537109	67.702347
13301.647713	3903.741000	1815.539063	132.450943
13301.647713	3903.741000	1814.540039	108.594948
13301.647713	3903.741000	1813.541992	96.692978
13301.647713	3903.741000	1812.542969	-49.210567
13301.647713	3903.741000	1811.543945	70.441483
13301.647713	3903.741000	1810.543945	-1.307974
13301.647713	3903.741000	1809.544922	77.593018
13301.647713	3903.741000	1808.544922	27.339117
13301.647713	3903.741000	1807.544922	67.910439
13301.647713	3903.741000	1806.544922	-61.236427
13301.647713	3903.741000	1805.544922	72.472801
13301.647713	3903.741000	1804.544922	-61.454987
13301.647713	3903.741000	1803.543945	-78.324173
13301.647713	3903.741000	1802.542969	-30.736526
13301.647713	3903.741000	1801.541992	-30.945387
13301.647713	3903.741000	1800.541016	61.916519
13301.647713	3903.741000	1799.539063	59.246391
13301.647713	3903.741000	1798.538086	-7.876859
13301.647713	3903.741000	1797.536133	118.242424
13301.647713	3903.741000	1796.534180	36.761929
13301.647713	3903.741000	1795.532227	10.134912
13301.647713	3903.741000	1794.529297	-11.744959
13301.647713	3903.741000	1793.527344	45.026733
13301.647713	3903.741000	1792.524414	65.991104
13301.647713	3903.741000	1791.521484	5.892936
13301.647713	3903.741000	1790.518555	-23.240274
13301.647713	3903.741000	1789.514648	59.566093
13301.647713	3903.741000	1788.511719	11.316878
13301.647713	3903.741000	1787.507813	63.064655
13301.647713	3903.741000	1786.503906	148.091507
13301.647713	3903.741000	1785.500000	-71.632675
13301.647713	3903.741000	1784.496094	-15.237542
13301.647713	3903.741000	1783.491211	57.756737
13301.647713	3903.741000	1782.486328	40.287178
13301.647713	3903.741000	1781.481445	103.660637
13301.647713	3903.741000	1780.476563	74.230385
13301.647713	3903.741000	1779.471680	-102.638611
13301.647713	3903.741000	1778.465820	-29.870914
13301.647713	3903.741000	1777.460938	7.184595
13301.647713	3903.741000	1776.455078	10.920210
13301.647713	3903.741000	1775.449219	76.390411
13301.647713	3903.741000	1774.442383	-43.483288
13301.647713	3903.741000	1773.436523	138.272797
13301.647713	3903.741000	1772.429688	82.471146
13301.647713	3903.741000	1771.422852	157.226929
13301.647713	3903.741000	1770.416016	32.535095
13301.647713	3903.741000	1769.409180	21.765099
13301.647713	3903.741000	1768.402344	63.160915
13301.647713	3903.741000	1767.394531	-80.534348
13301.647713	3903.741000	1766.386719	-27.353729
13301.647713	3903.741000	1765.378906	28.140625
13301.647713	3903.741000	1764.371094	88.317230
13301.647713	3903.741000	1763.362305	74.946426
13301.647713	3903.741000	1762.354492	2.296220
13301.647713	3903.741000	1761.345703	-60.889977
13301.647713	3903.741000	1760.336914	37.007416
13301.647713	3903.741000	1759.328125	153.777847
13301.647713	3903.741000	1758.318359	17.066525
13301.647713	3903.741000	1757.308594	-22.554705
13301.647713	3903.741000	1756.299805	-24.319990
13301.647713	3903.741000	1755.290039	25.943394
13301.647713	3903.741000	1754.279297	-56.372131
13301.647713	3903.741000	1753.269531	-22.761524
13301.647713	3903.741000	1752.258789	95.951172
13301.647713	3903.741000	1751.249023	18.285315
13301.647713	3903.741000	1750.238281	25.730701
13301.647713	3903.741000	1749.226563	37.858982
13301.647713	3903.741000	1748.215820	54.674145
13301.647713	3903.741000	1747.204102	9.995855
13301.647713	3903.741000	1746.193359	-34.701523
13301.647713	3903.741000	1745.181641	19.793150
13301.647713	3903.741000	1744.168945	83.671204
13301.647713	3903.741000	1743.157227	-93.375977
13301.647713	3903.741000	1742.144531	67.220482
13301.647713	3903.741000	1741.132813	17.633089
13301.647713	3903.741000	1740.120117	71.864655
13301.647713	3903.741000	1739.106445	-6.106350
13301.647713	3903.741000	1738.093750	19.720470
13301.647713	3903.741000	1737.080078	-70.083420
13301.647713	3903.741000	1736.067383	-13.675187
13301.647713	3903.741000	1735.053711	-98.801361
13301.647713	3903.741000	1734.040039	-9.488210
13301.647713	3903.741000	1733.025391	-26.313402
13301.647713	3903.741000	1732.011719	62.873833
13301.647713	3903.741000	1730.997070	20.046915
13301.647713	3903.741000	1729.982422	64.353584
13301.647713	3903.741000	1728.967773	-96.290970
13301.647713	3903.741000	1727.952148	-30.867901
13301.647713	3903.741000	1726.937500	55.683632
13301.647713	3903.741000	1725.921875	-43.788269
13301.647713	3903.741000	1724.906250	7.352633
13301.647713	3903.741000	1723.890625	-162.734314
13301.647713	3903.741000	1722.875000	-24.626549
13301.647713	3903.741000	1721.858398	-23.028534
13301.647713	3903.741000	1720.841797	-42.631500
13301.647713	3903.741000	1719.825195	-10.541199
13301.647713	3903.741000	1718.808594	68.512108
13301.647713	3903.741000	1717.791992	-17.013844
13301.647713	3903.741000	1716.774414	19.637300
13301.647713	3903.741000	1715.756836	-82.369041
13301.647713	3903.741000	1714.739258	-118.605881
13301.647713	3903.741000	1713.721680	131.636017
13301.647713	3903.741000	1712.704102	-24.443895
13301.647713	3903.741000	1711.685547	103.540016
13301.647713	3903.741000	1710.667969	24.905617
13301.647713	3903.741000	1709.649414	-95.976509
13301.647713	3903.741000	1708.630859	130.378662
13301.647713	3903.741000	1707.611328	-37.465137
13301.647713	3903.741000	1706.592773	3.449905
13301.647713	3903.741000	1705.573242	100.585442
13301.647713	3903.741000	1704.553711	33.546768
13301.647713	3903.741000	1703.534180	-110.847450
13301.647713	3903.741000	1702.513672	-9.164954
13301.647713	3903.741000	1701.494141	-109.045746
13301.647713	3903.741000	1700.473633	4.244028
13301.647713	3903.741000	1699.453125	-81.618881
13301.647713	3903.741000	1698.432617	3.458146
13301.647713	3903.741000	1697.412109	46.328960
13301.647713	3903.741000	1696.390625	39.992107
13301.647713	3903.741000	1695.369141	-52.964390
13301.647713	3903.741000	1694.347656	34.250839
13301.647713	3903.741000	1693.326172	9.111784
13301.647713	3903.741000	1692.304688	166.388336
13301.647713	3903.741000	1691.282227	73.352867
13301.647713	3903.741000	1690.260742	106.581841
13301.647713	3903.741000	1689.238281	-63.605499
13301.647713	3903.741000	1688.214844	102.784805
13301.647713	3903.741000	1687.192383	7.380187
13301.647713	3903.741000	1686.168945	54.488510
13301.647713	3903.741000	1685.146484	-10.560540
13301.647713	3903.741000	1684.123047	52.825489
13301.647713	3903.741000	1683.099609	76.467415
13301.647713	3903.741000	1682.075195	156.093979
13301.647713	3903.741000	1681.051758	-14.066030
13301.647713	3903.741000	1680.027344	105.165627
13301.647713	3903.741000	1679.002930	-11.314919
13301.647713	3903.741000	1677.978516	-64.794365
13301.647713	3903.741000	1676.953125	124.263069
13301.647713	3903.741000	1675.928711	87.051758
13301.647713	3903.741000	1674.903320	98.781960
13301.647713	3903.741000	1673.877930	168.755203
13301.647713	3903.741000	1672.852539	-38.636959
13301.647713	3903.741000	1671.826172	87.203178
13301.647713	3903.741000	1670.800781	105.822266
13301.647713	3903.741000	1669.774414	82.484581
13301.647713	3903.741000	1668.748047	163.920959
13301.647713	3903.741000	1667.721680	159.164108
13301.647713	3903.741000	1666.694336	124.123154
13301.647713	3903.741000	1665.667969	235.697983
13301.647713	3903.741000	1664.640625	100.564339
13301.647713	3903.741000	1663.613281	186.466827
13301.647713	3903.741000	1662.585938	267.666199
13301.647713	3903.741000	1661.557617	134.869370
13301.647713	3903.741000	1660.530273	197.411942
13301.647713	3903.741000	1659.501953	146.004684
13301.647713	3903.741000	1658.473633	229.398148
13301.647713	3903.741000	1657.444336	57.136150
13301.647713	3903.741000	1656.416016	121.897659
13301.647713	3903.741000	1655.386719	163.385544
13301.647713	3903.741000	1654.358398	179.303696
13301.647713	3903.741000	1653.328125	204.476837
13301.647713	3903.741000	1652.298828	229.632538
13301.647713	3903.741000	1651.269531	192.099731
13301.647713	3903.741000	1650.239258	275.229309
13301.647713	3903.741000	1649.208984	328.153320
13301.647713	3903.741000	1648.178711	230.271194
13301.647713	3903.741000	1647.148438	468.693298
13301.647713	3903.741000	1646.117188	298.914032
13301.647713	3903.741000	1645.086914	351.749329
13301.647713	3903.741000	1644.055664	441.633820
13301.647713	3903.741000	1643.024414	406.336273
13301.647713	3903.741000	1641.992188	422.009827
13301.647713	3903.741000	1640.960938	504.853210
13301.647713	3903.741000	1639.928711	499.641876
13301.647713	3903.741000	1638.896484	554.630432
13301.647713	3903.741000	1637.864258	512.356140
13301.647713	3903.741000	1636.832031	544.161194
13301.647713	3903.741000	1635.798828	582.885254
13301.647713	3903.741000	1634.766602	677.126038
13301.647713	3903.741000	1633.733398	685.726807
13301.647713	3903.741000	1632.699219	805.331665
13301.647713	3903.741000	1631.666016	837.020691
13301.647713	3903.741000	1630.632813	981.981323
13301.647713	3903.741000	1629.598633	904.970947
13301.647713	3903.741000	1628.564453	1100.695557
13301.647713	3903.741000	1627.530273	1093.007690
13301.647713	3903.741000	1626.495117	1385.638550
13301.647713	3903.741000	1625.460938	1246.242554
13301.647713	3903.741000	1624.425781	1418.647217
13301.647713	3903.741000	1623.390625	1362.411621
13301.647713	3903.741000	1622.355469	1343.132935
13301.647713	3903.741000	1621.319336	1372.324585
13301.647713	3903.741000	1620.284180	1359.978149
13301.647713	3903.741000	1619.248047	1546.038330
13301.647713	3903.741000	1618.211914	1358.362549
13301.647713	3903.741000	1617.174805	1512.066040
13301.647713	3903.741000	1616.138672	1093.908936
13301.647713	3903.741000	1615.101563	1206.118896
13301.647713	3903.741000	1614.065430	1159.266357
13301.647713	3903.741000	1613.027344	1077.860718
13301.647713	3903.741000	1611.990234	1010.322693
13301.647713	3903.741000	1610.953125	1087.935303
13301.647713	3903.741000	1609.915039	1022.733093
13301.647713	3903.741000	1608.876953	973.682556
13301.647713	3903.741000	1607.838867	996.024475
13301.647713	3903.741000	1606.800781	953.921021
13301.647713	3903.741000	1605.761719	1026.897339
13301.647713	3903.741000	1604.723633	1067.651123
13301.647713	3903.741000	1603.684570	981.876953
13301.647713	3903.741000	1602.644531	923.739868
13301.647713	3903.741000	1601.605469	821.954529
13301.647713	3903.741000	1600.566406	911.034912
13301.647713	3903.741000	1599.526367	841.489868
13301.647713	3903.741000	1598.486328	836.331116
13301.647713	3903.741000	1597.446289	688.735962
13301.647713	3903.741000	1596.405273	846.730347
13301.647713	3903.741000	1595.365234	699.219971
13301.647713	3903.741000	1594.324219	818.143860
13301.647713	3903.741000	1593.283203	801.584045
13301.647713	3903.741000	1592.242188	989.334961
13301.647713	3903.741000	1591.200195	901.633057
13301.647713	3903.741000	1590.159180	866.761353
13301.647713	3903.741000	1589.117188	811.269348
13301.647713	3903.741000	1588.075195	845.266846
13301.647713	3903.741000	1587.032227	794.418457
13301.647713	3903.741000	1585.990234	739.029663
13301.647713	3903.741000	1584.947266	752.443481
13301.647713	3903.741000	1583.904297	830.042603
13301.647713	3903.741000	1582.861328	747.238586
13301.647713	3903.741000	1581.818359	767.578308
13301.647713	3903.741000	1580.775391	739.832764
13301.647713	3903.741000	1579.731445	693.794678
13301.647713	3903.741000	1578.687500	824.092163
13301.647713	3903.741000	1577.643555	681.960083
13301.647713	3903.741000	1576.598633	599.406128
13301.647713	3903.741000	1575.554688	823.532471
13301.647713	3903.741000	1574.509766	725.018188
13301.647713	3903.741000	1573.464844	745.506836
13301.647713	3903.741000	1572.419922	777.447571
13301.647713	3903.741000	1571.374023	935.148560
13301.647713	3903.741000	1570.329102	989.951355
13301.647713	3903.741000	1569.283203	932.764832
13301.647713	3903.741000	1568.237305	813.931152
13301.647713	3903.741000	1567.191406	1056.140625
13301.647713	3903.741000	1566.144531	969.358765
13301.647713	3903.741000	1565.098633	942.021179
13301.647713	3903.741000	1564.051758	955.817139
13301.647713	3903.741000	1563.004883	1134.000244
13301.647713	3903.741000	1561.957031	1236.819824
13301.647713	3903.741000	1560.910156	1232.384521
13301.647713	3903.741000	1559.862305	1285.013428
13301.647713	3903.741000	1558.814453	1499.605835
13301.647713	3903.741000	1557.766602	1319.605957
13301.647713	3903.741000	1556.718750	1575.213135
13301.647713	3903.741000	1555.669922	1438.642944
13301.647713	3903.741000	1554.621094	1600.738037
13301.647713	3903.741000	1553.573242	1705.837769
13301.647713	3903.741000	1552.523438	1706.117432
13301.647713	3903.741000	1551.474609	1642.655396
13301.647713	3903.741000	1550.424805	1563.305664
13301.647713	3903.741000	1549.375000	1436.205322
13301.647713	3903.741000	1548.325195	1536.844360
13301.647713	3903.741000	1547.275391	1671.620605
13301.647713	3903.741000	1546.225586	1494.616577
13301.647713	3903.741000	1545.174805	1406.447021
13301.647713	3903.741000	1544.124023	1329.722534
13301.647713	3903.741000	1543.073242	1460.026855
13301.647713	3903.741000	1542.022461	1372.027466
13301.647713	3903.741000	1540.970703	1213.620850
13301.647713	3903.741000	1539.919922	1128.053833
13301.647713	3903.741000	1538.868164	1035.737061
13301.647713	3903.741000	1537.815430	1120.711792
13301.647713	3903.741000	1536.763672	1080.758301
13301.647713	3903.741000	1535.710938	895.501648
13301.647713	3903.741000	1534.659180	767.129822
13301.647713	3903.741000	1533.606445	650.196228
13301.647713	3903.741000	1532.552734	615.058777
13301.647713	3903.741000	1531.500000	697.987610
13301.647713	3903.741000	1530.446289	642.516907
13301.647713	3903.741000	1529.393555	475.958191
13301.647713	3903.741000	1528.338867	529.497681
13301.647713	3903.741000	1527.285156	544.513611
13301.647713	3903.741000	1526.231445	521.024414
13301.647713	3903.741000	1525.176758	327.583038
13301.647713	3903.741000	1524.122070	317.825592
13301.647713	3903.741000	1523.067383	267.331329
13301.647713	3903.741000	1522.012695	391.331970
13301.647713	3903.741000	1520.957031	232.212845
13301.647713	3903.741000	1519.901367	315.495422
13301.647713	3903.741000	1518.845703	72.775185
13301.647713	3903.741000	1517.790039	217.261810
13301.647713	3903.741000	1516.734375	318.737274
13301.647713	3903.741000	1515.677734	225.626587
13301.647713	3903.741000	1514.621094	266.068268
13301.647713	3903.741000	1513.564453	272.613739
13301.647713	3903.741000	1512.507813	279.202209
13301.647713	3903.741000	1511.450195	184.092331
13301.647713	3903.741000	1510.393555	59.684868
13301.647713	3903.741000	1509.335938	-19.430696
13301.647713	3903.741000	1508.278320	170.414566
13301.647713	3903.741000	1507.219727	224.684097
13301.647713	3903.741000	1506.162109	120.879311
13301.647713	3903.741000	1505.103516	48.775120
13301.647713	3903.741000	1504.044922	-30.026163
13301.647713	3903.741000	1502.986328	139.551788
13301.647713	3903.741000	1501.926758	87.938950
13301.647713	3903.741000	1500.868164	61.218273
13301.647713	3903.741000	1499.808594	111.254936
13301.647713	3903.741000	1498.749023	48.547001
13301.647713	3903.741000	1497.688477	143.762405
13301.647713	3903.741000	1496.628906	209.681931
13301.647713	3903.741000	1495.568359	16.395746
13301.647713	3903.741000	1494.507813	131.991547
13301.647713	3903.741000	1493.447266	119.156448
13301.647713	3903.741000	1492.386719	128.903748
13301.647713	3903.741000	1491.325195	-18.969957
13301.647713	3903.741000	1490.263672	123.760521
13301.647713	3903.741000	1489.202148	102.128479
13301.647713	3903.741000	1488.140625	-11.736602
13301.647713	3903.741000	1487.079102	-12.977701
13301.647713	3903.741000	1486.016602	30.832357
13301.647713	3903.741000	1484.954102	-19.810505
13301.647713	3903.741000	1483.891602	-14.152308
13301.647713	3903.741000	1482.829102	151.217163
13301.647713	3903.741000	1481.765625	44.524090
13301.647713	3903.741000	1480.702148	45.824730
13301.647713	3903.741000	1479.638672	-143.847183
13301.647713	3903.741000	1478.575195	-108.693733
13301.647713	3903.741000	1477.511719	16.333439
13301.647713	3903.741000	1476.447266	47.048134
13301.647713	3903.741000	1475.382813	14.890141
13301.647713	3903.741000	1474.318359	59.175888
13301.647713	3903.741000	1473.253906	67.584587
13301.647713	3903.741000	1472.189453	33.424374
13301.647713	3903.741000	1471.124023	93.523895
13301.647713	3903.741000	1470.058594	211.788986
13301.647713	3903.741000	1468.993164	276.443756
13301.647713	3903.741000	1467.927734	116.868591
13301.647713	3903.741000	1466.861328	255.461639
13301.647713	3903.741000	1465.794922	73.838989
13301.647713	3903.741000	1464.728516	107.315544
13301.647713	3903.741000	1463.662109	131.722336
13301.647713	3903.741000	1462.594727	323.800018
13301.647713	3903.741000	1461.528320	183.080429
13301.647713	3903.741000	1460.460938	290.413086
13301.647713	3903.741000	1459.393555	290.341980
13301.647713	3903.741000	1458.326172	312.657532
13301.647713	3903.741000	1457.257813	239.116287
13301.647713	3903.741000	1456.189453	304.459747
13301.647713	3903.741000	1455.121094	283.936890
13301.647713	3903.741000	1454.052734	320.239075
13301.647713	3903.741000	1452.984375	327.199219
13301.647713	3903.741000	1451.915039	358.782043
13301.647713	3903.741000	1450.845703	339.336243
13301.647713	3903.741000	1449.776367	306.245056
13301.647713	3903.741000	1448.707031	390.692932
13301.647713	3903.741000	1447.636719	363.421143
13301.647713	3903.741000	1446.567383	236.534836
13301.647713	3903.741000	1445.497070	195.185593
13301.647713	3903.741000	1444.425781	333.955963
13301.647713	3903.741000	1443.355469	363.153931
13301.647713	3903.741000	1442.285156	350.779633
13301.647713	3903.741000	1441.213867	413.814270
13301.647713	3903.741000	1440.142578	414.849731
13301.647713	3903.741000	1439.070313	497.600220
13301.647713	3903.741000	1437.999023	365.010468
13301.647713	3903.741000	1436.926758	525.530090
13301.647713	3903.741000	1435.854492	451.884125
13301.647713	3903.741000	1434.782227	681.321838
13301.647713	3903.741000	1433.709961	588.277649
13301.647713	3903.741000	1432.636719	464.906067
13301.647713	3903.741000	1431.563477	486.307251
13301.647713	3903.741000	1430.490234	304.806763
13301.647713	3903.741000	1429.416992	287.491821
13301.647713	3903.741000	1428.343750	415.480927
13301.647713	3903.741000	1427.269531	349.052734
13301.647713	3903.741000	1426.195313	217.509369
13301.647713	3903.741000	1425.121094	284.737366
13301.647713	3903.741000	1424.046875	393.356659
13301.647713	3903.741000	1422.971680	285.502045
13301.647713	3903.741000	1421.896484	182.426605
13301.647713	3903.741000	1420.821289	160.217575
13301.647713	3903.741000	1419.746094	180.000702
13301.647713	3903.741000	1418.669922	124.179024
13301.647713	3903.741000	1417.594727	128.360474
13301.647713	3903.741000	1416.518555	30.522224
13301.647713	3903.741000	1415.442383	127.318947
13301.647713	3903.741000	1414.365234	34.244141
13301.647713	3903.741000	1413.289063	120.688118
13301.647713	3903.741000	1412.211914	2.307565
13301.647713	3903.741000	1411.134766	209.904922
13301.647713	3903.741000	1410.057617	108.440407
13301.647713	3903.741000	1408.979492	117.441406
13301.647713	3903.741000	1407.902344	65.121513
13301.647713	3903.741000	1406.824219	83.683731
13301.647713	3903.741000	1405.746094	90.420494
13301.647713	3903.741000	1404.666992	221.203094
13301.647713	3903.741000	1403.588867	250.133942
13301.647713	3903.741000	1402.509766	84.462738
13301.647713	3903.741000	1401.430664	129.609192
13301.647713	3903.741000	1400.351563	331.364532
13301.647713	3903.741000	1399.271484	341.173492
13301.647713	3903.741000	1398.192383	231.414902
13301.647713	3903.741000	1397.112305	287.328125
13301.647713	3903.741000	1396.031250	283.790924
13301.647713	3903.741000	1394.951172	229.665787
13301.647713	3903.741000	1393.871094	333.063995
13301.647713	3903.741000	1392.790039	244.895813
13301.647713	3903.741000	1391.708984	210.088882
13301.647713	3903.741000	1390.626953	349.421692
13301.647713	3903.741000	1389.545898	284.704071
13301.647713	3903.741000	1388.463867	353.320007
13301.647713	3903.741000	1387.381836	403.524597
13301.647713	3903.741000	1386.299805	447.349792
13301.647713	3903.741000	1385.217773	384.500305
13301.647713	3903.741000	1384.134766	496.570831
13301.647713	3903.741000	1383.051758	595.689819
13301.647713	3903.741000	1381.968750	581.108398
13301.647713	3903.741000	1380.885742	752.526428
13301.647713	3903.741000	1379.802734	953.234192
13301.647713	3903.741000	1378.718750	1097.407959
13301.647713	3903.741000	1377.634766	1025.835327
13301.647713	3903.741000	1376.550781	1156.786743
13301.647713	3903.741000	1375.465820	963.270325
13301.647713	3903.741000	1374.381836	1091.232056
13301.647713	3903.741000	1373.296875	952.685791
13301.647713	3903.741000	1372.211914	777.765503
13301.647713	3903.741000	1371.126953	1048.065063
13301.647713	3903.741000	1370.041016	806.814758
13301.647713	3903.741000	1368.955078	834.034241
13301.647713	3903.741000	1367.869141	834.220154
13301.647713	3903.741000	1366.783203	646.247253
13301.647713	3903.741000	1365.697266	704.071594
13301.647713	3903.741000	1364.610352	628.407715
13301.647713	3903.741000	1363.523438	537.465271
13301.647713	3903.741000	1362.436523	514.787048
13301.647713	3903.741000	1361.349609	422.665497
13301.647713	3903.741000	1360.261719	371.234650
13301.647713	3903.741000	1359.174805	446.867706
13301.647713	3903.741000	1358.086914	463.896362
13301.647713	3903.741000	1356.998047	390.532715
13301.647713	3903.741000	1355.910156	465.772430
13301.647713	3903.741000	1354.821289	371.452209
13301.647713	3903.741000	1353.732422	400.899750
13301.647713	3903.741000	1352.643555	460.163055
13301.647713	3903.741000	1351.554688	272.434143
13301.647713	3903.741000	1350.464844	285.204071
13301.647713	3903.741000	1349.375000	176.744293
13301.647713	3903.741000	1348.285156	444.567108
13301.647713	3903.741000	1347.195313	304.639496
13301.647713	3903.741000	1346.105469	313.561615
13301.647713	3903.741000	1345.014648	223.806137
13301.647713	3903.741000	1343.923828	215.310867
13301.647713	3903.741000	1342.833008	318.762939
13301.647713	3903.741000	1341.741211	294.685852
13301.647713	3903.741000	1340.650391	321.717041
13301.647713	3903.741000	1339.558594	371.421509
13301.647713	3903.741000	1338.466797	191.298935
13301.647713	3903.741000	1337.374023	210.332855
13301.647713	3903.741000	1336.282227	127.956932
13301.647713	3903.741000	1335.189453	223.583496
13301.647713	3903.741000	1334.096680	228.697479
13301.647713	3903.741000	1333.003906	288.110992
13301.647713	3903.741000	1331.910156	291.428345
13301.647713	3903.741000	1330.817383	220.749893
13301.647713	3903.741000	1329.723633	261.705536
13301.647713	3903.741000	1328.629883	232.354736
13301.647713	3903.741000	1327.535156	259.506500
13301.647713	3903.741000	1326.441406	266.746368
13301.647713	3903.741000	1325.346680	234.846939
13301.647713	3903.741000	1324.251953	341.107880
13301.647713	3903.741000	1323.156250	296.283081
13301.647713	3903.741000	1322.061523	252.695236
13301.647713	3903.741000	1320.965820	293.992096
13301.647713	3903.741000	1319.870117	369.393646
13301.647713	3903.741000	1318.774414	330.410767
13301.647713	3903.741000	1317.678711	303.883423
13301.647713	3903.741000	1316.582031	389.558685
13301.647713	3903.741000	1315.485352	429.612091
13301.647713	3903.741000	1314.388672	408.151672
13301.647713	3903.741000	1313.291016	571.828369
13301.647713	3903.741000	1312.194336	426.626282
13301.647713	3903.741000	1311.096680	431.392120
13301.647713	3903.741000	1309.999023	458.243225
13301.647713	3903.741000	1308.901367	370.911163
13301.647713	3903.741000	1307.802734	338.965973
13301.647713	3903.741000	1306.705078	402.306488
13301.647713	3903.741000	1305.606445	379.348572
13301.647713	3903.741000	1304.506836	400.433167
13301.647713	3903.741000	1303.408203	388.933746
13301.647713	3903.741000	1302.308594	283.595276
13301.647713	3903.741000	1301.208984	328.468536
13301.647713	3903.741000	1300.109375	187.455994
13301.647713	3903.741000	1299.009766	190.315582
13301.647713	3903.741000	1297.909180	340.765869
13301.647713	3903.741000	1296.808594	118.878586
13301.647713	3903.741000	1295.708008	254.596237
13301.647713	3903.741000	1294.607422	147.575684
13301.647713	3903.741000	1293.506836	145.762375
13301.647713	3903.741000	1292.405273	189.030685
13301.647713	3903.741000	1291.303711	153.185715
13301.647713	3903.741000	1290.202148	200.774918
13301.647713	3903.741000	1289.099609	60.016510
13301.647713	3903.741000	1287.998047	177.266006
13301.647713	3903.741000	1286.895508	30.600288
13301.647713	3903.741000	1285.792969	51.847328
13301.647713	3903.741000	1284.689453	154.859619
13301.647713	3903.741000	1283.586914	87.474091
13301.647713	3903.741000	1282.483398	95.070900
13301.647713	3903.741000	1281.379883	144.493622
13301.647713	3903.741000	1280.276367	40.922577
13301.647713	3903.741000	1279.171875	3.056970
13301.647713	3903.741000	1278.067383	16.459118
13301.647713	3903.741000	1276.962891	134.759537
13301.647713	3903.741000	1275.858398	-53.566540
13301.647713	3903.741000	1274.753906	-1.391515
13301.647713	3903.741000	1273.648438	103.960907
13301.647713	3903.741000	1272.542969	-34.553421
13301.647713	3903.741000	1271.437500	-107.528603
13301.647713	3903.741000	1270.331055	-53.755585
13301.647713	3903.741000	1269.225586	-3.946906
13301.647713	3903.741000	1268.119141	53.143974
13301.647713	3903.741000	1267.012695	-36.209732
13301.647713	3903.741000	1265.906250	-42.674858
13301.647713	3903.741000	1264.798828	-39.170761
13301.647713	3903.741000	1263.691406	70.737877
13301.647713	3903.741000	1262.583984	-1.406306
13301.647713	3903.741000	1261.476563	-102.967880
13301.647713	3903.741000	1260.368164	-11.282203
13301.647713	3903.741000	1259.260742	-2.641423
13301.647713	3903.741000	1258.152344	0.482794
13301.647713	3903.741000	1257.043945	-37.586052
13301.647713	3903.741000	1255.934570	-203.883987
13301.647713	3903.741000	1254.825195	-46.394650
13301.647713	3903.741000	1253.716797	-90.433685
13301.647713	3903.741000	1252.606445	-45.705254
13301.647713	3903.741000	1251.497070	-160.110291
13301.647713	3903.741000	1250.387695	-115.272720
13301.647713	3903.741000	1249.277344	-137.539597
13301.647713	3903.741000	1248.166992	-76.388168
13301.647713	3903.741000	1247.055664	-26.161596
13301.647713	3903.741000	1245.945313	-121.092918
13301.647713	3903.741000	1244.833984	-16.946743
13301.647713	3903.741000	1243.722656	-52.190071
13301.647713	3903.741000	1242.611328	-102.534615
13301.647713	3903.741000	1241.499023	-8.879175
13301.647713	3903.741000	1240.387695	42.735626
13301.647713	3903.741000	1239.275391	19.637442
13301.647713	3903.741000	1238.162109	9.100406
13301.647713	3903.741000	1237.049805	10.219676
13301.647713	3903.741000	1235.936523	21.541641
13301.647713	3903.741000	1234.823242	39.550030
13301.647713	3903.741000	1233.709961	87.881302
13301.647713	3903.741000	1232.596680	42.861858
13301.647713	3903.741000	1231.482422	-9.803615
13301.647713	3903.741000	1230.369141	87.976204
13301.647713	3903.741000	1229.253906	-69.141647
13301.647713	3903.741000	1228.139648	11.308349
13301.647713	3903.741000	1227.025391	10.836538
13301.647713	3903.741000	1225.910156	13.779431
13301.647713	3903.741000	1224.794922	72.229225
13301.647713	3903.741000	1223.679688	-57.860214
13301.647713	3903.741000	1222.563477	-57.581589
13301.647713	3903.741000	1221.447266	-24.464748
13301.647713	3903.741000	1220.331055	17.334808
13301.647713	3903.741000	1219.214844	37.640583
13301.647713	3903.741000	1218.098633	-65.864540
13301.647713	3903.741000	1216.981445	13.687166
13301.647713	3903.741000	1215.864258	-21.320038
13301.647713	3903.741000	1214.747070	74.870956
13301.647713	3903.741000	1213.629883	38.383484
13301.647713	3903.741000	1212.511719	-34.204319
13301.647713	3903.741000	1211.393555	27.325850
13301.647713	3903.741000	1210.275391	64.805328
13301.647713	3903.741000	1209.157227	1.406285
13301.647713	3903.741000	1208.038086	26.341606
13301.647713	3903.741000	1206.918945	-42.207966
13301.647713	3903.741000	1205.799805	-38.735294
13301.647713	3903.741000	1204.680664	32.415684
13301.647713	3903.741000	1203.560547	72.178535
13301.647713	3903.741000	1202.441406	-53.318832
13301.647713	3903.741000	1201.321289	-24.264765
13301.647713	3903.741000	1200.200195	25.371292
13301.647713	3903.741000	1199.080078	23.449253
13301.647713	3903.741000	1197.958984	47.518021
13301.647713	3903.741000	1196.837891	1.832670
13301.647713	3903.741000	1195.716797	88.053688
13301.647713	3903.741000	1194.594727	66.471504
13301.647713	3903.741000	1193.473633	68.707886
13301.647713	3903.741000	1192.351563	146.681259
13301.647713	3903.741000	1191.229492	80.481262
13301.647713	3903.741000	1190.106445	36.710293
13301.647713	3903.741000	1188.984375	54.685532
13301.647713	3903.741000	1187.861328	85.705711
13301.647713	3903.741000	1186.738281	141.348297
13301.647713	3903.741000	1185.614258	28.586763
13301.647713	3903.741000	1184.491211	171.717392
13301.647713	3903.741000	1183.367188	101.126740
13301.647713	3903.741000	1182.243164	147.693573
13301.647713	3903.741000	1181.119141	90.467598
13301.647713	3903.741000	1179.994141	116.557983
13301.647713	3903.741000	1178.869141	117.005180
13301.647713	3903.741000	1177.744141	150.931168
13301.647713	3903.741000	1176.619141	146.519897
13301.647713	3903.741000	1175.493164	74.468399
13301.647713	3903.741000	1174.368164	105.027321
13301.647713	3903.741000	1173.242188	149.090302
13301.647713	3903.741000	1172.115234	101.249023
13301.647713	3903.741000	1170.989258	130.501755
13301.647713	3903.741000	1169.862305	94.956444
13301.647713	3903.741000	1168.735352	178.175674
13301.647713	3903.741000	1167.608398	139.056335
13301.647713	3903.741000	1166.481445	116.241890
13301.647713	3903.741000	1165.353516	121.816490
13301.647713	3903.741000	1164.225586	161.138672
13301.647713	3903.741000	1163.097656	25.198589
13301.647713	3903.741000	1161.968750	-17.350796
13301.647713	3903.741000	1160.840820	10.628238
13301.647713	3903.741000	1159.711914	21.493406
13301.647713	3903.741000	1158.583008	72.873856
13301.647713	3903.741000	1157.453125	100.611443
13301.647713	3903.741000	1156.324219	-53.223835
13301.647713	3903.741000	1155.194336	-87.566849
13301.647713	3903.741000	1154.064453	-12.803535
13301.647713	3903.741000	1152.933594	35.909893
13301.647713	3903.741000	1151.803711	25.792469
13301.647713	3903.741000	1150.672852	26.335976
13301.647713	3903.741000	1149.541992	36.144306
13301.647713	3903.741000	1148.411133	59.672989
13301.647713	3903.741000	1147.279297	11.433221
13301.647713	3903.741000	1146.147461	28.077288
13301.647713	3903.741000	1145.015625	113.135918
13301.647713	3903.741000	1143.883789	112.689171
13301.647713	3903.741000	1142.750977	15.539700
13301.647713	3903.741000	1141.619141	38.991779
13301.647713	3903.741000	1140.486328	29.494972
13301.647713	3903.741000	1139.352539	-9.429297
13301.647713	3903.741000	1138.219727	35.792881
13301.647713	3903.741000	1137.085938	-51.935890
13301.647713	3903.741000	1135.952148	-72.343544
13301.647713	3903.741000	1134.818359	-38.351952
13301.647713	3903.741000	1133.683594	-96.632690
13301.647713	3903.741000	1132.549805	-16.120953
13301.647713	3903.741000	1131.415039	-23.485569
13301.647713	3903.741000	1130.279297	142.151840
13301.647713	3903.741000	1129.144531	88.955780
13301.647713	3903.741000	1128.008789	38.629421
13301.647713	3903.741000	1126.873047	77.701797
13301.647713	3903.741000	1125.737305	26.865316
13301.647713	3903.741000	1124.601563	76.453003
13301.647713	3903.741000	1123.464844	103.882538
13301.647713	3903.741000	1122.328125	145.408615
13301.647713	3903.741000	1121.191406	76.552757
13301.647713	3903.741000	1120.054688	36.608444
13301.647713	3903.741000	1118.916992	46.484028
13301.647713	3903.741000	1117.779297	87.631058
13301.647713	3903.741000	1116.641602	177.667725
13301.647713	3903.741000	1115.503906	48.809414
13301.647713	3903.741000	1114.365234	33.240784
13301.647713	3903.741000	1113.226563	58.055546
13301.647713	3903.741000	1112.087891	82.481773
13301.647713	3903.741000	1110.949219	121.195778
13301.647713	3903.741000	1109.809570	108.264503
13301.647713	3903.741000	1108.669922	1.879870
13301.647713	3903.741000	1107.530273	175.171814
13301.647713	3903.741000	1106.390625	135.154068
13301.647713	3903.741000	1105.250000	24.755333
13301.647713	3903.741000	1104.109375	-33.271366
13301.647713	3903.741000	1102.968750	-87.888367
13301.647713	3903.741000	1101.828125	31.194912
13301.647713	3903.741000	1100.686523	93.517006
13301.647713	3903.741000	1099.544922	62.958923
13301.647713	3903.741000	1098.403320	101.154037
13301.647713	3903.741000	1097.261719	101.640015
13301.647713	3903.741000	1096.120117	-69.593811
13301.647713	3903.741000	1094.977539	97.498344
13301.647713	3903.741000	1093.834961	105.489960
13301.647713	3903.741000	1092.691406	35.116261
13301.647713	3903.741000	1091.548828	53.827431
13301.647713	3903.741000	1090.405273	87.863846
13301.647713	3903.741000	1089.261719	45.312714
13301.647713	3903.741000	1088.118164	20.618944
13301.647713	3903.741000	1086.973633	153.939575
13301.647713	3903.741000	1085.829102	4.384309
13301.647713	3903.741000	1084.684570	48.544071
13301.647713	3903.741000	1083.540039	-27.724611
13301.647713	3903.741000	1082.395508	54.070545
13301.647713	3903.741000	1081.250000	-11.476471
13301.647713	3903.741000	1080.104492	67.753891
13301.647713	3903.741000	1078.958984	-19.577131
13301.647713	3903.741000	1077.812500	34.708881
13301.647713	3903.741000	1076.666016	66.881920
13301.647713	3903.741000	1075.519531	24.041691
13301.647713	3903.741000	1074.373047	23.153631
13301.647713	3903.741000	1073.226563	-32.032158
13301.647713	3903.741000	1072.079102	-6.422264
13301.647713	3903.741000	1070.931641	104.681099
13301.647713	3903.741000	1069.784180	25.947964
13301.647713	3903.741000	1068.635742	-19.007786
13301.647713	3903.741000	1067.487305	141.883255
13301.647713	3903.741000	1066.338867	18.084589
13301.647713	3903.741000	1065.190430	-27.748415
13301.647713	3903.741000	1064.041992	21.641197
13301.647713	3903.741000	1062.892578	81.053291
13301.647713	3903.741000	1061.743164	176.319550
13301.647713	3903.741000	1060.593750	130.371231
13301.647713	3903.741000	1059.443359	43.411510
13301.647713	3903.741000	1058.292969	75.703239
13301.647713	3903.741000	1057.142578	52.147415
13301.647713	3903.741000	1055.992188	39.200214
13301.647713	3903.741000	1054.841797	114.499939
13301.647713	3903.741000	1053.690430	115.990410
13301.647713	3903.741000	1052.539063	169.367172
13301.647713	3903.741000	1051.387695	311.948212
13301.647713	3903.741000	1050.235352	245.512802
13301.647713	3903.741000	1049.083984	305.980316
13301.647713	3903.741000	1047.931641	402.085358
13301.647713	3903.741000	1046.778320	292.270447
13301.647713	3903.741000	1045.625977	216.363235
13301.647713	3903.741000	1044.472656	324.948853
13301.647713	3903.741000	1043.319336	277.701965
13301.647713	3903.741000	1042.166016	197.938095
13301.647713	3903.741000	1041.012695	234.372726
13301.647713	3903.741000	1039.858398	141.727859
13301.647713	3903.741000	1038.704102	80.035614
13301.647713	3903.741000	1037.549805	158.428925
13301.647713	3903.741000	1036.394531	127.017960
13301.647713	3903.741000	1035.239258	46.003811
13301.647713	3903.741000	1034.083984	107.060417
13301.647713	3903.741000	1032.928711	26.391020
13301.647713	3903.741000	1031.773438	-23.053566
13301.647713	3903.741000	1030.617188	-92.025513
13301.647713	3903.741000	1029.460938	81.547394
13301.647713	3903.741000	1028.304688	24.337149
13301.647713	3903.741000	1027.147461	11.086678
13301.647713	3903.741000	1025.991211	17.530693
13301.647713	3903.741000	1024.833984	5.707165
13301.647713	3903.741000	1023.675781	39.384739
13301.647713	3903.741000	1022.518555	-42.820469
13301.647713	3903.741000	1021.360352	-48.849068
13301.647713	3903.741000	1020.202148	21.508926
13301.647713	3903.741000	1019.043945	35.108604
13301.647713	3903.741000	1017.884766	-34.935593
13301.647713	3903.741000	1016.726563	14.517910
13301.647713	3903.741000	1015.567383	84.050896
13301.647713	3903.741000	1014.407227	103.869995
13301.647713	3903.741000	1013.248047	101.409317
13301.647713	3903.741000	1012.087891	110.157326
13301.647713	3903.741000	1010.927734	137.998367
13301.647713	3903.741000	1009.767578	236.021423
13301.647713	3903.741000	1008.606445	140.576233
13301.647713	3903.741000	1007.446289	260.450928
13301.647713	3903.741000	1006.285156	200.371246
13301.647713	3903.741000	1005.123047	112.804558
13301.647713	3903.741000	1003.961914	90.738762
13301.647713	3903.741000	1002.799805	40.465446
13301.647713	3903.741000	1001.637695	50.786480
13301.647713	3903.741000	1000.475586	68.432930
13301.647713	3903.741000	999.312500	8.542045
13301.647713	3903.741000	998.149414	62.785355
13301.647713	3903.741000	996.986328	-49.128548
13301.647713	3903.741000	995.823242	-8.696639
13301.647713	3903.741000	994.659180	-54.387150
13301.647713	3903.741000	993.496094	-60.354645
13301.647713	3903.741000	992.332031	-10.841845
13301.647713	3903.741000	991.166992	30.265579
13301.647713	3903.741000	990.002930	32.114368
13301.647713	3903.741000	988.837891	-103.755524
13301.647713	3903.741000	987.672852	43.435368
13301.647713	3903.741000	986.506836	34.843273
13301.647713	3903.741000	985.341797	148.615952
13301.647713	3903.741000	984.175781	-65.227707
13301.647713	3903.741000	983.009766	-73.317383
13301.647713	3903.741000	981.843750	27.969072
13301.647713	3903.741000	980.676758	102.166756
13301.647713	3903.741000	979.509766	82.023903
13301.647713	3903.741000	978.342773	-35.744061
13301.647713	3903.741000	977.175781	42.776989
13301.647713	3903.741000	976.007813	105.900932
13301.647713	3903.741000	974.839844	10.696828
13301.647713	3903.741000	973.671875	102.020218
13301.647713	3903.741000	972.503906	79.407784
13301.647713	3903.741000	971.334961	-23.986780
13301.647713	3903.741000	970.166016	-13.868810
13301.647713	3903.741000	968.997070	-27.688932
13301.647713	3903.741000	967.828125	113.447929
13301.647713	3903.741000	966.658203	-76.477898
13301.647713	3903.741000	965.488281	7.226703
13301.647713	3903.741000	964.318359	60.762943
13301.647713	3903.741000	963.148438	126.059097
13301.647713	3903.741000	961.977539	25.873796
13301.647713	3903.741000	960.806641	0.726320
13301.647713	3903.741000	959.635742	19.691910
13301.647713	3903.741000	958.463867	73.045769
13301.647713	3903.741000	957.292969	-18.050972
13301.647713	3903.741000	956.121094	-38.983498
13301.647713	3903.741000	954.948242	51.162273
13301.647713	3903.741000	953.776367	183.076294
13301.647713	3903.741000	952.603516	110.864067
13301.647713	3903.741000	951.430664	-26.063976
13301.647713	3903.741000	950.257813	-15.881651
13301.647713	3903.741000	949.084961	-127.614815
13301.647713	3903.741000	947.911133	72.186005
13301.647713	3903.741000	946.737305	78.000565
13301.647713	3903.741000	945.563477	-18.148666
13301.647713	3903.741000	944.388672	-79.009010
13301.647713	3903.741000	943.213867	-124.171021
13301.647713	3903.741000	942.039063	-100.742599
13301.647713	3903.741000	940.864258	-48.788685
13301.647713	3903.741000	939.688477	9.814954
13301.647713	3903.741000	938.513672	-15.674287
13301.647713	3903.741000	937.337891	-164.642242
13301.647713	3903.741000	936.161133	-42.031788
13301.647713	3903.741000	934.985352	-25.505440
13301.647713	3903.741000	933.808594	-55.326012
13301.647713	3903.741000	932.631836	51.966736
13301.647713	3903.741000	931.454102	132.622482
13301.647713	3903.741000	930.277344	-20.950953
13301.647713	3903.741000	929.099609	39.817562
13301.647713	3903.741000	927.921875	27.633881
13301.647713	3903.741000	926.743164	70.679771
13301.647713	3903.741000	925.565430	7.742486
13301.647713	3903.741000	924.386719	101.526894
13301.647713	3903.741000	923.208008	65.069412
13301.647713	3903.741000	922.028320	83.787643
13301.647713	3903.741000	920.849609	38.520596
13301.647713	3903.741000	919.669922	40.453091
13301.647713	3903.741000	919.474609	-57.134773
13301.647713	3903.741000	918.309570	-86.951027
13301.647713	3903.741000	917.143555	-37.395370
13301.647713	3903.741000	915.977539	-106.885468
13301.647713	3903.741000	914.810547	77.068489
13301.647713	3903.741000	913.644531	51.637596
13301.647713	3903.741000	912.477539	-72.909912
13301.647713	3903.741000	911.310547	-142.353989
13301.647713	3903.741000	910.143555	-59.847538
13301.647713	3903.741000	908.975586	18.218845
13301.647713	3903.741000	907.807617	41.224384
13301.647713	3903.741000	906.639648	90.621162
13301.647713	3903.741000	905.471680	-80.012779
13301.647713	3903.741000	904.303711	-41.619888
13301.647713	3903.741000	903.134766	-9.844712
13301.647713	3903.741000	901.965820	-22.061922
13301.647713	3903.741000	900.796875	7.487190
13301.647713	3903.741000	899.626953	-48.694969
13301.647713	3903.741000	898.457031	59.942226
13301.647713	3903.741000	897.287109	19.138927
13301.647713	3903.741000	896.117188	143.081070
13301.647713	3903.741000	894.947266	-29.496088
13301.647713	3903.741000	893.776367	35.113918
13301.647713	3903.741000	892.605469	0.910470
13301.647713	3903.741000	891.434570	-94.736183
13301.647713	3903.741000	890.262695	11.520304
13301.647713	3903.741000	889.091797	27.779650
13301.647713	3903.741000	887.919922	15.513676
13301.647713	3903.741000	886.748047	49.296970
13301.647713	3903.741000	885.575195	32.633789
13301.647713	3903.741000	884.403320	-98.014030
13301.647713	3903.741000	883.230469	-40.142273
13301.647713	3903.741000	882.057617	-105.002502
13301.647713	3903.741000	880.883789	-82.216713
13301.647713	3903.741000	879.710938	1.876432
13301.647713	3903.741000	878.537109	50.892174
13301.647713	3903.741000	877.362305	-29.287556
13301.647713	3903.741000	876.188477	-41.589039
13301.647713	3903.741000	875.013672	-69.211769
13301.647713	3903.741000	873.839844	-107.772675
13301.647713	3903.741000	872.664063	-36.948185
13301.647713	3903.741000	871.489258	-12.090972
13301.647713	3903.741000	870.313477	-50.663528
13301.647713	3903.741000	869.138672	9.147191
13301.647713	3903.741000	867.962891	-1.018074
13301.647713	3903.741000	866.786133	82.779953
13301.647713	3903.741000	865.610352	-124.049202
13301.647713	3903.741000	864.433594	-90.520378
13301.647713	3903.741000	863.256836	39.078075
13301.647713	3903.741000	862.079102	68.174294
13301.647713	3903.741000	860.902344	68.867073
13301.647713	3903.741000	859.724609	67.368309
13301.647713	3903.741000	858.546875	194.605743
13301.647713	3903.741000	857.368164	11.981326
13301.647713	3903.741000	856.190430	182.781433
13301.647713	3903.741000	855.011719	120.155869
13301.647713	3903.741000	853.833008	118.594406
13301.647713	3903.741000	852.654297	34.186218
13301.647713	3903.741000	851.474609	139.414764
13301.647713	3903.741000	850.294922	172.680984
13301.647713	3903.741000	849.115234	105.707344
13301.647713	3903.741000	847.935547	36.571304
13301.647713	3903.741000	846.754883	-8.593828
13301.647713	3903.741000	845.575195	68.170349
13301.647713	3903.741000	844.393555	-5.304265
13301.647713	3903.741000	843.212891	43.110504
13301.647713	3903.741000	842.032227	58.854591
13301.647713	3903.741000	840.850586	4.966025
13301.647713	3903.741000	839.668945	79.409790
13301.647713	3903.741000	838.486328	162.508072
13301.647713	3903.741000	837.304688	45.541180
13301.647713	3903.741000	836.122070	132.931519
13301.647713	3903.741000	834.939453	109.438530
13301.647713	3903.741000	833.756836	316.251465
13301.647713	3903.741000	832.573242	242.739334
13301.647713	3903.741000	831.389648	134.492172
13301.647713	3903.741000	830.206055	82.731476
13301.647713	3903.741000	829.022461	93.933578
13301.647713	3903.741000	827.838867	-18.603365
13301.647713	3903.741000	826.654297	57.686344
13301.647713	3903.741000	825.469727	-20.114025
13301.647713	3903.741000	824.284180	-32.822826
13301.647713	3903.741000	823.099609	26.023903
13301.647713	3903.741000	821.914063	13.277185
13301.647713	3903.741000	820.728516	7.022056
13301.647713	3903.741000	819.542969	44.100101
13301.647713	3903.741000	818.356445	52.975845
13301.647713	3903.741000	817.169922	-7.497079
13301.647713	3903.741000	815.983398	10.014367
13301.647713	3903.741000	814.796875	-22.308384
13301.647713	3903.741000	813.609375	116.410751
13301.647713	3903.741000	812.422852	94.865974
13301.647713	3903.741000	811.235352	105.775719
13301.647713	3903.741000	810.046875	146.955643
13301.647713	3903.741000	808.859375	172.955261
13301.647713	3903.741000	807.670898	15.078125
13301.647713	3903.741000	806.482422	77.817398
13301.647713	3903.741000	805.293945	-25.964346
13301.647713	3903.741000	804.104492	-23.805935
13301.647713	3903.741000	802.915039	-97.307907
13301.647713	3903.741000	801.725586	144.657455
13301.647713	3903.741000	800.536133	66.789169
13301.647713	3903.741000	799.345703	-30.505875
13301.647713	3903.741000	798.155273	-6.859395
13301.647713	3903.741000	796.964844	107.428596
13301.647713	3903.741000	795.774414	98.617172
13301.647713	3903.741000	794.583008	50.943481
13301.647713	3903.741000	793.392578	18.370083
13301.647713	3903.741000	792.200195	104.428604
13301.647713	3903.741000	791.008789	-66.212784
13301.647713	3903.741000	789.816406	45.656155
13301.647713	3903.741000	788.625000	49.667576
13301.647713	3903.741000	787.432617	157.109299
13301.647713	3903.741000	786.239258	83.474724
13301.647713	3903.741000	785.046875	-11.697154
13301.647713	3903.741000	783.853516	-12.079074
13301.647713	3903.741000	782.660156	58.581291
13301.647713	3903.741000	781.465820	73.207901
13301.647713	3903.741000	780.272461	18.919754
13301.647713	3903.741000	779.078125	89.455826
13301.647713	3903.741000	777.883789	-3.594317
13301.647713	3903.741000	776.688477	86.228615
13301.647713	3903.741000	775.494141	64.144615
13301.647713	3903.741000	774.298828	110.857101
13301.647713	3903.741000	773.103516	172.573654
13301.647713	3903.741000	771.907227	197.697067
13301.647713	3903.741000	770.711914	184.100876
13301.647713	3903.741000	769.515625	194.118668
13301.647713	3903.741000	768.318359	150.401093
13301.647713	3903.741000	767.122070	244.128922
13301.647713	3903.741000	765.924805	202.512604
13301.647713	3903.741000	764.727539	225.290619
13301.647713	3903.741000	763.530273	185.787064
13301.647713	3903.741000	762.333008	197.774689
13301.647713	3903.741000	761.134766	100.309456
13301.647713	3903.741000	759.936523	172.314560
13301.647713	3903.741000	758.738281	147.755142
13301.647713	3903.741000	757.540039	146.763412
13301.647713	3903.741000	756.340820	29.983601
13301.647713	3903.741000	755.141602	191.845337
13301.647713	3903.741000	753.942383	197.186859
13301.647713	3903.741000	752.742188	157.507355
13301.647713	3903.741000	751.541992	179.930344
13301.647713	3903.741000	750.341797	275.124176
13301.647713	3903.741000	749.141602	149.724426
13301.647713	3903.741000	747.941406	264.090881
13301.647713	3903.741000	746.740234	192.188889
13301.647713	3903.741000	745.539063	152.381897
13301.647713	3903.741000	744.337891	159.624863
13301.647713	3903.741000	743.135742	134.751755
13301.647713	3903.741000	741.933594	129.104126
13301.647713	3903.741000	740.731445	48.601772
13301.647713	3903.741000	739.529297	173.297348
13301.647713	3903.741000	738.326172	120.538399
13301.647713	3903.741000	737.124023	121.185173
13301.647713	3903.741000	735.919922	70.532921
13301.647713	3903.741000	734.716797	13.464431
13301.647713	3903.741000	733.513672	110.123650
13301.647713	3903.741000	732.309570	208.845352
13301.647713	3903.741000	731.105469	117.540169
13301.647713	3903.741000	729.900391	113.729843
13301.647713	3903.741000	728.696289	248.562576
13301.647713	3903.741000	727.491211	131.615112
13301.647713	3903.741000	726.286133	238.600433
13301.647713	3903.741000	725.080078	89.658379
13301.647713	3903.741000	723.874023	156.042542
13301.647713	3903.741000	722.668945	103.020294
13301.647713	3903.741000	721.461914	120.301582
13301.647713	3903.741000	720.255859	186.541641
13301.647713	3903.741000	719.048828	159.006821
13301.647713	3903.741000	717.841797	250.698914
13301.647713	3903.741000	716.634766	14.459212
13301.647713	3903.741000	715.427734	129.492325
13301.647713	3903.741000	714.219727	16.740107
13301.647713	3903.741000	713.011719	97.617096
13301.647713	3903.741000	711.803711	-70.452866
13301.647713	3903.741000	710.594727	44.370472
13301.647713	3903.741000	709.385742	74.061783
13301.647713	3903.741000	708.176758	18.674814
13301.647713	3903.741000	706.967773	226.827759
13301.647713	3903.741000	705.758789	309.489410
13301.647713	3903.741000	704.548828	294.355408
13301.647713	3903.741000	703.338867	192.108566
13301.647713	3903.741000	702.127930	276.749695
13301.647713	3903.741000	700.917969	206.333023
13301.647713	3903.741000	699.707031	259.030975
13301.647713	3903.741000	698.496094	190.704208
13301.647713	3903.741000	697.285156	300.608185
13301.647713	3903.741000	696.073242	297.999451
13301.647713	3903.741000	694.861328	320.811066
13301.647713	3903.741000	693.649414	284.207672
13301.647713	3903.741000	692.436523	277.267059
13301.647713	3903.741000	691.224609	246.983383
13301.647713	3903.741000	690.011719	189.130264
13301.647713	3903.741000	688.798828	211.781509
13301.647713	3903.741000	687.584961	217.444534
13301.647713	3903.741000	686.372070	303.552216
13301.647713	3903.741000	685.158203	215.966339
13301.647713	3903.741000	683.943359	219.413071
13301.647713	3903.741000	682.729492	387.914825
13301.647713	3903.741000	681.514648	497.064728
13301.647713	3903.741000	680.299805	430.543243
13301.647713	3903.741000	679.084961	562.843750
13301.647713	3903.741000	677.869141	464.553619
13301.647713	3903.741000	676.653320	355.703979
13301.647713	3903.741000	675.437500	272.235962
13301.647713	3903.741000	674.221680	254.287964
13301.647713	3903.741000	673.004883	341.962433
13301.647713	3903.741000	671.789063	298.599091
13301.647713	3903.741000	670.571289	124.275246
13301.647713	3903.741000	669.354492	104.144073
13301.647713	3903.741000	668.136719	86.101997
13301.647713	3903.741000	666.919922	220.011475
13301.647713	3903.741000	665.701172	218.776154
13301.647713	3903.741000	664.483398	57.170666
13301.647713	3903.741000	663.264648	256.304657
13301.647713	3903.741000	662.045898	259.197906
13301.647713	3903.741000	660.827148	154.530945
13301.647713	3903.741000	659.608398	127.878273
13301.647713	3903.741000	658.388672	14.797695
13301.647713	3903.741000	657.168945	30.274481
13301.647713	3903.741000	655.949219	125.772827
13301.647713	3903.741000	654.728516	103.253822
13301.647713	3903.741000	653.507813	87.036324
13301.647713	3903.741000	652.287109	9.745676
13301.647713	3903.741000	651.066406	73.492104
13301.647713	3903.741000	649.844727	208.737137
13301.647713	3903.741000	648.623047	112.458923
13301.647713	3903.741000	647.401367	-44.806030
13301.647713	3903.741000	646.179688	203.877716
13301.647713	3903.741000	644.957031	172.773438
13301.647713	3903.741000	643.734375	44.957020
13301.647713	3903.741000	642.511719	70.604156
13301.647713	3903.741000	641.289063	131.941849
13301.647713	3903.741000	640.065430	18.854393
13301.647713	3903.741000	638.841797	101.138008
13301.647713	3903.741000	637.618164	51.065102
13301.647713	3903.741000	636.393555	82.874466
13301.647713	3903.741000	635.168945	202.814529
13301.647713	3903.741000	633.944336	131.704575
13301.647713	3903.741000	632.719727	136.143250
13301.647713	3903.741000	631.494141	109.092453
13301.647713	3903.741000	630.269531	86.232819
13301.647713	3903.741000	629.042969	15.132213
13301.647713	3903.741000	627.817383	157.886856
13301.647713	3903.741000	626.590820	0.831194
13301.647713	3903.741000	625.365234	42.909172
13301.647713	3903.741000	624.137695	-97.327087
13301.647713	3903.741000	622.911133	45.267151
13301.647713	3903.741000	621.683594	9.773340
13301.647713	3903.741000	620.456055	9.876167
13301.647713	3903.741000	619.228516	-77.955063
13301.647713	3903.741000	618.000977	87.480881
13301.647713	3903.741000	616.772461	91.712288
13301.647713	3903.741000	615.543945	-10.762618
13301.647713	3903.741000	614.314453	-14.902860
13301.647713	3903.741000	613.085938	47.867104
13301.647713	3903.741000	611.856445	-35.749771
13301.647713	3903.741000	610.626953	-2.285954
13301.647713	3903.741000	609.397461	3.987667
13301.647713	3903.741000	608.166992	-39.896229
13301.647713	3903.741000	606.936523	-79.591179
13301.647713	3903.741000	605.706055	33.183220
13301.647713	3903.741000	604.474609	120.844421
13301.647713	3903.741000	603.244141	-42.044117
13301.647713	3903.741000	602.012695	-48.335121
13301.647713	3903.741000	600.780273	-90.103638
13301.647713	3903.741000	599.548828	7.923293
13301.647713	3903.741000	598.316406	45.414925
13301.647713	3903.741000	597.083984	-48.489246
13301.647713	3903.741000	595.851563	120.344749
13301.647713	3903.741000	594.618164	20.206461
13301.647713	3903.741000	593.384766	13.892632
13301.647713	3903.741000	592.151367	111.760872
13301.647713	3903.741000	590.917969	-27.889307
13301.647713	3903.741000	589.683594	-15.443624
13301.647713	3903.741000	588.449219	61.549461
13301.647713	3903.741000	587.214844	40.667793
13301.647713	3903.741000	585.979492	21.877728
13301.647713	3903.741000	584.745117	46.802830
13301.647713	3903.741000	583.509766	59.236961
13301.647713	3903.741000	582.273438	-98.893379
13301.647713	3903.741000	581.038086	-61.465137
13301.647713	3903.741000	579.801758	-109.292816
13301.647713	3903.741000	578.565430	-76.022041
13301.647713	3903.741000	577.329102	-21.973888
13301.647713	3903.741000	576.091797	-40.665310
13301.647713	3903.741000	574.854492	13.369851
13301.647713	3903.741000	573.617188	50.777821
13301.647713	3903.741000	572.378906	117.250664
13301.647713	3903.741000	571.141602	-73.720535
13301.647713	3903.741000	569.903320	-5.147854
13301.647713	3903.741000	568.664063	-36.200954
13301.647713	3903.741000	567.425781	24.064310
13301.647713	3903.741000	566.186523	-0.728328
13301.647713	3903.741000	564.947266	-75.266113
13301.647713	3903.741000	563.708008	26.483416
13301.647713	3903.741000	562.467773	-4.463839
13301.647713	3903.741000	561.227539	-80.974365
13301.647713	3903.741000	559.987305	45.629314
13301.647713	3903.741000	558.747070	-5.960189
13301.647713	3903.741000	557.505859	-55.438339
13301.647713	3903.741000	556.264648	-19.973938
13301.647713	3903.741000	555.023438	40.341438
13301.647713	3903.741000	553.781250	36.486206
13301.647713	3903.741000	552.539063	49.211906
13301.647713	3903.741000	551.296875	10.232137
13301.647713	3903.741000	550.054688	49.897682
13301.647713	3903.741000	548.811523	101.978539
13301.647713	3903.741000	547.569336	50.684368
13301.647713	3903.741000	546.325195	92.458580
13301.647713	3903.741000	545.082031	-6.294193
13301.647713	3903.741000	543.837891	54.127533
13301.647713	3903.741000	542.593750	5.062016
13301.647713	3903.741000	541.349609	59.318993
13301.647713	3903.741000	540.105469	249.871277
13301.647713	3903.741000	538.860352	176.111084
13301.647713	3903.741000	537.615234	149.888245
13301.647713	3903.741000	536.369141	152.598938
13301.647713	3903.741000	535.124023	128.521576
13301.647713	3903.741000	533.877930	123.051872
13301.647713	3903.741000	532.631836	72.247536
13301.647713	3903.741000	531.384766	93.664452
13301.647713	3903.741000	530.138672	26.468018
13301.647713	3903.741000	528.891602	29.408602
13301.647713	3903.741000	527.643555	129.229523
13301.647713	3903.741000	526.396484	171.364044
13301.647713	3903.741000	525.148438	75.518715
13301.647713	3903.741000	523.900391	55.944344
13301.647713	3903.741000	522.652344	17.888985
13301.647713	3903.741000	521.403320	117.797363
13301.647713	3903.741000	520.154297	-93.040794
13301.647713	3903.741000	518.905273	-25.989777
13301.647713	3903.741000	517.656250	4.047554
13301.647713	3903.741000	516.406250	-95.452759
13301.647713	3903.741000	515.156250	-184.587418
13301.647713	3903.741000	513.906250	-94.794983
13301.647713	3903.741000	512.655273	50.492435
13301.647713	3903.741000	511.404297	-104.242424
13301.647713	3903.741000	510.153320	-143.821472
13301.647713	3903.741000	508.902344	-43.672123
13301.647713	3903.741000	507.650391	-1.020353
13301.647713	3903.741000	506.398438	-114.373390
13301.647713	3903.741000	505.146484	10.470201
13301.647713	3903.741000	503.893555	-28.869320
13301.647713	3903.741000	502.641602	-45.575546
13301.647713	3903.741000	501.388672	19.821753
13301.647713	3903.741000	500.134766	113.947861
13301.647713	3903.741000	498.881836	15.343031
13301.647713	3903.741000	497.627930	-64.724030
13301.647713	3903.741000	496.374023	88.935760
13301.647713	3903.741000	495.119141	136.022812
13301.647713	3903.741000	493.865234	168.797684
13301.647713	3903.741000	492.610352	86.905251
13301.647713	3903.741000	491.355469	113.626137
13301.647713	3903.741000	490.099609	-9.071627
13301.647713	3903.741000	488.843750	126.236488
13301.647713	3903.741000	487.587891	71.214951
13301.647713	3903.741000	486.332031	155.391464
13301.647713	3903.741000	485.075195	-16.115524
13301.647713	3903.741000	483.818359	-83.201088
13301.647713	3903.741000	482.561523	50.166298
13301.647713	3903.741000	481.304688	99.708542
13301.647713	3903.741000	480.046875	177.888824
13301.647713	3903.741000	478.789063	57.876259
13301.647713	3903.741000	477.531250	5.377005
13301.647713	3903.741000	476.272461	55.068615
13301.647713	3903.741000	475.013672	63.942703
13301.647713	3903.741000	473.754883	97.356224
13301.647713	3903.741000	472.496094	12.413146
13301.647713	3903.741000	471.236328	62.236317
13301.647713	3903.741000	469.976563	48.832180
13301.647713	3903.741000	468.716797	-54.275970
13301.647713	3903.741000	467.456055	-30.856441
13301.647713	3903.741000	466.196289	-3.327807
13301.647713	3903.741000	464.935547	-30.811012
13301.647713	3903.741000	463.673828	0.860696
13301.647713	3903.741000	462.413086	24.406609
13301.647713	3903.741000	461.151367	9.273685
13301.647713	3903.741000	459.889648	100.094711
13301.647713	3903.741000	458.626953	-112.496895
13301.647713	3903.741000	457.364258	49.636868
13301.647713	3903.741000	456.101563	18.368902
13301.647713	3903.741000	454.838867	-29.132526
13301.647713	3903.741000	453.575195	76.008087
13301.647713	3903.741000	452.312500	24.507721
13301.647713	3903.741000	451.047852	42.202805
13301.647713	3903.741000	449.784180	55.850861
13301.647713	3903.741000	448.519531	55.289940
13301.647713	3903.741000	447.254883	89.303871
13301.647713	3903.741000	445.990234	15.634741
13301.647713	3903.741000	444.725586	-39.698574
13301.647713	3903.741000	443.459961	34.998447
13301.647713	3903.741000	442.194336	-66.980431
13301.647713	3903.741000	440.927734	-112.054573
13301.647713	3903.741000	439.662109	-15.016267
13301.647713	3903.741000	438.395508	63.729603
13301.647713	3903.741000	437.127930	-1.594843
13301.647713	3903.741000	435.861328	20.337465
13301.647713	3903.741000	434.593750	11.847557
13301.647713	3903.741000	433.326172	11.475214
13301.647713	3903.741000	432.058594	7.050158
13301.647713	3903.741000	430.790039	63.425461
13301.647713	3903.741000	429.521484	152.191925
13301.647713	3903.741000	428.252930	3.900750
13301.647713	3903.741000	426.984375	90.601547
13301.647713	3903.741000	425.714844	35.513260
13301.647713	3903.741000	424.445313	-23.614410
13301.647713	3903.741000	423.174805	73.114525
13301.647713	3903.741000	421.905273	105.027824
13301.647713	3903.741000	420.634766	-20.898703
13301.647713	3903.741000	419.364258	77.720581
13301.647713	3903.741000	418.092773	-52.245125
13301.647713	3903.741000	416.822266	66.495117
13301.647713	3903.741000	415.550781	17.374128
13301.647713	3903.741000	414.278320	127.888832
13301.647713	3903.741000	413.006836	135.267059
13301.647713	3903.741000	411.734375	3.211673
13301.647713	3903.741000	410.461914	48.889076
13301.647713	3903.741000	409.188477	223.719833
13301.647713	3903.741000	407.916016	129.923859
13301.647713	3903.741000	406.642578	48.215511
13301.647713	3903.741000	405.368164	156.155441
13301.647713	3903.741000	404.094727	96.530441
13301.647713	3903.741000	402.820313	133.671432
13301.647713	3903.741000	401.545898	204.997345
13301.647713	3903.741000	400.270508	185.482300
13301.647713	3903.741000	398.996094	321.093292
13301.647713	3903.741000	397.720703	253.011932
13301.647713	3903.741000	396.444336	249.333130
13301.647713	3903.741000	395.168945	297.925873
13301.647713	3903.741000	393.892578	191.315140
13301.647713	3903.741000	392.616211	134.972260
13301.647713	3903.741000	391.339844	66.455322
13301.647713	3903.741000	390.062500	146.773972
13301.647713	3903.741000	388.785156	90.098160
13301.647713	3903.741000	387.507813	182.177490
13301.647713	3903.741000	386.229492	87.020912
13301.647713	3903.741000	384.951172	200.884720
13301.647713	3903.741000	383.672852	171.803284
13301.647713	3903.741000	382.394531	-0.137385
13301.647713	3903.741000	381.115234	199.592636
13301.647713	3903.741000	379.835938	155.957047
13301.647713	3903.741000	378.556641	-4.345234
13301.647713	3903.741000	377.277344	90.278564
13301.647713	3903.741000	375.997070	-20.133490
13301.647713	3903.741000	374.716797	-20.296413
13301.647713	3903.741000	373.435547	133.859467
13301.647713	3903.741000	372.155273	127.213295
13301.647713	3903.741000	370.874023	22.043509
13301.647713	3903.741000	369.591797	85.152931
13301.647713	3903.741000	368.310547	131.954468
13301.647713	3903.741000	367.028320	120.343224
13301.647713	3903.741000	365.746094	112.486588
13301.647713	3903.741000	364.463867	96.349876
13301.647713	3903.741000	363.180664	63.912136
13301.647713	3903.741000	361.897461	115.328651
13301.647713	3903.741000	360.614258	68.303017
13301.647713	3903.741000	359.330078	26.995235
13301.647713	3903.741000	358.045898	111.499199
13301.647713	3903.741000	356.761719	53.554138
13301.647713	3903.741000	355.477539	161.369812
13301.647713	3903.741000	354.192383	42.747093
13301.647713	3903.741000	352.907227	49.820190
13301.647713	3903.741000	351.622070	30.533672
13301.647713	3903.741000	350.336914	116.833405
13301.647713	3903.741000	349.050781	-19.144642
13301.647713	3903.741000	347.764648	22.381998
13301.647713	3903.741000	346.477539	-34.413616
13301.647713	3903.741000	345.191406	4.277647
13301.647713	3903.741000	343.904297	-65.317444
13301.647713	3903.741000	342.616211	-97.398216
13301.647713	3903.741000	341.329102	107.618279
13301.647713	3903.741000	340.041016	8.741872
13301.647713	3903.741000	338.752930	-80.592804
13301.647713	3903.741000	337.463867	-78.630531
13301.647713	3903.741000	336.175781	36.512962
13301.647713	3903.741000	334.886719	-94.162560
13301.647713	3903.741000	333.596680	141.467163
13301.647713	3903.741000	332.307617	-40.069332
13301.647713	3903.741000	331.017578	-90.585358
13301.647713	3903.741000	329.727539	-63.956673
13301.647713	3903.741000	328.436523	89.531441
13301.647713	3903.741000	327.146484	-110.081703
13301.647713	3903.741000	325.855469	165.568893
13301.647713	3903.741000	324.563477	-94.951912
13301.647713	3903.741000	323.272461	-93.315117
13301.647713	3903.741000	321.980469	36.965252
13301.647713	3903.741000	320.688477	82.975388
13301.647713	3903.741000	319.395508	110.362495
13301.647713	3903.741000	318.103516	158.919037
13301.647713	3903.741000	316.810547	-67.594734
13301.647713	3903.741000	315.516602	158.345108
13301.647713	3903.741000	314.223633	55.612125
13301.647713	3903.741000	312.929688	162.697876
13301.647713	3903.741000	311.635742	155.744675
13301.647713	3903.741000	310.340820	24.860325
13301.647713	3903.741000	309.045898	69.886955
13301.647713	3903.741000	307.750977	46.569778
13301.647713	3903.741000	306.456055	-33.158772
13301.647713	3903.741000	305.160156	21.146801
13301.647713	3903.741000	303.865234	58.685089
13301.647713	3903.741000	302.568359	45.666332
13301.647713	3903.741000	301.272461	-5.929566
13301.647713	3903.741000	299.975586	20.798424
13301.647713	3903.741000	298.678711	94.096298
