#X		#Y		#Wave		#Intensity
2929.725266	5611.869000	1999.980469	-165.202118
2929.725266	5611.869000	1999.016602	-35.529362
2929.725266	5611.869000	1998.052734	-222.656250
2929.725266	5611.869000	1997.087891	-58.312290
2929.725266	5611.869000	1996.123047	-35.748165
2929.725266	5611.869000	1995.158203	-1.285762
2929.725266	5611.869000	1994.193359	30.219172
2929.725266	5611.869000	1993.228516	88.495178
2929.725266	5611.869000	1992.262695	37.375946
2929.725266	5611.869000	1991.297852	-279.030609
2929.725266	5611.869000	1990.332031	60.115635
2929.725266	5611.869000	1989.366211	17.657894
2929.725266	5611.869000	1988.399414	2.033475
2929.725266	5611.869000	1987.433594	-18.929193
2929.725266	5611.869000	1986.466797	132.855515
2929.725266	5611.869000	1985.500977	165.522430
2929.725266	5611.869000	1984.534180	212.653854
2929.725266	5611.869000	1983.567383	160.548096
2929.725266	5611.869000	1982.599609	118.008865
2929.725266	5611.869000	1981.632813	52.912514
2929.725266	5611.869000	1980.665039	-27.301279
2929.725266	5611.869000	1979.697266	250.331619
2929.725266	5611.869000	1978.729492	11.450359
2929.725266	5611.869000	1977.761719	142.704666
2929.725266	5611.869000	1976.792969	189.696243
2929.725266	5611.869000	1975.825195	125.329132
2929.725266	5611.869000	1974.856445	258.123383
2929.725266	5611.869000	1973.887695	210.506454
2929.725266	5611.869000	1972.918945	172.520844
2929.725266	5611.869000	1971.949219	75.114822
2929.725266	5611.869000	1970.980469	88.465813
2929.725266	5611.869000	1970.010742	71.998260
2929.725266	5611.869000	1969.041016	193.344269
2929.725266	5611.869000	1968.071289	26.099331
2929.725266	5611.869000	1967.101563	119.883667
2929.725266	5611.869000	1966.130859	201.113586
2929.725266	5611.869000	1965.161133	90.007790
2929.725266	5611.869000	1964.190430	40.318882
2929.725266	5611.869000	1963.219727	182.510437
2929.725266	5611.869000	1962.249023	166.931961
2929.725266	5611.869000	1961.277344	249.636841
2929.725266	5611.869000	1960.306641	255.870300
2929.725266	5611.869000	1959.334961	151.234512
2929.725266	5611.869000	1958.363281	-98.639229
2929.725266	5611.869000	1957.391602	-53.442150
2929.725266	5611.869000	1956.419922	18.649525
2929.725266	5611.869000	1955.447266	78.288597
2929.725266	5611.869000	1954.474609	199.228958
2929.725266	5611.869000	1953.501953	49.678780
2929.725266	5611.869000	1952.529297	57.320683
2929.725266	5611.869000	1951.556641	84.503204
2929.725266	5611.869000	1950.583984	214.728561
2929.725266	5611.869000	1949.610352	-35.826996
2929.725266	5611.869000	1948.636719	103.996155
2929.725266	5611.869000	1947.663086	-50.894394
2929.725266	5611.869000	1946.689453	66.615379
2929.725266	5611.869000	1945.715820	80.938683
2929.725266	5611.869000	1944.741211	6.854294
2929.725266	5611.869000	1943.767578	6.317668
2929.725266	5611.869000	1942.792969	17.971016
2929.725266	5611.869000	1941.818359	12.391664
2929.725266	5611.869000	1940.842773	9.201428
2929.725266	5611.869000	1939.868164	-11.197898
2929.725266	5611.869000	1938.892578	-41.448730
2929.725266	5611.869000	1937.916992	63.022636
2929.725266	5611.869000	1936.941406	-48.167515
2929.725266	5611.869000	1935.965820	92.917297
2929.725266	5611.869000	1934.990234	-35.460876
2929.725266	5611.869000	1934.013672	-9.584121
2929.725266	5611.869000	1933.037109	40.728867
2929.725266	5611.869000	1932.060547	66.518631
2929.725266	5611.869000	1931.083984	94.718201
2929.725266	5611.869000	1930.107422	-4.338147
2929.725266	5611.869000	1929.129883	84.965302
2929.725266	5611.869000	1928.153320	-43.441265
2929.725266	5611.869000	1927.175781	9.121886
2929.725266	5611.869000	1926.198242	-9.246006
2929.725266	5611.869000	1925.219727	-5.626457
2929.725266	5611.869000	1924.242188	-97.321976
2929.725266	5611.869000	1923.263672	26.018570
2929.725266	5611.869000	1922.285156	-92.540092
2929.725266	5611.869000	1921.306641	67.379395
2929.725266	5611.869000	1920.328125	-21.846199
2929.725266	5611.869000	1919.349609	-150.103851
2929.725266	5611.869000	1918.370117	-97.678375
2929.725266	5611.869000	1917.391602	-55.027679
2929.725266	5611.869000	1916.412109	94.972656
2929.725266	5611.869000	1915.431641	-28.329826
2929.725266	5611.869000	1914.452148	-46.688240
2929.725266	5611.869000	1913.472656	69.101936
2929.725266	5611.869000	1912.492188	-71.173782
2929.725266	5611.869000	1911.511719	8.022478
2929.725266	5611.869000	1910.531250	-5.423102
2929.725266	5611.869000	1909.550781	71.316002
2929.725266	5611.869000	1908.569336	-161.405624
2929.725266	5611.869000	1907.588867	-38.356457
2929.725266	5611.869000	1906.607422	-51.738853
2929.725266	5611.869000	1905.625977	-113.806015
2929.725266	5611.869000	1904.644531	-27.318226
2929.725266	5611.869000	1903.662109	151.648636
2929.725266	5611.869000	1902.680664	-29.633898
2929.725266	5611.869000	1901.698242	-147.571045
2929.725266	5611.869000	1900.715820	75.155350
2929.725266	5611.869000	1899.733398	-45.158237
2929.725266	5611.869000	1898.750000	-82.729042
2929.725266	5611.869000	1897.767578	-18.141550
2929.725266	5611.869000	1896.784180	-150.483734
2929.725266	5611.869000	1895.800781	4.051393
2929.725266	5611.869000	1894.817383	49.186253
2929.725266	5611.869000	1893.833984	4.420563
2929.725266	5611.869000	1892.850586	-1.446213
2929.725266	5611.869000	1891.866211	-31.588686
2929.725266	5611.869000	1890.881836	28.142498
2929.725266	5611.869000	1889.897461	36.878654
2929.725266	5611.869000	1888.913086	166.995667
2929.725266	5611.869000	1887.927734	3.407617
2929.725266	5611.869000	1886.943359	51.004112
2929.725266	5611.869000	1885.958008	-46.975498
2929.725266	5611.869000	1884.972656	51.566456
2929.725266	5611.869000	1883.987305	-73.034950
2929.725266	5611.869000	1883.001953	105.507469
2929.725266	5611.869000	1882.015625	-103.895378
2929.725266	5611.869000	1881.029297	28.542873
2929.725266	5611.869000	1880.042969	-100.785751
2929.725266	5611.869000	1879.056641	9.804650
2929.725266	5611.869000	1878.070313	-119.464890
2929.725266	5611.869000	1877.083984	-122.741081
2929.725266	5611.869000	1876.096680	-65.481911
2929.725266	5611.869000	1875.109375	-97.824669
2929.725266	5611.869000	1874.122070	-52.697441
2929.725266	5611.869000	1873.134766	16.610826
2929.725266	5611.869000	1872.146484	-177.865372
2929.725266	5611.869000	1871.159180	-127.925369
2929.725266	5611.869000	1870.170898	-56.247379
2929.725266	5611.869000	1869.182617	-291.736023
2929.725266	5611.869000	1868.194336	-149.954834
2929.725266	5611.869000	1867.205078	-71.097115
2929.725266	5611.869000	1866.216797	77.812607
2929.725266	5611.869000	1865.227539	16.408346
2929.725266	5611.869000	1864.238281	27.491413
2929.725266	5611.869000	1863.249023	21.642109
2929.725266	5611.869000	1862.259766	90.643837
2929.725266	5611.869000	1861.269531	-40.828819
2929.725266	5611.869000	1860.279297	78.806648
2929.725266	5611.869000	1859.290039	22.165991
2929.725266	5611.869000	1858.298828	105.484352
2929.725266	5611.869000	1857.308594	34.318707
2929.725266	5611.869000	1856.318359	-130.937775
2929.725266	5611.869000	1855.327148	96.985832
2929.725266	5611.869000	1854.335938	225.913239
2929.725266	5611.869000	1853.344727	55.776997
2929.725266	5611.869000	1852.353516	44.767475
2929.725266	5611.869000	1851.362305	-115.712105
2929.725266	5611.869000	1850.370117	-100.270012
2929.725266	5611.869000	1849.377930	-41.514130
2929.725266	5611.869000	1848.385742	108.707733
2929.725266	5611.869000	1847.393555	30.024298
2929.725266	5611.869000	1846.401367	13.924642
2929.725266	5611.869000	1845.408203	77.216171
2929.725266	5611.869000	1844.415039	-107.496956
2929.725266	5611.869000	1843.421875	59.160023
2929.725266	5611.869000	1842.428711	66.887054
2929.725266	5611.869000	1841.435547	105.820580
2929.725266	5611.869000	1840.441406	-69.396431
2929.725266	5611.869000	1839.448242	19.912071
2929.725266	5611.869000	1838.454102	89.875954
2929.725266	5611.869000	1837.459961	231.855545
2929.725266	5611.869000	1836.464844	205.462265
2929.725266	5611.869000	1835.470703	58.857994
2929.725266	5611.869000	1834.475586	174.094849
2929.725266	5611.869000	1833.480469	164.299042
2929.725266	5611.869000	1832.485352	24.734861
2929.725266	5611.869000	1831.490234	70.024017
2929.725266	5611.869000	1830.495117	-156.072144
2929.725266	5611.869000	1829.499023	-74.951653
2929.725266	5611.869000	1828.502930	104.434944
2929.725266	5611.869000	1827.506836	22.128269
2929.725266	5611.869000	1826.510742	21.315435
2929.725266	5611.869000	1825.513672	63.565804
2929.725266	5611.869000	1824.517578	177.640762
2929.725266	5611.869000	1823.520508	90.167595
2929.725266	5611.869000	1822.523438	-30.941420
2929.725266	5611.869000	1821.526367	135.477402
2929.725266	5611.869000	1820.529297	74.083817
2929.725266	5611.869000	1819.531250	-8.972393
2929.725266	5611.869000	1818.533203	128.247849
2929.725266	5611.869000	1817.535156	112.026390
2929.725266	5611.869000	1816.537109	160.334518
2929.725266	5611.869000	1815.539063	76.833992
2929.725266	5611.869000	1814.540039	-4.378734
2929.725266	5611.869000	1813.541992	74.646729
2929.725266	5611.869000	1812.542969	115.219772
2929.725266	5611.869000	1811.543945	93.447311
2929.725266	5611.869000	1810.543945	-69.570763
2929.725266	5611.869000	1809.544922	-3.105676
2929.725266	5611.869000	1808.544922	120.560135
2929.725266	5611.869000	1807.544922	2.615192
2929.725266	5611.869000	1806.544922	11.227162
2929.725266	5611.869000	1805.544922	170.217041
2929.725266	5611.869000	1804.544922	-84.291435
2929.725266	5611.869000	1803.543945	-30.753010
2929.725266	5611.869000	1802.542969	-10.825093
2929.725266	5611.869000	1801.541992	56.686409
2929.725266	5611.869000	1800.541016	33.299816
2929.725266	5611.869000	1799.539063	-52.305428
2929.725266	5611.869000	1798.538086	117.291267
2929.725266	5611.869000	1797.536133	-73.607773
2929.725266	5611.869000	1796.534180	81.266838
2929.725266	5611.869000	1795.532227	-16.886826
2929.725266	5611.869000	1794.529297	104.176353
2929.725266	5611.869000	1793.527344	-18.137945
2929.725266	5611.869000	1792.524414	133.508163
2929.725266	5611.869000	1791.521484	-210.763489
2929.725266	5611.869000	1790.518555	-61.888504
2929.725266	5611.869000	1789.514648	12.886215
2929.725266	5611.869000	1788.511719	54.110764
2929.725266	5611.869000	1787.507813	16.535421
2929.725266	5611.869000	1786.503906	143.057404
2929.725266	5611.869000	1785.500000	36.061523
2929.725266	5611.869000	1784.496094	-18.732473
2929.725266	5611.869000	1783.491211	183.263489
2929.725266	5611.869000	1782.486328	94.743347
2929.725266	5611.869000	1781.481445	22.703300
2929.725266	5611.869000	1780.476563	90.793869
2929.725266	5611.869000	1779.471680	11.236893
2929.725266	5611.869000	1778.465820	-182.617737
2929.725266	5611.869000	1777.460938	-17.706749
2929.725266	5611.869000	1776.455078	-43.189083
2929.725266	5611.869000	1775.449219	249.488129
2929.725266	5611.869000	1774.442383	76.245377
2929.725266	5611.869000	1773.436523	64.360497
2929.725266	5611.869000	1772.429688	37.999226
2929.725266	5611.869000	1771.422852	-81.162598
2929.725266	5611.869000	1770.416016	188.767014
2929.725266	5611.869000	1769.409180	43.069702
2929.725266	5611.869000	1768.402344	-62.464050
2929.725266	5611.869000	1767.394531	244.567352
2929.725266	5611.869000	1766.386719	84.009903
2929.725266	5611.869000	1765.378906	48.962734
2929.725266	5611.869000	1764.371094	37.403931
2929.725266	5611.869000	1763.362305	-140.333054
2929.725266	5611.869000	1762.354492	13.576640
2929.725266	5611.869000	1761.345703	3.674166
2929.725266	5611.869000	1760.336914	21.965195
2929.725266	5611.869000	1759.328125	-80.791771
2929.725266	5611.869000	1758.318359	5.684953
2929.725266	5611.869000	1757.308594	89.517036
2929.725266	5611.869000	1756.299805	40.521408
2929.725266	5611.869000	1755.290039	-18.186142
2929.725266	5611.869000	1754.279297	-178.892578
2929.725266	5611.869000	1753.269531	55.341644
2929.725266	5611.869000	1752.258789	137.827316
2929.725266	5611.869000	1751.249023	208.223724
2929.725266	5611.869000	1750.238281	169.550735
2929.725266	5611.869000	1749.226563	69.151405
2929.725266	5611.869000	1748.215820	112.740265
2929.725266	5611.869000	1747.204102	120.586823
2929.725266	5611.869000	1746.193359	0.604871
2929.725266	5611.869000	1745.181641	147.331573
2929.725266	5611.869000	1744.168945	0.850382
2929.725266	5611.869000	1743.157227	80.883263
2929.725266	5611.869000	1742.144531	-56.607197
2929.725266	5611.869000	1741.132813	103.142044
2929.725266	5611.869000	1740.120117	104.419815
2929.725266	5611.869000	1739.106445	180.919083
2929.725266	5611.869000	1738.093750	-56.622864
2929.725266	5611.869000	1737.080078	97.186882
2929.725266	5611.869000	1736.067383	3.074936
2929.725266	5611.869000	1735.053711	21.886425
2929.725266	5611.869000	1734.040039	12.133999
2929.725266	5611.869000	1733.025391	-7.332599
2929.725266	5611.869000	1732.011719	-71.810028
2929.725266	5611.869000	1730.997070	49.569405
2929.725266	5611.869000	1729.982422	66.988426
2929.725266	5611.869000	1728.967773	-71.307152
2929.725266	5611.869000	1727.952148	-54.436424
2929.725266	5611.869000	1726.937500	122.268524
2929.725266	5611.869000	1725.921875	-56.810326
2929.725266	5611.869000	1724.906250	135.733826
2929.725266	5611.869000	1723.890625	-72.057121
2929.725266	5611.869000	1722.875000	54.004257
2929.725266	5611.869000	1721.858398	-123.685829
2929.725266	5611.869000	1720.841797	112.287415
2929.725266	5611.869000	1719.825195	108.088081
2929.725266	5611.869000	1718.808594	-86.782776
2929.725266	5611.869000	1717.791992	-91.488121
2929.725266	5611.869000	1716.774414	-42.449242
2929.725266	5611.869000	1715.756836	69.728607
2929.725266	5611.869000	1714.739258	-39.198490
2929.725266	5611.869000	1713.721680	102.919128
2929.725266	5611.869000	1712.704102	-86.347931
2929.725266	5611.869000	1711.685547	95.056503
2929.725266	5611.869000	1710.667969	17.975937
2929.725266	5611.869000	1709.649414	-66.416275
2929.725266	5611.869000	1708.630859	69.486580
2929.725266	5611.869000	1707.611328	-160.889099
2929.725266	5611.869000	1706.592773	-185.038467
2929.725266	5611.869000	1705.573242	139.891602
2929.725266	5611.869000	1704.553711	-25.537905
2929.725266	5611.869000	1703.534180	-13.040245
2929.725266	5611.869000	1702.513672	-209.412720
2929.725266	5611.869000	1701.494141	39.217384
2929.725266	5611.869000	1700.473633	-169.342041
2929.725266	5611.869000	1699.453125	-38.487587
2929.725266	5611.869000	1698.432617	-102.307335
2929.725266	5611.869000	1697.412109	-276.403961
2929.725266	5611.869000	1696.390625	-160.483276
2929.725266	5611.869000	1695.369141	34.696007
2929.725266	5611.869000	1694.347656	-278.207001
2929.725266	5611.869000	1693.326172	-11.088778
2929.725266	5611.869000	1692.304688	-92.836998
2929.725266	5611.869000	1691.282227	-20.510010
2929.725266	5611.869000	1690.260742	32.856541
2929.725266	5611.869000	1689.238281	-30.971472
2929.725266	5611.869000	1688.214844	87.227097
2929.725266	5611.869000	1687.192383	212.165192
2929.725266	5611.869000	1686.168945	262.002899
2929.725266	5611.869000	1685.146484	21.963923
2929.725266	5611.869000	1684.123047	195.078583
2929.725266	5611.869000	1683.099609	122.710510
2929.725266	5611.869000	1682.075195	92.100372
2929.725266	5611.869000	1681.051758	131.304901
2929.725266	5611.869000	1680.027344	256.548035
2929.725266	5611.869000	1679.002930	337.163208
2929.725266	5611.869000	1677.978516	340.523010
2929.725266	5611.869000	1676.953125	348.261719
2929.725266	5611.869000	1675.928711	190.235275
2929.725266	5611.869000	1674.903320	174.195877
2929.725266	5611.869000	1673.877930	332.733154
2929.725266	5611.869000	1672.852539	260.258881
2929.725266	5611.869000	1671.826172	385.579224
2929.725266	5611.869000	1670.800781	266.055511
2929.725266	5611.869000	1669.774414	327.966187
2929.725266	5611.869000	1668.748047	522.348389
2929.725266	5611.869000	1667.721680	376.512573
2929.725266	5611.869000	1666.694336	332.881165
2929.725266	5611.869000	1665.667969	633.506165
2929.725266	5611.869000	1664.640625	449.775574
2929.725266	5611.869000	1663.613281	593.902405
2929.725266	5611.869000	1662.585938	621.454163
2929.725266	5611.869000	1661.557617	781.282104
2929.725266	5611.869000	1660.530273	910.642517
2929.725266	5611.869000	1659.501953	672.414734
2929.725266	5611.869000	1658.473633	808.241699
2929.725266	5611.869000	1657.444336	971.642090
2929.725266	5611.869000	1656.416016	1420.561279
2929.725266	5611.869000	1655.386719	977.117493
2929.725266	5611.869000	1654.358398	1246.624023
2929.725266	5611.869000	1653.328125	1350.884155
2929.725266	5611.869000	1652.298828	1761.364746
2929.725266	5611.869000	1651.269531	1890.647583
2929.725266	5611.869000	1650.239258	1968.587280
2929.725266	5611.869000	1649.208984	2115.898926
2929.725266	5611.869000	1648.178711	2246.719971
2929.725266	5611.869000	1647.148438	2307.721436
2929.725266	5611.869000	1646.117188	2577.147949
2929.725266	5611.869000	1645.086914	2867.187500
2929.725266	5611.869000	1644.055664	2934.373779
2929.725266	5611.869000	1643.024414	2982.810547
2929.725266	5611.869000	1641.992188	3360.003906
2929.725266	5611.869000	1640.960938	3523.800049
2929.725266	5611.869000	1639.928711	3599.302002
2929.725266	5611.869000	1638.896484	3727.856445
2929.725266	5611.869000	1637.864258	4071.495605
2929.725266	5611.869000	1636.832031	4021.337402
2929.725266	5611.869000	1635.798828	4454.658203
2929.725266	5611.869000	1634.766602	4704.900879
2929.725266	5611.869000	1633.733398	4917.827637
2929.725266	5611.869000	1632.699219	5220.668457
2929.725266	5611.869000	1631.666016	5525.591797
2929.725266	5611.869000	1630.632813	5411.773438
2929.725266	5611.869000	1629.598633	5605.236816
2929.725266	5611.869000	1628.564453	5786.920410
2929.725266	5611.869000	1627.530273	6000.735352
2929.725266	5611.869000	1626.495117	5789.205078
2929.725266	5611.869000	1625.460938	6187.430176
2929.725266	5611.869000	1624.425781	6310.512695
2929.725266	5611.869000	1623.390625	7008.308594
2929.725266	5611.869000	1622.355469	6842.369629
2929.725266	5611.869000	1621.319336	6967.117188
2929.725266	5611.869000	1620.284180	7324.791504
2929.725266	5611.869000	1619.248047	7246.128906
2929.725266	5611.869000	1618.211914	7065.885254
2929.725266	5611.869000	1617.174805	7425.184082
2929.725266	5611.869000	1616.138672	7422.281250
2929.725266	5611.869000	1615.101563	7442.273926
2929.725266	5611.869000	1614.065430	7678.847168
2929.725266	5611.869000	1613.027344	7154.696777
2929.725266	5611.869000	1611.990234	7181.326172
2929.725266	5611.869000	1610.953125	7150.258301
2929.725266	5611.869000	1609.915039	7227.300781
2929.725266	5611.869000	1608.876953	6767.726563
2929.725266	5611.869000	1607.838867	6577.586914
2929.725266	5611.869000	1606.800781	6244.733887
2929.725266	5611.869000	1605.761719	6174.216309
2929.725266	5611.869000	1604.723633	6078.384277
2929.725266	5611.869000	1603.684570	6021.569824
2929.725266	5611.869000	1602.644531	5962.359375
2929.725266	5611.869000	1601.605469	6110.093750
2929.725266	5611.869000	1600.566406	5777.220215
2929.725266	5611.869000	1599.526367	5883.381836
2929.725266	5611.869000	1598.486328	5929.693359
2929.725266	5611.869000	1597.446289	6014.986816
2929.725266	5611.869000	1596.405273	6077.174316
2929.725266	5611.869000	1595.365234	6077.324219
2929.725266	5611.869000	1594.324219	6217.451660
2929.725266	5611.869000	1593.283203	6081.982422
2929.725266	5611.869000	1592.242188	6384.939941
2929.725266	5611.869000	1591.200195	6279.201172
2929.725266	5611.869000	1590.159180	6414.436035
2929.725266	5611.869000	1589.117188	6379.782227
2929.725266	5611.869000	1588.075195	6202.915039
2929.725266	5611.869000	1587.032227	6551.169922
2929.725266	5611.869000	1585.990234	6663.173828
2929.725266	5611.869000	1584.947266	6786.530273
2929.725266	5611.869000	1583.904297	7010.663086
2929.725266	5611.869000	1582.861328	7124.714355
2929.725266	5611.869000	1581.818359	7121.883301
2929.725266	5611.869000	1580.775391	6890.005859
2929.725266	5611.869000	1579.731445	6983.351074
2929.725266	5611.869000	1578.687500	6705.758789
2929.725266	5611.869000	1577.643555	6648.038086
2929.725266	5611.869000	1576.598633	6686.426270
2929.725266	5611.869000	1575.554688	6903.341309
2929.725266	5611.869000	1574.509766	6779.269043
2929.725266	5611.869000	1573.464844	6671.280273
2929.725266	5611.869000	1572.419922	7171.661621
2929.725266	5611.869000	1571.374023	7408.895020
2929.725266	5611.869000	1570.329102	7787.842285
2929.725266	5611.869000	1569.283203	7554.117188
2929.725266	5611.869000	1568.237305	7601.587402
2929.725266	5611.869000	1567.191406	7774.735352
2929.725266	5611.869000	1566.144531	7454.438477
2929.725266	5611.869000	1565.098633	7205.160645
2929.725266	5611.869000	1564.051758	6853.240723
2929.725266	5611.869000	1563.004883	6579.135254
2929.725266	5611.869000	1561.957031	6099.741211
2929.725266	5611.869000	1560.910156	6013.135742
2929.725266	5611.869000	1559.862305	5404.133301
2929.725266	5611.869000	1558.814453	5142.157715
2929.725266	5611.869000	1557.766602	5135.786621
2929.725266	5611.869000	1556.718750	4436.341309
2929.725266	5611.869000	1555.669922	4396.036133
2929.725266	5611.869000	1554.621094	4182.611328
2929.725266	5611.869000	1553.573242	3926.113037
2929.725266	5611.869000	1552.523438	3795.028076
2929.725266	5611.869000	1551.474609	3853.203125
2929.725266	5611.869000	1550.424805	3720.108398
2929.725266	5611.869000	1549.375000	3359.472900
2929.725266	5611.869000	1548.325195	3272.275146
2929.725266	5611.869000	1547.275391	3267.165283
2929.725266	5611.869000	1546.225586	3360.025146
2929.725266	5611.869000	1545.174805	3175.352783
2929.725266	5611.869000	1544.124023	3266.120605
2929.725266	5611.869000	1543.073242	3031.756104
2929.725266	5611.869000	1542.022461	3111.409180
2929.725266	5611.869000	1540.970703	3102.456787
2929.725266	5611.869000	1539.919922	2839.122559
2929.725266	5611.869000	1538.868164	2623.711426
2929.725266	5611.869000	1537.815430	2917.428955
2929.725266	5611.869000	1536.763672	2843.221924
2929.725266	5611.869000	1535.710938	2353.533447
2929.725266	5611.869000	1534.659180	2268.425293
2929.725266	5611.869000	1533.606445	2269.739258
2929.725266	5611.869000	1532.552734	2164.489014
2929.725266	5611.869000	1531.500000	2343.165039
2929.725266	5611.869000	1530.446289	2186.096680
2929.725266	5611.869000	1529.393555	2079.216797
2929.725266	5611.869000	1528.338867	2072.262451
2929.725266	5611.869000	1527.285156	2287.759033
2929.725266	5611.869000	1526.231445	2224.499512
2929.725266	5611.869000	1525.176758	2224.878906
2929.725266	5611.869000	1524.122070	2626.572021
2929.725266	5611.869000	1523.067383	2980.722168
2929.725266	5611.869000	1522.012695	3042.702393
2929.725266	5611.869000	1520.957031	3050.462891
2929.725266	5611.869000	1519.901367	3223.729980
2929.725266	5611.869000	1518.845703	3324.690674
2929.725266	5611.869000	1517.790039	3692.922607
2929.725266	5611.869000	1516.734375	3407.188477
2929.725266	5611.869000	1515.677734	3350.275635
2929.725266	5611.869000	1514.621094	3635.200928
2929.725266	5611.869000	1513.564453	3329.921875
2929.725266	5611.869000	1512.507813	2957.155273
2929.725266	5611.869000	1511.450195	2919.337158
2929.725266	5611.869000	1510.393555	3062.641357
2929.725266	5611.869000	1509.335938	3438.865723
2929.725266	5611.869000	1508.278320	3053.728516
2929.725266	5611.869000	1507.219727	2833.862549
2929.725266	5611.869000	1506.162109	2598.562256
2929.725266	5611.869000	1505.103516	2390.668457
2929.725266	5611.869000	1504.044922	2693.357422
2929.725266	5611.869000	1502.986328	2328.032471
2929.725266	5611.869000	1501.926758	1922.456421
2929.725266	5611.869000	1500.868164	2097.231689
2929.725266	5611.869000	1499.808594	1927.012573
2929.725266	5611.869000	1498.749023	1847.354126
2929.725266	5611.869000	1497.688477	1894.247070
2929.725266	5611.869000	1496.628906	1688.920410
2929.725266	5611.869000	1495.568359	1596.629883
2929.725266	5611.869000	1494.507813	1592.554688
2929.725266	5611.869000	1493.447266	1255.285767
2929.725266	5611.869000	1492.386719	1517.686890
2929.725266	5611.869000	1491.325195	1435.633179
2929.725266	5611.869000	1490.263672	1284.101440
2929.725266	5611.869000	1489.202148	1315.295532
2929.725266	5611.869000	1488.140625	1652.915527
2929.725266	5611.869000	1487.079102	1052.223755
2929.725266	5611.869000	1486.016602	769.311279
2929.725266	5611.869000	1484.954102	1334.946411
2929.725266	5611.869000	1483.891602	1165.176758
2929.725266	5611.869000	1482.829102	1094.744995
2929.725266	5611.869000	1481.765625	1233.733643
2929.725266	5611.869000	1480.702148	1040.339233
2929.725266	5611.869000	1479.638672	773.189514
2929.725266	5611.869000	1478.575195	1355.876587
2929.725266	5611.869000	1477.511719	1199.635376
2929.725266	5611.869000	1476.447266	1573.754761
2929.725266	5611.869000	1475.382813	1068.105713
2929.725266	5611.869000	1474.318359	578.788086
2929.725266	5611.869000	1473.253906	925.001465
2929.725266	5611.869000	1472.189453	392.109558
2929.725266	5611.869000	1471.124023	23.576582
2929.725266	5611.869000	1470.058594	220.505981
2929.725266	5611.869000	1468.993164	227.245651
2929.725266	5611.869000	1467.927734	198.491150
2929.725266	5611.869000	1466.861328	64.758759
2929.725266	5611.869000	1465.794922	-3.298772
2929.725266	5611.869000	1464.728516	132.933945
2929.725266	5611.869000	1463.662109	636.341797
2929.725266	5611.869000	1462.594727	739.397339
2929.725266	5611.869000	1461.528320	534.741943
2929.725266	5611.869000	1460.460938	902.403076
2929.725266	5611.869000	1459.393555	1154.216797
2929.725266	5611.869000	1458.326172	1684.722046
2929.725266	5611.869000	1457.257813	2063.643066
2929.725266	5611.869000	1456.189453	2437.035645
2929.725266	5611.869000	1455.121094	2903.106445
2929.725266	5611.869000	1454.052734	3365.595703
2929.725266	5611.869000	1452.984375	3345.433105
2929.725266	5611.869000	1451.915039	3894.596191
2929.725266	5611.869000	1450.845703	4033.718506
2929.725266	5611.869000	1449.776367	4427.593262
2929.725266	5611.869000	1448.707031	4983.569336
2929.725266	5611.869000	1447.636719	5748.030762
2929.725266	5611.869000	1446.567383	6286.396973
2929.725266	5611.869000	1445.497070	6467.353027
2929.725266	5611.869000	1444.425781	6619.689941
2929.725266	5611.869000	1443.355469	6816.855469
2929.725266	5611.869000	1442.285156	6414.262695
2929.725266	5611.869000	1441.213867	5305.032715
2929.725266	5611.869000	1440.142578	4430.895996
2929.725266	5611.869000	1439.070313	3721.789795
2929.725266	5611.869000	1437.999023	3421.369629
2929.725266	5611.869000	1436.926758	2638.758789
2929.725266	5611.869000	1435.854492	2406.428955
2929.725266	5611.869000	1434.782227	2105.545410
2929.725266	5611.869000	1433.709961	2047.730225
2929.725266	5611.869000	1432.636719	2360.862305
2929.725266	5611.869000	1431.563477	2066.456543
2929.725266	5611.869000	1430.490234	1975.599976
2929.725266	5611.869000	1429.416992	2166.524170
2929.725266	5611.869000	1428.343750	2081.077637
2929.725266	5611.869000	1427.269531	2380.943359
2929.725266	5611.869000	1426.195313	2254.082031
2929.725266	5611.869000	1425.121094	2557.253906
2929.725266	5611.869000	1424.046875	2707.975586
2929.725266	5611.869000	1422.971680	2710.390381
2929.725266	5611.869000	1421.896484	3054.205322
2929.725266	5611.869000	1420.821289	3233.463623
2929.725266	5611.869000	1419.746094	3488.888916
2929.725266	5611.869000	1418.669922	3615.936768
2929.725266	5611.869000	1417.594727	3651.788086
2929.725266	5611.869000	1416.518555	4007.781738
2929.725266	5611.869000	1415.442383	3997.607422
2929.725266	5611.869000	1414.365234	3811.963135
2929.725266	5611.869000	1413.289063	3388.043457
2929.725266	5611.869000	1412.211914	3348.790039
2929.725266	5611.869000	1411.134766	3003.650879
2929.725266	5611.869000	1410.057617	3036.341553
2929.725266	5611.869000	1408.979492	2881.193604
2929.725266	5611.869000	1407.902344	2251.472656
2929.725266	5611.869000	1406.824219	2519.761963
2929.725266	5611.869000	1405.746094	2535.445801
2929.725266	5611.869000	1404.666992	2657.964355
2929.725266	5611.869000	1403.588867	2790.480225
2929.725266	5611.869000	1402.509766	2557.306641
2929.725266	5611.869000	1401.430664	2704.790527
2929.725266	5611.869000	1400.351563	3026.199219
2929.725266	5611.869000	1399.271484	3271.903320
2929.725266	5611.869000	1398.192383	2976.234619
2929.725266	5611.869000	1397.112305	3210.051514
2929.725266	5611.869000	1396.031250	3334.165527
2929.725266	5611.869000	1394.951172	3695.345459
2929.725266	5611.869000	1393.871094	4172.875000
2929.725266	5611.869000	1392.790039	4260.932617
2929.725266	5611.869000	1391.708984	4142.263672
2929.725266	5611.869000	1390.626953	4300.250977
2929.725266	5611.869000	1389.545898	4552.020996
2929.725266	5611.869000	1388.463867	4974.311035
2929.725266	5611.869000	1387.381836	5122.272461
2929.725266	5611.869000	1386.299805	5243.125488
2929.725266	5611.869000	1385.217773	5309.432129
2929.725266	5611.869000	1384.134766	5692.248047
2929.725266	5611.869000	1383.051758	6022.626465
2929.725266	5611.869000	1381.968750	5843.956055
2929.725266	5611.869000	1380.885742	5994.712891
2929.725266	5611.869000	1379.802734	6470.854492
2929.725266	5611.869000	1378.718750	7291.548340
2929.725266	5611.869000	1377.634766	8106.306641
2929.725266	5611.869000	1376.550781	9038.257813
2929.725266	5611.869000	1375.465820	9689.226563
2929.725266	5611.869000	1374.381836	10279.835938
2929.725266	5611.869000	1373.296875	11012.427734
2929.725266	5611.869000	1372.211914	11692.729492
2929.725266	5611.869000	1371.126953	11842.111328
2929.725266	5611.869000	1370.041016	12032.872070
2929.725266	5611.869000	1368.955078	11900.658203
2929.725266	5611.869000	1367.869141	11832.848633
2929.725266	5611.869000	1366.783203	11999.027344
2929.725266	5611.869000	1365.697266	11942.311523
2929.725266	5611.869000	1364.610352	11283.052734
2929.725266	5611.869000	1363.523438	10845.296875
2929.725266	5611.869000	1362.436523	10220.853516
2929.725266	5611.869000	1361.349609	9815.765625
2929.725266	5611.869000	1360.261719	9117.230469
2929.725266	5611.869000	1359.174805	8283.903320
2929.725266	5611.869000	1358.086914	7755.998047
2929.725266	5611.869000	1356.998047	6938.362305
2929.725266	5611.869000	1355.910156	6904.070801
2929.725266	5611.869000	1354.821289	6421.868652
2929.725266	5611.869000	1353.732422	5965.589355
2929.725266	5611.869000	1352.643555	5723.313965
2929.725266	5611.869000	1351.554688	5494.907227
2929.725266	5611.869000	1350.464844	5523.180176
2929.725266	5611.869000	1349.375000	5748.599121
2929.725266	5611.869000	1348.285156	5351.859863
2929.725266	5611.869000	1347.195313	5242.643555
2929.725266	5611.869000	1346.105469	5660.242676
2929.725266	5611.869000	1345.014648	6241.187012
2929.725266	5611.869000	1343.923828	6558.361328
2929.725266	5611.869000	1342.833008	7293.609375
2929.725266	5611.869000	1341.741211	7989.580566
2929.725266	5611.869000	1340.650391	8288.586914
2929.725266	5611.869000	1339.558594	8633.427734
2929.725266	5611.869000	1338.466797	9449.689453
2929.725266	5611.869000	1337.374023	9702.760742
2929.725266	5611.869000	1336.282227	9810.102539
2929.725266	5611.869000	1335.189453	10137.101563
2929.725266	5611.869000	1334.096680	10115.650391
2929.725266	5611.869000	1333.003906	10770.129883
2929.725266	5611.869000	1331.910156	11032.858398
2929.725266	5611.869000	1330.817383	11290.349609
2929.725266	5611.869000	1329.723633	11684.921875
2929.725266	5611.869000	1328.629883	11876.504883
2929.725266	5611.869000	1327.535156	12292.836914
2929.725266	5611.869000	1326.441406	12383.815430
2929.725266	5611.869000	1325.346680	11995.299805
2929.725266	5611.869000	1324.251953	11153.250977
2929.725266	5611.869000	1323.156250	10375.855469
2929.725266	5611.869000	1322.061523	9034.533203
2929.725266	5611.869000	1320.965820	8291.228516
2929.725266	5611.869000	1319.870117	7511.705566
2929.725266	5611.869000	1318.774414	6660.939453
2929.725266	5611.869000	1317.678711	6001.669434
2929.725266	5611.869000	1316.582031	5437.534180
2929.725266	5611.869000	1315.485352	4917.701172
2929.725266	5611.869000	1314.388672	4751.208984
2929.725266	5611.869000	1313.291016	4086.605225
2929.725266	5611.869000	1312.194336	3931.065918
2929.725266	5611.869000	1311.096680	3800.998535
2929.725266	5611.869000	1309.999023	3775.788818
2929.725266	5611.869000	1308.901367	3841.983398
2929.725266	5611.869000	1307.802734	4114.941895
2929.725266	5611.869000	1306.705078	4174.866699
2929.725266	5611.869000	1305.606445	4092.732178
2929.725266	5611.869000	1304.506836	4368.096680
2929.725266	5611.869000	1303.408203	4927.258789
2929.725266	5611.869000	1302.308594	5351.239258
2929.725266	5611.869000	1301.208984	5890.837402
2929.725266	5611.869000	1300.109375	6468.500488
2929.725266	5611.869000	1299.009766	6581.539063
2929.725266	5611.869000	1297.909180	6946.587402
2929.725266	5611.869000	1296.808594	7540.324707
2929.725266	5611.869000	1295.708008	7597.708984
2929.725266	5611.869000	1294.607422	7850.500977
2929.725266	5611.869000	1293.506836	8087.039063
2929.725266	5611.869000	1292.405273	7951.786621
2929.725266	5611.869000	1291.303711	8055.132324
2929.725266	5611.869000	1290.202148	7942.326660
2929.725266	5611.869000	1289.099609	7655.400391
2929.725266	5611.869000	1287.998047	7114.299316
2929.725266	5611.869000	1286.895508	7081.399414
2929.725266	5611.869000	1285.792969	6795.452148
2929.725266	5611.869000	1284.689453	6267.952637
2929.725266	5611.869000	1283.586914	6095.044434
2929.725266	5611.869000	1282.483398	5820.884766
2929.725266	5611.869000	1281.379883	5194.793457
2929.725266	5611.869000	1280.276367	5041.521973
2929.725266	5611.869000	1279.171875	4850.955078
2929.725266	5611.869000	1278.067383	4610.005859
2929.725266	5611.869000	1276.962891	4737.364258
2929.725266	5611.869000	1275.858398	4439.539063
2929.725266	5611.869000	1274.753906	4420.430664
2929.725266	5611.869000	1273.648438	4475.258301
2929.725266	5611.869000	1272.542969	4290.778809
2929.725266	5611.869000	1271.437500	4280.487793
2929.725266	5611.869000	1270.331055	4023.312500
2929.725266	5611.869000	1269.225586	3913.197021
2929.725266	5611.869000	1268.119141	3599.240234
2929.725266	5611.869000	1267.012695	3316.407227
2929.725266	5611.869000	1265.906250	3339.094482
2929.725266	5611.869000	1264.798828	3138.765137
2929.725266	5611.869000	1263.691406	3000.561035
2929.725266	5611.869000	1262.583984	3069.269531
2929.725266	5611.869000	1261.476563	3096.016357
2929.725266	5611.869000	1260.368164	3097.520264
2929.725266	5611.869000	1259.260742	3097.096680
2929.725266	5611.869000	1258.152344	3041.267090
2929.725266	5611.869000	1257.043945	3111.139648
2929.725266	5611.869000	1255.934570	3042.873535
2929.725266	5611.869000	1254.825195	2968.409912
2929.725266	5611.869000	1253.716797	3115.976318
2929.725266	5611.869000	1252.606445	3274.506592
2929.725266	5611.869000	1251.497070	3356.300049
2929.725266	5611.869000	1250.387695	3504.543701
2929.725266	5611.869000	1249.277344	3705.946777
2929.725266	5611.869000	1248.166992	3958.989990
2929.725266	5611.869000	1247.055664	4045.422363
2929.725266	5611.869000	1245.945313	4372.448730
2929.725266	5611.869000	1244.833984	4908.499512
2929.725266	5611.869000	1243.722656	4920.631348
2929.725266	5611.869000	1242.611328	5056.106445
2929.725266	5611.869000	1241.499023	5282.708496
2929.725266	5611.869000	1240.387695	5424.390137
2929.725266	5611.869000	1239.275391	5366.789063
2929.725266	5611.869000	1238.162109	4969.693848
2929.725266	5611.869000	1237.049805	4811.143066
2929.725266	5611.869000	1235.936523	4393.350586
2929.725266	5611.869000	1234.823242	4079.250488
2929.725266	5611.869000	1233.709961	3671.599121
2929.725266	5611.869000	1232.596680	3480.189697
2929.725266	5611.869000	1231.482422	3197.953613
2929.725266	5611.869000	1230.369141	2680.186523
2929.725266	5611.869000	1229.253906	2497.800537
2929.725266	5611.869000	1228.139648	2215.081299
2929.725266	5611.869000	1227.025391	2212.153809
2929.725266	5611.869000	1225.910156	1899.344727
2929.725266	5611.869000	1224.794922	1896.454834
2929.725266	5611.869000	1223.679688	1974.550659
2929.725266	5611.869000	1222.563477	1768.424072
2929.725266	5611.869000	1221.447266	1906.295532
2929.725266	5611.869000	1220.331055	1847.526489
2929.725266	5611.869000	1219.214844	1809.964722
2929.725266	5611.869000	1218.098633	2005.610596
2929.725266	5611.869000	1216.981445	2033.595825
2929.725266	5611.869000	1215.864258	2127.435547
2929.725266	5611.869000	1214.747070	2266.266846
2929.725266	5611.869000	1213.629883	1980.765381
2929.725266	5611.869000	1212.511719	1818.215820
2929.725266	5611.869000	1211.393555	1666.494263
2929.725266	5611.869000	1210.275391	1559.247437
2929.725266	5611.869000	1209.157227	1415.223633
2929.725266	5611.869000	1208.038086	1352.006226
2929.725266	5611.869000	1206.918945	1249.465454
2929.725266	5611.869000	1205.799805	1334.367188
2929.725266	5611.869000	1204.680664	1341.578735
2929.725266	5611.869000	1203.560547	1467.859619
2929.725266	5611.869000	1202.441406	1502.240479
2929.725266	5611.869000	1201.321289	1684.691162
2929.725266	5611.869000	1200.200195	1896.272705
2929.725266	5611.869000	1199.080078	1498.566284
2929.725266	5611.869000	1197.958984	1653.869995
2929.725266	5611.869000	1196.837891	1855.632080
2929.725266	5611.869000	1195.716797	1760.108521
2929.725266	5611.869000	1194.594727	1826.553101
2929.725266	5611.869000	1193.473633	1775.432007
2929.725266	5611.869000	1192.351563	1914.867676
2929.725266	5611.869000	1191.229492	1887.591187
2929.725266	5611.869000	1190.106445	2193.657227
2929.725266	5611.869000	1188.984375	2113.897461
2929.725266	5611.869000	1187.861328	2306.695557
2929.725266	5611.869000	1186.738281	2458.759521
2929.725266	5611.869000	1185.614258	2550.620605
2929.725266	5611.869000	1184.491211	2516.807861
2929.725266	5611.869000	1183.367188	2413.857422
2929.725266	5611.869000	1182.243164	2142.086426
2929.725266	5611.869000	1181.119141	2006.671753
2929.725266	5611.869000	1179.994141	2059.885986
2929.725266	5611.869000	1178.869141	1790.484375
2929.725266	5611.869000	1177.744141	1896.887573
2929.725266	5611.869000	1176.619141	2104.381104
2929.725266	5611.869000	1175.493164	2474.231689
2929.725266	5611.869000	1174.368164	2594.764893
2929.725266	5611.869000	1173.242188	2301.720703
2929.725266	5611.869000	1172.115234	2445.568604
2929.725266	5611.869000	1170.989258	2411.471680
2929.725266	5611.869000	1169.862305	2574.328369
2929.725266	5611.869000	1168.735352	2744.304688
2929.725266	5611.869000	1167.608398	2691.155273
2929.725266	5611.869000	1166.481445	2658.206543
2929.725266	5611.869000	1165.353516	2622.034180
2929.725266	5611.869000	1164.225586	2731.083496
2929.725266	5611.869000	1163.097656	2716.806641
2929.725266	5611.869000	1161.968750	3185.012695
2929.725266	5611.869000	1160.840820	3396.187012
2929.725266	5611.869000	1159.711914	3505.624756
2929.725266	5611.869000	1158.583008	3110.684814
2929.725266	5611.869000	1157.453125	2705.894287
2929.725266	5611.869000	1156.324219	2129.134277
2929.725266	5611.869000	1155.194336	1688.548828
2929.725266	5611.869000	1154.064453	1504.159912
2929.725266	5611.869000	1152.933594	1347.979370
2929.725266	5611.869000	1151.803711	1149.376953
2929.725266	5611.869000	1150.672852	1258.410400
2929.725266	5611.869000	1149.541992	1218.454468
2929.725266	5611.869000	1148.411133	1296.107056
2929.725266	5611.869000	1147.279297	1073.917358
2929.725266	5611.869000	1146.147461	1073.656494
2929.725266	5611.869000	1145.015625	848.299866
2929.725266	5611.869000	1143.883789	682.976685
2929.725266	5611.869000	1142.750977	710.356018
2929.725266	5611.869000	1141.619141	697.683105
2929.725266	5611.869000	1140.486328	727.387695
2929.725266	5611.869000	1139.352539	447.752716
2929.725266	5611.869000	1138.219727	662.914063
2929.725266	5611.869000	1137.085938	570.145325
2929.725266	5611.869000	1135.952148	633.749146
2929.725266	5611.869000	1134.818359	565.527527
2929.725266	5611.869000	1133.683594	488.871338
2929.725266	5611.869000	1132.549805	364.866180
2929.725266	5611.869000	1131.415039	326.146698
2929.725266	5611.869000	1130.279297	318.354492
2929.725266	5611.869000	1129.144531	391.697327
2929.725266	5611.869000	1128.008789	363.369476
2929.725266	5611.869000	1126.873047	375.992310
2929.725266	5611.869000	1125.737305	152.637726
2929.725266	5611.869000	1124.601563	47.221340
2929.725266	5611.869000	1123.464844	77.822205
2929.725266	5611.869000	1122.328125	-35.225639
2929.725266	5611.869000	1121.191406	-4.241803
2929.725266	5611.869000	1120.054688	-148.532196
2929.725266	5611.869000	1118.916992	-13.984177
2929.725266	5611.869000	1117.779297	213.141403
2929.725266	5611.869000	1116.641602	89.569969
2929.725266	5611.869000	1115.503906	5.151016
2929.725266	5611.869000	1114.365234	99.948715
2929.725266	5611.869000	1113.226563	363.603455
2929.725266	5611.869000	1112.087891	494.247040
2929.725266	5611.869000	1110.949219	553.234009
2929.725266	5611.869000	1109.809570	834.938354
2929.725266	5611.869000	1108.669922	915.854004
2929.725266	5611.869000	1107.530273	1029.571777
2929.725266	5611.869000	1106.390625	753.659180
2929.725266	5611.869000	1105.250000	647.148926
2929.725266	5611.869000	1104.109375	636.224121
2929.725266	5611.869000	1102.968750	381.027618
2929.725266	5611.869000	1101.828125	419.231537
2929.725266	5611.869000	1100.686523	309.297485
2929.725266	5611.869000	1099.544922	315.976013
2929.725266	5611.869000	1098.403320	208.938385
2929.725266	5611.869000	1097.261719	239.998474
2929.725266	5611.869000	1096.120117	262.343231
2929.725266	5611.869000	1094.977539	293.623840
2929.725266	5611.869000	1093.834961	400.407471
2929.725266	5611.869000	1092.691406	414.169128
2929.725266	5611.869000	1091.548828	389.915314
2929.725266	5611.869000	1090.405273	478.183228
2929.725266	5611.869000	1089.261719	532.653381
2929.725266	5611.869000	1088.118164	537.107666
2929.725266	5611.869000	1086.973633	590.565186
2929.725266	5611.869000	1085.829102	598.316406
2929.725266	5611.869000	1084.684570	609.517517
2929.725266	5611.869000	1083.540039	547.725891
2929.725266	5611.869000	1082.395508	512.886780
2929.725266	5611.869000	1081.250000	474.621735
2929.725266	5611.869000	1080.104492	425.917999
2929.725266	5611.869000	1078.958984	251.868286
2929.725266	5611.869000	1077.812500	239.719635
2929.725266	5611.869000	1076.666016	168.014709
2929.725266	5611.869000	1075.519531	233.068039
2929.725266	5611.869000	1074.373047	111.208862
2929.725266	5611.869000	1073.226563	277.216644
2929.725266	5611.869000	1072.079102	333.321808
2929.725266	5611.869000	1070.931641	151.040009
2929.725266	5611.869000	1069.784180	103.413513
2929.725266	5611.869000	1068.635742	236.567673
2929.725266	5611.869000	1067.487305	526.441772
2929.725266	5611.869000	1066.338867	304.512787
2929.725266	5611.869000	1065.190430	194.531113
2929.725266	5611.869000	1064.041992	82.906410
2929.725266	5611.869000	1062.892578	200.453445
2929.725266	5611.869000	1061.743164	149.181244
2929.725266	5611.869000	1060.593750	162.969284
2929.725266	5611.869000	1059.443359	46.933475
2929.725266	5611.869000	1058.292969	20.388363
2929.725266	5611.869000	1057.142578	73.411774
2929.725266	5611.869000	1055.992188	-125.992653
2929.725266	5611.869000	1054.841797	-290.113220
2929.725266	5611.869000	1053.690430	-103.385818
2929.725266	5611.869000	1052.539063	-102.476944
2929.725266	5611.869000	1051.387695	-79.568359
2929.725266	5611.869000	1050.235352	-116.790871
2929.725266	5611.869000	1049.083984	-153.932144
2929.725266	5611.869000	1047.931641	-283.809540
2929.725266	5611.869000	1046.778320	-163.279221
2929.725266	5611.869000	1045.625977	-70.054070
2929.725266	5611.869000	1044.472656	-160.013306
2929.725266	5611.869000	1043.319336	-142.234344
2929.725266	5611.869000	1042.166016	7.153097
2929.725266	5611.869000	1041.012695	-66.228699
2929.725266	5611.869000	1039.858398	191.869461
2929.725266	5611.869000	1038.704102	12.272654
2929.725266	5611.869000	1037.549805	-196.447540
2929.725266	5611.869000	1036.394531	-0.196808
2929.725266	5611.869000	1035.239258	118.009903
2929.725266	5611.869000	1034.083984	40.910313
2929.725266	5611.869000	1032.928711	105.087891
2929.725266	5611.869000	1031.773438	99.004059
2929.725266	5611.869000	1030.617188	-7.036955
2929.725266	5611.869000	1029.460938	41.575291
2929.725266	5611.869000	1028.304688	104.925369
2929.725266	5611.869000	1027.147461	85.643089
2929.725266	5611.869000	1025.991211	94.691231
2929.725266	5611.869000	1024.833984	170.084457
2929.725266	5611.869000	1023.675781	290.303253
2929.725266	5611.869000	1022.518555	-39.807209
2929.725266	5611.869000	1021.360352	57.830875
2929.725266	5611.869000	1020.202148	3.373074
2929.725266	5611.869000	1019.043945	199.611267
2929.725266	5611.869000	1017.884766	74.945137
2929.725266	5611.869000	1016.726563	76.958664
2929.725266	5611.869000	1015.567383	193.670868
2929.725266	5611.869000	1014.407227	222.579132
2929.725266	5611.869000	1013.248047	309.382172
2929.725266	5611.869000	1012.087891	183.690506
2929.725266	5611.869000	1010.927734	168.692093
2929.725266	5611.869000	1009.767578	408.075562
2929.725266	5611.869000	1008.606445	402.581787
2929.725266	5611.869000	1007.446289	514.712708
2929.725266	5611.869000	1006.285156	689.084595
2929.725266	5611.869000	1005.123047	785.450012
2929.725266	5611.869000	1003.961914	725.143250
2929.725266	5611.869000	1002.799805	933.242249
2929.725266	5611.869000	1001.637695	909.582581
2929.725266	5611.869000	1000.475586	1066.965332
2929.725266	5611.869000	999.312500	739.040039
2929.725266	5611.869000	998.149414	915.039551
2929.725266	5611.869000	996.986328	978.442749
2929.725266	5611.869000	995.823242	644.648560
2929.725266	5611.869000	994.659180	473.176025
2929.725266	5611.869000	993.496094	279.778656
2929.725266	5611.869000	992.332031	311.337433
2929.725266	5611.869000	991.166992	142.574997
2929.725266	5611.869000	990.002930	233.835114
2929.725266	5611.869000	988.837891	121.188988
2929.725266	5611.869000	987.672852	171.111725
2929.725266	5611.869000	986.506836	187.259705
2929.725266	5611.869000	985.341797	97.784081
2929.725266	5611.869000	984.175781	200.668625
2929.725266	5611.869000	983.009766	189.565125
2929.725266	5611.869000	981.843750	168.217575
2929.725266	5611.869000	980.676758	219.069580
2929.725266	5611.869000	979.509766	319.499207
2929.725266	5611.869000	978.342773	229.315918
2929.725266	5611.869000	977.175781	130.649582
2929.725266	5611.869000	976.007813	218.867950
2929.725266	5611.869000	974.839844	132.482727
2929.725266	5611.869000	973.671875	305.332794
2929.725266	5611.869000	972.503906	207.468033
2929.725266	5611.869000	971.334961	276.685211
2929.725266	5611.869000	970.166016	343.010590
2929.725266	5611.869000	968.997070	275.234283
2929.725266	5611.869000	967.828125	341.826172
2929.725266	5611.869000	966.658203	320.521851
2929.725266	5611.869000	965.488281	368.245880
2929.725266	5611.869000	964.318359	241.109695
2929.725266	5611.869000	963.148438	406.036407
2929.725266	5611.869000	961.977539	452.966125
2929.725266	5611.869000	960.806641	424.689331
2929.725266	5611.869000	959.635742	428.926025
2929.725266	5611.869000	958.463867	360.282867
2929.725266	5611.869000	957.292969	446.756195
2929.725266	5611.869000	956.121094	459.993530
2929.725266	5611.869000	954.948242	454.578705
2929.725266	5611.869000	953.776367	590.359680
2929.725266	5611.869000	952.603516	456.589478
2929.725266	5611.869000	951.430664	238.328583
2929.725266	5611.869000	950.257813	361.180939
2929.725266	5611.869000	949.084961	447.882263
2929.725266	5611.869000	947.911133	505.580048
2929.725266	5611.869000	946.737305	380.856842
2929.725266	5611.869000	945.563477	227.467072
2929.725266	5611.869000	944.388672	329.550903
2929.725266	5611.869000	943.213867	488.433685
2929.725266	5611.869000	942.039063	382.388306
2929.725266	5611.869000	940.864258	491.976807
2929.725266	5611.869000	939.688477	611.616272
2929.725266	5611.869000	938.513672	505.511017
2929.725266	5611.869000	937.337891	790.817932
2929.725266	5611.869000	936.161133	572.310486
2929.725266	5611.869000	934.985352	739.558167
2929.725266	5611.869000	933.808594	756.053894
2929.725266	5611.869000	932.631836	748.602844
2929.725266	5611.869000	931.454102	773.932678
2929.725266	5611.869000	930.277344	654.103210
2929.725266	5611.869000	929.099609	642.578064
2929.725266	5611.869000	927.921875	383.020325
2929.725266	5611.869000	926.743164	406.187592
2929.725266	5611.869000	925.565430	673.548645
2929.725266	5611.869000	924.386719	674.475586
2929.725266	5611.869000	923.208008	807.497131
2929.725266	5611.869000	922.028320	688.931091
2929.725266	5611.869000	920.849609	860.256775
2929.725266	5611.869000	919.669922	864.585754
2929.725266	5611.869000	919.474609	656.026001
2929.725266	5611.869000	918.309570	872.894470
2929.725266	5611.869000	917.143555	733.786804
2929.725266	5611.869000	915.977539	541.457825
2929.725266	5611.869000	914.810547	277.613403
2929.725266	5611.869000	913.644531	296.029816
2929.725266	5611.869000	912.477539	121.936584
2929.725266	5611.869000	911.310547	83.393524
2929.725266	5611.869000	910.143555	-6.513849
2929.725266	5611.869000	908.975586	57.361324
2929.725266	5611.869000	907.807617	-78.452110
2929.725266	5611.869000	906.639648	-102.629402
2929.725266	5611.869000	905.471680	48.822159
2929.725266	5611.869000	904.303711	28.126715
2929.725266	5611.869000	903.134766	-7.272340
2929.725266	5611.869000	901.965820	28.603395
2929.725266	5611.869000	900.796875	207.032745
2929.725266	5611.869000	899.626953	36.105396
2929.725266	5611.869000	898.457031	68.085075
2929.725266	5611.869000	897.287109	67.089462
2929.725266	5611.869000	896.117188	193.937393
2929.725266	5611.869000	894.947266	178.177200
2929.725266	5611.869000	893.776367	167.846497
2929.725266	5611.869000	892.605469	184.855759
2929.725266	5611.869000	891.434570	274.834320
2929.725266	5611.869000	890.262695	127.427078
2929.725266	5611.869000	889.091797	155.229309
2929.725266	5611.869000	887.919922	328.946289
2929.725266	5611.869000	886.748047	123.101006
2929.725266	5611.869000	885.575195	221.888901
2929.725266	5611.869000	884.403320	260.419189
2929.725266	5611.869000	883.230469	266.081390
2929.725266	5611.869000	882.057617	209.730606
2929.725266	5611.869000	880.883789	204.400009
2929.725266	5611.869000	879.710938	224.546677
2929.725266	5611.869000	878.537109	299.307892
2929.725266	5611.869000	877.362305	228.310837
2929.725266	5611.869000	876.188477	353.975555
2929.725266	5611.869000	875.013672	463.183319
2929.725266	5611.869000	873.839844	277.459656
2929.725266	5611.869000	872.664063	350.206757
2929.725266	5611.869000	871.489258	395.616638
2929.725266	5611.869000	870.313477	530.129028
2929.725266	5611.869000	869.138672	799.155151
2929.725266	5611.869000	867.962891	1095.337769
2929.725266	5611.869000	866.786133	1085.982788
2929.725266	5611.869000	865.610352	1202.035522
2929.725266	5611.869000	864.433594	1165.396484
2929.725266	5611.869000	863.256836	872.602478
2929.725266	5611.869000	862.079102	710.714478
2929.725266	5611.869000	860.902344	574.318604
2929.725266	5611.869000	859.724609	474.299561
2929.725266	5611.869000	858.546875	419.711548
2929.725266	5611.869000	857.368164	120.139069
2929.725266	5611.869000	856.190430	209.018600
2929.725266	5611.869000	855.011719	152.738770
2929.725266	5611.869000	853.833008	114.635887
2929.725266	5611.869000	852.654297	54.803619
2929.725266	5611.869000	851.474609	314.119293
2929.725266	5611.869000	850.294922	176.364517
2929.725266	5611.869000	849.115234	100.308578
2929.725266	5611.869000	847.935547	247.178833
2929.725266	5611.869000	846.754883	-51.635674
2929.725266	5611.869000	845.575195	144.162399
2929.725266	5611.869000	844.393555	8.525860
2929.725266	5611.869000	843.212891	-5.723318
2929.725266	5611.869000	842.032227	-34.414921
2929.725266	5611.869000	840.850586	123.343018
2929.725266	5611.869000	839.668945	-107.940826
2929.725266	5611.869000	838.486328	-13.473120
2929.725266	5611.869000	837.304688	-60.079144
2929.725266	5611.869000	836.122070	-211.501892
2929.725266	5611.869000	834.939453	-10.286626
2929.725266	5611.869000	833.756836	39.059250
2929.725266	5611.869000	832.573242	222.159180
2929.725266	5611.869000	831.389648	242.621017
2929.725266	5611.869000	830.206055	60.806435
2929.725266	5611.869000	829.022461	162.659073
2929.725266	5611.869000	827.838867	-58.690926
2929.725266	5611.869000	826.654297	184.058640
2929.725266	5611.869000	825.469727	237.244766
2929.725266	5611.869000	824.284180	165.953857
2929.725266	5611.869000	823.099609	329.283142
2929.725266	5611.869000	821.914063	321.245087
2929.725266	5611.869000	820.728516	378.189056
2929.725266	5611.869000	819.542969	514.500854
2929.725266	5611.869000	818.356445	265.047150
2929.725266	5611.869000	817.169922	158.138092
2929.725266	5611.869000	815.983398	71.154434
2929.725266	5611.869000	814.796875	-21.136345
2929.725266	5611.869000	813.609375	115.425507
2929.725266	5611.869000	812.422852	16.086460
2929.725266	5611.869000	811.235352	-21.929546
2929.725266	5611.869000	810.046875	-113.864799
2929.725266	5611.869000	808.859375	-211.097275
2929.725266	5611.869000	807.670898	-122.891106
2929.725266	5611.869000	806.482422	-59.839336
2929.725266	5611.869000	805.293945	-2.142568
2929.725266	5611.869000	804.104492	16.041714
2929.725266	5611.869000	802.915039	84.627022
2929.725266	5611.869000	801.725586	376.138245
2929.725266	5611.869000	800.536133	218.326767
2929.725266	5611.869000	799.345703	348.128906
2929.725266	5611.869000	798.155273	267.775238
2929.725266	5611.869000	796.964844	178.546295
2929.725266	5611.869000	795.774414	170.228500
2929.725266	5611.869000	794.583008	147.626434
2929.725266	5611.869000	793.392578	-66.946503
2929.725266	5611.869000	792.200195	18.326397
2929.725266	5611.869000	791.008789	-39.895710
2929.725266	5611.869000	789.816406	81.356583
2929.725266	5611.869000	788.625000	-10.783612
2929.725266	5611.869000	787.432617	53.181595
2929.725266	5611.869000	786.239258	22.187876
2929.725266	5611.869000	785.046875	48.627640
2929.725266	5611.869000	783.853516	-30.587915
2929.725266	5611.869000	782.660156	-283.474640
2929.725266	5611.869000	781.465820	-52.573479
2929.725266	5611.869000	780.272461	-201.342239
2929.725266	5611.869000	779.078125	20.638391
2929.725266	5611.869000	777.883789	-136.886124
2929.725266	5611.869000	776.688477	-120.674416
2929.725266	5611.869000	775.494141	-222.494019
2929.725266	5611.869000	774.298828	-170.351074
2929.725266	5611.869000	773.103516	-77.023003
2929.725266	5611.869000	771.907227	-157.111618
2929.725266	5611.869000	770.711914	-65.474411
2929.725266	5611.869000	769.515625	99.481857
2929.725266	5611.869000	768.318359	101.820656
2929.725266	5611.869000	767.122070	-17.272011
2929.725266	5611.869000	765.924805	-32.638729
2929.725266	5611.869000	764.727539	128.875061
2929.725266	5611.869000	763.530273	49.334942
2929.725266	5611.869000	762.333008	87.715660
2929.725266	5611.869000	761.134766	15.489231
2929.725266	5611.869000	759.936523	7.596957
2929.725266	5611.869000	758.738281	46.155056
2929.725266	5611.869000	757.540039	99.026779
2929.725266	5611.869000	756.340820	109.142174
2929.725266	5611.869000	755.141602	172.800598
2929.725266	5611.869000	753.942383	175.882767
2929.725266	5611.869000	752.742188	351.900787
2929.725266	5611.869000	751.541992	381.788513
2929.725266	5611.869000	750.341797	584.521240
2929.725266	5611.869000	749.141602	872.715881
2929.725266	5611.869000	747.941406	1210.702148
2929.725266	5611.869000	746.740234	1279.769531
2929.725266	5611.869000	745.539063	923.438477
2929.725266	5611.869000	744.337891	490.780670
2929.725266	5611.869000	743.135742	442.672546
2929.725266	5611.869000	741.933594	419.533661
2929.725266	5611.869000	740.731445	414.232574
2929.725266	5611.869000	739.529297	328.959137
2929.725266	5611.869000	738.326172	313.099457
2929.725266	5611.869000	737.124023	227.961456
2929.725266	5611.869000	735.919922	453.886414
2929.725266	5611.869000	734.716797	285.330383
2929.725266	5611.869000	733.513672	260.755615
2929.725266	5611.869000	732.309570	316.145813
2929.725266	5611.869000	731.105469	154.926804
2929.725266	5611.869000	729.900391	286.711182
2929.725266	5611.869000	728.696289	226.783798
2929.725266	5611.869000	727.491211	413.556274
2929.725266	5611.869000	726.286133	234.818405
2929.725266	5611.869000	725.080078	354.160339
2929.725266	5611.869000	723.874023	196.834686
2929.725266	5611.869000	722.668945	337.438721
2929.725266	5611.869000	721.461914	318.479095
2929.725266	5611.869000	720.255859	345.611023
2929.725266	5611.869000	719.048828	285.928680
2929.725266	5611.869000	717.841797	387.482391
2929.725266	5611.869000	716.634766	460.660553
2929.725266	5611.869000	715.427734	420.487366
2929.725266	5611.869000	714.219727	256.415009
2929.725266	5611.869000	713.011719	88.870605
2929.725266	5611.869000	711.803711	280.621368
2929.725266	5611.869000	710.594727	215.755173
2929.725266	5611.869000	709.385742	71.309402
2929.725266	5611.869000	708.176758	197.492126
2929.725266	5611.869000	706.967773	316.537811
2929.725266	5611.869000	705.758789	152.679398
2929.725266	5611.869000	704.548828	132.035797
2929.725266	5611.869000	703.338867	321.654572
2929.725266	5611.869000	702.127930	373.379700
2929.725266	5611.869000	700.917969	389.727753
2929.725266	5611.869000	699.707031	346.007202
2929.725266	5611.869000	698.496094	406.440857
2929.725266	5611.869000	697.285156	348.551636
2929.725266	5611.869000	696.073242	407.133881
2929.725266	5611.869000	694.861328	329.794281
2929.725266	5611.869000	693.649414	462.366180
2929.725266	5611.869000	692.436523	621.302002
2929.725266	5611.869000	691.224609	526.204712
2929.725266	5611.869000	690.011719	469.888885
2929.725266	5611.869000	688.798828	559.838257
2929.725266	5611.869000	687.584961	649.701355
2929.725266	5611.869000	686.372070	679.563782
2929.725266	5611.869000	685.158203	686.462402
2929.725266	5611.869000	683.943359	689.778198
2929.725266	5611.869000	682.729492	742.323669
2929.725266	5611.869000	681.514648	773.660645
2929.725266	5611.869000	680.299805	848.913879
2929.725266	5611.869000	679.084961	894.148926
2929.725266	5611.869000	677.869141	904.111450
2929.725266	5611.869000	676.653320	840.118652
2929.725266	5611.869000	675.437500	862.238098
2929.725266	5611.869000	674.221680	866.682922
2929.725266	5611.869000	673.004883	974.751160
2929.725266	5611.869000	671.789063	929.788635
2929.725266	5611.869000	670.571289	802.183167
2929.725266	5611.869000	669.354492	930.999451
2929.725266	5611.869000	668.136719	864.724792
2929.725266	5611.869000	666.919922	801.883240
2929.725266	5611.869000	665.701172	819.728882
2929.725266	5611.869000	664.483398	1041.052124
2929.725266	5611.869000	663.264648	976.149963
2929.725266	5611.869000	662.045898	1081.339600
2929.725266	5611.869000	660.827148	940.806824
2929.725266	5611.869000	659.608398	1087.816528
2929.725266	5611.869000	658.388672	1234.648315
2929.725266	5611.869000	657.168945	1144.650879
2929.725266	5611.869000	655.949219	1101.885010
2929.725266	5611.869000	654.728516	1109.825562
2929.725266	5611.869000	653.507813	1129.894531
2929.725266	5611.869000	652.287109	1391.521240
2929.725266	5611.869000	651.066406	1264.161987
2929.725266	5611.869000	649.844727	1320.546021
2929.725266	5611.869000	648.623047	1368.011963
2929.725266	5611.869000	647.401367	1205.318237
2929.725266	5611.869000	646.179688	1259.496460
2929.725266	5611.869000	644.957031	1285.517578
2929.725266	5611.869000	643.734375	1225.681885
2929.725266	5611.869000	642.511719	1151.729248
2929.725266	5611.869000	641.289063	1208.759644
2929.725266	5611.869000	640.065430	1083.843506
2929.725266	5611.869000	638.841797	1007.745300
2929.725266	5611.869000	637.618164	1137.660278
2929.725266	5611.869000	636.393555	1335.474365
2929.725266	5611.869000	635.168945	1213.469727
2929.725266	5611.869000	633.944336	1377.672363
2929.725266	5611.869000	632.719727	1471.810547
2929.725266	5611.869000	631.494141	1197.506470
2929.725266	5611.869000	630.269531	1101.106934
2929.725266	5611.869000	629.042969	1116.212891
2929.725266	5611.869000	627.817383	1134.616821
2929.725266	5611.869000	626.590820	1016.822510
2929.725266	5611.869000	625.365234	1050.558960
2929.725266	5611.869000	624.137695	946.400879
2929.725266	5611.869000	622.911133	957.104797
2929.725266	5611.869000	621.683594	852.626465
2929.725266	5611.869000	620.456055	955.275330
2929.725266	5611.869000	619.228516	1015.889526
2929.725266	5611.869000	618.000977	1001.412659
2929.725266	5611.869000	616.772461	936.261597
2929.725266	5611.869000	615.543945	1024.086304
2929.725266	5611.869000	614.314453	955.070984
2929.725266	5611.869000	613.085938	1202.489258
2929.725266	5611.869000	611.856445	1211.319214
2929.725266	5611.869000	610.626953	1235.587769
2929.725266	5611.869000	609.397461	1277.020142
2929.725266	5611.869000	608.166992	1182.649536
2929.725266	5611.869000	606.936523	1204.534790
2929.725266	5611.869000	605.706055	1274.845703
2929.725266	5611.869000	604.474609	1251.109375
2929.725266	5611.869000	603.244141	1149.020386
2929.725266	5611.869000	602.012695	1173.503784
2929.725266	5611.869000	600.780273	1166.509644
2929.725266	5611.869000	599.548828	1100.293213
2929.725266	5611.869000	598.316406	945.388245
2929.725266	5611.869000	597.083984	1093.918945
2929.725266	5611.869000	595.851563	1106.878906
2929.725266	5611.869000	594.618164	901.114380
2929.725266	5611.869000	593.384766	981.275818
2929.725266	5611.869000	592.151367	889.578613
2929.725266	5611.869000	590.917969	818.493225
2929.725266	5611.869000	589.683594	949.922302
2929.725266	5611.869000	588.449219	790.056152
2929.725266	5611.869000	587.214844	652.548035
2929.725266	5611.869000	585.979492	753.813049
2929.725266	5611.869000	584.745117	802.881287
2929.725266	5611.869000	583.509766	825.737183
2929.725266	5611.869000	582.273438	777.406799
2929.725266	5611.869000	581.038086	687.357056
2929.725266	5611.869000	579.801758	757.971069
2929.725266	5611.869000	578.565430	615.630554
2929.725266	5611.869000	577.329102	737.648621
2929.725266	5611.869000	576.091797	772.957153
2929.725266	5611.869000	574.854492	726.804016
2929.725266	5611.869000	573.617188	623.430237
2929.725266	5611.869000	572.378906	865.358215
2929.725266	5611.869000	571.141602	865.178589
2929.725266	5611.869000	569.903320	842.325867
2929.725266	5611.869000	568.664063	712.224609
2929.725266	5611.869000	567.425781	858.119873
2929.725266	5611.869000	566.186523	651.708252
2929.725266	5611.869000	564.947266	653.920349
2929.725266	5611.869000	563.708008	735.260559
2929.725266	5611.869000	562.467773	838.762451
2929.725266	5611.869000	561.227539	850.630737
2929.725266	5611.869000	559.987305	758.859497
2929.725266	5611.869000	558.747070	847.872375
2929.725266	5611.869000	557.505859	604.092346
2929.725266	5611.869000	556.264648	623.775940
2929.725266	5611.869000	555.023438	684.582581
2929.725266	5611.869000	553.781250	598.791382
2929.725266	5611.869000	552.539063	614.408752
2929.725266	5611.869000	551.296875	659.082520
2929.725266	5611.869000	550.054688	750.005737
2929.725266	5611.869000	548.811523	943.914368
2929.725266	5611.869000	547.569336	938.033630
2929.725266	5611.869000	546.325195	840.805237
2929.725266	5611.869000	545.082031	891.306885
2929.725266	5611.869000	543.837891	725.008484
2929.725266	5611.869000	542.593750	647.969177
2929.725266	5611.869000	541.349609	624.052429
2929.725266	5611.869000	540.105469	486.596466
2929.725266	5611.869000	538.860352	474.396454
2929.725266	5611.869000	537.615234	516.984070
2929.725266	5611.869000	536.369141	456.376099
2929.725266	5611.869000	535.124023	634.223328
2929.725266	5611.869000	533.877930	382.825409
2929.725266	5611.869000	532.631836	344.124054
2929.725266	5611.869000	531.384766	567.717957
2929.725266	5611.869000	530.138672	394.939911
2929.725266	5611.869000	528.891602	328.385834
2929.725266	5611.869000	527.643555	280.569366
2929.725266	5611.869000	526.396484	364.617065
2929.725266	5611.869000	525.148438	248.017151
2929.725266	5611.869000	523.900391	234.127701
2929.725266	5611.869000	522.652344	230.403412
2929.725266	5611.869000	521.403320	185.457581
2929.725266	5611.869000	520.154297	104.470108
2929.725266	5611.869000	518.905273	-5.685174
2929.725266	5611.869000	517.656250	186.995560
2929.725266	5611.869000	516.406250	109.168594
2929.725266	5611.869000	515.156250	21.022266
2929.725266	5611.869000	513.906250	-51.782181
2929.725266	5611.869000	512.655273	77.104958
2929.725266	5611.869000	511.404297	0.732759
2929.725266	5611.869000	510.153320	43.955070
2929.725266	5611.869000	508.902344	-107.694519
2929.725266	5611.869000	507.650391	-103.895523
2929.725266	5611.869000	506.398438	62.098862
2929.725266	5611.869000	505.146484	123.812645
2929.725266	5611.869000	503.893555	123.983383
2929.725266	5611.869000	502.641602	60.977695
2929.725266	5611.869000	501.388672	-73.719101
2929.725266	5611.869000	500.134766	-88.970543
2929.725266	5611.869000	498.881836	192.571701
2929.725266	5611.869000	497.627930	160.178131
2929.725266	5611.869000	496.374023	-32.479008
2929.725266	5611.869000	495.119141	105.625183
2929.725266	5611.869000	493.865234	-23.882469
2929.725266	5611.869000	492.610352	18.753067
2929.725266	5611.869000	491.355469	-40.828087
2929.725266	5611.869000	490.099609	132.955795
2929.725266	5611.869000	488.843750	-38.974873
2929.725266	5611.869000	487.587891	-59.285027
2929.725266	5611.869000	486.332031	51.508831
2929.725266	5611.869000	485.075195	213.336288
2929.725266	5611.869000	483.818359	84.218254
2929.725266	5611.869000	482.561523	240.972244
2929.725266	5611.869000	481.304688	210.654984
2929.725266	5611.869000	480.046875	170.204071
2929.725266	5611.869000	478.789063	298.129456
2929.725266	5611.869000	477.531250	388.691986
2929.725266	5611.869000	476.272461	98.683838
2929.725266	5611.869000	475.013672	169.029785
2929.725266	5611.869000	473.754883	159.617477
2929.725266	5611.869000	472.496094	308.229095
2929.725266	5611.869000	471.236328	392.362091
2929.725266	5611.869000	469.976563	201.613602
2929.725266	5611.869000	468.716797	140.033188
2929.725266	5611.869000	467.456055	341.560883
2929.725266	5611.869000	466.196289	383.703461
2929.725266	5611.869000	464.935547	447.999420
2929.725266	5611.869000	463.673828	575.130249
2929.725266	5611.869000	462.413086	504.040222
2929.725266	5611.869000	461.151367	561.921692
2929.725266	5611.869000	459.889648	81.130913
2929.725266	5611.869000	458.626953	-6.292201
2929.725266	5611.869000	457.364258	-130.769104
2929.725266	5611.869000	456.101563	39.608204
2929.725266	5611.869000	454.838867	-199.589325
2929.725266	5611.869000	453.575195	-215.098175
2929.725266	5611.869000	452.312500	-93.336487
2929.725266	5611.869000	451.047852	-72.965706
2929.725266	5611.869000	449.784180	-32.099560
2929.725266	5611.869000	448.519531	113.784698
2929.725266	5611.869000	447.254883	298.694916
2929.725266	5611.869000	445.990234	470.209595
2929.725266	5611.869000	444.725586	594.539978
2929.725266	5611.869000	443.459961	702.125183
2929.725266	5611.869000	442.194336	468.654175
2929.725266	5611.869000	440.927734	500.647003
2929.725266	5611.869000	439.662109	397.775055
2929.725266	5611.869000	438.395508	149.982895
2929.725266	5611.869000	437.127930	-24.910776
2929.725266	5611.869000	435.861328	-72.937645
2929.725266	5611.869000	434.593750	-73.485878
2929.725266	5611.869000	433.326172	123.537621
2929.725266	5611.869000	432.058594	-196.992538
2929.725266	5611.869000	430.790039	-127.705536
2929.725266	5611.869000	429.521484	69.885757
2929.725266	5611.869000	428.252930	19.896143
2929.725266	5611.869000	426.984375	52.715458
2929.725266	5611.869000	425.714844	-40.593758
2929.725266	5611.869000	424.445313	54.987606
2929.725266	5611.869000	423.174805	27.832197
2929.725266	5611.869000	421.905273	48.054867
2929.725266	5611.869000	420.634766	23.041853
2929.725266	5611.869000	419.364258	60.515926
2929.725266	5611.869000	418.092773	56.126041
2929.725266	5611.869000	416.822266	109.141106
2929.725266	5611.869000	415.550781	-36.092194
2929.725266	5611.869000	414.278320	27.403917
2929.725266	5611.869000	413.006836	-26.585564
2929.725266	5611.869000	411.734375	-224.887405
2929.725266	5611.869000	410.461914	-36.493469
2929.725266	5611.869000	409.188477	-135.246613
2929.725266	5611.869000	407.916016	78.582047
2929.725266	5611.869000	406.642578	144.719238
2929.725266	5611.869000	405.368164	205.940445
2929.725266	5611.869000	404.094727	336.090088
2929.725266	5611.869000	402.820313	154.216995
2929.725266	5611.869000	401.545898	224.177521
2929.725266	5611.869000	400.270508	124.815567
2929.725266	5611.869000	398.996094	54.103882
2929.725266	5611.869000	397.720703	62.297195
2929.725266	5611.869000	396.444336	43.735294
2929.725266	5611.869000	395.168945	-41.789452
2929.725266	5611.869000	393.892578	53.700317
2929.725266	5611.869000	392.616211	68.771011
2929.725266	5611.869000	391.339844	-120.465569
2929.725266	5611.869000	390.062500	3.457363
2929.725266	5611.869000	388.785156	-262.728455
2929.725266	5611.869000	387.507813	-147.277176
2929.725266	5611.869000	386.229492	11.551547
2929.725266	5611.869000	384.951172	-140.927368
2929.725266	5611.869000	383.672852	-19.170092
2929.725266	5611.869000	382.394531	-39.733425
2929.725266	5611.869000	381.115234	-6.960480
2929.725266	5611.869000	379.835938	-78.015663
2929.725266	5611.869000	378.556641	-80.745995
2929.725266	5611.869000	377.277344	93.370514
2929.725266	5611.869000	375.997070	51.666370
2929.725266	5611.869000	374.716797	63.113926
2929.725266	5611.869000	373.435547	39.155113
2929.725266	5611.869000	372.155273	64.920212
2929.725266	5611.869000	370.874023	15.168286
2929.725266	5611.869000	369.591797	65.103653
2929.725266	5611.869000	368.310547	17.798958
2929.725266	5611.869000	367.028320	-16.662533
2929.725266	5611.869000	365.746094	60.054691
2929.725266	5611.869000	364.463867	82.801941
2929.725266	5611.869000	363.180664	-70.101776
2929.725266	5611.869000	361.897461	-25.328871
2929.725266	5611.869000	360.614258	-124.568520
2929.725266	5611.869000	359.330078	-28.007847
2929.725266	5611.869000	358.045898	-7.242247
2929.725266	5611.869000	356.761719	90.892860
2929.725266	5611.869000	355.477539	113.163994
2929.725266	5611.869000	354.192383	-12.002050
2929.725266	5611.869000	352.907227	104.765022
2929.725266	5611.869000	351.622070	102.295036
2929.725266	5611.869000	350.336914	165.204178
2929.725266	5611.869000	349.050781	113.806335
2929.725266	5611.869000	347.764648	122.668030
2929.725266	5611.869000	346.477539	196.654037
2929.725266	5611.869000	345.191406	132.980164
2929.725266	5611.869000	343.904297	79.479050
2929.725266	5611.869000	342.616211	155.650589
2929.725266	5611.869000	341.329102	238.504196
2929.725266	5611.869000	340.041016	-7.427618
2929.725266	5611.869000	338.752930	-34.263737
2929.725266	5611.869000	337.463867	79.756691
2929.725266	5611.869000	336.175781	226.674240
2929.725266	5611.869000	334.886719	-28.243191
2929.725266	5611.869000	333.596680	127.750694
2929.725266	5611.869000	332.307617	-10.269160
2929.725266	5611.869000	331.017578	159.440918
2929.725266	5611.869000	329.727539	238.883881
2929.725266	5611.869000	328.436523	65.609970
2929.725266	5611.869000	327.146484	72.111382
2929.725266	5611.869000	325.855469	-228.814499
2929.725266	5611.869000	324.563477	-153.238983
2929.725266	5611.869000	323.272461	-140.113052
2929.725266	5611.869000	321.980469	-19.125578
2929.725266	5611.869000	320.688477	-13.796309
2929.725266	5611.869000	319.395508	-0.145138
2929.725266	5611.869000	318.103516	51.584187
2929.725266	5611.869000	316.810547	13.807363
2929.725266	5611.869000	315.516602	-6.086974
2929.725266	5611.869000	314.223633	-39.520664
2929.725266	5611.869000	312.929688	-18.987930
2929.725266	5611.869000	311.635742	30.622496
2929.725266	5611.869000	310.340820	-161.813690
2929.725266	5611.869000	309.045898	-85.914642
2929.725266	5611.869000	307.750977	8.688206
2929.725266	5611.869000	306.456055	27.743900
2929.725266	5611.869000	305.160156	-121.354805
2929.725266	5611.869000	303.865234	23.520220
2929.725266	5611.869000	302.568359	-34.795383
2929.725266	5611.869000	301.272461	-80.001724
2929.725266	5611.869000	299.975586	27.692789
2929.725266	5611.869000	298.678711	274.926666
