#X		#Y		#Wave		#Intensity
2927.797181	5608.196500	1999.980469	-34.890385
2927.797181	5608.196500	1999.016602	-50.014816
2927.797181	5608.196500	1998.052734	-130.785202
2927.797181	5608.196500	1997.087891	33.620853
2927.797181	5608.196500	1996.123047	6.998203
2927.797181	5608.196500	1995.158203	-59.432354
2927.797181	5608.196500	1994.193359	126.611916
2927.797181	5608.196500	1993.228516	44.975178
2927.797181	5608.196500	1992.262695	5.292511
2927.797181	5608.196500	1991.297852	54.570908
2927.797181	5608.196500	1990.332031	-15.120831
2927.797181	5608.196500	1989.366211	110.539696
2927.797181	5608.196500	1988.399414	57.878517
2927.797181	5608.196500	1987.433594	39.716587
2927.797181	5608.196500	1986.466797	-5.782660
2927.797181	5608.196500	1985.500977	7.937520
2927.797181	5608.196500	1984.534180	28.937298
2927.797181	5608.196500	1983.567383	-19.408697
2927.797181	5608.196500	1982.599609	6.275554
2927.797181	5608.196500	1981.632813	46.651093
2927.797181	5608.196500	1980.665039	44.898338
2927.797181	5608.196500	1979.697266	75.139236
2927.797181	5608.196500	1978.729492	6.481475
2927.797181	5608.196500	1977.761719	24.153767
2927.797181	5608.196500	1976.792969	-148.357651
2927.797181	5608.196500	1975.825195	27.085304
2927.797181	5608.196500	1974.856445	49.376621
2927.797181	5608.196500	1973.887695	37.025230
2927.797181	5608.196500	1972.918945	54.186752
2927.797181	5608.196500	1971.949219	-39.724178
2927.797181	5608.196500	1970.980469	-39.988293
2927.797181	5608.196500	1970.010742	4.041055
2927.797181	5608.196500	1969.041016	121.919815
2927.797181	5608.196500	1968.071289	158.354080
2927.797181	5608.196500	1967.101563	27.155312
2927.797181	5608.196500	1966.130859	24.034683
2927.797181	5608.196500	1965.161133	47.939560
2927.797181	5608.196500	1964.190430	49.608086
2927.797181	5608.196500	1963.219727	-37.422249
2927.797181	5608.196500	1962.249023	-55.555103
2927.797181	5608.196500	1961.277344	-51.588230
2927.797181	5608.196500	1960.306641	13.839648
2927.797181	5608.196500	1959.334961	113.633270
2927.797181	5608.196500	1958.363281	-44.938419
2927.797181	5608.196500	1957.391602	-117.423401
2927.797181	5608.196500	1956.419922	4.324121
2927.797181	5608.196500	1955.447266	-55.941002
2927.797181	5608.196500	1954.474609	95.159050
2927.797181	5608.196500	1953.501953	81.510162
2927.797181	5608.196500	1952.529297	-94.336800
2927.797181	5608.196500	1951.556641	95.878441
2927.797181	5608.196500	1950.583984	-87.344139
2927.797181	5608.196500	1949.610352	115.010529
2927.797181	5608.196500	1948.636719	25.088741
2927.797181	5608.196500	1947.663086	-20.642868
2927.797181	5608.196500	1946.689453	-2.572217
2927.797181	5608.196500	1945.715820	40.005013
2927.797181	5608.196500	1944.741211	4.034178
2927.797181	5608.196500	1943.767578	49.001480
2927.797181	5608.196500	1942.792969	194.483368
2927.797181	5608.196500	1941.818359	72.621140
2927.797181	5608.196500	1940.842773	119.944336
2927.797181	5608.196500	1939.868164	-36.207821
2927.797181	5608.196500	1938.892578	-10.968679
2927.797181	5608.196500	1937.916992	24.048058
2927.797181	5608.196500	1936.941406	-16.901939
2927.797181	5608.196500	1935.965820	108.703072
2927.797181	5608.196500	1934.990234	45.692406
2927.797181	5608.196500	1934.013672	51.249546
2927.797181	5608.196500	1933.037109	15.183001
2927.797181	5608.196500	1932.060547	128.418152
2927.797181	5608.196500	1931.083984	-12.882335
2927.797181	5608.196500	1930.107422	73.393845
2927.797181	5608.196500	1929.129883	-65.406960
2927.797181	5608.196500	1928.153320	-15.843274
2927.797181	5608.196500	1927.175781	36.144238
2927.797181	5608.196500	1926.198242	-202.810959
2927.797181	5608.196500	1925.219727	54.508942
2927.797181	5608.196500	1924.242188	72.240547
2927.797181	5608.196500	1923.263672	-66.408485
2927.797181	5608.196500	1922.285156	17.300142
2927.797181	5608.196500	1921.306641	-40.681725
2927.797181	5608.196500	1920.328125	-25.378857
2927.797181	5608.196500	1919.349609	77.817749
2927.797181	5608.196500	1918.370117	-19.188805
2927.797181	5608.196500	1917.391602	93.740280
2927.797181	5608.196500	1916.412109	111.465790
2927.797181	5608.196500	1915.431641	4.764087
2927.797181	5608.196500	1914.452148	-45.787205
2927.797181	5608.196500	1913.472656	10.994186
2927.797181	5608.196500	1912.492188	-102.922859
2927.797181	5608.196500	1911.511719	-68.078255
2927.797181	5608.196500	1910.531250	-1.552261
2927.797181	5608.196500	1909.550781	-56.891945
2927.797181	5608.196500	1908.569336	-51.290119
2927.797181	5608.196500	1907.588867	-91.965866
2927.797181	5608.196500	1906.607422	154.784256
2927.797181	5608.196500	1905.625977	-32.007168
2927.797181	5608.196500	1904.644531	-116.461540
2927.797181	5608.196500	1903.662109	-28.044237
2927.797181	5608.196500	1902.680664	48.181705
2927.797181	5608.196500	1901.698242	102.488029
2927.797181	5608.196500	1900.715820	20.542431
2927.797181	5608.196500	1899.733398	-34.606228
2927.797181	5608.196500	1898.750000	27.009726
2927.797181	5608.196500	1897.767578	88.613159
2927.797181	5608.196500	1896.784180	162.358124
2927.797181	5608.196500	1895.800781	-21.560003
2927.797181	5608.196500	1894.817383	3.594523
2927.797181	5608.196500	1893.833984	-36.853687
2927.797181	5608.196500	1892.850586	-65.130341
2927.797181	5608.196500	1891.866211	207.782944
2927.797181	5608.196500	1890.881836	33.787907
2927.797181	5608.196500	1889.897461	46.814548
2927.797181	5608.196500	1888.913086	16.151731
2927.797181	5608.196500	1887.927734	-4.784259
2927.797181	5608.196500	1886.943359	-62.101074
2927.797181	5608.196500	1885.958008	26.175161
2927.797181	5608.196500	1884.972656	7.699451
2927.797181	5608.196500	1883.987305	-122.319511
2927.797181	5608.196500	1883.001953	-92.252151
2927.797181	5608.196500	1882.015625	114.781639
2927.797181	5608.196500	1881.029297	4.226299
2927.797181	5608.196500	1880.042969	138.476501
2927.797181	5608.196500	1879.056641	-83.482765
2927.797181	5608.196500	1878.070313	21.675743
2927.797181	5608.196500	1877.083984	39.608860
2927.797181	5608.196500	1876.096680	55.117535
2927.797181	5608.196500	1875.109375	-98.850494
2927.797181	5608.196500	1874.122070	15.932360
2927.797181	5608.196500	1873.134766	21.767408
2927.797181	5608.196500	1872.146484	102.614738
2927.797181	5608.196500	1871.159180	93.921425
2927.797181	5608.196500	1870.170898	65.882507
2927.797181	5608.196500	1869.182617	8.835761
2927.797181	5608.196500	1868.194336	-48.189053
2927.797181	5608.196500	1867.205078	-3.659626
2927.797181	5608.196500	1866.216797	-38.907276
2927.797181	5608.196500	1865.227539	44.267872
2927.797181	5608.196500	1864.238281	67.008713
2927.797181	5608.196500	1863.249023	-122.837166
2927.797181	5608.196500	1862.259766	-59.019848
2927.797181	5608.196500	1861.269531	-16.962172
2927.797181	5608.196500	1860.279297	78.190643
2927.797181	5608.196500	1859.290039	67.095123
2927.797181	5608.196500	1858.298828	7.731434
2927.797181	5608.196500	1857.308594	83.508339
2927.797181	5608.196500	1856.318359	7.266149
2927.797181	5608.196500	1855.327148	41.997467
2927.797181	5608.196500	1854.335938	4.362230
2927.797181	5608.196500	1853.344727	-16.389225
2927.797181	5608.196500	1852.353516	35.178497
2927.797181	5608.196500	1851.362305	108.408989
2927.797181	5608.196500	1850.370117	-11.176888
2927.797181	5608.196500	1849.377930	-96.998787
2927.797181	5608.196500	1848.385742	-21.407467
2927.797181	5608.196500	1847.393555	5.976287
2927.797181	5608.196500	1846.401367	-53.348682
2927.797181	5608.196500	1845.408203	65.488991
2927.797181	5608.196500	1844.415039	116.870949
2927.797181	5608.196500	1843.421875	16.605116
2927.797181	5608.196500	1842.428711	39.074097
2927.797181	5608.196500	1841.435547	54.301132
2927.797181	5608.196500	1840.441406	26.212187
2927.797181	5608.196500	1839.448242	-4.288459
2927.797181	5608.196500	1838.454102	-20.369688
2927.797181	5608.196500	1837.459961	4.401497
2927.797181	5608.196500	1836.464844	24.336237
2927.797181	5608.196500	1835.470703	13.005933
2927.797181	5608.196500	1834.475586	20.878271
2927.797181	5608.196500	1833.480469	-60.149818
2927.797181	5608.196500	1832.485352	-61.916931
2927.797181	5608.196500	1831.490234	46.746155
2927.797181	5608.196500	1830.495117	4.100939
2927.797181	5608.196500	1829.499023	-79.357506
2927.797181	5608.196500	1828.502930	19.574007
2927.797181	5608.196500	1827.506836	-119.092049
2927.797181	5608.196500	1826.510742	-22.641518
2927.797181	5608.196500	1825.513672	-5.404151
2927.797181	5608.196500	1824.517578	57.360905
2927.797181	5608.196500	1823.520508	-52.548615
2927.797181	5608.196500	1822.523438	70.069176
2927.797181	5608.196500	1821.526367	12.864450
2927.797181	5608.196500	1820.529297	109.004494
2927.797181	5608.196500	1819.531250	49.354710
2927.797181	5608.196500	1818.533203	-106.116295
2927.797181	5608.196500	1817.535156	25.816376
2927.797181	5608.196500	1816.537109	102.594910
2927.797181	5608.196500	1815.539063	-12.202759
2927.797181	5608.196500	1814.540039	-24.075136
2927.797181	5608.196500	1813.541992	-162.806564
2927.797181	5608.196500	1812.542969	50.181789
2927.797181	5608.196500	1811.543945	38.194706
2927.797181	5608.196500	1810.543945	81.180321
2927.797181	5608.196500	1809.544922	76.289169
2927.797181	5608.196500	1808.544922	71.358597
2927.797181	5608.196500	1807.544922	-79.417793
2927.797181	5608.196500	1806.544922	-89.177353
2927.797181	5608.196500	1805.544922	139.964523
2927.797181	5608.196500	1804.544922	-15.641716
2927.797181	5608.196500	1803.543945	60.449871
2927.797181	5608.196500	1802.542969	14.679698
2927.797181	5608.196500	1801.541992	104.974884
2927.797181	5608.196500	1800.541016	-50.683262
2927.797181	5608.196500	1799.539063	13.245310
2927.797181	5608.196500	1798.538086	36.539013
2927.797181	5608.196500	1797.536133	69.319016
2927.797181	5608.196500	1796.534180	-60.162933
2927.797181	5608.196500	1795.532227	127.544724
2927.797181	5608.196500	1794.529297	76.688362
2927.797181	5608.196500	1793.527344	21.036152
2927.797181	5608.196500	1792.524414	20.174660
2927.797181	5608.196500	1791.521484	-102.273514
2927.797181	5608.196500	1790.518555	-7.908043
2927.797181	5608.196500	1789.514648	14.903481
2927.797181	5608.196500	1788.511719	47.183147
2927.797181	5608.196500	1787.507813	5.576651
2927.797181	5608.196500	1786.503906	40.118484
2927.797181	5608.196500	1785.500000	19.845247
2927.797181	5608.196500	1784.496094	-57.591713
2927.797181	5608.196500	1783.491211	64.817192
2927.797181	5608.196500	1782.486328	-15.091067
2927.797181	5608.196500	1781.481445	-92.646065
2927.797181	5608.196500	1780.476563	0.995462
2927.797181	5608.196500	1779.471680	-19.582958
2927.797181	5608.196500	1778.465820	0.198830
2927.797181	5608.196500	1777.460938	53.192760
2927.797181	5608.196500	1776.455078	34.816406
2927.797181	5608.196500	1775.449219	21.139595
2927.797181	5608.196500	1774.442383	-40.101936
2927.797181	5608.196500	1773.436523	-27.753536
2927.797181	5608.196500	1772.429688	65.259674
2927.797181	5608.196500	1771.422852	-26.999054
2927.797181	5608.196500	1770.416016	-12.471519
2927.797181	5608.196500	1769.409180	-9.876850
2927.797181	5608.196500	1768.402344	40.108803
2927.797181	5608.196500	1767.394531	97.126099
2927.797181	5608.196500	1766.386719	54.444199
2927.797181	5608.196500	1765.378906	35.428955
2927.797181	5608.196500	1764.371094	156.239227
2927.797181	5608.196500	1763.362305	99.153648
2927.797181	5608.196500	1762.354492	-64.619972
2927.797181	5608.196500	1761.345703	84.378761
2927.797181	5608.196500	1760.336914	-48.665051
2927.797181	5608.196500	1759.328125	95.406502
2927.797181	5608.196500	1758.318359	-68.510025
2927.797181	5608.196500	1757.308594	58.800945
2927.797181	5608.196500	1756.299805	-31.788511
2927.797181	5608.196500	1755.290039	92.967957
2927.797181	5608.196500	1754.279297	125.316505
2927.797181	5608.196500	1753.269531	88.977852
2927.797181	5608.196500	1752.258789	40.754150
2927.797181	5608.196500	1751.249023	32.691090
2927.797181	5608.196500	1750.238281	69.486107
2927.797181	5608.196500	1749.226563	-111.305519
2927.797181	5608.196500	1748.215820	-102.998039
2927.797181	5608.196500	1747.204102	-149.120438
2927.797181	5608.196500	1746.193359	52.801884
2927.797181	5608.196500	1745.181641	119.920845
2927.797181	5608.196500	1744.168945	-53.971401
2927.797181	5608.196500	1743.157227	-3.525814
2927.797181	5608.196500	1742.144531	16.133295
2927.797181	5608.196500	1741.132813	-28.013897
2927.797181	5608.196500	1740.120117	85.906113
2927.797181	5608.196500	1739.106445	6.218230
2927.797181	5608.196500	1738.093750	-16.884045
2927.797181	5608.196500	1737.080078	35.426525
2927.797181	5608.196500	1736.067383	-63.277382
2927.797181	5608.196500	1735.053711	54.900078
2927.797181	5608.196500	1734.040039	-36.843834
2927.797181	5608.196500	1733.025391	36.355804
2927.797181	5608.196500	1732.011719	-8.361347
2927.797181	5608.196500	1730.997070	-133.242020
2927.797181	5608.196500	1729.982422	-50.855743
2927.797181	5608.196500	1728.967773	-98.103378
2927.797181	5608.196500	1727.952148	-46.512840
2927.797181	5608.196500	1726.937500	-35.029228
2927.797181	5608.196500	1725.921875	-169.560028
2927.797181	5608.196500	1724.906250	23.001408
2927.797181	5608.196500	1723.890625	100.127785
2927.797181	5608.196500	1722.875000	-8.687631
2927.797181	5608.196500	1721.858398	-2.291460
2927.797181	5608.196500	1720.841797	-108.840927
2927.797181	5608.196500	1719.825195	-13.228497
2927.797181	5608.196500	1718.808594	112.835022
2927.797181	5608.196500	1717.791992	-15.038912
2927.797181	5608.196500	1716.774414	-65.399323
2927.797181	5608.196500	1715.756836	-26.538813
2927.797181	5608.196500	1714.739258	113.236153
2927.797181	5608.196500	1713.721680	-50.052284
2927.797181	5608.196500	1712.704102	91.882202
2927.797181	5608.196500	1711.685547	123.354080
2927.797181	5608.196500	1710.667969	16.277428
2927.797181	5608.196500	1709.649414	-121.339661
2927.797181	5608.196500	1708.630859	-83.014359
2927.797181	5608.196500	1707.611328	-58.854279
2927.797181	5608.196500	1706.592773	12.139675
2927.797181	5608.196500	1705.573242	-17.794399
2927.797181	5608.196500	1704.553711	64.741661
2927.797181	5608.196500	1703.534180	-0.485753
2927.797181	5608.196500	1702.513672	-11.864794
2927.797181	5608.196500	1701.494141	-107.646667
2927.797181	5608.196500	1700.473633	-25.435150
2927.797181	5608.196500	1699.453125	-37.005066
2927.797181	5608.196500	1698.432617	21.611202
2927.797181	5608.196500	1697.412109	-72.037674
2927.797181	5608.196500	1696.390625	66.006531
2927.797181	5608.196500	1695.369141	-2.012162
2927.797181	5608.196500	1694.347656	67.979362
2927.797181	5608.196500	1693.326172	6.873575
2927.797181	5608.196500	1692.304688	81.384232
2927.797181	5608.196500	1691.282227	20.161699
2927.797181	5608.196500	1690.260742	124.906387
2927.797181	5608.196500	1689.238281	42.532349
2927.797181	5608.196500	1688.214844	60.615028
2927.797181	5608.196500	1687.192383	130.042236
2927.797181	5608.196500	1686.168945	211.052887
2927.797181	5608.196500	1685.146484	294.314331
2927.797181	5608.196500	1684.123047	55.198124
2927.797181	5608.196500	1683.099609	138.325531
2927.797181	5608.196500	1682.075195	74.282066
2927.797181	5608.196500	1681.051758	-78.480301
2927.797181	5608.196500	1680.027344	125.777748
2927.797181	5608.196500	1679.002930	168.914566
2927.797181	5608.196500	1677.978516	18.367210
2927.797181	5608.196500	1676.953125	240.959198
2927.797181	5608.196500	1675.928711	188.271530
2927.797181	5608.196500	1674.903320	317.377502
2927.797181	5608.196500	1673.877930	315.849152
2927.797181	5608.196500	1672.852539	174.441925
2927.797181	5608.196500	1671.826172	133.210602
2927.797181	5608.196500	1670.800781	173.480850
2927.797181	5608.196500	1669.774414	211.341629
2927.797181	5608.196500	1668.748047	207.218781
2927.797181	5608.196500	1667.721680	200.714951
2927.797181	5608.196500	1666.694336	138.286591
2927.797181	5608.196500	1665.667969	320.198364
2927.797181	5608.196500	1664.640625	385.638855
2927.797181	5608.196500	1663.613281	395.169495
2927.797181	5608.196500	1662.585938	406.971039
2927.797181	5608.196500	1661.557617	332.666290
2927.797181	5608.196500	1660.530273	509.449615
2927.797181	5608.196500	1659.501953	609.394897
2927.797181	5608.196500	1658.473633	555.862671
2927.797181	5608.196500	1657.444336	565.031616
2927.797181	5608.196500	1656.416016	602.036987
2927.797181	5608.196500	1655.386719	690.072021
2927.797181	5608.196500	1654.358398	726.946411
2927.797181	5608.196500	1653.328125	819.464661
2927.797181	5608.196500	1652.298828	1041.911133
2927.797181	5608.196500	1651.269531	1059.983276
2927.797181	5608.196500	1650.239258	1419.108398
2927.797181	5608.196500	1649.208984	1662.048706
2927.797181	5608.196500	1648.178711	2199.443115
2927.797181	5608.196500	1647.148438	2305.223633
2927.797181	5608.196500	1646.117188	2672.927246
2927.797181	5608.196500	1645.086914	2857.314697
2927.797181	5608.196500	1644.055664	3004.497070
2927.797181	5608.196500	1643.024414	2896.673828
2927.797181	5608.196500	1641.992188	2805.061768
2927.797181	5608.196500	1640.960938	2558.255859
2927.797181	5608.196500	1639.928711	2390.242920
2927.797181	5608.196500	1638.896484	2162.054443
2927.797181	5608.196500	1637.864258	1945.493896
2927.797181	5608.196500	1636.832031	1874.808350
2927.797181	5608.196500	1635.798828	1730.050415
2927.797181	5608.196500	1634.766602	1578.385620
2927.797181	5608.196500	1633.733398	1609.489868
2927.797181	5608.196500	1632.699219	1652.104248
2927.797181	5608.196500	1631.666016	1646.120728
2927.797181	5608.196500	1630.632813	1452.840698
2927.797181	5608.196500	1629.598633	1409.845581
2927.797181	5608.196500	1628.564453	1306.750854
2927.797181	5608.196500	1627.530273	1427.799927
2927.797181	5608.196500	1626.495117	1398.603516
2927.797181	5608.196500	1625.460938	1568.040039
2927.797181	5608.196500	1624.425781	1635.766968
2927.797181	5608.196500	1623.390625	1636.487793
2927.797181	5608.196500	1622.355469	1736.445435
2927.797181	5608.196500	1621.319336	1986.347900
2927.797181	5608.196500	1620.284180	1993.855225
2927.797181	5608.196500	1619.248047	2086.689941
2927.797181	5608.196500	1618.211914	2047.992432
2927.797181	5608.196500	1617.174805	2253.731201
2927.797181	5608.196500	1616.138672	2413.269043
2927.797181	5608.196500	1615.101563	2522.001709
2927.797181	5608.196500	1614.065430	2296.492188
2927.797181	5608.196500	1613.027344	2451.249268
2927.797181	5608.196500	1611.990234	2393.984619
2927.797181	5608.196500	1610.953125	2210.038818
2927.797181	5608.196500	1609.915039	2083.716064
2927.797181	5608.196500	1608.876953	2127.819336
2927.797181	5608.196500	1607.838867	2192.613037
2927.797181	5608.196500	1606.800781	1912.124634
2927.797181	5608.196500	1605.761719	1659.338989
2927.797181	5608.196500	1604.723633	1659.738281
2927.797181	5608.196500	1603.684570	1473.794189
2927.797181	5608.196500	1602.644531	1501.791016
2927.797181	5608.196500	1601.605469	1398.716431
2927.797181	5608.196500	1600.566406	1341.657227
2927.797181	5608.196500	1599.526367	1404.128418
2927.797181	5608.196500	1598.486328	1319.495605
2927.797181	5608.196500	1597.446289	1466.953125
2927.797181	5608.196500	1596.405273	1297.332520
2927.797181	5608.196500	1595.365234	1290.856079
2927.797181	5608.196500	1594.324219	1305.038696
2927.797181	5608.196500	1593.283203	1323.808472
2927.797181	5608.196500	1592.242188	1259.940674
2927.797181	5608.196500	1591.200195	1320.015991
2927.797181	5608.196500	1590.159180	1446.623779
2927.797181	5608.196500	1589.117188	1348.362305
2927.797181	5608.196500	1588.075195	1321.246094
2927.797181	5608.196500	1587.032227	1385.862061
2927.797181	5608.196500	1585.990234	1477.983887
2927.797181	5608.196500	1584.947266	1583.821045
2927.797181	5608.196500	1583.904297	1588.789795
2927.797181	5608.196500	1582.861328	1188.200562
2927.797181	5608.196500	1581.818359	1481.918701
2927.797181	5608.196500	1580.775391	1644.979980
2927.797181	5608.196500	1579.731445	1395.781982
2927.797181	5608.196500	1578.687500	1432.890137
2927.797181	5608.196500	1577.643555	1318.918579
2927.797181	5608.196500	1576.598633	1518.541016
2927.797181	5608.196500	1575.554688	1619.722534
2927.797181	5608.196500	1574.509766	1572.167847
2927.797181	5608.196500	1573.464844	1696.199341
2927.797181	5608.196500	1572.419922	1641.827637
2927.797181	5608.196500	1571.374023	1875.575317
2927.797181	5608.196500	1570.329102	1850.950806
2927.797181	5608.196500	1569.283203	1792.065674
2927.797181	5608.196500	1568.237305	1861.191284
2927.797181	5608.196500	1567.191406	2076.529541
2927.797181	5608.196500	1566.144531	2193.580078
2927.797181	5608.196500	1565.098633	2061.698242
2927.797181	5608.196500	1564.051758	2352.288086
2927.797181	5608.196500	1563.004883	2569.742676
2927.797181	5608.196500	1561.957031	2415.105469
2927.797181	5608.196500	1560.910156	2522.990967
2927.797181	5608.196500	1559.862305	2829.342041
2927.797181	5608.196500	1558.814453	2825.386719
2927.797181	5608.196500	1557.766602	3076.889893
2927.797181	5608.196500	1556.718750	3157.319824
2927.797181	5608.196500	1555.669922	3306.133545
2927.797181	5608.196500	1554.621094	3254.351318
2927.797181	5608.196500	1553.573242	3471.533447
2927.797181	5608.196500	1552.523438	3709.153076
2927.797181	5608.196500	1551.474609	3534.430176
2927.797181	5608.196500	1550.424805	3216.327637
2927.797181	5608.196500	1549.375000	3340.125488
2927.797181	5608.196500	1548.325195	3058.693115
2927.797181	5608.196500	1547.275391	3045.991455
2927.797181	5608.196500	1546.225586	2732.954346
2927.797181	5608.196500	1545.174805	2599.813721
2927.797181	5608.196500	1544.124023	2387.155762
2927.797181	5608.196500	1543.073242	2229.209717
2927.797181	5608.196500	1542.022461	2223.721436
2927.797181	5608.196500	1540.970703	1899.996582
2927.797181	5608.196500	1539.919922	1887.852295
2927.797181	5608.196500	1538.868164	1707.586548
2927.797181	5608.196500	1537.815430	1556.969971
2927.797181	5608.196500	1536.763672	1490.523071
2927.797181	5608.196500	1535.710938	1222.012207
2927.797181	5608.196500	1534.659180	1269.297729
2927.797181	5608.196500	1533.606445	1164.501343
2927.797181	5608.196500	1532.552734	1005.316467
2927.797181	5608.196500	1531.500000	1114.044556
2927.797181	5608.196500	1530.446289	896.051880
2927.797181	5608.196500	1529.393555	791.634705
2927.797181	5608.196500	1528.338867	814.308838
2927.797181	5608.196500	1527.285156	873.322754
2927.797181	5608.196500	1526.231445	664.851807
2927.797181	5608.196500	1525.176758	862.251343
2927.797181	5608.196500	1524.122070	574.658813
2927.797181	5608.196500	1523.067383	572.732300
2927.797181	5608.196500	1522.012695	514.235229
2927.797181	5608.196500	1520.957031	627.947876
2927.797181	5608.196500	1519.901367	648.837646
2927.797181	5608.196500	1518.845703	518.097717
2927.797181	5608.196500	1517.790039	579.876160
2927.797181	5608.196500	1516.734375	666.590698
2927.797181	5608.196500	1515.677734	665.087524
2927.797181	5608.196500	1514.621094	607.098145
2927.797181	5608.196500	1513.564453	526.583313
2927.797181	5608.196500	1512.507813	620.289795
2927.797181	5608.196500	1511.450195	650.718201
2927.797181	5608.196500	1510.393555	692.515930
2927.797181	5608.196500	1509.335938	591.984375
2927.797181	5608.196500	1508.278320	475.747284
2927.797181	5608.196500	1507.219727	452.245026
2927.797181	5608.196500	1506.162109	539.505188
2927.797181	5608.196500	1505.103516	398.724304
2927.797181	5608.196500	1504.044922	420.629333
2927.797181	5608.196500	1502.986328	350.054871
2927.797181	5608.196500	1501.926758	329.227783
2927.797181	5608.196500	1500.868164	209.212967
2927.797181	5608.196500	1499.808594	346.493744
2927.797181	5608.196500	1498.749023	411.622894
2927.797181	5608.196500	1497.688477	521.899719
2927.797181	5608.196500	1496.628906	158.756775
2927.797181	5608.196500	1495.568359	260.185699
2927.797181	5608.196500	1494.507813	269.253571
2927.797181	5608.196500	1493.447266	291.919983
2927.797181	5608.196500	1492.386719	220.042892
2927.797181	5608.196500	1491.325195	146.019730
2927.797181	5608.196500	1490.263672	227.490479
2927.797181	5608.196500	1489.202148	153.663696
2927.797181	5608.196500	1488.140625	251.028168
2927.797181	5608.196500	1487.079102	-16.150896
2927.797181	5608.196500	1486.016602	-40.130997
2927.797181	5608.196500	1484.954102	-73.013313
2927.797181	5608.196500	1483.891602	-2.330550
2927.797181	5608.196500	1482.829102	-8.044612
2927.797181	5608.196500	1481.765625	78.506760
2927.797181	5608.196500	1480.702148	-100.135895
2927.797181	5608.196500	1479.638672	-2.176210
2927.797181	5608.196500	1478.575195	-36.744579
2927.797181	5608.196500	1477.511719	16.374296
2927.797181	5608.196500	1476.447266	13.459275
2927.797181	5608.196500	1475.382813	51.004532
2927.797181	5608.196500	1474.318359	63.913326
2927.797181	5608.196500	1473.253906	-93.548782
2927.797181	5608.196500	1472.189453	49.643032
2927.797181	5608.196500	1471.124023	47.233364
2927.797181	5608.196500	1470.058594	73.836021
2927.797181	5608.196500	1468.993164	73.891830
2927.797181	5608.196500	1467.927734	127.647247
2927.797181	5608.196500	1466.861328	38.221226
2927.797181	5608.196500	1465.794922	-82.651237
2927.797181	5608.196500	1464.728516	40.859806
2927.797181	5608.196500	1463.662109	59.184872
2927.797181	5608.196500	1462.594727	131.358765
2927.797181	5608.196500	1461.528320	8.795387
2927.797181	5608.196500	1460.460938	-28.196651
2927.797181	5608.196500	1459.393555	-58.774067
2927.797181	5608.196500	1458.326172	185.301727
2927.797181	5608.196500	1457.257813	14.462909
2927.797181	5608.196500	1456.189453	160.977280
2927.797181	5608.196500	1455.121094	50.582420
2927.797181	5608.196500	1454.052734	-33.099335
2927.797181	5608.196500	1452.984375	135.569962
2927.797181	5608.196500	1451.915039	97.462379
2927.797181	5608.196500	1450.845703	217.575668
2927.797181	5608.196500	1449.776367	308.160065
2927.797181	5608.196500	1448.707031	338.510712
2927.797181	5608.196500	1447.636719	298.294922
2927.797181	5608.196500	1446.567383	471.831116
2927.797181	5608.196500	1445.497070	433.724304
2927.797181	5608.196500	1444.425781	646.245544
2927.797181	5608.196500	1443.355469	504.505493
2927.797181	5608.196500	1442.285156	558.005676
2927.797181	5608.196500	1441.213867	311.372925
2927.797181	5608.196500	1440.142578	555.954529
2927.797181	5608.196500	1439.070313	511.572815
2927.797181	5608.196500	1437.999023	212.075821
2927.797181	5608.196500	1436.926758	403.589600
2927.797181	5608.196500	1435.854492	417.362335
2927.797181	5608.196500	1434.782227	455.858063
2927.797181	5608.196500	1433.709961	236.458679
2927.797181	5608.196500	1432.636719	368.913788
2927.797181	5608.196500	1431.563477	375.368683
2927.797181	5608.196500	1430.490234	251.118332
2927.797181	5608.196500	1429.416992	262.487976
2927.797181	5608.196500	1428.343750	311.309723
2927.797181	5608.196500	1427.269531	131.048477
2927.797181	5608.196500	1426.195313	276.622375
2927.797181	5608.196500	1425.121094	100.412308
2927.797181	5608.196500	1424.046875	320.149719
2927.797181	5608.196500	1422.971680	142.386826
2927.797181	5608.196500	1421.896484	201.121399
2927.797181	5608.196500	1420.821289	136.396408
2927.797181	5608.196500	1419.746094	215.417877
2927.797181	5608.196500	1418.669922	135.748093
2927.797181	5608.196500	1417.594727	118.950943
2927.797181	5608.196500	1416.518555	158.838608
2927.797181	5608.196500	1415.442383	288.687561
2927.797181	5608.196500	1414.365234	208.828049
2927.797181	5608.196500	1413.289063	292.861176
2927.797181	5608.196500	1412.211914	331.113617
2927.797181	5608.196500	1411.134766	292.036133
2927.797181	5608.196500	1410.057617	261.587677
2927.797181	5608.196500	1408.979492	394.937744
2927.797181	5608.196500	1407.902344	594.752869
2927.797181	5608.196500	1406.824219	696.494385
2927.797181	5608.196500	1405.746094	677.897766
2927.797181	5608.196500	1404.666992	610.252014
2927.797181	5608.196500	1403.588867	845.946533
2927.797181	5608.196500	1402.509766	681.750916
2927.797181	5608.196500	1401.430664	632.346558
2927.797181	5608.196500	1400.351563	776.872009
2927.797181	5608.196500	1399.271484	846.965210
2927.797181	5608.196500	1398.192383	1038.386719
2927.797181	5608.196500	1397.112305	972.740051
2927.797181	5608.196500	1396.031250	900.885681
2927.797181	5608.196500	1394.951172	828.949524
2927.797181	5608.196500	1393.871094	654.332642
2927.797181	5608.196500	1392.790039	692.572998
2927.797181	5608.196500	1391.708984	601.016968
2927.797181	5608.196500	1390.626953	535.092468
2927.797181	5608.196500	1389.545898	401.274078
2927.797181	5608.196500	1388.463867	396.188385
2927.797181	5608.196500	1387.381836	649.161804
2927.797181	5608.196500	1386.299805	346.442169
2927.797181	5608.196500	1385.217773	404.323029
2927.797181	5608.196500	1384.134766	315.230804
2927.797181	5608.196500	1383.051758	95.134125
2927.797181	5608.196500	1381.968750	328.128387
2927.797181	5608.196500	1380.885742	378.763000
2927.797181	5608.196500	1379.802734	235.081573
2927.797181	5608.196500	1378.718750	368.854675
2927.797181	5608.196500	1377.634766	331.944000
2927.797181	5608.196500	1376.550781	264.608948
2927.797181	5608.196500	1375.465820	397.383942
2927.797181	5608.196500	1374.381836	378.184326
2927.797181	5608.196500	1373.296875	610.461365
2927.797181	5608.196500	1372.211914	518.126038
2927.797181	5608.196500	1371.126953	437.784393
2927.797181	5608.196500	1370.041016	585.426392
2927.797181	5608.196500	1368.955078	543.014465
2927.797181	5608.196500	1367.869141	510.262054
2927.797181	5608.196500	1366.783203	410.608185
2927.797181	5608.196500	1365.697266	730.138245
2927.797181	5608.196500	1364.610352	462.384735
2927.797181	5608.196500	1363.523438	512.874939
2927.797181	5608.196500	1362.436523	550.978577
2927.797181	5608.196500	1361.349609	631.634521
2927.797181	5608.196500	1360.261719	518.640137
2927.797181	5608.196500	1359.174805	578.697266
2927.797181	5608.196500	1358.086914	423.015289
2927.797181	5608.196500	1356.998047	664.545166
2927.797181	5608.196500	1355.910156	580.867004
2927.797181	5608.196500	1354.821289	515.568726
2927.797181	5608.196500	1353.732422	655.853638
2927.797181	5608.196500	1352.643555	709.631348
2927.797181	5608.196500	1351.554688	741.173767
2927.797181	5608.196500	1350.464844	762.874634
2927.797181	5608.196500	1349.375000	719.372437
2927.797181	5608.196500	1348.285156	812.181213
2927.797181	5608.196500	1347.195313	744.410767
2927.797181	5608.196500	1346.105469	683.431641
2927.797181	5608.196500	1345.014648	628.566467
2927.797181	5608.196500	1343.923828	420.782593
2927.797181	5608.196500	1342.833008	556.328308
2927.797181	5608.196500	1341.741211	434.045258
2927.797181	5608.196500	1340.650391	326.154755
2927.797181	5608.196500	1339.558594	281.078827
2927.797181	5608.196500	1338.466797	286.671997
2927.797181	5608.196500	1337.374023	216.575851
2927.797181	5608.196500	1336.282227	208.129303
2927.797181	5608.196500	1335.189453	132.503998
2927.797181	5608.196500	1334.096680	255.932983
2927.797181	5608.196500	1333.003906	191.239822
2927.797181	5608.196500	1331.910156	139.807663
2927.797181	5608.196500	1330.817383	174.295944
2927.797181	5608.196500	1329.723633	-67.298759
2927.797181	5608.196500	1328.629883	35.037437
2927.797181	5608.196500	1327.535156	-55.928238
2927.797181	5608.196500	1326.441406	0.287757
2927.797181	5608.196500	1325.346680	56.361732
2927.797181	5608.196500	1324.251953	48.101231
2927.797181	5608.196500	1323.156250	98.921661
2927.797181	5608.196500	1322.061523	97.355820
2927.797181	5608.196500	1320.965820	3.323196
2927.797181	5608.196500	1319.870117	-104.799622
2927.797181	5608.196500	1318.774414	-144.716980
2927.797181	5608.196500	1317.678711	4.134328
2927.797181	5608.196500	1316.582031	-45.342125
2927.797181	5608.196500	1315.485352	-210.079605
2927.797181	5608.196500	1314.388672	-165.423615
2927.797181	5608.196500	1313.291016	-91.782890
2927.797181	5608.196500	1312.194336	-23.186888
2927.797181	5608.196500	1311.096680	-119.605637
2927.797181	5608.196500	1309.999023	-122.348709
2927.797181	5608.196500	1308.901367	-182.696198
2927.797181	5608.196500	1307.802734	-87.871513
2927.797181	5608.196500	1306.705078	-30.979918
2927.797181	5608.196500	1305.606445	59.956390
2927.797181	5608.196500	1304.506836	39.428970
2927.797181	5608.196500	1303.408203	110.681831
2927.797181	5608.196500	1302.308594	137.613510
2927.797181	5608.196500	1301.208984	83.465195
2927.797181	5608.196500	1300.109375	91.175529
2927.797181	5608.196500	1299.009766	135.990295
2927.797181	5608.196500	1297.909180	184.039017
2927.797181	5608.196500	1296.808594	214.674988
2927.797181	5608.196500	1295.708008	300.309509
2927.797181	5608.196500	1294.607422	230.361145
2927.797181	5608.196500	1293.506836	231.594711
2927.797181	5608.196500	1292.405273	119.514023
2927.797181	5608.196500	1291.303711	247.789948
2927.797181	5608.196500	1290.202148	187.031021
2927.797181	5608.196500	1289.099609	216.571747
2927.797181	5608.196500	1287.998047	284.872955
2927.797181	5608.196500	1286.895508	205.847687
2927.797181	5608.196500	1285.792969	171.598724
2927.797181	5608.196500	1284.689453	96.367958
2927.797181	5608.196500	1283.586914	222.512329
2927.797181	5608.196500	1282.483398	98.576096
2927.797181	5608.196500	1281.379883	51.651096
2927.797181	5608.196500	1280.276367	64.551407
2927.797181	5608.196500	1279.171875	128.020569
2927.797181	5608.196500	1278.067383	42.468174
2927.797181	5608.196500	1276.962891	71.248329
2927.797181	5608.196500	1275.858398	130.963684
2927.797181	5608.196500	1274.753906	-7.587316
2927.797181	5608.196500	1273.648438	121.672539
2927.797181	5608.196500	1272.542969	100.171684
2927.797181	5608.196500	1271.437500	158.453674
2927.797181	5608.196500	1270.331055	203.932739
2927.797181	5608.196500	1269.225586	144.232422
2927.797181	5608.196500	1268.119141	218.365173
2927.797181	5608.196500	1267.012695	94.227524
2927.797181	5608.196500	1265.906250	43.872780
2927.797181	5608.196500	1264.798828	-56.049332
2927.797181	5608.196500	1263.691406	59.719921
2927.797181	5608.196500	1262.583984	-4.336947
2927.797181	5608.196500	1261.476563	40.691292
2927.797181	5608.196500	1260.368164	-51.384899
2927.797181	5608.196500	1259.260742	88.696671
2927.797181	5608.196500	1258.152344	36.487034
2927.797181	5608.196500	1257.043945	77.438126
2927.797181	5608.196500	1255.934570	209.994278
2927.797181	5608.196500	1254.825195	290.839813
2927.797181	5608.196500	1253.716797	355.114990
2927.797181	5608.196500	1252.606445	542.104492
2927.797181	5608.196500	1251.497070	622.770325
2927.797181	5608.196500	1250.387695	593.165405
2927.797181	5608.196500	1249.277344	607.617004
2927.797181	5608.196500	1248.166992	702.026489
2927.797181	5608.196500	1247.055664	625.498596
2927.797181	5608.196500	1245.945313	733.990356
2927.797181	5608.196500	1244.833984	548.424316
2927.797181	5608.196500	1243.722656	507.063202
2927.797181	5608.196500	1242.611328	490.514130
2927.797181	5608.196500	1241.499023	436.502838
2927.797181	5608.196500	1240.387695	377.559967
2927.797181	5608.196500	1239.275391	356.683472
2927.797181	5608.196500	1238.162109	187.951111
2927.797181	5608.196500	1237.049805	198.690308
2927.797181	5608.196500	1235.936523	164.329254
2927.797181	5608.196500	1234.823242	265.663300
2927.797181	5608.196500	1233.709961	230.398148
2927.797181	5608.196500	1232.596680	65.234566
2927.797181	5608.196500	1231.482422	221.808151
2927.797181	5608.196500	1230.369141	238.417923
2927.797181	5608.196500	1229.253906	150.739944
2927.797181	5608.196500	1228.139648	253.906494
2927.797181	5608.196500	1227.025391	224.586884
2927.797181	5608.196500	1225.910156	232.813675
2927.797181	5608.196500	1224.794922	245.871948
2927.797181	5608.196500	1223.679688	221.667099
2927.797181	5608.196500	1222.563477	159.017365
2927.797181	5608.196500	1221.447266	216.115555
2927.797181	5608.196500	1220.331055	59.414413
2927.797181	5608.196500	1219.214844	184.503464
2927.797181	5608.196500	1218.098633	234.933624
2927.797181	5608.196500	1216.981445	100.799026
2927.797181	5608.196500	1215.864258	125.018539
2927.797181	5608.196500	1214.747070	185.305222
2927.797181	5608.196500	1213.629883	179.483932
2927.797181	5608.196500	1212.511719	110.738625
2927.797181	5608.196500	1211.393555	163.640076
2927.797181	5608.196500	1210.275391	100.191383
2927.797181	5608.196500	1209.157227	22.248684
2927.797181	5608.196500	1208.038086	63.429497
2927.797181	5608.196500	1206.918945	-75.849167
2927.797181	5608.196500	1205.799805	-124.508514
2927.797181	5608.196500	1204.680664	-212.290527
2927.797181	5608.196500	1203.560547	-51.992756
2927.797181	5608.196500	1202.441406	-118.532707
2927.797181	5608.196500	1201.321289	-146.949036
2927.797181	5608.196500	1200.200195	-141.975449
2927.797181	5608.196500	1199.080078	-143.501526
2927.797181	5608.196500	1197.958984	-260.903412
2927.797181	5608.196500	1196.837891	-79.115509
2927.797181	5608.196500	1195.716797	-53.895885
2927.797181	5608.196500	1194.594727	-75.034363
2927.797181	5608.196500	1193.473633	58.575764
2927.797181	5608.196500	1192.351563	80.504997
2927.797181	5608.196500	1191.229492	47.068539
2927.797181	5608.196500	1190.106445	100.647415
2927.797181	5608.196500	1188.984375	28.170277
2927.797181	5608.196500	1187.861328	50.509739
2927.797181	5608.196500	1186.738281	-61.667332
2927.797181	5608.196500	1185.614258	-70.421387
2927.797181	5608.196500	1184.491211	-77.675621
2927.797181	5608.196500	1183.367188	-116.306129
2927.797181	5608.196500	1182.243164	-73.092697
2927.797181	5608.196500	1181.119141	-24.574089
2927.797181	5608.196500	1179.994141	-184.215637
2927.797181	5608.196500	1178.869141	-119.938667
2927.797181	5608.196500	1177.744141	-52.133465
2927.797181	5608.196500	1176.619141	0.860438
2927.797181	5608.196500	1175.493164	66.720200
2927.797181	5608.196500	1174.368164	-71.088196
2927.797181	5608.196500	1173.242188	28.322432
2927.797181	5608.196500	1172.115234	129.620789
2927.797181	5608.196500	1170.989258	111.462029
2927.797181	5608.196500	1169.862305	97.093018
2927.797181	5608.196500	1168.735352	138.354477
2927.797181	5608.196500	1167.608398	73.345909
2927.797181	5608.196500	1166.481445	86.509079
2927.797181	5608.196500	1165.353516	112.930122
2927.797181	5608.196500	1164.225586	155.408875
2927.797181	5608.196500	1163.097656	38.107864
2927.797181	5608.196500	1161.968750	168.303543
2927.797181	5608.196500	1160.840820	88.371902
2927.797181	5608.196500	1159.711914	136.146225
2927.797181	5608.196500	1158.583008	41.515892
2927.797181	5608.196500	1157.453125	46.181587
2927.797181	5608.196500	1156.324219	65.613365
2927.797181	5608.196500	1155.194336	-16.325005
2927.797181	5608.196500	1154.064453	-12.591119
2927.797181	5608.196500	1152.933594	-73.561089
2927.797181	5608.196500	1151.803711	-70.791878
2927.797181	5608.196500	1150.672852	64.518005
2927.797181	5608.196500	1149.541992	192.238770
2927.797181	5608.196500	1148.411133	65.940758
2927.797181	5608.196500	1147.279297	133.477646
2927.797181	5608.196500	1146.147461	136.083099
2927.797181	5608.196500	1145.015625	205.335266
2927.797181	5608.196500	1143.883789	61.992954
2927.797181	5608.196500	1142.750977	169.253494
2927.797181	5608.196500	1141.619141	96.333191
2927.797181	5608.196500	1140.486328	82.530403
2927.797181	5608.196500	1139.352539	45.051121
2927.797181	5608.196500	1138.219727	207.049423
2927.797181	5608.196500	1137.085938	-7.300570
2927.797181	5608.196500	1135.952148	50.201046
2927.797181	5608.196500	1134.818359	60.776543
2927.797181	5608.196500	1133.683594	83.631241
2927.797181	5608.196500	1132.549805	198.633575
2927.797181	5608.196500	1131.415039	161.756561
2927.797181	5608.196500	1130.279297	293.451843
2927.797181	5608.196500	1129.144531	253.665802
2927.797181	5608.196500	1128.008789	258.376556
2927.797181	5608.196500	1126.873047	240.136993
2927.797181	5608.196500	1125.737305	95.434586
2927.797181	5608.196500	1124.601563	153.458450
2927.797181	5608.196500	1123.464844	227.870132
2927.797181	5608.196500	1122.328125	234.617722
2927.797181	5608.196500	1121.191406	79.062256
2927.797181	5608.196500	1120.054688	201.273285
2927.797181	5608.196500	1118.916992	219.898483
2927.797181	5608.196500	1117.779297	311.184540
2927.797181	5608.196500	1116.641602	188.665390
2927.797181	5608.196500	1115.503906	92.934006
2927.797181	5608.196500	1114.365234	175.163818
2927.797181	5608.196500	1113.226563	218.305817
2927.797181	5608.196500	1112.087891	314.491119
2927.797181	5608.196500	1110.949219	377.929504
2927.797181	5608.196500	1109.809570	331.567108
2927.797181	5608.196500	1108.669922	530.889404
2927.797181	5608.196500	1107.530273	517.249146
2927.797181	5608.196500	1106.390625	580.773132
2927.797181	5608.196500	1105.250000	529.470459
2927.797181	5608.196500	1104.109375	652.590820
2927.797181	5608.196500	1102.968750	629.352356
2927.797181	5608.196500	1101.828125	708.372559
2927.797181	5608.196500	1100.686523	755.755554
2927.797181	5608.196500	1099.544922	909.331421
2927.797181	5608.196500	1098.403320	1057.281738
2927.797181	5608.196500	1097.261719	1125.390381
2927.797181	5608.196500	1096.120117	1120.294678
2927.797181	5608.196500	1094.977539	1179.785767
2927.797181	5608.196500	1093.834961	1245.233276
2927.797181	5608.196500	1092.691406	1247.207642
2927.797181	5608.196500	1091.548828	1353.220947
2927.797181	5608.196500	1090.405273	1322.523926
2927.797181	5608.196500	1089.261719	1407.052979
2927.797181	5608.196500	1088.118164	1460.234253
2927.797181	5608.196500	1086.973633	1530.903198
2927.797181	5608.196500	1085.829102	1515.406250
2927.797181	5608.196500	1084.684570	1586.835571
2927.797181	5608.196500	1083.540039	1491.911133
2927.797181	5608.196500	1082.395508	1571.679565
2927.797181	5608.196500	1081.250000	1698.364868
2927.797181	5608.196500	1080.104492	1702.410034
2927.797181	5608.196500	1078.958984	1742.247681
2927.797181	5608.196500	1077.812500	1881.494141
2927.797181	5608.196500	1076.666016	1956.618408
2927.797181	5608.196500	1075.519531	2079.291504
2927.797181	5608.196500	1074.373047	2174.520508
2927.797181	5608.196500	1073.226563	2342.611816
2927.797181	5608.196500	1072.079102	2428.611816
2927.797181	5608.196500	1070.931641	2522.219238
2927.797181	5608.196500	1069.784180	2487.578369
2927.797181	5608.196500	1068.635742	2399.945557
2927.797181	5608.196500	1067.487305	2282.621338
2927.797181	5608.196500	1066.338867	2241.303955
2927.797181	5608.196500	1065.190430	2200.675293
2927.797181	5608.196500	1064.041992	2018.733765
2927.797181	5608.196500	1062.892578	1776.997437
2927.797181	5608.196500	1061.743164	1831.250000
2927.797181	5608.196500	1060.593750	1603.623047
2927.797181	5608.196500	1059.443359	1422.491455
2927.797181	5608.196500	1058.292969	1460.512207
2927.797181	5608.196500	1057.142578	1376.605957
2927.797181	5608.196500	1055.992188	1222.194214
2927.797181	5608.196500	1054.841797	1319.891846
2927.797181	5608.196500	1053.690430	977.922180
2927.797181	5608.196500	1052.539063	1034.747314
2927.797181	5608.196500	1051.387695	986.161255
2927.797181	5608.196500	1050.235352	960.194946
2927.797181	5608.196500	1049.083984	869.647156
2927.797181	5608.196500	1047.931641	894.538757
2927.797181	5608.196500	1046.778320	748.619202
2927.797181	5608.196500	1045.625977	714.038391
2927.797181	5608.196500	1044.472656	737.954956
2927.797181	5608.196500	1043.319336	780.238159
2927.797181	5608.196500	1042.166016	729.023987
2927.797181	5608.196500	1041.012695	685.374695
2927.797181	5608.196500	1039.858398	783.606873
2927.797181	5608.196500	1038.704102	664.052795
2927.797181	5608.196500	1037.549805	496.698578
2927.797181	5608.196500	1036.394531	670.598999
2927.797181	5608.196500	1035.239258	632.252502
2927.797181	5608.196500	1034.083984	558.293152
2927.797181	5608.196500	1032.928711	667.783813
2927.797181	5608.196500	1031.773438	553.416687
2927.797181	5608.196500	1030.617188	463.805359
2927.797181	5608.196500	1029.460938	511.801086
2927.797181	5608.196500	1028.304688	669.691406
2927.797181	5608.196500	1027.147461	454.877747
2927.797181	5608.196500	1025.991211	465.852509
2927.797181	5608.196500	1024.833984	397.284576
2927.797181	5608.196500	1023.675781	314.011108
2927.797181	5608.196500	1022.518555	436.132568
2927.797181	5608.196500	1021.360352	300.451965
2927.797181	5608.196500	1020.202148	416.610077
2927.797181	5608.196500	1019.043945	370.652191
2927.797181	5608.196500	1017.884766	450.093811
2927.797181	5608.196500	1016.726563	560.370850
2927.797181	5608.196500	1015.567383	555.524109
2927.797181	5608.196500	1014.407227	510.019775
2927.797181	5608.196500	1013.248047	478.654816
2927.797181	5608.196500	1012.087891	508.199341
2927.797181	5608.196500	1010.927734	509.083099
2927.797181	5608.196500	1009.767578	449.699066
2927.797181	5608.196500	1008.606445	411.753845
2927.797181	5608.196500	1007.446289	443.259308
2927.797181	5608.196500	1006.285156	556.933838
2927.797181	5608.196500	1005.123047	374.444305
2927.797181	5608.196500	1003.961914	479.953644
2927.797181	5608.196500	1002.799805	506.574554
2927.797181	5608.196500	1001.637695	480.280182
2927.797181	5608.196500	1000.475586	449.963531
2927.797181	5608.196500	999.312500	432.071625
2927.797181	5608.196500	998.149414	531.423889
2927.797181	5608.196500	996.986328	626.333801
2927.797181	5608.196500	995.823242	650.016174
2927.797181	5608.196500	994.659180	568.929077
2927.797181	5608.196500	993.496094	690.080566
2927.797181	5608.196500	992.332031	624.548401
2927.797181	5608.196500	991.166992	909.517639
2927.797181	5608.196500	990.002930	988.726807
2927.797181	5608.196500	988.837891	958.070557
2927.797181	5608.196500	987.672852	1031.790039
2927.797181	5608.196500	986.506836	968.027771
2927.797181	5608.196500	985.341797	944.187134
2927.797181	5608.196500	984.175781	771.914001
2927.797181	5608.196500	983.009766	645.717224
2927.797181	5608.196500	981.843750	704.129517
2927.797181	5608.196500	980.676758	637.615540
2927.797181	5608.196500	979.509766	555.770630
2927.797181	5608.196500	978.342773	514.062134
2927.797181	5608.196500	977.175781	351.138458
2927.797181	5608.196500	976.007813	333.460754
2927.797181	5608.196500	974.839844	334.248535
2927.797181	5608.196500	973.671875	180.314835
2927.797181	5608.196500	972.503906	170.246582
2927.797181	5608.196500	971.334961	192.966660
2927.797181	5608.196500	970.166016	202.415955
2927.797181	5608.196500	968.997070	259.509521
2927.797181	5608.196500	967.828125	205.599945
2927.797181	5608.196500	966.658203	294.635864
2927.797181	5608.196500	965.488281	333.358582
2927.797181	5608.196500	964.318359	458.925354
2927.797181	5608.196500	963.148438	379.165314
2927.797181	5608.196500	961.977539	545.082703
2927.797181	5608.196500	960.806641	568.179077
2927.797181	5608.196500	959.635742	503.650421
2927.797181	5608.196500	958.463867	520.867920
2927.797181	5608.196500	957.292969	586.786865
2927.797181	5608.196500	956.121094	564.748901
2927.797181	5608.196500	954.948242	384.310150
2927.797181	5608.196500	953.776367	462.549011
2927.797181	5608.196500	952.603516	402.531158
2927.797181	5608.196500	951.430664	365.148560
2927.797181	5608.196500	950.257813	402.933533
2927.797181	5608.196500	949.084961	312.324005
2927.797181	5608.196500	947.911133	339.080353
2927.797181	5608.196500	946.737305	293.800171
2927.797181	5608.196500	945.563477	374.638733
2927.797181	5608.196500	944.388672	394.383148
2927.797181	5608.196500	943.213867	147.849396
2927.797181	5608.196500	942.039063	185.279648
2927.797181	5608.196500	940.864258	218.374130
2927.797181	5608.196500	939.688477	190.740646
2927.797181	5608.196500	938.513672	104.365768
2927.797181	5608.196500	937.337891	180.611557
2927.797181	5608.196500	936.161133	144.250900
2927.797181	5608.196500	934.985352	298.513184
2927.797181	5608.196500	933.808594	151.508347
2927.797181	5608.196500	932.631836	158.488556
2927.797181	5608.196500	931.454102	57.121063
2927.797181	5608.196500	930.277344	122.396057
2927.797181	5608.196500	929.099609	168.206100
2927.797181	5608.196500	927.921875	198.904968
2927.797181	5608.196500	926.743164	171.067535
2927.797181	5608.196500	925.565430	197.360367
2927.797181	5608.196500	924.386719	46.146137
2927.797181	5608.196500	923.208008	-27.116871
2927.797181	5608.196500	922.028320	16.471367
2927.797181	5608.196500	920.849609	116.266960
2927.797181	5608.196500	919.669922	117.606583
2927.797181	5608.196500	919.474609	214.074402
2927.797181	5608.196500	918.309570	69.417519
2927.797181	5608.196500	917.143555	-18.983187
2927.797181	5608.196500	915.977539	93.650917
2927.797181	5608.196500	914.810547	37.674835
2927.797181	5608.196500	913.644531	-18.289619
2927.797181	5608.196500	912.477539	133.127274
2927.797181	5608.196500	911.310547	113.861885
2927.797181	5608.196500	910.143555	-160.189407
2927.797181	5608.196500	908.975586	94.758537
2927.797181	5608.196500	907.807617	30.163551
2927.797181	5608.196500	906.639648	123.111977
2927.797181	5608.196500	905.471680	183.654007
2927.797181	5608.196500	904.303711	39.248985
2927.797181	5608.196500	903.134766	194.659546
2927.797181	5608.196500	901.965820	95.577888
2927.797181	5608.196500	900.796875	112.937508
2927.797181	5608.196500	899.626953	41.920406
2927.797181	5608.196500	898.457031	78.667542
2927.797181	5608.196500	897.287109	152.018616
2927.797181	5608.196500	896.117188	-33.135384
2927.797181	5608.196500	894.947266	-22.251177
2927.797181	5608.196500	893.776367	-4.914858
2927.797181	5608.196500	892.605469	16.715696
2927.797181	5608.196500	891.434570	-19.774231
2927.797181	5608.196500	890.262695	-58.402905
2927.797181	5608.196500	889.091797	51.419373
2927.797181	5608.196500	887.919922	85.916008
2927.797181	5608.196500	886.748047	-118.298920
2927.797181	5608.196500	885.575195	15.113717
2927.797181	5608.196500	884.403320	4.451126
2927.797181	5608.196500	883.230469	36.774559
2927.797181	5608.196500	882.057617	-46.943520
2927.797181	5608.196500	880.883789	-109.144783
2927.797181	5608.196500	879.710938	-104.741013
2927.797181	5608.196500	878.537109	-3.708604
2927.797181	5608.196500	877.362305	-46.558052
2927.797181	5608.196500	876.188477	-85.097664
2927.797181	5608.196500	875.013672	-39.925903
2927.797181	5608.196500	873.839844	-35.538101
2927.797181	5608.196500	872.664063	52.510685
2927.797181	5608.196500	871.489258	91.195839
2927.797181	5608.196500	870.313477	149.165451
2927.797181	5608.196500	869.138672	102.064789
2927.797181	5608.196500	867.962891	20.691816
2927.797181	5608.196500	866.786133	228.652664
2927.797181	5608.196500	865.610352	254.416794
2927.797181	5608.196500	864.433594	136.654236
2927.797181	5608.196500	863.256836	168.856842
2927.797181	5608.196500	862.079102	132.531082
2927.797181	5608.196500	860.902344	156.163467
2927.797181	5608.196500	859.724609	8.564628
2927.797181	5608.196500	858.546875	-38.397144
2927.797181	5608.196500	857.368164	-27.570385
2927.797181	5608.196500	856.190430	62.396584
2927.797181	5608.196500	855.011719	81.758232
2927.797181	5608.196500	853.833008	47.662594
2927.797181	5608.196500	852.654297	-74.060661
2927.797181	5608.196500	851.474609	79.974266
2927.797181	5608.196500	850.294922	-114.349266
2927.797181	5608.196500	849.115234	-15.907672
2927.797181	5608.196500	847.935547	133.759033
2927.797181	5608.196500	846.754883	197.949265
2927.797181	5608.196500	845.575195	279.196167
2927.797181	5608.196500	844.393555	202.454437
2927.797181	5608.196500	843.212891	403.188843
2927.797181	5608.196500	842.032227	332.860352
2927.797181	5608.196500	840.850586	268.965546
2927.797181	5608.196500	839.668945	185.904755
2927.797181	5608.196500	838.486328	94.352806
2927.797181	5608.196500	837.304688	137.155273
2927.797181	5608.196500	836.122070	-14.024714
2927.797181	5608.196500	834.939453	84.198959
2927.797181	5608.196500	833.756836	60.938042
2927.797181	5608.196500	832.573242	201.717896
2927.797181	5608.196500	831.389648	10.197087
2927.797181	5608.196500	830.206055	61.502949
2927.797181	5608.196500	829.022461	-51.134644
2927.797181	5608.196500	827.838867	-33.886700
2927.797181	5608.196500	826.654297	-80.483269
2927.797181	5608.196500	825.469727	-129.185287
2927.797181	5608.196500	824.284180	-111.922012
2927.797181	5608.196500	823.099609	-130.818756
2927.797181	5608.196500	821.914063	-149.704620
2927.797181	5608.196500	820.728516	-242.984650
2927.797181	5608.196500	819.542969	-79.051590
2927.797181	5608.196500	818.356445	-80.930458
2927.797181	5608.196500	817.169922	17.045464
2927.797181	5608.196500	815.983398	-65.564949
2927.797181	5608.196500	814.796875	-141.769241
2927.797181	5608.196500	813.609375	-94.794106
2927.797181	5608.196500	812.422852	-64.821587
2927.797181	5608.196500	811.235352	-56.083214
2927.797181	5608.196500	810.046875	-125.857071
2927.797181	5608.196500	808.859375	-17.401386
2927.797181	5608.196500	807.670898	74.041534
2927.797181	5608.196500	806.482422	-27.526218
2927.797181	5608.196500	805.293945	-14.565384
2927.797181	5608.196500	804.104492	136.169418
2927.797181	5608.196500	802.915039	15.575760
2927.797181	5608.196500	801.725586	-64.712883
2927.797181	5608.196500	800.536133	26.618589
2927.797181	5608.196500	799.345703	-4.930079
2927.797181	5608.196500	798.155273	-0.471118
2927.797181	5608.196500	796.964844	-165.382797
2927.797181	5608.196500	795.774414	23.247105
2927.797181	5608.196500	794.583008	-56.960125
2927.797181	5608.196500	793.392578	91.361244
2927.797181	5608.196500	792.200195	-20.564911
2927.797181	5608.196500	791.008789	5.015764
2927.797181	5608.196500	789.816406	-149.145584
2927.797181	5608.196500	788.625000	58.243542
2927.797181	5608.196500	787.432617	16.141285
2927.797181	5608.196500	786.239258	64.914391
2927.797181	5608.196500	785.046875	-6.763284
2927.797181	5608.196500	783.853516	-82.643135
2927.797181	5608.196500	782.660156	154.047821
2927.797181	5608.196500	781.465820	192.164597
2927.797181	5608.196500	780.272461	230.255081
2927.797181	5608.196500	779.078125	74.156181
2927.797181	5608.196500	777.883789	82.696053
2927.797181	5608.196500	776.688477	49.030418
2927.797181	5608.196500	775.494141	36.458672
2927.797181	5608.196500	774.298828	-35.163330
2927.797181	5608.196500	773.103516	32.380272
2927.797181	5608.196500	771.907227	38.755871
2927.797181	5608.196500	770.711914	83.048561
2927.797181	5608.196500	769.515625	-81.281410
2927.797181	5608.196500	768.318359	-62.286858
2927.797181	5608.196500	767.122070	5.125176
2927.797181	5608.196500	765.924805	-26.472364
2927.797181	5608.196500	764.727539	-11.757154
2927.797181	5608.196500	763.530273	-24.427008
2927.797181	5608.196500	762.333008	30.230902
2927.797181	5608.196500	761.134766	-5.618657
2927.797181	5608.196500	759.936523	48.977535
2927.797181	5608.196500	758.738281	154.005722
2927.797181	5608.196500	757.540039	94.967758
2927.797181	5608.196500	756.340820	19.117710
2927.797181	5608.196500	755.141602	14.737432
2927.797181	5608.196500	753.942383	4.034344
2927.797181	5608.196500	752.742188	-19.290308
2927.797181	5608.196500	751.541992	43.489227
2927.797181	5608.196500	750.341797	43.220005
2927.797181	5608.196500	749.141602	145.805222
2927.797181	5608.196500	747.941406	80.395164
2927.797181	5608.196500	746.740234	2.396020
2927.797181	5608.196500	745.539063	134.226990
2927.797181	5608.196500	744.337891	-99.038826
2927.797181	5608.196500	743.135742	-76.356613
2927.797181	5608.196500	741.933594	28.068836
2927.797181	5608.196500	740.731445	115.650475
2927.797181	5608.196500	739.529297	81.596657
2927.797181	5608.196500	738.326172	116.683037
2927.797181	5608.196500	737.124023	162.200134
2927.797181	5608.196500	735.919922	98.742226
2927.797181	5608.196500	734.716797	202.822647
2927.797181	5608.196500	733.513672	204.228760
2927.797181	5608.196500	732.309570	213.975815
2927.797181	5608.196500	731.105469	190.197617
2927.797181	5608.196500	729.900391	55.491409
2927.797181	5608.196500	728.696289	140.476669
2927.797181	5608.196500	727.491211	114.533562
2927.797181	5608.196500	726.286133	38.375568
2927.797181	5608.196500	725.080078	108.568573
2927.797181	5608.196500	723.874023	103.441841
2927.797181	5608.196500	722.668945	106.638733
2927.797181	5608.196500	721.461914	151.585510
2927.797181	5608.196500	720.255859	85.755028
2927.797181	5608.196500	719.048828	118.076347
2927.797181	5608.196500	717.841797	25.053204
2927.797181	5608.196500	716.634766	188.818756
2927.797181	5608.196500	715.427734	62.340160
2927.797181	5608.196500	714.219727	171.685944
2927.797181	5608.196500	713.011719	193.313583
2927.797181	5608.196500	711.803711	129.362640
2927.797181	5608.196500	710.594727	132.130997
2927.797181	5608.196500	709.385742	-31.955452
2927.797181	5608.196500	708.176758	-2.144880
2927.797181	5608.196500	706.967773	117.228615
2927.797181	5608.196500	705.758789	121.896362
2927.797181	5608.196500	704.548828	211.931519
2927.797181	5608.196500	703.338867	76.924706
2927.797181	5608.196500	702.127930	100.194130
2927.797181	5608.196500	700.917969	154.634796
2927.797181	5608.196500	699.707031	-1.240345
2927.797181	5608.196500	698.496094	48.934879
2927.797181	5608.196500	697.285156	-4.999259
2927.797181	5608.196500	696.073242	42.971066
2927.797181	5608.196500	694.861328	53.430935
2927.797181	5608.196500	693.649414	126.215752
2927.797181	5608.196500	692.436523	-15.219851
2927.797181	5608.196500	691.224609	-81.822433
2927.797181	5608.196500	690.011719	26.108820
2927.797181	5608.196500	688.798828	38.366264
2927.797181	5608.196500	687.584961	141.959579
2927.797181	5608.196500	686.372070	214.301453
2927.797181	5608.196500	685.158203	99.682251
2927.797181	5608.196500	683.943359	250.771255
2927.797181	5608.196500	682.729492	399.663635
2927.797181	5608.196500	681.514648	380.354523
2927.797181	5608.196500	680.299805	421.157684
2927.797181	5608.196500	679.084961	306.320709
2927.797181	5608.196500	677.869141	307.600586
2927.797181	5608.196500	676.653320	198.933731
2927.797181	5608.196500	675.437500	227.060501
2927.797181	5608.196500	674.221680	234.390167
2927.797181	5608.196500	673.004883	158.773300
2927.797181	5608.196500	671.789063	228.136536
2927.797181	5608.196500	670.571289	195.919846
2927.797181	5608.196500	669.354492	140.877411
2927.797181	5608.196500	668.136719	85.793022
2927.797181	5608.196500	666.919922	185.906296
2927.797181	5608.196500	665.701172	-45.191498
2927.797181	5608.196500	664.483398	-110.738686
2927.797181	5608.196500	663.264648	119.470543
2927.797181	5608.196500	662.045898	28.967651
2927.797181	5608.196500	660.827148	37.683556
2927.797181	5608.196500	659.608398	139.353882
2927.797181	5608.196500	658.388672	44.570938
2927.797181	5608.196500	657.168945	63.409901
2927.797181	5608.196500	655.949219	146.216797
2927.797181	5608.196500	654.728516	80.207352
2927.797181	5608.196500	653.507813	169.035095
2927.797181	5608.196500	652.287109	59.559265
2927.797181	5608.196500	651.066406	135.834961
2927.797181	5608.196500	649.844727	-14.998894
2927.797181	5608.196500	648.623047	90.008865
2927.797181	5608.196500	647.401367	89.700478
2927.797181	5608.196500	646.179688	219.255600
2927.797181	5608.196500	644.957031	18.772043
2927.797181	5608.196500	643.734375	82.180717
2927.797181	5608.196500	642.511719	56.867905
2927.797181	5608.196500	641.289063	23.256023
2927.797181	5608.196500	640.065430	61.695168
2927.797181	5608.196500	638.841797	114.468613
2927.797181	5608.196500	637.618164	35.354809
2927.797181	5608.196500	636.393555	67.384415
2927.797181	5608.196500	635.168945	25.228626
2927.797181	5608.196500	633.944336	18.009705
2927.797181	5608.196500	632.719727	-90.095390
2927.797181	5608.196500	631.494141	-21.308546
2927.797181	5608.196500	630.269531	57.669178
2927.797181	5608.196500	629.042969	-81.426620
2927.797181	5608.196500	627.817383	116.634369
2927.797181	5608.196500	626.590820	41.170662
2927.797181	5608.196500	625.365234	-61.037838
2927.797181	5608.196500	624.137695	-120.129562
2927.797181	5608.196500	622.911133	38.478043
2927.797181	5608.196500	621.683594	20.333666
2927.797181	5608.196500	620.456055	24.718771
2927.797181	5608.196500	619.228516	-22.282192
2927.797181	5608.196500	618.000977	-159.630646
2927.797181	5608.196500	616.772461	37.477585
2927.797181	5608.196500	615.543945	-7.637172
2927.797181	5608.196500	614.314453	-77.411026
2927.797181	5608.196500	613.085938	-26.225925
2927.797181	5608.196500	611.856445	-77.636780
2927.797181	5608.196500	610.626953	100.486603
2927.797181	5608.196500	609.397461	30.506716
2927.797181	5608.196500	608.166992	54.742725
2927.797181	5608.196500	606.936523	101.442726
2927.797181	5608.196500	605.706055	-5.535599
2927.797181	5608.196500	604.474609	165.941330
2927.797181	5608.196500	603.244141	44.551556
2927.797181	5608.196500	602.012695	-66.612366
2927.797181	5608.196500	600.780273	12.515735
2927.797181	5608.196500	599.548828	54.735832
2927.797181	5608.196500	598.316406	66.199867
2927.797181	5608.196500	597.083984	-18.506582
2927.797181	5608.196500	595.851563	43.978779
2927.797181	5608.196500	594.618164	-61.233036
2927.797181	5608.196500	593.384766	111.489151
2927.797181	5608.196500	592.151367	67.507729
2927.797181	5608.196500	590.917969	-25.528753
2927.797181	5608.196500	589.683594	-45.051804
2927.797181	5608.196500	588.449219	-9.478804
2927.797181	5608.196500	587.214844	-188.320801
2927.797181	5608.196500	585.979492	14.542958
2927.797181	5608.196500	584.745117	-15.346621
2927.797181	5608.196500	583.509766	-22.825888
2927.797181	5608.196500	582.273438	-101.737404
2927.797181	5608.196500	581.038086	-15.462830
2927.797181	5608.196500	579.801758	21.800545
2927.797181	5608.196500	578.565430	-28.640078
2927.797181	5608.196500	577.329102	10.579979
2927.797181	5608.196500	576.091797	-72.508385
2927.797181	5608.196500	574.854492	21.639019
2927.797181	5608.196500	573.617188	-39.072052
2927.797181	5608.196500	572.378906	4.059263
2927.797181	5608.196500	571.141602	-105.536110
2927.797181	5608.196500	569.903320	-15.645437
2927.797181	5608.196500	568.664063	-3.150484
2927.797181	5608.196500	567.425781	-6.953146
2927.797181	5608.196500	566.186523	13.630001
2927.797181	5608.196500	564.947266	-18.689507
2927.797181	5608.196500	563.708008	-65.244461
2927.797181	5608.196500	562.467773	195.152908
2927.797181	5608.196500	561.227539	50.985744
2927.797181	5608.196500	559.987305	-38.269600
2927.797181	5608.196500	558.747070	73.621574
2927.797181	5608.196500	557.505859	-39.995667
2927.797181	5608.196500	556.264648	-31.732780
2927.797181	5608.196500	555.023438	55.699677
2927.797181	5608.196500	553.781250	112.640503
2927.797181	5608.196500	552.539063	-43.522179
2927.797181	5608.196500	551.296875	-146.865067
2927.797181	5608.196500	550.054688	-199.449203
2927.797181	5608.196500	548.811523	29.884121
2927.797181	5608.196500	547.569336	38.125134
2927.797181	5608.196500	546.325195	26.089905
2927.797181	5608.196500	545.082031	-103.473076
2927.797181	5608.196500	543.837891	-8.055315
2927.797181	5608.196500	542.593750	63.027325
2927.797181	5608.196500	541.349609	38.902889
2927.797181	5608.196500	540.105469	43.157940
2927.797181	5608.196500	538.860352	122.336227
2927.797181	5608.196500	537.615234	148.877258
2927.797181	5608.196500	536.369141	118.765312
2927.797181	5608.196500	535.124023	72.513382
2927.797181	5608.196500	533.877930	66.763206
2927.797181	5608.196500	532.631836	67.115395
2927.797181	5608.196500	531.384766	39.190109
2927.797181	5608.196500	530.138672	9.297067
2927.797181	5608.196500	528.891602	122.948387
2927.797181	5608.196500	527.643555	80.997467
2927.797181	5608.196500	526.396484	-1.290608
2927.797181	5608.196500	525.148438	-79.463036
2927.797181	5608.196500	523.900391	-199.959412
2927.797181	5608.196500	522.652344	-162.878098
2927.797181	5608.196500	521.403320	-182.282150
2927.797181	5608.196500	520.154297	-161.261658
2927.797181	5608.196500	518.905273	-134.139587
2927.797181	5608.196500	517.656250	-46.454231
2927.797181	5608.196500	516.406250	-31.351959
2927.797181	5608.196500	515.156250	30.183397
2927.797181	5608.196500	513.906250	13.139901
2927.797181	5608.196500	512.655273	-90.495850
2927.797181	5608.196500	511.404297	69.950829
2927.797181	5608.196500	510.153320	32.973351
2927.797181	5608.196500	508.902344	32.341980
2927.797181	5608.196500	507.650391	198.922913
2927.797181	5608.196500	506.398438	266.861725
2927.797181	5608.196500	505.146484	393.226044
2927.797181	5608.196500	503.893555	425.033569
2927.797181	5608.196500	502.641602	646.044373
2927.797181	5608.196500	501.388672	828.825928
2927.797181	5608.196500	500.134766	1049.827393
2927.797181	5608.196500	498.881836	1246.702393
2927.797181	5608.196500	497.627930	1339.051392
2927.797181	5608.196500	496.374023	1539.988159
2927.797181	5608.196500	495.119141	1612.333984
2927.797181	5608.196500	493.865234	1728.950317
2927.797181	5608.196500	492.610352	1903.863403
2927.797181	5608.196500	491.355469	1990.451172
2927.797181	5608.196500	490.099609	2197.564941
2927.797181	5608.196500	488.843750	2294.301270
2927.797181	5608.196500	487.587891	2340.937500
2927.797181	5608.196500	486.332031	2241.202148
2927.797181	5608.196500	485.075195	2177.728271
2927.797181	5608.196500	483.818359	1813.573486
2927.797181	5608.196500	482.561523	1614.109131
2927.797181	5608.196500	481.304688	1256.484009
2927.797181	5608.196500	480.046875	1001.346375
2927.797181	5608.196500	478.789063	834.607117
2927.797181	5608.196500	477.531250	664.057251
2927.797181	5608.196500	476.272461	645.924500
2927.797181	5608.196500	475.013672	449.706909
2927.797181	5608.196500	473.754883	181.628754
2927.797181	5608.196500	472.496094	176.006012
2927.797181	5608.196500	471.236328	232.550430
2927.797181	5608.196500	469.976563	227.178802
2927.797181	5608.196500	468.716797	147.930511
2927.797181	5608.196500	467.456055	100.845978
2927.797181	5608.196500	466.196289	259.860260
2927.797181	5608.196500	464.935547	65.112915
2927.797181	5608.196500	463.673828	78.436760
2927.797181	5608.196500	462.413086	67.913872
2927.797181	5608.196500	461.151367	67.518639
2927.797181	5608.196500	459.889648	89.230263
2927.797181	5608.196500	458.626953	67.137520
2927.797181	5608.196500	457.364258	115.065376
2927.797181	5608.196500	456.101563	143.148865
2927.797181	5608.196500	454.838867	111.489746
2927.797181	5608.196500	453.575195	177.741196
2927.797181	5608.196500	452.312500	148.353775
2927.797181	5608.196500	451.047852	298.598083
2927.797181	5608.196500	449.784180	141.860168
2927.797181	5608.196500	448.519531	206.591385
2927.797181	5608.196500	447.254883	245.518600
2927.797181	5608.196500	445.990234	362.268951
2927.797181	5608.196500	444.725586	359.571472
2927.797181	5608.196500	443.459961	434.679626
2927.797181	5608.196500	442.194336	348.590240
2927.797181	5608.196500	440.927734	336.324158
2927.797181	5608.196500	439.662109	332.146759
2927.797181	5608.196500	438.395508	332.072693
2927.797181	5608.196500	437.127930	439.552429
2927.797181	5608.196500	435.861328	232.822357
2927.797181	5608.196500	434.593750	348.460571
2927.797181	5608.196500	433.326172	336.911194
2927.797181	5608.196500	432.058594	321.498077
2927.797181	5608.196500	430.790039	385.691986
2927.797181	5608.196500	429.521484	495.657318
2927.797181	5608.196500	428.252930	458.669006
2927.797181	5608.196500	426.984375	258.929932
2927.797181	5608.196500	425.714844	329.415619
2927.797181	5608.196500	424.445313	473.407867
2927.797181	5608.196500	423.174805	216.489258
2927.797181	5608.196500	421.905273	352.658203
2927.797181	5608.196500	420.634766	145.617416
2927.797181	5608.196500	419.364258	234.271439
2927.797181	5608.196500	418.092773	154.384140
2927.797181	5608.196500	416.822266	76.563309
2927.797181	5608.196500	415.550781	95.951347
2927.797181	5608.196500	414.278320	103.480103
2927.797181	5608.196500	413.006836	103.108864
2927.797181	5608.196500	411.734375	92.858688
2927.797181	5608.196500	410.461914	116.297371
2927.797181	5608.196500	409.188477	117.955360
2927.797181	5608.196500	407.916016	101.793015
2927.797181	5608.196500	406.642578	-19.266508
2927.797181	5608.196500	405.368164	-55.201908
2927.797181	5608.196500	404.094727	61.181553
2927.797181	5608.196500	402.820313	108.252670
2927.797181	5608.196500	401.545898	-87.974419
2927.797181	5608.196500	400.270508	-96.350800
2927.797181	5608.196500	398.996094	65.196449
2927.797181	5608.196500	397.720703	-4.619491
2927.797181	5608.196500	396.444336	-119.936844
2927.797181	5608.196500	395.168945	-10.120032
2927.797181	5608.196500	393.892578	-9.084489
2927.797181	5608.196500	392.616211	-106.902512
2927.797181	5608.196500	391.339844	-25.180084
2927.797181	5608.196500	390.062500	-32.460758
2927.797181	5608.196500	388.785156	-95.157234
2927.797181	5608.196500	387.507813	-49.508694
2927.797181	5608.196500	386.229492	43.257362
2927.797181	5608.196500	384.951172	-39.732285
2927.797181	5608.196500	383.672852	-14.486327
2927.797181	5608.196500	382.394531	18.384968
2927.797181	5608.196500	381.115234	-57.407711
2927.797181	5608.196500	379.835938	10.373857
2927.797181	5608.196500	378.556641	-16.724930
2927.797181	5608.196500	377.277344	72.058563
2927.797181	5608.196500	375.997070	123.053993
2927.797181	5608.196500	374.716797	209.099808
2927.797181	5608.196500	373.435547	60.527832
2927.797181	5608.196500	372.155273	198.893402
2927.797181	5608.196500	370.874023	187.266129
2927.797181	5608.196500	369.591797	147.661041
2927.797181	5608.196500	368.310547	97.774170
2927.797181	5608.196500	367.028320	285.288940
2927.797181	5608.196500	365.746094	104.658791
2927.797181	5608.196500	364.463867	80.769257
2927.797181	5608.196500	363.180664	44.530075
2927.797181	5608.196500	361.897461	158.954880
2927.797181	5608.196500	360.614258	158.808960
2927.797181	5608.196500	359.330078	42.169914
2927.797181	5608.196500	358.045898	-96.689682
2927.797181	5608.196500	356.761719	95.463982
2927.797181	5608.196500	355.477539	182.805893
2927.797181	5608.196500	354.192383	-81.799576
2927.797181	5608.196500	352.907227	58.878201
2927.797181	5608.196500	351.622070	-13.103384
2927.797181	5608.196500	350.336914	70.907501
2927.797181	5608.196500	349.050781	93.211830
2927.797181	5608.196500	347.764648	34.230309
2927.797181	5608.196500	346.477539	48.734364
2927.797181	5608.196500	345.191406	132.744659
2927.797181	5608.196500	343.904297	-87.865387
2927.797181	5608.196500	342.616211	-15.812359
2927.797181	5608.196500	341.329102	-119.108231
2927.797181	5608.196500	340.041016	-70.900421
2927.797181	5608.196500	338.752930	1.511015
2927.797181	5608.196500	337.463867	-38.874714
2927.797181	5608.196500	336.175781	19.217964
2927.797181	5608.196500	334.886719	-156.746109
2927.797181	5608.196500	333.596680	72.558380
2927.797181	5608.196500	332.307617	-31.892719
2927.797181	5608.196500	331.017578	30.237898
2927.797181	5608.196500	329.727539	-155.332626
2927.797181	5608.196500	328.436523	93.112473
2927.797181	5608.196500	327.146484	-21.399830
2927.797181	5608.196500	325.855469	-112.193871
2927.797181	5608.196500	324.563477	41.213345
2927.797181	5608.196500	323.272461	-72.599228
2927.797181	5608.196500	321.980469	129.765686
2927.797181	5608.196500	320.688477	-9.257510
2927.797181	5608.196500	319.395508	81.843254
2927.797181	5608.196500	318.103516	-88.393005
2927.797181	5608.196500	316.810547	6.371538
2927.797181	5608.196500	315.516602	-45.307545
2927.797181	5608.196500	314.223633	0.231454
2927.797181	5608.196500	312.929688	-147.470413
2927.797181	5608.196500	311.635742	-110.487488
2927.797181	5608.196500	310.340820	-85.715286
2927.797181	5608.196500	309.045898	-63.438038
2927.797181	5608.196500	307.750977	51.643009
2927.797181	5608.196500	306.456055	88.159676
2927.797181	5608.196500	305.160156	147.197586
2927.797181	5608.196500	303.865234	49.834545
2927.797181	5608.196500	302.568359	219.842911
2927.797181	5608.196500	301.272461	361.629364
2927.797181	5608.196500	299.975586	335.064545
2927.797181	5608.196500	298.678711	332.621979
