#X		#Y		#Wave		#Intensity
12480.805053	3948.546667	1999.980469	-124.981735
12480.805053	3948.546667	1999.016602	-9.353971
12480.805053	3948.546667	1998.052734	-87.102730
12480.805053	3948.546667	1997.087891	-133.213211
12480.805053	3948.546667	1996.123047	-11.422853
12480.805053	3948.546667	1995.158203	166.719574
12480.805053	3948.546667	1994.193359	-7.461118
12480.805053	3948.546667	1993.228516	167.037231
12480.805053	3948.546667	1992.262695	66.139656
12480.805053	3948.546667	1991.297852	11.798278
12480.805053	3948.546667	1990.332031	-99.927917
12480.805053	3948.546667	1989.366211	40.310875
12480.805053	3948.546667	1988.399414	36.555416
12480.805053	3948.546667	1987.433594	0.201652
12480.805053	3948.546667	1986.466797	40.109009
12480.805053	3948.546667	1985.500977	99.369751
12480.805053	3948.546667	1984.534180	37.085045
12480.805053	3948.546667	1983.567383	221.616043
12480.805053	3948.546667	1982.599609	111.640594
12480.805053	3948.546667	1981.632813	149.600372
12480.805053	3948.546667	1980.665039	78.519951
12480.805053	3948.546667	1979.697266	130.636627
12480.805053	3948.546667	1978.729492	91.057594
12480.805053	3948.546667	1977.761719	-47.560516
12480.805053	3948.546667	1976.792969	65.376236
12480.805053	3948.546667	1975.825195	-93.483482
12480.805053	3948.546667	1974.856445	48.500385
12480.805053	3948.546667	1973.887695	113.704834
12480.805053	3948.546667	1972.918945	-21.150566
12480.805053	3948.546667	1971.949219	-35.337872
12480.805053	3948.546667	1970.980469	83.417595
12480.805053	3948.546667	1970.010742	189.597778
12480.805053	3948.546667	1969.041016	189.557953
12480.805053	3948.546667	1968.071289	80.902985
12480.805053	3948.546667	1967.101563	147.052933
12480.805053	3948.546667	1966.130859	242.573792
12480.805053	3948.546667	1965.161133	86.680298
12480.805053	3948.546667	1964.190430	157.251053
12480.805053	3948.546667	1963.219727	111.941597
12480.805053	3948.546667	1962.249023	81.289841
12480.805053	3948.546667	1961.277344	116.977997
12480.805053	3948.546667	1960.306641	71.340111
12480.805053	3948.546667	1959.334961	-40.815170
12480.805053	3948.546667	1958.363281	85.575394
12480.805053	3948.546667	1957.391602	-78.373375
12480.805053	3948.546667	1956.419922	8.462864
12480.805053	3948.546667	1955.447266	21.435314
12480.805053	3948.546667	1954.474609	-152.470459
12480.805053	3948.546667	1953.501953	221.648560
12480.805053	3948.546667	1952.529297	25.537899
12480.805053	3948.546667	1951.556641	87.392143
12480.805053	3948.546667	1950.583984	-25.207649
12480.805053	3948.546667	1949.610352	134.773712
12480.805053	3948.546667	1948.636719	147.349228
12480.805053	3948.546667	1947.663086	100.978287
12480.805053	3948.546667	1946.689453	-33.753929
12480.805053	3948.546667	1945.715820	-33.492916
12480.805053	3948.546667	1944.741211	8.460489
12480.805053	3948.546667	1943.767578	55.297112
12480.805053	3948.546667	1942.792969	121.729530
12480.805053	3948.546667	1941.818359	77.795021
12480.805053	3948.546667	1940.842773	24.072912
12480.805053	3948.546667	1939.868164	2.244543
12480.805053	3948.546667	1938.892578	93.162468
12480.805053	3948.546667	1937.916992	139.959000
12480.805053	3948.546667	1936.941406	176.955841
12480.805053	3948.546667	1935.965820	-23.619204
12480.805053	3948.546667	1934.990234	62.417572
12480.805053	3948.546667	1934.013672	38.269512
12480.805053	3948.546667	1933.037109	219.785828
12480.805053	3948.546667	1932.060547	-34.380486
12480.805053	3948.546667	1931.083984	46.821854
12480.805053	3948.546667	1930.107422	-57.905632
12480.805053	3948.546667	1929.129883	145.650635
12480.805053	3948.546667	1928.153320	11.676382
12480.805053	3948.546667	1927.175781	-168.663406
12480.805053	3948.546667	1926.198242	-87.305870
12480.805053	3948.546667	1925.219727	-133.035843
12480.805053	3948.546667	1924.242188	-80.944801
12480.805053	3948.546667	1923.263672	-99.683327
12480.805053	3948.546667	1922.285156	-64.617958
12480.805053	3948.546667	1921.306641	-5.089312
12480.805053	3948.546667	1920.328125	95.984734
12480.805053	3948.546667	1919.349609	70.115875
12480.805053	3948.546667	1918.370117	46.751293
12480.805053	3948.546667	1917.391602	3.929775
12480.805053	3948.546667	1916.412109	0.222420
12480.805053	3948.546667	1915.431641	-8.307564
12480.805053	3948.546667	1914.452148	-9.456989
12480.805053	3948.546667	1913.472656	40.668198
12480.805053	3948.546667	1912.492188	-40.839565
12480.805053	3948.546667	1911.511719	-44.244072
12480.805053	3948.546667	1910.531250	18.222322
12480.805053	3948.546667	1909.550781	122.152367
12480.805053	3948.546667	1908.569336	-119.884064
12480.805053	3948.546667	1907.588867	-140.087601
12480.805053	3948.546667	1906.607422	-60.365395
12480.805053	3948.546667	1905.625977	65.652672
12480.805053	3948.546667	1904.644531	72.382195
12480.805053	3948.546667	1903.662109	-91.233047
12480.805053	3948.546667	1902.680664	-164.677856
12480.805053	3948.546667	1901.698242	-45.805439
12480.805053	3948.546667	1900.715820	-38.834248
12480.805053	3948.546667	1899.733398	43.595291
12480.805053	3948.546667	1898.750000	67.678864
12480.805053	3948.546667	1897.767578	45.609467
12480.805053	3948.546667	1896.784180	-0.710991
12480.805053	3948.546667	1895.800781	-5.641197
12480.805053	3948.546667	1894.817383	-166.050400
12480.805053	3948.546667	1893.833984	30.817083
12480.805053	3948.546667	1892.850586	79.474716
12480.805053	3948.546667	1891.866211	16.436493
12480.805053	3948.546667	1890.881836	2.033620
12480.805053	3948.546667	1889.897461	-63.304581
12480.805053	3948.546667	1888.913086	109.313072
12480.805053	3948.546667	1887.927734	58.626137
12480.805053	3948.546667	1886.943359	12.851379
12480.805053	3948.546667	1885.958008	166.068909
12480.805053	3948.546667	1884.972656	33.044964
12480.805053	3948.546667	1883.987305	35.914646
12480.805053	3948.546667	1883.001953	19.420464
12480.805053	3948.546667	1882.015625	-62.491020
12480.805053	3948.546667	1881.029297	-98.288254
12480.805053	3948.546667	1880.042969	64.670578
12480.805053	3948.546667	1879.056641	128.257706
12480.805053	3948.546667	1878.070313	0.473304
12480.805053	3948.546667	1877.083984	-64.268463
12480.805053	3948.546667	1876.096680	-68.425354
12480.805053	3948.546667	1875.109375	19.440084
12480.805053	3948.546667	1874.122070	92.767349
12480.805053	3948.546667	1873.134766	-121.917175
12480.805053	3948.546667	1872.146484	74.843750
12480.805053	3948.546667	1871.159180	29.617075
12480.805053	3948.546667	1870.170898	3.768428
12480.805053	3948.546667	1869.182617	200.426437
12480.805053	3948.546667	1868.194336	-33.369919
12480.805053	3948.546667	1867.205078	-221.142929
12480.805053	3948.546667	1866.216797	144.648773
12480.805053	3948.546667	1865.227539	48.742878
12480.805053	3948.546667	1864.238281	25.354826
12480.805053	3948.546667	1863.249023	-24.601471
12480.805053	3948.546667	1862.259766	34.137505
12480.805053	3948.546667	1861.269531	261.877502
12480.805053	3948.546667	1860.279297	137.037003
12480.805053	3948.546667	1859.290039	-21.563046
12480.805053	3948.546667	1858.298828	131.206680
12480.805053	3948.546667	1857.308594	257.359039
12480.805053	3948.546667	1856.318359	57.763199
12480.805053	3948.546667	1855.327148	-127.307465
12480.805053	3948.546667	1854.335938	172.390808
12480.805053	3948.546667	1853.344727	62.062912
12480.805053	3948.546667	1852.353516	236.205719
12480.805053	3948.546667	1851.362305	-79.016922
12480.805053	3948.546667	1850.370117	167.316681
12480.805053	3948.546667	1849.377930	-15.329837
12480.805053	3948.546667	1848.385742	226.010117
12480.805053	3948.546667	1847.393555	91.514084
12480.805053	3948.546667	1846.401367	24.448509
12480.805053	3948.546667	1845.408203	7.922398
12480.805053	3948.546667	1844.415039	181.511871
12480.805053	3948.546667	1843.421875	63.793915
12480.805053	3948.546667	1842.428711	229.992996
12480.805053	3948.546667	1841.435547	-8.073627
12480.805053	3948.546667	1840.441406	-29.637003
12480.805053	3948.546667	1839.448242	13.682493
12480.805053	3948.546667	1838.454102	193.971710
12480.805053	3948.546667	1837.459961	174.613815
12480.805053	3948.546667	1836.464844	354.682281
12480.805053	3948.546667	1835.470703	109.297447
12480.805053	3948.546667	1834.475586	293.985199
12480.805053	3948.546667	1833.480469	118.228630
12480.805053	3948.546667	1832.485352	158.610687
12480.805053	3948.546667	1831.490234	191.701706
12480.805053	3948.546667	1830.495117	215.104233
12480.805053	3948.546667	1829.499023	207.216537
12480.805053	3948.546667	1828.502930	122.461578
12480.805053	3948.546667	1827.506836	136.029831
12480.805053	3948.546667	1826.510742	58.354019
12480.805053	3948.546667	1825.513672	186.886856
12480.805053	3948.546667	1824.517578	41.917488
12480.805053	3948.546667	1823.520508	184.615860
12480.805053	3948.546667	1822.523438	200.126205
12480.805053	3948.546667	1821.526367	69.346153
12480.805053	3948.546667	1820.529297	218.872620
12480.805053	3948.546667	1819.531250	305.957733
12480.805053	3948.546667	1818.533203	91.110382
12480.805053	3948.546667	1817.535156	122.909973
12480.805053	3948.546667	1816.537109	341.357788
12480.805053	3948.546667	1815.539063	162.232437
12480.805053	3948.546667	1814.540039	71.627525
12480.805053	3948.546667	1813.541992	-71.692917
12480.805053	3948.546667	1812.542969	88.784981
12480.805053	3948.546667	1811.543945	48.157887
12480.805053	3948.546667	1810.543945	270.513184
12480.805053	3948.546667	1809.544922	179.430328
12480.805053	3948.546667	1808.544922	152.815002
12480.805053	3948.546667	1807.544922	80.679451
12480.805053	3948.546667	1806.544922	144.676559
12480.805053	3948.546667	1805.544922	67.556938
12480.805053	3948.546667	1804.544922	95.460831
12480.805053	3948.546667	1803.543945	-10.524961
12480.805053	3948.546667	1802.542969	143.703308
12480.805053	3948.546667	1801.541992	78.091629
12480.805053	3948.546667	1800.541016	179.480606
12480.805053	3948.546667	1799.539063	80.219322
12480.805053	3948.546667	1798.538086	-64.465408
12480.805053	3948.546667	1797.536133	-6.437691
12480.805053	3948.546667	1796.534180	-27.276501
12480.805053	3948.546667	1795.532227	247.485840
12480.805053	3948.546667	1794.529297	4.588591
12480.805053	3948.546667	1793.527344	121.633965
12480.805053	3948.546667	1792.524414	-18.923922
12480.805053	3948.546667	1791.521484	38.231281
12480.805053	3948.546667	1790.518555	85.697273
12480.805053	3948.546667	1789.514648	266.405212
12480.805053	3948.546667	1788.511719	168.250717
12480.805053	3948.546667	1787.507813	231.914337
12480.805053	3948.546667	1786.503906	376.361633
12480.805053	3948.546667	1785.500000	132.614288
12480.805053	3948.546667	1784.496094	72.070969
12480.805053	3948.546667	1783.491211	32.817505
12480.805053	3948.546667	1782.486328	181.376755
12480.805053	3948.546667	1781.481445	146.585968
12480.805053	3948.546667	1780.476563	330.449402
12480.805053	3948.546667	1779.471680	43.322895
12480.805053	3948.546667	1778.465820	129.372818
12480.805053	3948.546667	1777.460938	117.802780
12480.805053	3948.546667	1776.455078	-100.654633
12480.805053	3948.546667	1775.449219	134.609573
12480.805053	3948.546667	1774.442383	172.470291
12480.805053	3948.546667	1773.436523	124.676361
12480.805053	3948.546667	1772.429688	326.066742
12480.805053	3948.546667	1771.422852	76.161324
12480.805053	3948.546667	1770.416016	277.183411
12480.805053	3948.546667	1769.409180	-105.814529
12480.805053	3948.546667	1768.402344	-64.107155
12480.805053	3948.546667	1767.394531	171.949173
12480.805053	3948.546667	1766.386719	14.046069
12480.805053	3948.546667	1765.378906	254.436325
12480.805053	3948.546667	1764.371094	330.991882
12480.805053	3948.546667	1763.362305	-38.285667
12480.805053	3948.546667	1762.354492	71.171417
12480.805053	3948.546667	1761.345703	61.947372
12480.805053	3948.546667	1760.336914	140.229980
12480.805053	3948.546667	1759.328125	2.784898
12480.805053	3948.546667	1758.318359	163.619980
12480.805053	3948.546667	1757.308594	184.544647
12480.805053	3948.546667	1756.299805	91.688225
12480.805053	3948.546667	1755.290039	15.272074
12480.805053	3948.546667	1754.279297	12.080137
12480.805053	3948.546667	1753.269531	-88.256432
12480.805053	3948.546667	1752.258789	-129.581497
12480.805053	3948.546667	1751.249023	65.471100
12480.805053	3948.546667	1750.238281	19.098967
12480.805053	3948.546667	1749.226563	5.678974
12480.805053	3948.546667	1748.215820	93.760841
12480.805053	3948.546667	1747.204102	11.494544
12480.805053	3948.546667	1746.193359	85.063240
12480.805053	3948.546667	1745.181641	130.092957
12480.805053	3948.546667	1744.168945	174.944107
12480.805053	3948.546667	1743.157227	167.687485
12480.805053	3948.546667	1742.144531	110.691559
12480.805053	3948.546667	1741.132813	258.945679
12480.805053	3948.546667	1740.120117	111.973099
12480.805053	3948.546667	1739.106445	233.893143
12480.805053	3948.546667	1738.093750	320.243958
12480.805053	3948.546667	1737.080078	135.148605
12480.805053	3948.546667	1736.067383	-9.919588
12480.805053	3948.546667	1735.053711	130.205887
12480.805053	3948.546667	1734.040039	81.542442
12480.805053	3948.546667	1733.025391	134.086349
12480.805053	3948.546667	1732.011719	80.439102
12480.805053	3948.546667	1730.997070	-150.045303
12480.805053	3948.546667	1729.982422	-93.205269
12480.805053	3948.546667	1728.967773	187.208160
12480.805053	3948.546667	1727.952148	-133.081726
12480.805053	3948.546667	1726.937500	-149.681000
12480.805053	3948.546667	1725.921875	-22.847193
12480.805053	3948.546667	1724.906250	96.740311
12480.805053	3948.546667	1723.890625	-26.201675
12480.805053	3948.546667	1722.875000	-26.906483
12480.805053	3948.546667	1721.858398	78.077095
12480.805053	3948.546667	1720.841797	-172.194412
12480.805053	3948.546667	1719.825195	66.520370
12480.805053	3948.546667	1718.808594	-80.491325
12480.805053	3948.546667	1717.791992	-44.265442
12480.805053	3948.546667	1716.774414	-38.744823
12480.805053	3948.546667	1715.756836	-139.073364
12480.805053	3948.546667	1714.739258	-183.118988
12480.805053	3948.546667	1713.721680	14.606862
12480.805053	3948.546667	1712.704102	68.908173
12480.805053	3948.546667	1711.685547	139.479324
12480.805053	3948.546667	1710.667969	-22.437731
12480.805053	3948.546667	1709.649414	-118.728043
12480.805053	3948.546667	1708.630859	-48.526730
12480.805053	3948.546667	1707.611328	54.350487
12480.805053	3948.546667	1706.592773	-42.257820
12480.805053	3948.546667	1705.573242	135.375824
12480.805053	3948.546667	1704.553711	50.261353
12480.805053	3948.546667	1703.534180	-107.594925
12480.805053	3948.546667	1702.513672	34.437141
12480.805053	3948.546667	1701.494141	113.060547
12480.805053	3948.546667	1700.473633	184.498901
12480.805053	3948.546667	1699.453125	173.828171
12480.805053	3948.546667	1698.432617	-89.841736
12480.805053	3948.546667	1697.412109	-35.115688
12480.805053	3948.546667	1696.390625	-43.732189
12480.805053	3948.546667	1695.369141	204.980881
12480.805053	3948.546667	1694.347656	51.048561
12480.805053	3948.546667	1693.326172	91.242973
12480.805053	3948.546667	1692.304688	-11.351237
12480.805053	3948.546667	1691.282227	42.657936
12480.805053	3948.546667	1690.260742	45.132935
12480.805053	3948.546667	1689.238281	220.476212
12480.805053	3948.546667	1688.214844	87.140373
12480.805053	3948.546667	1687.192383	273.909302
12480.805053	3948.546667	1686.168945	280.609833
12480.805053	3948.546667	1685.146484	2.273214
12480.805053	3948.546667	1684.123047	67.234787
12480.805053	3948.546667	1683.099609	227.817276
12480.805053	3948.546667	1682.075195	159.463898
12480.805053	3948.546667	1681.051758	154.092285
12480.805053	3948.546667	1680.027344	178.961105
12480.805053	3948.546667	1679.002930	329.730316
12480.805053	3948.546667	1677.978516	356.737671
12480.805053	3948.546667	1676.953125	185.406601
12480.805053	3948.546667	1675.928711	79.378105
12480.805053	3948.546667	1674.903320	292.687592
12480.805053	3948.546667	1673.877930	447.576477
12480.805053	3948.546667	1672.852539	392.604248
12480.805053	3948.546667	1671.826172	442.417725
12480.805053	3948.546667	1670.800781	608.643860
12480.805053	3948.546667	1669.774414	476.608612
12480.805053	3948.546667	1668.748047	493.595703
12480.805053	3948.546667	1667.721680	585.019104
12480.805053	3948.546667	1666.694336	464.514740
12480.805053	3948.546667	1665.667969	518.565613
12480.805053	3948.546667	1664.640625	549.256897
12480.805053	3948.546667	1663.613281	542.666626
12480.805053	3948.546667	1662.585938	710.472534
12480.805053	3948.546667	1661.557617	699.090515
12480.805053	3948.546667	1660.530273	817.888794
12480.805053	3948.546667	1659.501953	829.650574
12480.805053	3948.546667	1658.473633	1097.019409
12480.805053	3948.546667	1657.444336	992.443420
12480.805053	3948.546667	1656.416016	792.641663
12480.805053	3948.546667	1655.386719	1017.926331
12480.805053	3948.546667	1654.358398	1080.550781
12480.805053	3948.546667	1653.328125	1145.404053
12480.805053	3948.546667	1652.298828	1379.687012
12480.805053	3948.546667	1651.269531	1135.736450
12480.805053	3948.546667	1650.239258	1478.924194
12480.805053	3948.546667	1649.208984	1367.227051
12480.805053	3948.546667	1648.178711	1394.730103
12480.805053	3948.546667	1647.148438	1345.671753
12480.805053	3948.546667	1646.117188	1387.027222
12480.805053	3948.546667	1645.086914	1511.829468
12480.805053	3948.546667	1644.055664	1191.531982
12480.805053	3948.546667	1643.024414	1249.078613
12480.805053	3948.546667	1641.992188	1315.843994
12480.805053	3948.546667	1640.960938	1417.343506
12480.805053	3948.546667	1639.928711	1532.677124
12480.805053	3948.546667	1638.896484	1566.918579
12480.805053	3948.546667	1637.864258	1443.720337
12480.805053	3948.546667	1636.832031	1586.757935
12480.805053	3948.546667	1635.798828	1683.440674
12480.805053	3948.546667	1634.766602	1592.695801
12480.805053	3948.546667	1633.733398	1735.621460
12480.805053	3948.546667	1632.699219	1980.248169
12480.805053	3948.546667	1631.666016	1820.137695
12480.805053	3948.546667	1630.632813	1759.519531
12480.805053	3948.546667	1629.598633	1851.481445
12480.805053	3948.546667	1628.564453	1959.603760
12480.805053	3948.546667	1627.530273	1661.034912
12480.805053	3948.546667	1626.495117	2048.706787
12480.805053	3948.546667	1625.460938	1962.778198
12480.805053	3948.546667	1624.425781	1980.808105
12480.805053	3948.546667	1623.390625	2028.873657
12480.805053	3948.546667	1622.355469	2083.876221
12480.805053	3948.546667	1621.319336	2247.343506
12480.805053	3948.546667	1620.284180	2131.595215
12480.805053	3948.546667	1619.248047	2062.049805
12480.805053	3948.546667	1618.211914	2292.426025
12480.805053	3948.546667	1617.174805	2363.610596
12480.805053	3948.546667	1616.138672	2480.942139
12480.805053	3948.546667	1615.101563	2406.919189
12480.805053	3948.546667	1614.065430	2538.116211
12480.805053	3948.546667	1613.027344	2708.446777
12480.805053	3948.546667	1611.990234	2816.574951
12480.805053	3948.546667	1610.953125	2936.230469
12480.805053	3948.546667	1609.915039	2820.968994
12480.805053	3948.546667	1608.876953	2910.734375
12480.805053	3948.546667	1607.838867	2970.595947
12480.805053	3948.546667	1606.800781	3104.147461
12480.805053	3948.546667	1605.761719	3304.424805
12480.805053	3948.546667	1604.723633	3456.390137
12480.805053	3948.546667	1603.684570	3562.336914
12480.805053	3948.546667	1602.644531	3665.992188
12480.805053	3948.546667	1601.605469	3659.322266
12480.805053	3948.546667	1600.566406	3845.839600
12480.805053	3948.546667	1599.526367	3586.428223
12480.805053	3948.546667	1598.486328	3860.343018
12480.805053	3948.546667	1597.446289	3693.085449
12480.805053	3948.546667	1596.405273	3551.223389
12480.805053	3948.546667	1595.365234	3499.085693
12480.805053	3948.546667	1594.324219	3495.255371
12480.805053	3948.546667	1593.283203	3176.984619
12480.805053	3948.546667	1592.242188	2916.306396
12480.805053	3948.546667	1591.200195	2954.141602
12480.805053	3948.546667	1590.159180	2783.271729
12480.805053	3948.546667	1589.117188	2738.712891
12480.805053	3948.546667	1588.075195	2863.989746
12480.805053	3948.546667	1587.032227	2755.396729
12480.805053	3948.546667	1585.990234	2688.227295
12480.805053	3948.546667	1584.947266	2300.254150
12480.805053	3948.546667	1583.904297	2485.478027
12480.805053	3948.546667	1582.861328	2285.787354
12480.805053	3948.546667	1581.818359	2569.654541
12480.805053	3948.546667	1580.775391	2354.200439
12480.805053	3948.546667	1579.731445	2335.860107
12480.805053	3948.546667	1578.687500	2187.131592
12480.805053	3948.546667	1577.643555	2233.144043
12480.805053	3948.546667	1576.598633	2189.977051
12480.805053	3948.546667	1575.554688	2359.758545
12480.805053	3948.546667	1574.509766	2499.831543
12480.805053	3948.546667	1573.464844	2388.364014
12480.805053	3948.546667	1572.419922	2384.539551
12480.805053	3948.546667	1571.374023	2451.700439
12480.805053	3948.546667	1570.329102	2528.113770
12480.805053	3948.546667	1569.283203	2360.057129
12480.805053	3948.546667	1568.237305	2192.188965
12480.805053	3948.546667	1567.191406	1773.207031
12480.805053	3948.546667	1566.144531	1898.131104
12480.805053	3948.546667	1565.098633	1671.458008
12480.805053	3948.546667	1564.051758	1885.659790
12480.805053	3948.546667	1563.004883	1848.799316
12480.805053	3948.546667	1561.957031	1743.600952
12480.805053	3948.546667	1560.910156	1542.752075
12480.805053	3948.546667	1559.862305	1440.206787
12480.805053	3948.546667	1558.814453	1426.799072
12480.805053	3948.546667	1557.766602	1415.816528
12480.805053	3948.546667	1556.718750	1270.450439
12480.805053	3948.546667	1555.669922	1271.169434
12480.805053	3948.546667	1554.621094	1310.777222
12480.805053	3948.546667	1553.573242	1252.538330
12480.805053	3948.546667	1552.523438	1094.195557
12480.805053	3948.546667	1551.474609	997.577820
12480.805053	3948.546667	1550.424805	860.138672
12480.805053	3948.546667	1549.375000	772.996887
12480.805053	3948.546667	1548.325195	1070.774658
12480.805053	3948.546667	1547.275391	788.183899
12480.805053	3948.546667	1546.225586	769.831238
12480.805053	3948.546667	1545.174805	1113.383423
12480.805053	3948.546667	1544.124023	788.181030
12480.805053	3948.546667	1543.073242	995.447571
12480.805053	3948.546667	1542.022461	1114.109985
12480.805053	3948.546667	1540.970703	1032.812866
12480.805053	3948.546667	1539.919922	908.532593
12480.805053	3948.546667	1538.868164	1066.241455
12480.805053	3948.546667	1537.815430	987.744446
12480.805053	3948.546667	1536.763672	929.896729
12480.805053	3948.546667	1535.710938	740.497620
12480.805053	3948.546667	1534.659180	889.683716
12480.805053	3948.546667	1533.606445	934.535400
12480.805053	3948.546667	1532.552734	822.907410
12480.805053	3948.546667	1531.500000	1101.832764
12480.805053	3948.546667	1530.446289	920.216003
12480.805053	3948.546667	1529.393555	781.950623
12480.805053	3948.546667	1528.338867	972.754639
12480.805053	3948.546667	1527.285156	769.104919
12480.805053	3948.546667	1526.231445	726.674194
12480.805053	3948.546667	1525.176758	849.891663
12480.805053	3948.546667	1524.122070	646.897217
12480.805053	3948.546667	1523.067383	720.582153
12480.805053	3948.546667	1522.012695	554.287842
12480.805053	3948.546667	1520.957031	490.147308
12480.805053	3948.546667	1519.901367	596.040833
12480.805053	3948.546667	1518.845703	432.655548
12480.805053	3948.546667	1517.790039	722.222473
12480.805053	3948.546667	1516.734375	212.979446
12480.805053	3948.546667	1515.677734	312.762299
12480.805053	3948.546667	1514.621094	369.705322
12480.805053	3948.546667	1513.564453	779.639099
12480.805053	3948.546667	1512.507813	346.124542
12480.805053	3948.546667	1511.450195	374.173004
12480.805053	3948.546667	1510.393555	467.949951
12480.805053	3948.546667	1509.335938	462.428741
12480.805053	3948.546667	1508.278320	461.612640
12480.805053	3948.546667	1507.219727	293.803497
12480.805053	3948.546667	1506.162109	56.233799
12480.805053	3948.546667	1505.103516	462.516815
12480.805053	3948.546667	1504.044922	347.289825
12480.805053	3948.546667	1502.986328	92.344131
12480.805053	3948.546667	1501.926758	128.810501
12480.805053	3948.546667	1500.868164	242.172485
12480.805053	3948.546667	1499.808594	98.494255
12480.805053	3948.546667	1498.749023	119.710915
12480.805053	3948.546667	1497.688477	44.136490
12480.805053	3948.546667	1496.628906	164.933716
12480.805053	3948.546667	1495.568359	150.619247
12480.805053	3948.546667	1494.507813	316.793427
12480.805053	3948.546667	1493.447266	-23.888311
12480.805053	3948.546667	1492.386719	-98.416153
12480.805053	3948.546667	1491.325195	-78.129417
12480.805053	3948.546667	1490.263672	241.841980
12480.805053	3948.546667	1489.202148	39.539104
12480.805053	3948.546667	1488.140625	112.128952
12480.805053	3948.546667	1487.079102	-15.418752
12480.805053	3948.546667	1486.016602	-111.227707
12480.805053	3948.546667	1484.954102	-150.565521
12480.805053	3948.546667	1483.891602	-16.508438
12480.805053	3948.546667	1482.829102	61.465942
12480.805053	3948.546667	1481.765625	-62.749832
12480.805053	3948.546667	1480.702148	40.308270
12480.805053	3948.546667	1479.638672	67.088356
12480.805053	3948.546667	1478.575195	-92.435120
12480.805053	3948.546667	1477.511719	74.007202
12480.805053	3948.546667	1476.447266	-19.913006
12480.805053	3948.546667	1475.382813	149.057343
12480.805053	3948.546667	1474.318359	89.186577
12480.805053	3948.546667	1473.253906	184.212723
12480.805053	3948.546667	1472.189453	151.764450
12480.805053	3948.546667	1471.124023	56.572773
12480.805053	3948.546667	1470.058594	141.004089
12480.805053	3948.546667	1468.993164	138.157684
12480.805053	3948.546667	1467.927734	148.981476
12480.805053	3948.546667	1466.861328	272.115326
12480.805053	3948.546667	1465.794922	142.430725
12480.805053	3948.546667	1464.728516	176.144043
12480.805053	3948.546667	1463.662109	218.856476
12480.805053	3948.546667	1462.594727	165.385254
12480.805053	3948.546667	1461.528320	164.472687
12480.805053	3948.546667	1460.460938	203.878845
12480.805053	3948.546667	1459.393555	339.255310
12480.805053	3948.546667	1458.326172	333.659180
12480.805053	3948.546667	1457.257813	300.568695
12480.805053	3948.546667	1456.189453	262.687561
12480.805053	3948.546667	1455.121094	396.007385
12480.805053	3948.546667	1454.052734	581.638977
12480.805053	3948.546667	1452.984375	492.194092
12480.805053	3948.546667	1451.915039	429.729736
12480.805053	3948.546667	1450.845703	284.947815
12480.805053	3948.546667	1449.776367	558.595642
12480.805053	3948.546667	1448.707031	571.877808
12480.805053	3948.546667	1447.636719	649.791260
12480.805053	3948.546667	1446.567383	599.887939
12480.805053	3948.546667	1445.497070	558.254578
12480.805053	3948.546667	1444.425781	567.379333
12480.805053	3948.546667	1443.355469	905.840210
12480.805053	3948.546667	1442.285156	918.934387
12480.805053	3948.546667	1441.213867	754.993958
12480.805053	3948.546667	1440.142578	638.050842
12480.805053	3948.546667	1439.070313	901.365234
12480.805053	3948.546667	1437.999023	756.961548
12480.805053	3948.546667	1436.926758	543.029907
12480.805053	3948.546667	1435.854492	594.589783
12480.805053	3948.546667	1434.782227	528.085632
12480.805053	3948.546667	1433.709961	487.041138
12480.805053	3948.546667	1432.636719	515.820679
12480.805053	3948.546667	1431.563477	439.906921
12480.805053	3948.546667	1430.490234	356.629181
12480.805053	3948.546667	1429.416992	171.863449
12480.805053	3948.546667	1428.343750	282.624420
12480.805053	3948.546667	1427.269531	181.461807
12480.805053	3948.546667	1426.195313	414.977661
12480.805053	3948.546667	1425.121094	311.103577
12480.805053	3948.546667	1424.046875	18.185335
12480.805053	3948.546667	1422.971680	256.188171
12480.805053	3948.546667	1421.896484	138.170517
12480.805053	3948.546667	1420.821289	24.399904
12480.805053	3948.546667	1419.746094	159.540344
12480.805053	3948.546667	1418.669922	63.116253
12480.805053	3948.546667	1417.594727	281.476196
12480.805053	3948.546667	1416.518555	277.133087
12480.805053	3948.546667	1415.442383	389.632629
12480.805053	3948.546667	1414.365234	381.533936
12480.805053	3948.546667	1413.289063	273.877747
12480.805053	3948.546667	1412.211914	279.011078
12480.805053	3948.546667	1411.134766	407.970245
12480.805053	3948.546667	1410.057617	411.663239
12480.805053	3948.546667	1408.979492	323.189941
12480.805053	3948.546667	1407.902344	547.453796
12480.805053	3948.546667	1406.824219	618.266113
12480.805053	3948.546667	1405.746094	725.606750
12480.805053	3948.546667	1404.666992	573.735168
12480.805053	3948.546667	1403.588867	525.271606
12480.805053	3948.546667	1402.509766	412.731384
12480.805053	3948.546667	1401.430664	688.182739
12480.805053	3948.546667	1400.351563	860.546265
12480.805053	3948.546667	1399.271484	910.054749
12480.805053	3948.546667	1398.192383	559.783997
12480.805053	3948.546667	1397.112305	720.654968
12480.805053	3948.546667	1396.031250	637.246887
12480.805053	3948.546667	1394.951172	812.890564
12480.805053	3948.546667	1393.871094	563.871826
12480.805053	3948.546667	1392.790039	742.209167
12480.805053	3948.546667	1391.708984	604.446167
12480.805053	3948.546667	1390.626953	762.226563
12480.805053	3948.546667	1389.545898	855.523621
12480.805053	3948.546667	1388.463867	832.369507
12480.805053	3948.546667	1387.381836	618.345337
12480.805053	3948.546667	1386.299805	497.065979
12480.805053	3948.546667	1385.217773	502.081848
12480.805053	3948.546667	1384.134766	592.782471
12480.805053	3948.546667	1383.051758	553.680176
12480.805053	3948.546667	1381.968750	577.860413
12480.805053	3948.546667	1380.885742	513.480103
12480.805053	3948.546667	1379.802734	658.060303
12480.805053	3948.546667	1378.718750	675.039856
12480.805053	3948.546667	1377.634766	510.208771
12480.805053	3948.546667	1376.550781	718.991455
12480.805053	3948.546667	1375.465820	713.321228
12480.805053	3948.546667	1374.381836	671.050964
12480.805053	3948.546667	1373.296875	633.964783
12480.805053	3948.546667	1372.211914	518.623657
12480.805053	3948.546667	1371.126953	595.699951
12480.805053	3948.546667	1370.041016	567.995605
12480.805053	3948.546667	1368.955078	666.542969
12480.805053	3948.546667	1367.869141	524.461670
12480.805053	3948.546667	1366.783203	373.517822
12480.805053	3948.546667	1365.697266	434.995178
12480.805053	3948.546667	1364.610352	437.969513
12480.805053	3948.546667	1363.523438	437.707031
12480.805053	3948.546667	1362.436523	644.311707
12480.805053	3948.546667	1361.349609	581.154236
12480.805053	3948.546667	1360.261719	668.550903
12480.805053	3948.546667	1359.174805	509.647858
12480.805053	3948.546667	1358.086914	747.402649
12480.805053	3948.546667	1356.998047	591.571899
12480.805053	3948.546667	1355.910156	696.559021
12480.805053	3948.546667	1354.821289	655.180420
12480.805053	3948.546667	1353.732422	511.245453
12480.805053	3948.546667	1352.643555	575.725281
12480.805053	3948.546667	1351.554688	514.871277
12480.805053	3948.546667	1350.464844	481.978180
12480.805053	3948.546667	1349.375000	924.442810
12480.805053	3948.546667	1348.285156	655.793945
12480.805053	3948.546667	1347.195313	422.470520
12480.805053	3948.546667	1346.105469	709.940796
12480.805053	3948.546667	1345.014648	662.826843
12480.805053	3948.546667	1343.923828	614.854309
12480.805053	3948.546667	1342.833008	718.759033
12480.805053	3948.546667	1341.741211	343.889801
12480.805053	3948.546667	1340.650391	338.382446
12480.805053	3948.546667	1339.558594	470.280884
12480.805053	3948.546667	1338.466797	400.721619
12480.805053	3948.546667	1337.374023	322.937439
12480.805053	3948.546667	1336.282227	407.746338
12480.805053	3948.546667	1335.189453	544.615540
12480.805053	3948.546667	1334.096680	487.434296
12480.805053	3948.546667	1333.003906	687.778137
12480.805053	3948.546667	1331.910156	723.815796
12480.805053	3948.546667	1330.817383	718.790466
12480.805053	3948.546667	1329.723633	537.347717
12480.805053	3948.546667	1328.629883	635.384155
12480.805053	3948.546667	1327.535156	714.582336
12480.805053	3948.546667	1326.441406	530.523071
12480.805053	3948.546667	1325.346680	515.565063
12480.805053	3948.546667	1324.251953	526.000366
12480.805053	3948.546667	1323.156250	569.584961
12480.805053	3948.546667	1322.061523	606.063293
12480.805053	3948.546667	1320.965820	772.679199
12480.805053	3948.546667	1319.870117	546.649414
12480.805053	3948.546667	1318.774414	570.303589
12480.805053	3948.546667	1317.678711	632.985840
12480.805053	3948.546667	1316.582031	477.463135
12480.805053	3948.546667	1315.485352	598.328003
12480.805053	3948.546667	1314.388672	625.727478
12480.805053	3948.546667	1313.291016	490.070160
12480.805053	3948.546667	1312.194336	419.513000
12480.805053	3948.546667	1311.096680	557.969421
12480.805053	3948.546667	1309.999023	462.004517
12480.805053	3948.546667	1308.901367	452.620758
12480.805053	3948.546667	1307.802734	423.748383
12480.805053	3948.546667	1306.705078	602.687683
12480.805053	3948.546667	1305.606445	504.906128
12480.805053	3948.546667	1304.506836	584.889526
12480.805053	3948.546667	1303.408203	576.650146
12480.805053	3948.546667	1302.308594	550.031433
12480.805053	3948.546667	1301.208984	636.523132
12480.805053	3948.546667	1300.109375	664.961731
12480.805053	3948.546667	1299.009766	590.315552
12480.805053	3948.546667	1297.909180	863.840210
12480.805053	3948.546667	1296.808594	748.588928
12480.805053	3948.546667	1295.708008	590.950012
12480.805053	3948.546667	1294.607422	853.175903
12480.805053	3948.546667	1293.506836	563.745850
12480.805053	3948.546667	1292.405273	519.251343
12480.805053	3948.546667	1291.303711	413.352997
12480.805053	3948.546667	1290.202148	561.065186
12480.805053	3948.546667	1289.099609	272.953064
12480.805053	3948.546667	1287.998047	334.956451
12480.805053	3948.546667	1286.895508	259.401489
12480.805053	3948.546667	1285.792969	69.928329
12480.805053	3948.546667	1284.689453	128.307281
12480.805053	3948.546667	1283.586914	-17.644869
12480.805053	3948.546667	1282.483398	7.110920
12480.805053	3948.546667	1281.379883	8.701157
12480.805053	3948.546667	1280.276367	64.038635
12480.805053	3948.546667	1279.171875	212.096832
12480.805053	3948.546667	1278.067383	80.159500
12480.805053	3948.546667	1276.962891	34.933414
12480.805053	3948.546667	1275.858398	-39.389294
12480.805053	3948.546667	1274.753906	75.863976
12480.805053	3948.546667	1273.648438	-58.707359
12480.805053	3948.546667	1272.542969	2.801667
12480.805053	3948.546667	1271.437500	-16.129675
12480.805053	3948.546667	1270.331055	45.765972
12480.805053	3948.546667	1269.225586	-155.855347
12480.805053	3948.546667	1268.119141	-101.061249
12480.805053	3948.546667	1267.012695	99.361961
12480.805053	3948.546667	1265.906250	112.051796
12480.805053	3948.546667	1264.798828	81.693527
12480.805053	3948.546667	1263.691406	-13.804734
12480.805053	3948.546667	1262.583984	166.854721
12480.805053	3948.546667	1261.476563	78.428574
12480.805053	3948.546667	1260.368164	162.537598
12480.805053	3948.546667	1259.260742	104.231873
12480.805053	3948.546667	1258.152344	158.101639
12480.805053	3948.546667	1257.043945	223.817932
12480.805053	3948.546667	1255.934570	295.439880
12480.805053	3948.546667	1254.825195	139.783142
12480.805053	3948.546667	1253.716797	193.764053
12480.805053	3948.546667	1252.606445	376.890106
12480.805053	3948.546667	1251.497070	467.986725
12480.805053	3948.546667	1250.387695	298.322021
12480.805053	3948.546667	1249.277344	403.120972
12480.805053	3948.546667	1248.166992	208.432922
12480.805053	3948.546667	1247.055664	174.930054
12480.805053	3948.546667	1245.945313	-94.366867
12480.805053	3948.546667	1244.833984	-36.658329
12480.805053	3948.546667	1243.722656	26.465500
12480.805053	3948.546667	1242.611328	-89.061745
12480.805053	3948.546667	1241.499023	24.674200
12480.805053	3948.546667	1240.387695	-178.281036
12480.805053	3948.546667	1239.275391	121.730095
12480.805053	3948.546667	1238.162109	-5.844224
12480.805053	3948.546667	1237.049805	-28.873083
12480.805053	3948.546667	1235.936523	-4.487273
12480.805053	3948.546667	1234.823242	-45.179840
12480.805053	3948.546667	1233.709961	-51.707485
12480.805053	3948.546667	1232.596680	8.153562
12480.805053	3948.546667	1231.482422	52.379742
12480.805053	3948.546667	1230.369141	27.736391
12480.805053	3948.546667	1229.253906	71.718773
12480.805053	3948.546667	1228.139648	-1.590854
12480.805053	3948.546667	1227.025391	202.979248
12480.805053	3948.546667	1225.910156	-62.847614
12480.805053	3948.546667	1224.794922	35.386261
12480.805053	3948.546667	1223.679688	9.847119
12480.805053	3948.546667	1222.563477	0.026699
12480.805053	3948.546667	1221.447266	12.080156
12480.805053	3948.546667	1220.331055	27.785110
12480.805053	3948.546667	1219.214844	-88.006592
12480.805053	3948.546667	1218.098633	-129.628632
12480.805053	3948.546667	1216.981445	-171.242813
12480.805053	3948.546667	1215.864258	-23.333300
12480.805053	3948.546667	1214.747070	14.425446
12480.805053	3948.546667	1213.629883	22.652912
12480.805053	3948.546667	1212.511719	127.194908
12480.805053	3948.546667	1211.393555	64.495308
12480.805053	3948.546667	1210.275391	52.023243
12480.805053	3948.546667	1209.157227	-1.417178
12480.805053	3948.546667	1208.038086	23.051884
12480.805053	3948.546667	1206.918945	19.504473
12480.805053	3948.546667	1205.799805	-31.729876
12480.805053	3948.546667	1204.680664	165.005539
12480.805053	3948.546667	1203.560547	-3.355986
12480.805053	3948.546667	1202.441406	56.351536
12480.805053	3948.546667	1201.321289	-62.644478
12480.805053	3948.546667	1200.200195	-5.791963
12480.805053	3948.546667	1199.080078	-9.766302
12480.805053	3948.546667	1197.958984	10.800191
12480.805053	3948.546667	1196.837891	-127.681816
12480.805053	3948.546667	1195.716797	-51.253757
12480.805053	3948.546667	1194.594727	-75.106804
12480.805053	3948.546667	1193.473633	-112.003487
12480.805053	3948.546667	1192.351563	-114.351151
12480.805053	3948.546667	1191.229492	-65.906693
12480.805053	3948.546667	1190.106445	20.326008
12480.805053	3948.546667	1188.984375	-93.071251
12480.805053	3948.546667	1187.861328	36.977097
12480.805053	3948.546667	1186.738281	40.953732
12480.805053	3948.546667	1185.614258	6.113324
12480.805053	3948.546667	1184.491211	88.097862
12480.805053	3948.546667	1183.367188	-11.152367
12480.805053	3948.546667	1182.243164	166.913025
12480.805053	3948.546667	1181.119141	193.523254
12480.805053	3948.546667	1179.994141	77.730576
12480.805053	3948.546667	1178.869141	164.596344
12480.805053	3948.546667	1177.744141	217.960190
12480.805053	3948.546667	1176.619141	204.560165
12480.805053	3948.546667	1175.493164	223.444366
12480.805053	3948.546667	1174.368164	59.353825
12480.805053	3948.546667	1173.242188	279.659271
12480.805053	3948.546667	1172.115234	153.883774
12480.805053	3948.546667	1170.989258	126.863564
12480.805053	3948.546667	1169.862305	174.772690
12480.805053	3948.546667	1168.735352	222.184021
12480.805053	3948.546667	1167.608398	117.316208
12480.805053	3948.546667	1166.481445	209.534363
12480.805053	3948.546667	1165.353516	71.880150
12480.805053	3948.546667	1164.225586	86.572311
12480.805053	3948.546667	1163.097656	-8.163644
12480.805053	3948.546667	1161.968750	38.397354
12480.805053	3948.546667	1160.840820	107.885948
12480.805053	3948.546667	1159.711914	52.713249
12480.805053	3948.546667	1158.583008	-64.849831
12480.805053	3948.546667	1157.453125	51.635406
12480.805053	3948.546667	1156.324219	-126.310120
12480.805053	3948.546667	1155.194336	-70.157677
12480.805053	3948.546667	1154.064453	-137.282501
12480.805053	3948.546667	1152.933594	5.610304
12480.805053	3948.546667	1151.803711	74.334290
12480.805053	3948.546667	1150.672852	236.617828
12480.805053	3948.546667	1149.541992	88.073326
12480.805053	3948.546667	1148.411133	125.476250
12480.805053	3948.546667	1147.279297	-108.891518
12480.805053	3948.546667	1146.147461	-64.846024
12480.805053	3948.546667	1145.015625	30.871620
12480.805053	3948.546667	1143.883789	14.701958
12480.805053	3948.546667	1142.750977	63.103367
12480.805053	3948.546667	1141.619141	113.584183
12480.805053	3948.546667	1140.486328	69.917450
12480.805053	3948.546667	1139.352539	-57.406685
12480.805053	3948.546667	1138.219727	-26.469242
12480.805053	3948.546667	1137.085938	10.301226
12480.805053	3948.546667	1135.952148	76.915604
12480.805053	3948.546667	1134.818359	114.913155
12480.805053	3948.546667	1133.683594	37.068150
12480.805053	3948.546667	1132.549805	159.649948
12480.805053	3948.546667	1131.415039	292.674622
12480.805053	3948.546667	1130.279297	423.995728
12480.805053	3948.546667	1129.144531	281.434784
12480.805053	3948.546667	1128.008789	460.948944
12480.805053	3948.546667	1126.873047	319.438354
12480.805053	3948.546667	1125.737305	444.625031
12480.805053	3948.546667	1124.601563	499.269928
12480.805053	3948.546667	1123.464844	270.387054
12480.805053	3948.546667	1122.328125	445.943298
12480.805053	3948.546667	1121.191406	358.613800
12480.805053	3948.546667	1120.054688	309.661530
12480.805053	3948.546667	1118.916992	278.393219
12480.805053	3948.546667	1117.779297	155.833679
12480.805053	3948.546667	1116.641602	215.962769
12480.805053	3948.546667	1115.503906	202.712479
12480.805053	3948.546667	1114.365234	213.662643
12480.805053	3948.546667	1113.226563	62.471302
12480.805053	3948.546667	1112.087891	356.642700
12480.805053	3948.546667	1110.949219	202.366669
12480.805053	3948.546667	1109.809570	112.799973
12480.805053	3948.546667	1108.669922	178.739609
12480.805053	3948.546667	1107.530273	81.867584
12480.805053	3948.546667	1106.390625	117.890381
12480.805053	3948.546667	1105.250000	26.545568
12480.805053	3948.546667	1104.109375	80.782776
12480.805053	3948.546667	1102.968750	142.005753
12480.805053	3948.546667	1101.828125	-1.146426
12480.805053	3948.546667	1100.686523	94.010880
12480.805053	3948.546667	1099.544922	79.513504
12480.805053	3948.546667	1098.403320	87.780853
12480.805053	3948.546667	1097.261719	196.627823
12480.805053	3948.546667	1096.120117	194.677917
12480.805053	3948.546667	1094.977539	17.514889
12480.805053	3948.546667	1093.834961	173.519653
12480.805053	3948.546667	1092.691406	223.773895
12480.805053	3948.546667	1091.548828	76.257233
12480.805053	3948.546667	1090.405273	180.330734
12480.805053	3948.546667	1089.261719	34.330666
12480.805053	3948.546667	1088.118164	49.029026
12480.805053	3948.546667	1086.973633	179.308960
12480.805053	3948.546667	1085.829102	252.937622
12480.805053	3948.546667	1084.684570	-27.711439
12480.805053	3948.546667	1083.540039	-14.852552
12480.805053	3948.546667	1082.395508	123.675934
12480.805053	3948.546667	1081.250000	-16.392508
12480.805053	3948.546667	1080.104492	63.735950
12480.805053	3948.546667	1078.958984	-18.788744
12480.805053	3948.546667	1077.812500	-29.027229
12480.805053	3948.546667	1076.666016	61.519592
12480.805053	3948.546667	1075.519531	255.293671
12480.805053	3948.546667	1074.373047	42.595348
12480.805053	3948.546667	1073.226563	14.648815
12480.805053	3948.546667	1072.079102	94.447861
12480.805053	3948.546667	1070.931641	181.985046
12480.805053	3948.546667	1069.784180	-94.192207
12480.805053	3948.546667	1068.635742	189.984940
12480.805053	3948.546667	1067.487305	145.640091
12480.805053	3948.546667	1066.338867	231.520859
12480.805053	3948.546667	1065.190430	269.937408
12480.805053	3948.546667	1064.041992	259.133423
12480.805053	3948.546667	1062.892578	316.942200
12480.805053	3948.546667	1061.743164	276.910431
12480.805053	3948.546667	1060.593750	209.885361
12480.805053	3948.546667	1059.443359	239.280167
12480.805053	3948.546667	1058.292969	303.767700
12480.805053	3948.546667	1057.142578	159.691299
12480.805053	3948.546667	1055.992188	168.555466
12480.805053	3948.546667	1054.841797	282.377380
12480.805053	3948.546667	1053.690430	52.742836
12480.805053	3948.546667	1052.539063	-28.506136
12480.805053	3948.546667	1051.387695	285.108582
12480.805053	3948.546667	1050.235352	318.943176
12480.805053	3948.546667	1049.083984	260.571198
12480.805053	3948.546667	1047.931641	183.164307
12480.805053	3948.546667	1046.778320	284.275696
12480.805053	3948.546667	1045.625977	229.380524
12480.805053	3948.546667	1044.472656	103.297684
12480.805053	3948.546667	1043.319336	246.516052
12480.805053	3948.546667	1042.166016	119.741302
12480.805053	3948.546667	1041.012695	141.951538
12480.805053	3948.546667	1039.858398	238.979111
12480.805053	3948.546667	1038.704102	144.024017
12480.805053	3948.546667	1037.549805	84.406151
12480.805053	3948.546667	1036.394531	50.155991
12480.805053	3948.546667	1035.239258	-76.558586
12480.805053	3948.546667	1034.083984	156.900696
12480.805053	3948.546667	1032.928711	35.963120
12480.805053	3948.546667	1031.773438	24.431988
12480.805053	3948.546667	1030.617188	143.295578
12480.805053	3948.546667	1029.460938	161.649673
12480.805053	3948.546667	1028.304688	-166.450439
12480.805053	3948.546667	1027.147461	-109.990265
12480.805053	3948.546667	1025.991211	-82.791130
12480.805053	3948.546667	1024.833984	122.941032
12480.805053	3948.546667	1023.675781	-105.205444
12480.805053	3948.546667	1022.518555	128.295975
12480.805053	3948.546667	1021.360352	120.484245
12480.805053	3948.546667	1020.202148	-79.175415
12480.805053	3948.546667	1019.043945	81.251122
12480.805053	3948.546667	1017.884766	-46.648663
12480.805053	3948.546667	1016.726563	-194.511993
12480.805053	3948.546667	1015.567383	-114.502411
12480.805053	3948.546667	1014.407227	13.059242
12480.805053	3948.546667	1013.248047	-35.169159
12480.805053	3948.546667	1012.087891	153.309799
12480.805053	3948.546667	1010.927734	33.231068
12480.805053	3948.546667	1009.767578	141.765091
12480.805053	3948.546667	1008.606445	-116.001900
12480.805053	3948.546667	1007.446289	-37.664692
12480.805053	3948.546667	1006.285156	42.578491
12480.805053	3948.546667	1005.123047	-21.716269
12480.805053	3948.546667	1003.961914	89.344681
12480.805053	3948.546667	1002.799805	72.752388
12480.805053	3948.546667	1001.637695	115.211754
12480.805053	3948.546667	1000.475586	121.565041
12480.805053	3948.546667	999.312500	182.266373
12480.805053	3948.546667	998.149414	306.202362
12480.805053	3948.546667	996.986328	46.862720
12480.805053	3948.546667	995.823242	77.614098
12480.805053	3948.546667	994.659180	99.282585
12480.805053	3948.546667	993.496094	50.885292
12480.805053	3948.546667	992.332031	-25.911449
12480.805053	3948.546667	991.166992	-111.512558
12480.805053	3948.546667	990.002930	-16.565826
12480.805053	3948.546667	988.837891	-51.439274
12480.805053	3948.546667	987.672852	76.630821
12480.805053	3948.546667	986.506836	-46.904671
12480.805053	3948.546667	985.341797	-95.029335
12480.805053	3948.546667	984.175781	-99.149467
12480.805053	3948.546667	983.009766	8.936207
12480.805053	3948.546667	981.843750	75.772980
12480.805053	3948.546667	980.676758	-36.544842
12480.805053	3948.546667	979.509766	18.354946
12480.805053	3948.546667	978.342773	-43.418903
12480.805053	3948.546667	977.175781	53.923992
12480.805053	3948.546667	976.007813	-18.681349
12480.805053	3948.546667	974.839844	100.529907
12480.805053	3948.546667	973.671875	9.999495
12480.805053	3948.546667	972.503906	12.105655
12480.805053	3948.546667	971.334961	180.549896
12480.805053	3948.546667	970.166016	147.414490
12480.805053	3948.546667	968.997070	-20.775850
12480.805053	3948.546667	967.828125	279.099274
12480.805053	3948.546667	966.658203	309.534210
12480.805053	3948.546667	965.488281	167.476532
12480.805053	3948.546667	964.318359	89.237045
12480.805053	3948.546667	963.148438	81.442940
12480.805053	3948.546667	961.977539	53.865845
12480.805053	3948.546667	960.806641	50.132046
12480.805053	3948.546667	959.635742	-46.301201
12480.805053	3948.546667	958.463867	129.434341
12480.805053	3948.546667	957.292969	-23.753622
12480.805053	3948.546667	956.121094	-230.022415
12480.805053	3948.546667	954.948242	-45.017410
12480.805053	3948.546667	953.776367	69.008049
12480.805053	3948.546667	952.603516	89.035179
12480.805053	3948.546667	951.430664	-64.729607
12480.805053	3948.546667	950.257813	54.026352
12480.805053	3948.546667	949.084961	45.188938
12480.805053	3948.546667	947.911133	-75.911911
12480.805053	3948.546667	946.737305	-92.263115
12480.805053	3948.546667	945.563477	-35.316700
12480.805053	3948.546667	944.388672	-27.401989
12480.805053	3948.546667	943.213867	179.991196
12480.805053	3948.546667	942.039063	-29.473989
12480.805053	3948.546667	940.864258	-6.037674
12480.805053	3948.546667	939.688477	263.319366
12480.805053	3948.546667	938.513672	288.863556
12480.805053	3948.546667	937.337891	318.827576
12480.805053	3948.546667	936.161133	204.661636
12480.805053	3948.546667	934.985352	214.659576
12480.805053	3948.546667	933.808594	432.798096
12480.805053	3948.546667	932.631836	292.175293
12480.805053	3948.546667	931.454102	202.458664
12480.805053	3948.546667	930.277344	334.131592
12480.805053	3948.546667	929.099609	421.480164
12480.805053	3948.546667	927.921875	322.792969
12480.805053	3948.546667	926.743164	345.916138
12480.805053	3948.546667	925.565430	287.121124
12480.805053	3948.546667	924.386719	290.253540
12480.805053	3948.546667	923.208008	355.319702
12480.805053	3948.546667	922.028320	404.876556
12480.805053	3948.546667	920.849609	131.547287
12480.805053	3948.546667	919.669922	134.359909
12480.805053	3948.546667	919.474609	157.235077
12480.805053	3948.546667	918.309570	231.021851
12480.805053	3948.546667	917.143555	324.654755
12480.805053	3948.546667	915.977539	139.839371
12480.805053	3948.546667	914.810547	83.207733
12480.805053	3948.546667	913.644531	55.292278
12480.805053	3948.546667	912.477539	-127.194611
12480.805053	3948.546667	911.310547	-35.872528
12480.805053	3948.546667	910.143555	-112.353943
12480.805053	3948.546667	908.975586	-12.276463
12480.805053	3948.546667	907.807617	3.901456
12480.805053	3948.546667	906.639648	59.761665
12480.805053	3948.546667	905.471680	206.005142
12480.805053	3948.546667	904.303711	-18.267710
12480.805053	3948.546667	903.134766	108.056328
12480.805053	3948.546667	901.965820	-23.568064
12480.805053	3948.546667	900.796875	129.112793
12480.805053	3948.546667	899.626953	-24.530125
12480.805053	3948.546667	898.457031	-43.760876
12480.805053	3948.546667	897.287109	104.369507
12480.805053	3948.546667	896.117188	54.255302
12480.805053	3948.546667	894.947266	250.697021
12480.805053	3948.546667	893.776367	37.664154
12480.805053	3948.546667	892.605469	62.351662
12480.805053	3948.546667	891.434570	254.211411
12480.805053	3948.546667	890.262695	133.630753
12480.805053	3948.546667	889.091797	397.926819
12480.805053	3948.546667	887.919922	130.010361
12480.805053	3948.546667	886.748047	77.608612
12480.805053	3948.546667	885.575195	60.373497
12480.805053	3948.546667	884.403320	111.237465
12480.805053	3948.546667	883.230469	120.319107
12480.805053	3948.546667	882.057617	107.408203
12480.805053	3948.546667	880.883789	195.497391
12480.805053	3948.546667	879.710938	63.967484
12480.805053	3948.546667	878.537109	136.614624
12480.805053	3948.546667	877.362305	165.314346
12480.805053	3948.546667	876.188477	251.025696
12480.805053	3948.546667	875.013672	66.843483
12480.805053	3948.546667	873.839844	143.714142
12480.805053	3948.546667	872.664063	110.885391
12480.805053	3948.546667	871.489258	58.309864
12480.805053	3948.546667	870.313477	53.953266
12480.805053	3948.546667	869.138672	86.824684
12480.805053	3948.546667	867.962891	181.004944
12480.805053	3948.546667	866.786133	198.447647
12480.805053	3948.546667	865.610352	163.287979
12480.805053	3948.546667	864.433594	156.581207
12480.805053	3948.546667	863.256836	307.473816
12480.805053	3948.546667	862.079102	291.923798
12480.805053	3948.546667	860.902344	201.943420
12480.805053	3948.546667	859.724609	462.037018
12480.805053	3948.546667	858.546875	358.869659
12480.805053	3948.546667	857.368164	303.828888
12480.805053	3948.546667	856.190430	183.177231
12480.805053	3948.546667	855.011719	241.805420
12480.805053	3948.546667	853.833008	156.119873
12480.805053	3948.546667	852.654297	61.693348
12480.805053	3948.546667	851.474609	19.706161
12480.805053	3948.546667	850.294922	30.124376
12480.805053	3948.546667	849.115234	99.467010
12480.805053	3948.546667	847.935547	-45.234226
12480.805053	3948.546667	846.754883	93.877625
12480.805053	3948.546667	845.575195	-194.886581
12480.805053	3948.546667	844.393555	35.769581
12480.805053	3948.546667	843.212891	183.388489
12480.805053	3948.546667	842.032227	186.947144
12480.805053	3948.546667	840.850586	-90.851936
12480.805053	3948.546667	839.668945	-17.549313
12480.805053	3948.546667	838.486328	-16.253111
12480.805053	3948.546667	837.304688	0.256167
12480.805053	3948.546667	836.122070	-55.190376
12480.805053	3948.546667	834.939453	-208.689804
12480.805053	3948.546667	833.756836	84.332558
12480.805053	3948.546667	832.573242	152.896286
12480.805053	3948.546667	831.389648	86.402489
12480.805053	3948.546667	830.206055	-6.230442
12480.805053	3948.546667	829.022461	33.879753
12480.805053	3948.546667	827.838867	-156.708893
12480.805053	3948.546667	826.654297	-60.118561
12480.805053	3948.546667	825.469727	103.806900
12480.805053	3948.546667	824.284180	65.390526
12480.805053	3948.546667	823.099609	42.158375
12480.805053	3948.546667	821.914063	-89.791801
12480.805053	3948.546667	820.728516	-145.679657
12480.805053	3948.546667	819.542969	-136.414917
12480.805053	3948.546667	818.356445	-72.900352
12480.805053	3948.546667	817.169922	-159.316422
12480.805053	3948.546667	815.983398	12.638069
12480.805053	3948.546667	814.796875	-78.208313
12480.805053	3948.546667	813.609375	149.982712
12480.805053	3948.546667	812.422852	59.035805
12480.805053	3948.546667	811.235352	17.971807
12480.805053	3948.546667	810.046875	35.433594
12480.805053	3948.546667	808.859375	41.988289
12480.805053	3948.546667	807.670898	148.219940
12480.805053	3948.546667	806.482422	44.079346
12480.805053	3948.546667	805.293945	-3.726992
12480.805053	3948.546667	804.104492	141.276566
12480.805053	3948.546667	802.915039	80.352478
12480.805053	3948.546667	801.725586	88.704338
12480.805053	3948.546667	800.536133	101.323814
12480.805053	3948.546667	799.345703	-67.989426
12480.805053	3948.546667	798.155273	-66.289101
12480.805053	3948.546667	796.964844	80.347130
12480.805053	3948.546667	795.774414	-104.188644
12480.805053	3948.546667	794.583008	46.593479
12480.805053	3948.546667	793.392578	175.623276
12480.805053	3948.546667	792.200195	-15.497787
12480.805053	3948.546667	791.008789	26.883718
12480.805053	3948.546667	789.816406	-86.445473
12480.805053	3948.546667	788.625000	27.115751
12480.805053	3948.546667	787.432617	-71.173424
12480.805053	3948.546667	786.239258	1.159049
12480.805053	3948.546667	785.046875	118.749771
12480.805053	3948.546667	783.853516	61.323452
12480.805053	3948.546667	782.660156	68.617157
12480.805053	3948.546667	781.465820	0.295094
12480.805053	3948.546667	780.272461	11.774603
12480.805053	3948.546667	779.078125	-26.441692
12480.805053	3948.546667	777.883789	75.490944
12480.805053	3948.546667	776.688477	86.734581
12480.805053	3948.546667	775.494141	110.840820
12480.805053	3948.546667	774.298828	-87.168587
12480.805053	3948.546667	773.103516	96.303299
12480.805053	3948.546667	771.907227	163.267960
12480.805053	3948.546667	770.711914	1.776536
12480.805053	3948.546667	769.515625	-129.568619
12480.805053	3948.546667	768.318359	-45.593174
12480.805053	3948.546667	767.122070	-34.926296
12480.805053	3948.546667	765.924805	-13.576285
12480.805053	3948.546667	764.727539	-39.656647
12480.805053	3948.546667	763.530273	3.051091
12480.805053	3948.546667	762.333008	110.200958
12480.805053	3948.546667	761.134766	-62.366913
12480.805053	3948.546667	759.936523	44.598526
12480.805053	3948.546667	758.738281	69.748405
12480.805053	3948.546667	757.540039	-184.607925
12480.805053	3948.546667	756.340820	44.572598
12480.805053	3948.546667	755.141602	168.304993
12480.805053	3948.546667	753.942383	66.363472
12480.805053	3948.546667	752.742188	50.288044
12480.805053	3948.546667	751.541992	16.964050
12480.805053	3948.546667	750.341797	54.417713
12480.805053	3948.546667	749.141602	50.998520
12480.805053	3948.546667	747.941406	0.294245
12480.805053	3948.546667	746.740234	-50.470779
12480.805053	3948.546667	745.539063	46.706348
12480.805053	3948.546667	744.337891	36.540409
12480.805053	3948.546667	743.135742	30.584688
12480.805053	3948.546667	741.933594	200.325729
12480.805053	3948.546667	740.731445	-69.424004
12480.805053	3948.546667	739.529297	55.111862
12480.805053	3948.546667	738.326172	203.077240
12480.805053	3948.546667	737.124023	63.906944
12480.805053	3948.546667	735.919922	170.961258
12480.805053	3948.546667	734.716797	205.105576
12480.805053	3948.546667	733.513672	-103.314034
12480.805053	3948.546667	732.309570	-47.889217
12480.805053	3948.546667	731.105469	-120.939377
12480.805053	3948.546667	729.900391	11.309944
12480.805053	3948.546667	728.696289	-19.106825
12480.805053	3948.546667	727.491211	-34.627239
12480.805053	3948.546667	726.286133	-33.118229
12480.805053	3948.546667	725.080078	130.742340
12480.805053	3948.546667	723.874023	168.381668
12480.805053	3948.546667	722.668945	109.792595
12480.805053	3948.546667	721.461914	93.859795
12480.805053	3948.546667	720.255859	139.789963
12480.805053	3948.546667	719.048828	81.000282
12480.805053	3948.546667	717.841797	-150.745728
12480.805053	3948.546667	716.634766	101.984863
12480.805053	3948.546667	715.427734	-65.811478
12480.805053	3948.546667	714.219727	-7.491694
12480.805053	3948.546667	713.011719	-75.109344
12480.805053	3948.546667	711.803711	51.272514
12480.805053	3948.546667	710.594727	58.132759
12480.805053	3948.546667	709.385742	11.626087
12480.805053	3948.546667	708.176758	-26.410110
12480.805053	3948.546667	706.967773	3.673092
12480.805053	3948.546667	705.758789	72.012932
12480.805053	3948.546667	704.548828	3.944545
12480.805053	3948.546667	703.338867	3.967754
12480.805053	3948.546667	702.127930	48.618805
12480.805053	3948.546667	700.917969	93.184319
12480.805053	3948.546667	699.707031	-43.219849
12480.805053	3948.546667	698.496094	7.581228
12480.805053	3948.546667	697.285156	-86.347336
12480.805053	3948.546667	696.073242	28.093050
12480.805053	3948.546667	694.861328	225.336334
12480.805053	3948.546667	693.649414	-23.966383
12480.805053	3948.546667	692.436523	245.321503
12480.805053	3948.546667	691.224609	223.338211
12480.805053	3948.546667	690.011719	133.313187
12480.805053	3948.546667	688.798828	223.792068
12480.805053	3948.546667	687.584961	91.199417
12480.805053	3948.546667	686.372070	143.306778
12480.805053	3948.546667	685.158203	184.710449
12480.805053	3948.546667	683.943359	325.767670
12480.805053	3948.546667	682.729492	364.871368
12480.805053	3948.546667	681.514648	363.587433
12480.805053	3948.546667	680.299805	347.400452
12480.805053	3948.546667	679.084961	250.588791
12480.805053	3948.546667	677.869141	257.628540
12480.805053	3948.546667	676.653320	230.697891
12480.805053	3948.546667	675.437500	396.550842
12480.805053	3948.546667	674.221680	214.838867
12480.805053	3948.546667	673.004883	240.717697
12480.805053	3948.546667	671.789063	264.421143
12480.805053	3948.546667	670.571289	328.277435
12480.805053	3948.546667	669.354492	199.438202
12480.805053	3948.546667	668.136719	225.088715
12480.805053	3948.546667	666.919922	354.365509
12480.805053	3948.546667	665.701172	231.791794
12480.805053	3948.546667	664.483398	379.948395
12480.805053	3948.546667	663.264648	149.491165
12480.805053	3948.546667	662.045898	242.543304
12480.805053	3948.546667	660.827148	502.490936
12480.805053	3948.546667	659.608398	333.311920
12480.805053	3948.546667	658.388672	381.770294
12480.805053	3948.546667	657.168945	157.685791
12480.805053	3948.546667	655.949219	244.100861
12480.805053	3948.546667	654.728516	275.541168
12480.805053	3948.546667	653.507813	442.036621
12480.805053	3948.546667	652.287109	329.842560
12480.805053	3948.546667	651.066406	302.067871
12480.805053	3948.546667	649.844727	455.695374
12480.805053	3948.546667	648.623047	457.371216
12480.805053	3948.546667	647.401367	465.346039
12480.805053	3948.546667	646.179688	378.421204
12480.805053	3948.546667	644.957031	546.550110
12480.805053	3948.546667	643.734375	459.593109
12480.805053	3948.546667	642.511719	853.037109
12480.805053	3948.546667	641.289063	650.157227
12480.805053	3948.546667	640.065430	754.822937
12480.805053	3948.546667	638.841797	693.088013
12480.805053	3948.546667	637.618164	509.266632
12480.805053	3948.546667	636.393555	559.127747
12480.805053	3948.546667	635.168945	411.156860
12480.805053	3948.546667	633.944336	410.507996
12480.805053	3948.546667	632.719727	615.985718
12480.805053	3948.546667	631.494141	423.909821
12480.805053	3948.546667	630.269531	620.880371
12480.805053	3948.546667	629.042969	527.670715
12480.805053	3948.546667	627.817383	369.359833
12480.805053	3948.546667	626.590820	322.473328
12480.805053	3948.546667	625.365234	210.496109
12480.805053	3948.546667	624.137695	251.878342
12480.805053	3948.546667	622.911133	247.062302
12480.805053	3948.546667	621.683594	164.575653
12480.805053	3948.546667	620.456055	-20.710247
12480.805053	3948.546667	619.228516	68.997543
12480.805053	3948.546667	618.000977	81.055443
12480.805053	3948.546667	616.772461	59.558933
12480.805053	3948.546667	615.543945	17.120573
12480.805053	3948.546667	614.314453	-58.831089
12480.805053	3948.546667	613.085938	-71.832787
12480.805053	3948.546667	611.856445	103.814423
12480.805053	3948.546667	610.626953	-68.415627
12480.805053	3948.546667	609.397461	144.922424
12480.805053	3948.546667	608.166992	90.103981
12480.805053	3948.546667	606.936523	66.753220
12480.805053	3948.546667	605.706055	-61.230389
12480.805053	3948.546667	604.474609	168.798813
12480.805053	3948.546667	603.244141	43.019489
12480.805053	3948.546667	602.012695	-3.163798
12480.805053	3948.546667	600.780273	90.860466
12480.805053	3948.546667	599.548828	15.498291
12480.805053	3948.546667	598.316406	-135.061356
12480.805053	3948.546667	597.083984	-1.203339
12480.805053	3948.546667	595.851563	-32.460773
12480.805053	3948.546667	594.618164	-15.595871
12480.805053	3948.546667	593.384766	-55.087372
12480.805053	3948.546667	592.151367	-86.148087
12480.805053	3948.546667	590.917969	-89.985939
12480.805053	3948.546667	589.683594	21.062830
12480.805053	3948.546667	588.449219	34.024158
12480.805053	3948.546667	587.214844	-32.254238
12480.805053	3948.546667	585.979492	116.464813
12480.805053	3948.546667	584.745117	192.187668
12480.805053	3948.546667	583.509766	-55.317421
12480.805053	3948.546667	582.273438	37.229080
12480.805053	3948.546667	581.038086	267.408325
12480.805053	3948.546667	579.801758	309.983032
12480.805053	3948.546667	578.565430	-3.708848
12480.805053	3948.546667	577.329102	230.739868
12480.805053	3948.546667	576.091797	242.297256
12480.805053	3948.546667	574.854492	218.536331
12480.805053	3948.546667	573.617188	-102.853531
12480.805053	3948.546667	572.378906	94.292229
12480.805053	3948.546667	571.141602	168.665802
12480.805053	3948.546667	569.903320	24.627682
12480.805053	3948.546667	568.664063	28.439661
12480.805053	3948.546667	567.425781	269.451630
12480.805053	3948.546667	566.186523	202.712921
12480.805053	3948.546667	564.947266	223.419815
12480.805053	3948.546667	563.708008	46.769344
12480.805053	3948.546667	562.467773	171.609131
12480.805053	3948.546667	561.227539	254.953476
12480.805053	3948.546667	559.987305	190.894821
12480.805053	3948.546667	558.747070	62.598843
12480.805053	3948.546667	557.505859	-9.474276
12480.805053	3948.546667	556.264648	-25.354671
12480.805053	3948.546667	555.023438	-22.433424
12480.805053	3948.546667	553.781250	138.294769
12480.805053	3948.546667	552.539063	23.169481
12480.805053	3948.546667	551.296875	40.952858
12480.805053	3948.546667	550.054688	133.500732
12480.805053	3948.546667	548.811523	31.254196
12480.805053	3948.546667	547.569336	68.051849
12480.805053	3948.546667	546.325195	-93.982735
12480.805053	3948.546667	545.082031	-75.568382
12480.805053	3948.546667	543.837891	123.173141
12480.805053	3948.546667	542.593750	-133.642380
12480.805053	3948.546667	541.349609	-9.248286
12480.805053	3948.546667	540.105469	51.054626
12480.805053	3948.546667	538.860352	-8.573377
12480.805053	3948.546667	537.615234	20.932081
12480.805053	3948.546667	536.369141	23.664965
12480.805053	3948.546667	535.124023	3.785489
12480.805053	3948.546667	533.877930	-57.306332
12480.805053	3948.546667	532.631836	-10.730397
12480.805053	3948.546667	531.384766	75.234406
12480.805053	3948.546667	530.138672	111.708092
12480.805053	3948.546667	528.891602	191.690903
12480.805053	3948.546667	527.643555	-75.242279
12480.805053	3948.546667	526.396484	-19.754526
12480.805053	3948.546667	525.148438	-21.962339
12480.805053	3948.546667	523.900391	50.286549
12480.805053	3948.546667	522.652344	77.241203
12480.805053	3948.546667	521.403320	137.338852
12480.805053	3948.546667	520.154297	-80.943611
12480.805053	3948.546667	518.905273	-72.117142
12480.805053	3948.546667	517.656250	85.316025
12480.805053	3948.546667	516.406250	-2.510501
12480.805053	3948.546667	515.156250	260.240692
12480.805053	3948.546667	513.906250	-109.623306
12480.805053	3948.546667	512.655273	91.509659
12480.805053	3948.546667	511.404297	-166.649582
12480.805053	3948.546667	510.153320	20.271158
12480.805053	3948.546667	508.902344	194.894943
12480.805053	3948.546667	507.650391	165.788086
12480.805053	3948.546667	506.398438	268.546326
12480.805053	3948.546667	505.146484	282.916412
12480.805053	3948.546667	503.893555	69.066193
12480.805053	3948.546667	502.641602	355.228027
12480.805053	3948.546667	501.388672	-96.814774
12480.805053	3948.546667	500.134766	62.056446
12480.805053	3948.546667	498.881836	163.434387
12480.805053	3948.546667	497.627930	24.461956
12480.805053	3948.546667	496.374023	76.743851
12480.805053	3948.546667	495.119141	176.369644
12480.805053	3948.546667	493.865234	239.104584
12480.805053	3948.546667	492.610352	84.290077
12480.805053	3948.546667	491.355469	270.414642
12480.805053	3948.546667	490.099609	384.740540
12480.805053	3948.546667	488.843750	302.144501
12480.805053	3948.546667	487.587891	151.991653
12480.805053	3948.546667	486.332031	315.808044
12480.805053	3948.546667	485.075195	354.571503
12480.805053	3948.546667	483.818359	438.515259
12480.805053	3948.546667	482.561523	426.180573
12480.805053	3948.546667	481.304688	530.745239
12480.805053	3948.546667	480.046875	573.886841
12480.805053	3948.546667	478.789063	803.489197
12480.805053	3948.546667	477.531250	889.715820
12480.805053	3948.546667	476.272461	771.231384
12480.805053	3948.546667	475.013672	1115.493042
12480.805053	3948.546667	473.754883	1048.304565
12480.805053	3948.546667	472.496094	821.603394
12480.805053	3948.546667	471.236328	985.781982
12480.805053	3948.546667	469.976563	787.926514
12480.805053	3948.546667	468.716797	933.725769
12480.805053	3948.546667	467.456055	821.908752
12480.805053	3948.546667	466.196289	740.826111
12480.805053	3948.546667	464.935547	641.412048
12480.805053	3948.546667	463.673828	470.553711
12480.805053	3948.546667	462.413086	561.230896
12480.805053	3948.546667	461.151367	531.387085
12480.805053	3948.546667	459.889648	640.388733
12480.805053	3948.546667	458.626953	586.033875
12480.805053	3948.546667	457.364258	766.379944
12480.805053	3948.546667	456.101563	673.209351
12480.805053	3948.546667	454.838867	802.400024
12480.805053	3948.546667	453.575195	650.042725
12480.805053	3948.546667	452.312500	634.315979
12480.805053	3948.546667	451.047852	698.049072
12480.805053	3948.546667	449.784180	792.257568
12480.805053	3948.546667	448.519531	823.179993
12480.805053	3948.546667	447.254883	796.958130
12480.805053	3948.546667	445.990234	858.236755
12480.805053	3948.546667	444.725586	823.671082
12480.805053	3948.546667	443.459961	640.378845
12480.805053	3948.546667	442.194336	931.324280
12480.805053	3948.546667	440.927734	979.828430
12480.805053	3948.546667	439.662109	977.296143
12480.805053	3948.546667	438.395508	909.511353
12480.805053	3948.546667	437.127930	1022.594055
12480.805053	3948.546667	435.861328	901.608154
12480.805053	3948.546667	434.593750	1012.233398
12480.805053	3948.546667	433.326172	831.959167
12480.805053	3948.546667	432.058594	1070.142212
12480.805053	3948.546667	430.790039	1013.408569
12480.805053	3948.546667	429.521484	990.982666
12480.805053	3948.546667	428.252930	1102.333496
12480.805053	3948.546667	426.984375	1101.697266
12480.805053	3948.546667	425.714844	1198.203979
12480.805053	3948.546667	424.445313	1164.484863
12480.805053	3948.546667	423.174805	1191.329712
12480.805053	3948.546667	421.905273	1416.625610
12480.805053	3948.546667	420.634766	1294.672363
12480.805053	3948.546667	419.364258	1508.994385
12480.805053	3948.546667	418.092773	1335.646606
12480.805053	3948.546667	416.822266	1514.632324
12480.805053	3948.546667	415.550781	1431.729004
12480.805053	3948.546667	414.278320	1553.038696
12480.805053	3948.546667	413.006836	1483.457153
12480.805053	3948.546667	411.734375	1506.583862
12480.805053	3948.546667	410.461914	1452.280762
12480.805053	3948.546667	409.188477	1446.068726
12480.805053	3948.546667	407.916016	1459.575195
12480.805053	3948.546667	406.642578	1349.107300
12480.805053	3948.546667	405.368164	1440.397095
12480.805053	3948.546667	404.094727	1298.495117
12480.805053	3948.546667	402.820313	1360.254761
12480.805053	3948.546667	401.545898	1382.951782
12480.805053	3948.546667	400.270508	1544.433350
12480.805053	3948.546667	398.996094	1371.779541
12480.805053	3948.546667	397.720703	1461.119263
12480.805053	3948.546667	396.444336	1335.601440
12480.805053	3948.546667	395.168945	1326.523804
12480.805053	3948.546667	393.892578	1185.449341
12480.805053	3948.546667	392.616211	1429.163452
12480.805053	3948.546667	391.339844	1264.325317
12480.805053	3948.546667	390.062500	1409.406860
12480.805053	3948.546667	388.785156	1533.388306
12480.805053	3948.546667	387.507813	1400.306396
12480.805053	3948.546667	386.229492	1151.425537
12480.805053	3948.546667	384.951172	1294.782959
12480.805053	3948.546667	383.672852	1199.292236
12480.805053	3948.546667	382.394531	1386.942505
12480.805053	3948.546667	381.115234	1434.464966
12480.805053	3948.546667	379.835938	1406.386963
12480.805053	3948.546667	378.556641	1532.276489
12480.805053	3948.546667	377.277344	1508.018311
12480.805053	3948.546667	375.997070	1549.018677
12480.805053	3948.546667	374.716797	1510.338745
12480.805053	3948.546667	373.435547	1454.344849
12480.805053	3948.546667	372.155273	1513.811890
12480.805053	3948.546667	370.874023	1710.705566
12480.805053	3948.546667	369.591797	1415.606812
12480.805053	3948.546667	368.310547	1362.534790
12480.805053	3948.546667	367.028320	1474.877441
12480.805053	3948.546667	365.746094	1515.431274
12480.805053	3948.546667	364.463867	1355.646851
12480.805053	3948.546667	363.180664	1357.087158
12480.805053	3948.546667	361.897461	1523.655396
12480.805053	3948.546667	360.614258	1544.049927
12480.805053	3948.546667	359.330078	1305.900391
12480.805053	3948.546667	358.045898	1272.891235
12480.805053	3948.546667	356.761719	1416.764648
12480.805053	3948.546667	355.477539	1294.100464
12480.805053	3948.546667	354.192383	1281.986938
12480.805053	3948.546667	352.907227	1145.780640
12480.805053	3948.546667	351.622070	1286.401489
12480.805053	3948.546667	350.336914	1122.477539
12480.805053	3948.546667	349.050781	1134.966919
12480.805053	3948.546667	347.764648	1275.678589
12480.805053	3948.546667	346.477539	1089.832886
12480.805053	3948.546667	345.191406	1068.239868
12480.805053	3948.546667	343.904297	1000.458252
12480.805053	3948.546667	342.616211	1092.608521
12480.805053	3948.546667	341.329102	864.425049
12480.805053	3948.546667	340.041016	962.114319
12480.805053	3948.546667	338.752930	923.461182
12480.805053	3948.546667	337.463867	830.428772
12480.805053	3948.546667	336.175781	831.059387
12480.805053	3948.546667	334.886719	971.091675
12480.805053	3948.546667	333.596680	730.820435
12480.805053	3948.546667	332.307617	789.845825
12480.805053	3948.546667	331.017578	532.579651
12480.805053	3948.546667	329.727539	508.412384
12480.805053	3948.546667	328.436523	581.298523
12480.805053	3948.546667	327.146484	395.958527
12480.805053	3948.546667	325.855469	347.499359
12480.805053	3948.546667	324.563477	547.504150
12480.805053	3948.546667	323.272461	237.884415
12480.805053	3948.546667	321.980469	64.930367
12480.805053	3948.546667	320.688477	533.039734
12480.805053	3948.546667	319.395508	170.442474
12480.805053	3948.546667	318.103516	-37.628143
12480.805053	3948.546667	316.810547	-165.241074
12480.805053	3948.546667	315.516602	32.520565
12480.805053	3948.546667	314.223633	117.386559
12480.805053	3948.546667	312.929688	81.207481
12480.805053	3948.546667	311.635742	39.565952
12480.805053	3948.546667	310.340820	42.055767
12480.805053	3948.546667	309.045898	146.393875
12480.805053	3948.546667	307.750977	-131.019730
12480.805053	3948.546667	306.456055	-0.311230
12480.805053	3948.546667	305.160156	-10.819046
12480.805053	3948.546667	303.865234	68.354767
12480.805053	3948.546667	302.568359	8.117033
12480.805053	3948.546667	301.272461	23.490490
12480.805053	3948.546667	299.975586	22.704960
12480.805053	3948.546667	298.678711	-43.843655
