#X		#Y		#Wave		#Intensity
12480.564043	3947.077667	1999.980469	-30.192215
12480.564043	3947.077667	1999.016602	-118.419022
12480.564043	3947.077667	1998.052734	21.400192
12480.564043	3947.077667	1997.087891	-52.516083
12480.564043	3947.077667	1996.123047	113.372711
12480.564043	3947.077667	1995.158203	35.892937
12480.564043	3947.077667	1994.193359	-111.428253
12480.564043	3947.077667	1993.228516	77.574600
12480.564043	3947.077667	1992.262695	-174.672501
12480.564043	3947.077667	1991.297852	10.834262
12480.564043	3947.077667	1990.332031	-120.967422
12480.564043	3947.077667	1989.366211	11.603982
12480.564043	3947.077667	1988.399414	62.062145
12480.564043	3947.077667	1987.433594	10.669073
12480.564043	3947.077667	1986.466797	166.639847
12480.564043	3947.077667	1985.500977	-48.729340
12480.564043	3947.077667	1984.534180	59.468693
12480.564043	3947.077667	1983.567383	-67.541878
12480.564043	3947.077667	1982.599609	89.346130
12480.564043	3947.077667	1981.632813	43.237263
12480.564043	3947.077667	1980.665039	21.533676
12480.564043	3947.077667	1979.697266	226.758636
12480.564043	3947.077667	1978.729492	219.244690
12480.564043	3947.077667	1977.761719	-23.098761
12480.564043	3947.077667	1976.792969	-95.297005
12480.564043	3947.077667	1975.825195	-170.196701
12480.564043	3947.077667	1974.856445	23.648903
12480.564043	3947.077667	1973.887695	17.347145
12480.564043	3947.077667	1972.918945	20.686918
12480.564043	3947.077667	1971.949219	127.388458
12480.564043	3947.077667	1970.980469	164.801483
12480.564043	3947.077667	1970.010742	179.814438
12480.564043	3947.077667	1969.041016	142.871475
12480.564043	3947.077667	1968.071289	49.082466
12480.564043	3947.077667	1967.101563	137.485733
12480.564043	3947.077667	1966.130859	171.498169
12480.564043	3947.077667	1965.161133	193.029785
12480.564043	3947.077667	1964.190430	83.893196
12480.564043	3947.077667	1963.219727	28.824181
12480.564043	3947.077667	1962.249023	-50.969200
12480.564043	3947.077667	1961.277344	34.040405
12480.564043	3947.077667	1960.306641	62.309181
12480.564043	3947.077667	1959.334961	112.600433
12480.564043	3947.077667	1958.363281	98.817490
12480.564043	3947.077667	1957.391602	-13.427411
12480.564043	3947.077667	1956.419922	267.701416
12480.564043	3947.077667	1955.447266	125.794945
12480.564043	3947.077667	1954.474609	151.007019
12480.564043	3947.077667	1953.501953	144.192261
12480.564043	3947.077667	1952.529297	297.025421
12480.564043	3947.077667	1951.556641	73.886093
12480.564043	3947.077667	1950.583984	128.319733
12480.564043	3947.077667	1949.610352	8.329868
12480.564043	3947.077667	1948.636719	-94.471390
12480.564043	3947.077667	1947.663086	58.023369
12480.564043	3947.077667	1946.689453	97.531715
12480.564043	3947.077667	1945.715820	90.372627
12480.564043	3947.077667	1944.741211	88.096443
12480.564043	3947.077667	1943.767578	93.163162
12480.564043	3947.077667	1942.792969	9.919763
12480.564043	3947.077667	1941.818359	-100.277466
12480.564043	3947.077667	1940.842773	135.226608
12480.564043	3947.077667	1939.868164	83.861168
12480.564043	3947.077667	1938.892578	17.806482
12480.564043	3947.077667	1937.916992	-58.022156
12480.564043	3947.077667	1936.941406	-1.531817
12480.564043	3947.077667	1935.965820	67.191582
12480.564043	3947.077667	1934.990234	-106.534714
12480.564043	3947.077667	1934.013672	30.757902
12480.564043	3947.077667	1933.037109	6.453703
12480.564043	3947.077667	1932.060547	-44.745697
12480.564043	3947.077667	1931.083984	-144.845840
12480.564043	3947.077667	1930.107422	-88.307510
12480.564043	3947.077667	1929.129883	127.228973
12480.564043	3947.077667	1928.153320	-214.891205
12480.564043	3947.077667	1927.175781	27.539280
12480.564043	3947.077667	1926.198242	-25.901009
12480.564043	3947.077667	1925.219727	-54.850819
12480.564043	3947.077667	1924.242188	-122.854340
12480.564043	3947.077667	1923.263672	33.987926
12480.564043	3947.077667	1922.285156	66.219780
12480.564043	3947.077667	1921.306641	44.741726
12480.564043	3947.077667	1920.328125	-59.718712
12480.564043	3947.077667	1919.349609	36.104961
12480.564043	3947.077667	1918.370117	100.195587
12480.564043	3947.077667	1917.391602	98.408089
12480.564043	3947.077667	1916.412109	-30.229290
12480.564043	3947.077667	1915.431641	43.716660
12480.564043	3947.077667	1914.452148	144.510498
12480.564043	3947.077667	1913.472656	184.337799
12480.564043	3947.077667	1912.492188	12.055109
12480.564043	3947.077667	1911.511719	-35.788425
12480.564043	3947.077667	1910.531250	79.735931
12480.564043	3947.077667	1909.550781	200.134003
12480.564043	3947.077667	1908.569336	-18.150892
12480.564043	3947.077667	1907.588867	-224.128845
12480.564043	3947.077667	1906.607422	49.826035
12480.564043	3947.077667	1905.625977	60.723087
12480.564043	3947.077667	1904.644531	152.002319
12480.564043	3947.077667	1903.662109	-92.640198
12480.564043	3947.077667	1902.680664	181.249527
12480.564043	3947.077667	1901.698242	-65.660576
12480.564043	3947.077667	1900.715820	-93.479866
12480.564043	3947.077667	1899.733398	-145.575333
12480.564043	3947.077667	1898.750000	172.045837
12480.564043	3947.077667	1897.767578	-28.329073
12480.564043	3947.077667	1896.784180	106.892746
12480.564043	3947.077667	1895.800781	208.070160
12480.564043	3947.077667	1894.817383	-60.140636
12480.564043	3947.077667	1893.833984	230.612747
12480.564043	3947.077667	1892.850586	113.175835
12480.564043	3947.077667	1891.866211	75.961227
12480.564043	3947.077667	1890.881836	-80.199982
12480.564043	3947.077667	1889.897461	6.514145
12480.564043	3947.077667	1888.913086	-25.721966
12480.564043	3947.077667	1887.927734	272.147766
12480.564043	3947.077667	1886.943359	-77.952972
12480.564043	3947.077667	1885.958008	-15.469288
12480.564043	3947.077667	1884.972656	-161.591034
12480.564043	3947.077667	1883.987305	208.920486
12480.564043	3947.077667	1883.001953	-55.962700
12480.564043	3947.077667	1882.015625	-27.397514
12480.564043	3947.077667	1881.029297	-47.305481
12480.564043	3947.077667	1880.042969	-127.776184
12480.564043	3947.077667	1879.056641	-2.260567
12480.564043	3947.077667	1878.070313	-165.053345
12480.564043	3947.077667	1877.083984	37.942318
12480.564043	3947.077667	1876.096680	-37.610298
12480.564043	3947.077667	1875.109375	-147.025558
12480.564043	3947.077667	1874.122070	-43.382462
12480.564043	3947.077667	1873.134766	50.539757
12480.564043	3947.077667	1872.146484	112.967743
12480.564043	3947.077667	1871.159180	1.182707
12480.564043	3947.077667	1870.170898	-129.917816
12480.564043	3947.077667	1869.182617	-65.090721
12480.564043	3947.077667	1868.194336	60.150303
12480.564043	3947.077667	1867.205078	-51.578590
12480.564043	3947.077667	1866.216797	-93.185661
12480.564043	3947.077667	1865.227539	-100.963005
12480.564043	3947.077667	1864.238281	-128.083557
12480.564043	3947.077667	1863.249023	-201.110886
12480.564043	3947.077667	1862.259766	-109.900581
12480.564043	3947.077667	1861.269531	-28.409908
12480.564043	3947.077667	1860.279297	-91.831314
12480.564043	3947.077667	1859.290039	11.297156
12480.564043	3947.077667	1858.298828	259.155487
12480.564043	3947.077667	1857.308594	106.345642
12480.564043	3947.077667	1856.318359	83.832108
12480.564043	3947.077667	1855.327148	66.111496
12480.564043	3947.077667	1854.335938	84.532516
12480.564043	3947.077667	1853.344727	110.138947
12480.564043	3947.077667	1852.353516	51.319290
12480.564043	3947.077667	1851.362305	-108.751816
12480.564043	3947.077667	1850.370117	-76.033058
12480.564043	3947.077667	1849.377930	48.176994
12480.564043	3947.077667	1848.385742	-90.275146
12480.564043	3947.077667	1847.393555	16.925789
12480.564043	3947.077667	1846.401367	227.570663
12480.564043	3947.077667	1845.408203	81.769867
12480.564043	3947.077667	1844.415039	277.760254
12480.564043	3947.077667	1843.421875	-38.984707
12480.564043	3947.077667	1842.428711	-1.976841
12480.564043	3947.077667	1841.435547	160.045425
12480.564043	3947.077667	1840.441406	23.688313
12480.564043	3947.077667	1839.448242	151.837616
12480.564043	3947.077667	1838.454102	123.582779
12480.564043	3947.077667	1837.459961	-27.333015
12480.564043	3947.077667	1836.464844	105.328995
12480.564043	3947.077667	1835.470703	259.491394
12480.564043	3947.077667	1834.475586	214.103378
12480.564043	3947.077667	1833.480469	300.761047
12480.564043	3947.077667	1832.485352	51.077621
12480.564043	3947.077667	1831.490234	29.508200
12480.564043	3947.077667	1830.495117	187.909210
12480.564043	3947.077667	1829.499023	106.131233
12480.564043	3947.077667	1828.502930	137.081360
12480.564043	3947.077667	1827.506836	79.147354
12480.564043	3947.077667	1826.510742	97.902504
12480.564043	3947.077667	1825.513672	13.414845
12480.564043	3947.077667	1824.517578	89.525040
12480.564043	3947.077667	1823.520508	187.077011
12480.564043	3947.077667	1822.523438	-12.749977
12480.564043	3947.077667	1821.526367	233.162384
12480.564043	3947.077667	1820.529297	88.296692
12480.564043	3947.077667	1819.531250	103.884544
12480.564043	3947.077667	1818.533203	143.305878
12480.564043	3947.077667	1817.535156	280.784546
12480.564043	3947.077667	1816.537109	68.518066
12480.564043	3947.077667	1815.539063	66.877831
12480.564043	3947.077667	1814.540039	112.983643
12480.564043	3947.077667	1813.541992	115.879898
12480.564043	3947.077667	1812.542969	164.105652
12480.564043	3947.077667	1811.543945	116.503677
12480.564043	3947.077667	1810.543945	138.146530
12480.564043	3947.077667	1809.544922	78.356979
12480.564043	3947.077667	1808.544922	42.361702
12480.564043	3947.077667	1807.544922	92.299942
12480.564043	3947.077667	1806.544922	32.152653
12480.564043	3947.077667	1805.544922	57.911579
12480.564043	3947.077667	1804.544922	2.300889
12480.564043	3947.077667	1803.543945	46.884605
12480.564043	3947.077667	1802.542969	148.625000
12480.564043	3947.077667	1801.541992	83.054932
12480.564043	3947.077667	1800.541016	53.175049
12480.564043	3947.077667	1799.539063	-31.736229
12480.564043	3947.077667	1798.538086	-30.850035
12480.564043	3947.077667	1797.536133	194.146545
12480.564043	3947.077667	1796.534180	156.524399
12480.564043	3947.077667	1795.532227	11.449331
12480.564043	3947.077667	1794.529297	-88.424812
12480.564043	3947.077667	1793.527344	21.384712
12480.564043	3947.077667	1792.524414	30.885847
12480.564043	3947.077667	1791.521484	197.512405
12480.564043	3947.077667	1790.518555	1.763383
12480.564043	3947.077667	1789.514648	29.847673
12480.564043	3947.077667	1788.511719	305.471313
12480.564043	3947.077667	1787.507813	25.991508
12480.564043	3947.077667	1786.503906	67.867363
12480.564043	3947.077667	1785.500000	-68.959610
12480.564043	3947.077667	1784.496094	77.313454
12480.564043	3947.077667	1783.491211	82.972862
12480.564043	3947.077667	1782.486328	131.289963
12480.564043	3947.077667	1781.481445	-86.973297
12480.564043	3947.077667	1780.476563	1.456766
12480.564043	3947.077667	1779.471680	218.082397
12480.564043	3947.077667	1778.465820	-124.192589
12480.564043	3947.077667	1777.460938	-64.824448
12480.564043	3947.077667	1776.455078	-31.794991
12480.564043	3947.077667	1775.449219	22.437002
12480.564043	3947.077667	1774.442383	-68.430229
12480.564043	3947.077667	1773.436523	56.697258
12480.564043	3947.077667	1772.429688	136.482025
12480.564043	3947.077667	1771.422852	-14.216590
12480.564043	3947.077667	1770.416016	257.470154
12480.564043	3947.077667	1769.409180	-111.865379
12480.564043	3947.077667	1768.402344	-201.256729
12480.564043	3947.077667	1767.394531	81.644775
12480.564043	3947.077667	1766.386719	1.381100
12480.564043	3947.077667	1765.378906	65.626785
12480.564043	3947.077667	1764.371094	13.500730
12480.564043	3947.077667	1763.362305	15.728054
12480.564043	3947.077667	1762.354492	-48.568012
12480.564043	3947.077667	1761.345703	126.297249
12480.564043	3947.077667	1760.336914	80.595459
12480.564043	3947.077667	1759.328125	98.688850
12480.564043	3947.077667	1758.318359	100.010849
12480.564043	3947.077667	1757.308594	110.626648
12480.564043	3947.077667	1756.299805	137.647034
12480.564043	3947.077667	1755.290039	29.558634
12480.564043	3947.077667	1754.279297	-2.953415
12480.564043	3947.077667	1753.269531	-66.373009
12480.564043	3947.077667	1752.258789	-101.572815
12480.564043	3947.077667	1751.249023	14.441547
12480.564043	3947.077667	1750.238281	-63.673893
12480.564043	3947.077667	1749.226563	-115.943817
12480.564043	3947.077667	1748.215820	105.831306
12480.564043	3947.077667	1747.204102	105.187492
12480.564043	3947.077667	1746.193359	-209.864471
12480.564043	3947.077667	1745.181641	41.970612
12480.564043	3947.077667	1744.168945	-27.694118
12480.564043	3947.077667	1743.157227	1.687386
12480.564043	3947.077667	1742.144531	108.780510
12480.564043	3947.077667	1741.132813	-124.242020
12480.564043	3947.077667	1740.120117	65.089272
12480.564043	3947.077667	1739.106445	-156.416016
12480.564043	3947.077667	1738.093750	-2.884881
12480.564043	3947.077667	1737.080078	-90.190529
12480.564043	3947.077667	1736.067383	-5.465120
12480.564043	3947.077667	1735.053711	-88.365639
12480.564043	3947.077667	1734.040039	-150.188690
12480.564043	3947.077667	1733.025391	-120.255142
12480.564043	3947.077667	1732.011719	93.317886
12480.564043	3947.077667	1730.997070	113.429878
12480.564043	3947.077667	1729.982422	-78.635933
12480.564043	3947.077667	1728.967773	-209.563339
12480.564043	3947.077667	1727.952148	43.185551
12480.564043	3947.077667	1726.937500	331.003082
12480.564043	3947.077667	1725.921875	-151.156967
12480.564043	3947.077667	1724.906250	27.985592
12480.564043	3947.077667	1723.890625	-61.332951
12480.564043	3947.077667	1722.875000	-47.272793
12480.564043	3947.077667	1721.858398	-85.143494
12480.564043	3947.077667	1720.841797	-19.694387
12480.564043	3947.077667	1719.825195	-15.559226
12480.564043	3947.077667	1718.808594	-72.701813
12480.564043	3947.077667	1717.791992	-80.627930
12480.564043	3947.077667	1716.774414	5.261460
12480.564043	3947.077667	1715.756836	180.231537
12480.564043	3947.077667	1714.739258	-27.878664
12480.564043	3947.077667	1713.721680	-5.923458
12480.564043	3947.077667	1712.704102	51.087597
12480.564043	3947.077667	1711.685547	-32.944328
12480.564043	3947.077667	1710.667969	131.709259
12480.564043	3947.077667	1709.649414	-109.828308
12480.564043	3947.077667	1708.630859	19.263977
12480.564043	3947.077667	1707.611328	-13.712754
12480.564043	3947.077667	1706.592773	63.422333
12480.564043	3947.077667	1705.573242	-42.531673
12480.564043	3947.077667	1704.553711	-108.735527
12480.564043	3947.077667	1703.534180	-22.706417
12480.564043	3947.077667	1702.513672	-105.599808
12480.564043	3947.077667	1701.494141	-48.002022
12480.564043	3947.077667	1700.473633	0.043063
12480.564043	3947.077667	1699.453125	-97.277893
12480.564043	3947.077667	1698.432617	53.514133
12480.564043	3947.077667	1697.412109	140.902084
12480.564043	3947.077667	1696.390625	-151.097260
12480.564043	3947.077667	1695.369141	13.237493
12480.564043	3947.077667	1694.347656	22.948931
12480.564043	3947.077667	1693.326172	172.890198
12480.564043	3947.077667	1692.304688	116.819717
12480.564043	3947.077667	1691.282227	34.899284
12480.564043	3947.077667	1690.260742	198.400879
12480.564043	3947.077667	1689.238281	214.425720
12480.564043	3947.077667	1688.214844	136.814957
12480.564043	3947.077667	1687.192383	101.196777
12480.564043	3947.077667	1686.168945	-23.325300
12480.564043	3947.077667	1685.146484	120.720108
12480.564043	3947.077667	1684.123047	273.913696
12480.564043	3947.077667	1683.099609	223.800690
12480.564043	3947.077667	1682.075195	10.160260
12480.564043	3947.077667	1681.051758	116.271301
12480.564043	3947.077667	1680.027344	-29.811613
12480.564043	3947.077667	1679.002930	64.362480
12480.564043	3947.077667	1677.978516	65.089333
12480.564043	3947.077667	1676.953125	354.879211
12480.564043	3947.077667	1675.928711	119.840096
12480.564043	3947.077667	1674.903320	253.110703
12480.564043	3947.077667	1673.877930	274.351471
12480.564043	3947.077667	1672.852539	120.708878
12480.564043	3947.077667	1671.826172	463.284576
12480.564043	3947.077667	1670.800781	323.455048
12480.564043	3947.077667	1669.774414	467.707855
12480.564043	3947.077667	1668.748047	236.912918
12480.564043	3947.077667	1667.721680	383.279236
12480.564043	3947.077667	1666.694336	191.963837
12480.564043	3947.077667	1665.667969	449.821533
12480.564043	3947.077667	1664.640625	521.330444
12480.564043	3947.077667	1663.613281	478.741821
12480.564043	3947.077667	1662.585938	468.655243
12480.564043	3947.077667	1661.557617	632.879883
12480.564043	3947.077667	1660.530273	759.793640
12480.564043	3947.077667	1659.501953	719.194458
12480.564043	3947.077667	1658.473633	999.266479
12480.564043	3947.077667	1657.444336	1063.038452
12480.564043	3947.077667	1656.416016	1177.856323
12480.564043	3947.077667	1655.386719	1150.852905
12480.564043	3947.077667	1654.358398	1075.055908
12480.564043	3947.077667	1653.328125	1198.857666
12480.564043	3947.077667	1652.298828	1380.614258
12480.564043	3947.077667	1651.269531	1290.694214
12480.564043	3947.077667	1650.239258	1349.242065
12480.564043	3947.077667	1649.208984	1440.197388
12480.564043	3947.077667	1648.178711	1818.699097
12480.564043	3947.077667	1647.148438	1914.070557
12480.564043	3947.077667	1646.117188	1633.703369
12480.564043	3947.077667	1645.086914	1541.207397
12480.564043	3947.077667	1644.055664	1981.776855
12480.564043	3947.077667	1643.024414	1995.742065
12480.564043	3947.077667	1641.992188	2062.928955
12480.564043	3947.077667	1640.960938	2211.158203
12480.564043	3947.077667	1639.928711	2215.677734
12480.564043	3947.077667	1638.896484	2363.731445
12480.564043	3947.077667	1637.864258	2384.367676
12480.564043	3947.077667	1636.832031	2354.048340
12480.564043	3947.077667	1635.798828	2379.231934
12480.564043	3947.077667	1634.766602	2709.827148
12480.564043	3947.077667	1633.733398	2482.739502
12480.564043	3947.077667	1632.699219	2681.264160
12480.564043	3947.077667	1631.666016	2784.913574
12480.564043	3947.077667	1630.632813	2682.744385
12480.564043	3947.077667	1629.598633	2908.814209
12480.564043	3947.077667	1628.564453	2804.305176
12480.564043	3947.077667	1627.530273	2970.172607
12480.564043	3947.077667	1626.495117	2937.269531
12480.564043	3947.077667	1625.460938	3209.288818
12480.564043	3947.077667	1624.425781	3264.102783
12480.564043	3947.077667	1623.390625	3115.721680
12480.564043	3947.077667	1622.355469	3334.435059
12480.564043	3947.077667	1621.319336	3310.711426
12480.564043	3947.077667	1620.284180	3610.078857
12480.564043	3947.077667	1619.248047	3641.699219
12480.564043	3947.077667	1618.211914	3638.719482
12480.564043	3947.077667	1617.174805	3711.835205
12480.564043	3947.077667	1616.138672	3964.810303
12480.564043	3947.077667	1615.101563	3620.621338
12480.564043	3947.077667	1614.065430	3908.128174
12480.564043	3947.077667	1613.027344	3960.451660
12480.564043	3947.077667	1611.990234	3950.602295
12480.564043	3947.077667	1610.953125	4115.845703
12480.564043	3947.077667	1609.915039	4232.668457
12480.564043	3947.077667	1608.876953	4388.619629
12480.564043	3947.077667	1607.838867	4194.627441
12480.564043	3947.077667	1606.800781	4461.075684
12480.564043	3947.077667	1605.761719	4704.423340
12480.564043	3947.077667	1604.723633	4844.208008
12480.564043	3947.077667	1603.684570	4779.229980
12480.564043	3947.077667	1602.644531	5038.576660
12480.564043	3947.077667	1601.605469	4989.773438
12480.564043	3947.077667	1600.566406	4957.133301
12480.564043	3947.077667	1599.526367	4816.500488
12480.564043	3947.077667	1598.486328	5091.927734
12480.564043	3947.077667	1597.446289	4854.936035
12480.564043	3947.077667	1596.405273	4983.317383
12480.564043	3947.077667	1595.365234	5093.360352
12480.564043	3947.077667	1594.324219	4686.739258
12480.564043	3947.077667	1593.283203	4771.645996
12480.564043	3947.077667	1592.242188	4907.083496
12480.564043	3947.077667	1591.200195	4879.572754
12480.564043	3947.077667	1590.159180	4636.487305
12480.564043	3947.077667	1589.117188	4749.120117
12480.564043	3947.077667	1588.075195	4322.793945
12480.564043	3947.077667	1587.032227	4268.173340
12480.564043	3947.077667	1585.990234	4495.674316
12480.564043	3947.077667	1584.947266	4418.278809
12480.564043	3947.077667	1583.904297	4510.589355
12480.564043	3947.077667	1582.861328	4353.191406
12480.564043	3947.077667	1581.818359	4386.086914
12480.564043	3947.077667	1580.775391	4173.981445
12480.564043	3947.077667	1579.731445	3943.704346
12480.564043	3947.077667	1578.687500	4441.687988
12480.564043	3947.077667	1577.643555	4582.470703
12480.564043	3947.077667	1576.598633	4240.368164
12480.564043	3947.077667	1575.554688	4143.359375
12480.564043	3947.077667	1574.509766	4108.236328
12480.564043	3947.077667	1573.464844	4281.373047
12480.564043	3947.077667	1572.419922	4198.418945
12480.564043	3947.077667	1571.374023	4250.479492
12480.564043	3947.077667	1570.329102	3831.744629
12480.564043	3947.077667	1569.283203	3817.795898
12480.564043	3947.077667	1568.237305	3886.228271
12480.564043	3947.077667	1567.191406	3379.025391
12480.564043	3947.077667	1566.144531	3342.652100
12480.564043	3947.077667	1565.098633	3441.173096
12480.564043	3947.077667	1564.051758	3220.095703
12480.564043	3947.077667	1563.004883	3006.073975
12480.564043	3947.077667	1561.957031	3038.735107
12480.564043	3947.077667	1560.910156	2909.514160
12480.564043	3947.077667	1559.862305	2750.790039
12480.564043	3947.077667	1558.814453	2505.577881
12480.564043	3947.077667	1557.766602	2577.592529
12480.564043	3947.077667	1556.718750	2467.300293
12480.564043	3947.077667	1555.669922	2532.701660
12480.564043	3947.077667	1554.621094	2331.541992
12480.564043	3947.077667	1553.573242	2048.583252
12480.564043	3947.077667	1552.523438	2194.160400
12480.564043	3947.077667	1551.474609	2380.844238
12480.564043	3947.077667	1550.424805	2157.636963
12480.564043	3947.077667	1549.375000	2132.761230
12480.564043	3947.077667	1548.325195	2278.781250
12480.564043	3947.077667	1547.275391	2124.446533
12480.564043	3947.077667	1546.225586	2043.141235
12480.564043	3947.077667	1545.174805	2062.109619
12480.564043	3947.077667	1544.124023	1844.647949
12480.564043	3947.077667	1543.073242	1979.941040
12480.564043	3947.077667	1542.022461	1781.082397
12480.564043	3947.077667	1540.970703	1932.541016
12480.564043	3947.077667	1539.919922	1747.722778
12480.564043	3947.077667	1538.868164	1806.273804
12480.564043	3947.077667	1537.815430	1826.322632
12480.564043	3947.077667	1536.763672	1882.887695
12480.564043	3947.077667	1535.710938	1953.205688
12480.564043	3947.077667	1534.659180	1698.965942
12480.564043	3947.077667	1533.606445	1665.192871
12480.564043	3947.077667	1532.552734	2003.833740
12480.564043	3947.077667	1531.500000	1972.619629
12480.564043	3947.077667	1530.446289	1637.536987
12480.564043	3947.077667	1529.393555	1770.082153
12480.564043	3947.077667	1528.338867	1705.397217
12480.564043	3947.077667	1527.285156	1572.902832
12480.564043	3947.077667	1526.231445	1474.644165
12480.564043	3947.077667	1525.176758	1344.852051
12480.564043	3947.077667	1524.122070	1319.536377
12480.564043	3947.077667	1523.067383	1371.448364
12480.564043	3947.077667	1522.012695	1233.231567
12480.564043	3947.077667	1520.957031	891.398865
12480.564043	3947.077667	1519.901367	789.914551
12480.564043	3947.077667	1518.845703	1096.176147
12480.564043	3947.077667	1517.790039	1031.280151
12480.564043	3947.077667	1516.734375	685.973877
12480.564043	3947.077667	1515.677734	732.415527
12480.564043	3947.077667	1514.621094	776.767517
12480.564043	3947.077667	1513.564453	990.923340
12480.564043	3947.077667	1512.507813	832.071350
12480.564043	3947.077667	1511.450195	564.940918
12480.564043	3947.077667	1510.393555	607.798950
12480.564043	3947.077667	1509.335938	506.185333
12480.564043	3947.077667	1508.278320	698.544373
12480.564043	3947.077667	1507.219727	554.408813
12480.564043	3947.077667	1506.162109	464.751007
12480.564043	3947.077667	1505.103516	379.829041
12480.564043	3947.077667	1504.044922	593.160706
12480.564043	3947.077667	1502.986328	440.930237
12480.564043	3947.077667	1501.926758	530.429077
12480.564043	3947.077667	1500.868164	471.186218
12480.564043	3947.077667	1499.808594	258.756470
12480.564043	3947.077667	1498.749023	416.513947
12480.564043	3947.077667	1497.688477	229.381531
12480.564043	3947.077667	1496.628906	333.382721
12480.564043	3947.077667	1495.568359	13.759349
12480.564043	3947.077667	1494.507813	208.312393
12480.564043	3947.077667	1493.447266	-79.197800
12480.564043	3947.077667	1492.386719	41.371891
12480.564043	3947.077667	1491.325195	-54.132656
12480.564043	3947.077667	1490.263672	19.504681
12480.564043	3947.077667	1489.202148	154.110565
12480.564043	3947.077667	1488.140625	-39.769608
12480.564043	3947.077667	1487.079102	77.214233
12480.564043	3947.077667	1486.016602	-41.905586
12480.564043	3947.077667	1484.954102	178.933609
12480.564043	3947.077667	1483.891602	181.726364
12480.564043	3947.077667	1482.829102	-24.405865
12480.564043	3947.077667	1481.765625	-43.640942
12480.564043	3947.077667	1480.702148	38.500893
12480.564043	3947.077667	1479.638672	-29.755440
12480.564043	3947.077667	1478.575195	174.074738
12480.564043	3947.077667	1477.511719	45.605000
12480.564043	3947.077667	1476.447266	-21.992022
12480.564043	3947.077667	1475.382813	-33.161499
12480.564043	3947.077667	1474.318359	72.575302
12480.564043	3947.077667	1473.253906	-1.107577
12480.564043	3947.077667	1472.189453	-168.682617
12480.564043	3947.077667	1471.124023	7.316714
12480.564043	3947.077667	1470.058594	37.522259
12480.564043	3947.077667	1468.993164	182.242737
12480.564043	3947.077667	1467.927734	17.739962
12480.564043	3947.077667	1466.861328	41.961697
12480.564043	3947.077667	1465.794922	353.077942
12480.564043	3947.077667	1464.728516	462.403168
12480.564043	3947.077667	1463.662109	303.886658
12480.564043	3947.077667	1462.594727	248.164398
12480.564043	3947.077667	1461.528320	572.974365
12480.564043	3947.077667	1460.460938	452.442230
12480.564043	3947.077667	1459.393555	682.072571
12480.564043	3947.077667	1458.326172	604.205200
12480.564043	3947.077667	1457.257813	507.260193
12480.564043	3947.077667	1456.189453	575.737610
12480.564043	3947.077667	1455.121094	778.027954
12480.564043	3947.077667	1454.052734	889.576355
12480.564043	3947.077667	1452.984375	1052.470581
12480.564043	3947.077667	1451.915039	842.860107
12480.564043	3947.077667	1450.845703	991.443176
12480.564043	3947.077667	1449.776367	1174.793823
12480.564043	3947.077667	1448.707031	971.573669
12480.564043	3947.077667	1447.636719	885.202881
12480.564043	3947.077667	1446.567383	711.614380
12480.564043	3947.077667	1445.497070	622.080017
12480.564043	3947.077667	1444.425781	920.270081
12480.564043	3947.077667	1443.355469	893.153442
12480.564043	3947.077667	1442.285156	927.378906
12480.564043	3947.077667	1441.213867	863.992310
12480.564043	3947.077667	1440.142578	875.535339
12480.564043	3947.077667	1439.070313	814.118713
12480.564043	3947.077667	1437.999023	822.724976
12480.564043	3947.077667	1436.926758	916.455139
12480.564043	3947.077667	1435.854492	983.715149
12480.564043	3947.077667	1434.782227	812.074890
12480.564043	3947.077667	1433.709961	1031.834595
12480.564043	3947.077667	1432.636719	972.955811
12480.564043	3947.077667	1431.563477	814.650208
12480.564043	3947.077667	1430.490234	674.219971
12480.564043	3947.077667	1429.416992	522.959534
12480.564043	3947.077667	1428.343750	622.090881
12480.564043	3947.077667	1427.269531	357.289398
12480.564043	3947.077667	1426.195313	122.599670
12480.564043	3947.077667	1425.121094	117.493698
12480.564043	3947.077667	1424.046875	-3.376801
12480.564043	3947.077667	1422.971680	-88.199074
12480.564043	3947.077667	1421.896484	181.935852
12480.564043	3947.077667	1420.821289	-79.984428
12480.564043	3947.077667	1419.746094	-50.986015
12480.564043	3947.077667	1418.669922	108.144943
12480.564043	3947.077667	1417.594727	-5.396243
12480.564043	3947.077667	1416.518555	338.979187
12480.564043	3947.077667	1415.442383	206.260925
12480.564043	3947.077667	1414.365234	326.202637
12480.564043	3947.077667	1413.289063	477.421844
12480.564043	3947.077667	1412.211914	666.551697
12480.564043	3947.077667	1411.134766	504.487457
12480.564043	3947.077667	1410.057617	504.866821
12480.564043	3947.077667	1408.979492	385.688507
12480.564043	3947.077667	1407.902344	265.013336
12480.564043	3947.077667	1406.824219	388.972473
12480.564043	3947.077667	1405.746094	623.842773
12480.564043	3947.077667	1404.666992	684.520081
12480.564043	3947.077667	1403.588867	589.848938
12480.564043	3947.077667	1402.509766	844.645386
12480.564043	3947.077667	1401.430664	772.734375
12480.564043	3947.077667	1400.351563	666.394348
12480.564043	3947.077667	1399.271484	816.398743
12480.564043	3947.077667	1398.192383	895.953552
12480.564043	3947.077667	1397.112305	673.593384
12480.564043	3947.077667	1396.031250	685.431030
12480.564043	3947.077667	1394.951172	881.114624
12480.564043	3947.077667	1393.871094	636.560608
12480.564043	3947.077667	1392.790039	484.400970
12480.564043	3947.077667	1391.708984	603.458984
12480.564043	3947.077667	1390.626953	626.730164
12480.564043	3947.077667	1389.545898	619.730103
12480.564043	3947.077667	1388.463867	479.359283
12480.564043	3947.077667	1387.381836	560.553589
12480.564043	3947.077667	1386.299805	720.884033
12480.564043	3947.077667	1385.217773	582.636658
12480.564043	3947.077667	1384.134766	781.411499
12480.564043	3947.077667	1383.051758	824.526428
12480.564043	3947.077667	1381.968750	646.446960
12480.564043	3947.077667	1380.885742	449.586060
12480.564043	3947.077667	1379.802734	606.313538
12480.564043	3947.077667	1378.718750	582.839600
12480.564043	3947.077667	1377.634766	451.207794
12480.564043	3947.077667	1376.550781	417.770386
12480.564043	3947.077667	1375.465820	372.632538
12480.564043	3947.077667	1374.381836	626.916199
12480.564043	3947.077667	1373.296875	599.262817
12480.564043	3947.077667	1372.211914	524.056885
12480.564043	3947.077667	1371.126953	407.609558
12480.564043	3947.077667	1370.041016	587.384155
12480.564043	3947.077667	1368.955078	749.225586
12480.564043	3947.077667	1367.869141	679.523132
12480.564043	3947.077667	1366.783203	876.472778
12480.564043	3947.077667	1365.697266	963.774292
12480.564043	3947.077667	1364.610352	886.799927
12480.564043	3947.077667	1363.523438	1028.514893
12480.564043	3947.077667	1362.436523	1269.435303
12480.564043	3947.077667	1361.349609	1050.780518
12480.564043	3947.077667	1360.261719	1098.583496
12480.564043	3947.077667	1359.174805	683.996948
12480.564043	3947.077667	1358.086914	874.566833
12480.564043	3947.077667	1356.998047	982.004883
12480.564043	3947.077667	1355.910156	1125.758179
12480.564043	3947.077667	1354.821289	1068.673950
12480.564043	3947.077667	1353.732422	977.438721
12480.564043	3947.077667	1352.643555	1025.795288
12480.564043	3947.077667	1351.554688	1131.474609
12480.564043	3947.077667	1350.464844	988.289856
12480.564043	3947.077667	1349.375000	1063.651733
12480.564043	3947.077667	1348.285156	1344.505981
12480.564043	3947.077667	1347.195313	1070.120728
12480.564043	3947.077667	1346.105469	1053.765869
12480.564043	3947.077667	1345.014648	1173.274902
12480.564043	3947.077667	1343.923828	1171.383789
12480.564043	3947.077667	1342.833008	1251.083374
12480.564043	3947.077667	1341.741211	1199.135132
12480.564043	3947.077667	1340.650391	1038.993896
12480.564043	3947.077667	1339.558594	1022.713806
12480.564043	3947.077667	1338.466797	860.289917
12480.564043	3947.077667	1337.374023	738.839722
12480.564043	3947.077667	1336.282227	448.623810
12480.564043	3947.077667	1335.189453	709.988098
12480.564043	3947.077667	1334.096680	513.175354
12480.564043	3947.077667	1333.003906	418.301178
12480.564043	3947.077667	1331.910156	601.864441
12480.564043	3947.077667	1330.817383	336.043488
12480.564043	3947.077667	1329.723633	681.922668
12480.564043	3947.077667	1328.629883	403.270538
12480.564043	3947.077667	1327.535156	442.915375
12480.564043	3947.077667	1326.441406	283.689056
12480.564043	3947.077667	1325.346680	604.237244
12480.564043	3947.077667	1324.251953	693.804626
12480.564043	3947.077667	1323.156250	505.606567
12480.564043	3947.077667	1322.061523	672.668579
12480.564043	3947.077667	1320.965820	709.534363
12480.564043	3947.077667	1319.870117	591.725708
12480.564043	3947.077667	1318.774414	410.927399
12480.564043	3947.077667	1317.678711	431.264893
12480.564043	3947.077667	1316.582031	582.392517
12480.564043	3947.077667	1315.485352	539.020081
12480.564043	3947.077667	1314.388672	579.040466
12480.564043	3947.077667	1313.291016	506.561493
12480.564043	3947.077667	1312.194336	662.063965
12480.564043	3947.077667	1311.096680	705.239746
12480.564043	3947.077667	1309.999023	598.163391
12480.564043	3947.077667	1308.901367	546.370422
12480.564043	3947.077667	1307.802734	811.704346
12480.564043	3947.077667	1306.705078	987.307312
12480.564043	3947.077667	1305.606445	1066.594604
12480.564043	3947.077667	1304.506836	952.667419
12480.564043	3947.077667	1303.408203	1053.163452
12480.564043	3947.077667	1302.308594	1137.881470
12480.564043	3947.077667	1301.208984	973.382446
12480.564043	3947.077667	1300.109375	1251.407959
12480.564043	3947.077667	1299.009766	1076.309082
12480.564043	3947.077667	1297.909180	1078.945557
12480.564043	3947.077667	1296.808594	1157.984619
12480.564043	3947.077667	1295.708008	1151.411133
12480.564043	3947.077667	1294.607422	1196.483276
12480.564043	3947.077667	1293.506836	1057.993164
12480.564043	3947.077667	1292.405273	1051.828369
12480.564043	3947.077667	1291.303711	894.043701
12480.564043	3947.077667	1290.202148	828.203857
12480.564043	3947.077667	1289.099609	876.816650
12480.564043	3947.077667	1287.998047	961.896973
12480.564043	3947.077667	1286.895508	599.492188
12480.564043	3947.077667	1285.792969	431.936127
12480.564043	3947.077667	1284.689453	418.023773
12480.564043	3947.077667	1283.586914	540.395752
12480.564043	3947.077667	1282.483398	542.857483
12480.564043	3947.077667	1281.379883	544.042542
12480.564043	3947.077667	1280.276367	647.486389
12480.564043	3947.077667	1279.171875	603.951111
12480.564043	3947.077667	1278.067383	510.836487
12480.564043	3947.077667	1276.962891	502.634216
12480.564043	3947.077667	1275.858398	488.928619
12480.564043	3947.077667	1274.753906	590.608765
12480.564043	3947.077667	1273.648438	477.224945
12480.564043	3947.077667	1272.542969	454.928894
12480.564043	3947.077667	1271.437500	378.536377
12480.564043	3947.077667	1270.331055	550.290222
12480.564043	3947.077667	1269.225586	504.438477
12480.564043	3947.077667	1268.119141	572.695862
12480.564043	3947.077667	1267.012695	658.363342
12480.564043	3947.077667	1265.906250	541.963806
12480.564043	3947.077667	1264.798828	459.785126
12480.564043	3947.077667	1263.691406	410.019775
12480.564043	3947.077667	1262.583984	522.761963
12480.564043	3947.077667	1261.476563	534.895935
12480.564043	3947.077667	1260.368164	486.819000
12480.564043	3947.077667	1259.260742	543.962402
12480.564043	3947.077667	1258.152344	595.163391
12480.564043	3947.077667	1257.043945	576.342957
12480.564043	3947.077667	1255.934570	552.488281
12480.564043	3947.077667	1254.825195	494.187347
12480.564043	3947.077667	1253.716797	411.082642
12480.564043	3947.077667	1252.606445	319.153687
12480.564043	3947.077667	1251.497070	280.602631
12480.564043	3947.077667	1250.387695	440.212677
12480.564043	3947.077667	1249.277344	458.627411
12480.564043	3947.077667	1248.166992	222.164230
12480.564043	3947.077667	1247.055664	234.258698
12480.564043	3947.077667	1245.945313	374.203308
12480.564043	3947.077667	1244.833984	296.463470
12480.564043	3947.077667	1243.722656	273.810699
12480.564043	3947.077667	1242.611328	152.435944
12480.564043	3947.077667	1241.499023	307.982819
12480.564043	3947.077667	1240.387695	248.354248
12480.564043	3947.077667	1239.275391	126.950172
12480.564043	3947.077667	1238.162109	173.180328
12480.564043	3947.077667	1237.049805	61.256279
12480.564043	3947.077667	1235.936523	131.098465
12480.564043	3947.077667	1234.823242	-82.969749
12480.564043	3947.077667	1233.709961	25.125486
12480.564043	3947.077667	1232.596680	0.861346
12480.564043	3947.077667	1231.482422	-115.794365
12480.564043	3947.077667	1230.369141	-79.704124
12480.564043	3947.077667	1229.253906	40.880898
12480.564043	3947.077667	1228.139648	-4.505592
12480.564043	3947.077667	1227.025391	-234.909439
12480.564043	3947.077667	1225.910156	-33.300411
12480.564043	3947.077667	1224.794922	-12.272877
12480.564043	3947.077667	1223.679688	22.470709
12480.564043	3947.077667	1222.563477	93.128525
12480.564043	3947.077667	1221.447266	-145.941589
12480.564043	3947.077667	1220.331055	-19.409817
12480.564043	3947.077667	1219.214844	-232.986374
12480.564043	3947.077667	1218.098633	-181.223282
12480.564043	3947.077667	1216.981445	-93.271095
12480.564043	3947.077667	1215.864258	44.209671
12480.564043	3947.077667	1214.747070	-111.751915
12480.564043	3947.077667	1213.629883	-81.476372
12480.564043	3947.077667	1212.511719	-11.545994
12480.564043	3947.077667	1211.393555	138.842728
12480.564043	3947.077667	1210.275391	230.511871
12480.564043	3947.077667	1209.157227	-10.154954
12480.564043	3947.077667	1208.038086	59.426857
12480.564043	3947.077667	1206.918945	86.364700
12480.564043	3947.077667	1205.799805	38.746319
12480.564043	3947.077667	1204.680664	165.847961
12480.564043	3947.077667	1203.560547	69.785324
12480.564043	3947.077667	1202.441406	56.460384
12480.564043	3947.077667	1201.321289	145.163254
12480.564043	3947.077667	1200.200195	172.076340
12480.564043	3947.077667	1199.080078	225.996429
12480.564043	3947.077667	1197.958984	85.266129
12480.564043	3947.077667	1196.837891	123.764801
12480.564043	3947.077667	1195.716797	207.917206
12480.564043	3947.077667	1194.594727	126.758675
12480.564043	3947.077667	1193.473633	97.217422
12480.564043	3947.077667	1192.351563	56.406113
12480.564043	3947.077667	1191.229492	38.341129
12480.564043	3947.077667	1190.106445	95.297882
12480.564043	3947.077667	1188.984375	100.609314
12480.564043	3947.077667	1187.861328	-112.735306
12480.564043	3947.077667	1186.738281	-30.443960
12480.564043	3947.077667	1185.614258	64.490997
12480.564043	3947.077667	1184.491211	-37.683899
12480.564043	3947.077667	1183.367188	117.121758
12480.564043	3947.077667	1182.243164	173.971741
12480.564043	3947.077667	1181.119141	209.406204
12480.564043	3947.077667	1179.994141	213.955002
12480.564043	3947.077667	1178.869141	86.171379
12480.564043	3947.077667	1177.744141	258.092590
12480.564043	3947.077667	1176.619141	233.196304
12480.564043	3947.077667	1175.493164	271.343262
12480.564043	3947.077667	1174.368164	231.050690
12480.564043	3947.077667	1173.242188	153.568176
12480.564043	3947.077667	1172.115234	160.832230
12480.564043	3947.077667	1170.989258	200.929871
12480.564043	3947.077667	1169.862305	376.139587
12480.564043	3947.077667	1168.735352	183.314148
12480.564043	3947.077667	1167.608398	-4.505203
12480.564043	3947.077667	1166.481445	213.883926
12480.564043	3947.077667	1165.353516	-37.898476
12480.564043	3947.077667	1164.225586	114.448906
12480.564043	3947.077667	1163.097656	116.623611
12480.564043	3947.077667	1161.968750	17.984713
12480.564043	3947.077667	1160.840820	-154.247589
12480.564043	3947.077667	1159.711914	102.002876
12480.564043	3947.077667	1158.583008	84.167725
12480.564043	3947.077667	1157.453125	52.667297
12480.564043	3947.077667	1156.324219	19.142344
12480.564043	3947.077667	1155.194336	-31.659615
12480.564043	3947.077667	1154.064453	78.069336
12480.564043	3947.077667	1152.933594	-53.487034
12480.564043	3947.077667	1151.803711	41.296062
12480.564043	3947.077667	1150.672852	-47.961357
12480.564043	3947.077667	1149.541992	-17.505714
12480.564043	3947.077667	1148.411133	-58.578762
12480.564043	3947.077667	1147.279297	-6.904288
12480.564043	3947.077667	1146.147461	-10.657159
12480.564043	3947.077667	1145.015625	-58.515610
12480.564043	3947.077667	1143.883789	-57.767242
12480.564043	3947.077667	1142.750977	-17.489635
12480.564043	3947.077667	1141.619141	27.538250
12480.564043	3947.077667	1140.486328	44.739803
12480.564043	3947.077667	1139.352539	-2.497966
12480.564043	3947.077667	1138.219727	-1.172252
12480.564043	3947.077667	1137.085938	5.294180
12480.564043	3947.077667	1135.952148	-202.593018
12480.564043	3947.077667	1134.818359	-12.679963
12480.564043	3947.077667	1133.683594	-98.915871
12480.564043	3947.077667	1132.549805	-30.302917
12480.564043	3947.077667	1131.415039	225.842789
12480.564043	3947.077667	1130.279297	330.359497
12480.564043	3947.077667	1129.144531	349.299316
12480.564043	3947.077667	1128.008789	308.121033
12480.564043	3947.077667	1126.873047	259.981415
12480.564043	3947.077667	1125.737305	445.436859
12480.564043	3947.077667	1124.601563	365.226318
12480.564043	3947.077667	1123.464844	269.739685
12480.564043	3947.077667	1122.328125	140.427170
12480.564043	3947.077667	1121.191406	266.643982
12480.564043	3947.077667	1120.054688	210.066589
12480.564043	3947.077667	1118.916992	263.054413
12480.564043	3947.077667	1117.779297	249.964218
12480.564043	3947.077667	1116.641602	333.541901
12480.564043	3947.077667	1115.503906	434.180786
12480.564043	3947.077667	1114.365234	277.439178
12480.564043	3947.077667	1113.226563	148.246552
12480.564043	3947.077667	1112.087891	138.356613
12480.564043	3947.077667	1110.949219	19.420576
12480.564043	3947.077667	1109.809570	42.772797
12480.564043	3947.077667	1108.669922	148.964203
12480.564043	3947.077667	1107.530273	66.498589
12480.564043	3947.077667	1106.390625	82.573097
12480.564043	3947.077667	1105.250000	268.277618
12480.564043	3947.077667	1104.109375	170.860764
12480.564043	3947.077667	1102.968750	82.182800
12480.564043	3947.077667	1101.828125	17.298336
12480.564043	3947.077667	1100.686523	87.170975
12480.564043	3947.077667	1099.544922	37.011635
12480.564043	3947.077667	1098.403320	65.024376
12480.564043	3947.077667	1097.261719	106.148613
12480.564043	3947.077667	1096.120117	138.910706
12480.564043	3947.077667	1094.977539	102.347084
12480.564043	3947.077667	1093.834961	-3.926521
12480.564043	3947.077667	1092.691406	99.253120
12480.564043	3947.077667	1091.548828	105.993065
12480.564043	3947.077667	1090.405273	81.310150
12480.564043	3947.077667	1089.261719	-136.441238
12480.564043	3947.077667	1088.118164	136.328796
12480.564043	3947.077667	1086.973633	63.170799
12480.564043	3947.077667	1085.829102	-109.322281
12480.564043	3947.077667	1084.684570	-35.900360
12480.564043	3947.077667	1083.540039	-86.542847
12480.564043	3947.077667	1082.395508	20.372435
12480.564043	3947.077667	1081.250000	-58.859261
12480.564043	3947.077667	1080.104492	13.020559
12480.564043	3947.077667	1078.958984	105.948547
12480.564043	3947.077667	1077.812500	-80.334000
12480.564043	3947.077667	1076.666016	21.377037
12480.564043	3947.077667	1075.519531	-82.000237
12480.564043	3947.077667	1074.373047	33.816574
12480.564043	3947.077667	1073.226563	56.885246
12480.564043	3947.077667	1072.079102	36.158607
12480.564043	3947.077667	1070.931641	155.837341
12480.564043	3947.077667	1069.784180	-27.234608
12480.564043	3947.077667	1068.635742	-56.393719
12480.564043	3947.077667	1067.487305	93.930122
12480.564043	3947.077667	1066.338867	94.618965
12480.564043	3947.077667	1065.190430	258.988464
12480.564043	3947.077667	1064.041992	129.445099
12480.564043	3947.077667	1062.892578	204.733078
12480.564043	3947.077667	1061.743164	239.689560
12480.564043	3947.077667	1060.593750	164.165405
12480.564043	3947.077667	1059.443359	18.364523
12480.564043	3947.077667	1058.292969	57.593124
12480.564043	3947.077667	1057.142578	-87.357491
12480.564043	3947.077667	1055.992188	17.534451
12480.564043	3947.077667	1054.841797	-254.298141
12480.564043	3947.077667	1053.690430	-46.844135
12480.564043	3947.077667	1052.539063	-110.803673
12480.564043	3947.077667	1051.387695	-181.471375
12480.564043	3947.077667	1050.235352	-52.427143
12480.564043	3947.077667	1049.083984	-9.640146
12480.564043	3947.077667	1047.931641	21.257708
12480.564043	3947.077667	1046.778320	-22.617277
12480.564043	3947.077667	1045.625977	-27.176126
12480.564043	3947.077667	1044.472656	-47.971149
12480.564043	3947.077667	1043.319336	-78.168564
12480.564043	3947.077667	1042.166016	19.791563
12480.564043	3947.077667	1041.012695	-154.248596
12480.564043	3947.077667	1039.858398	98.263153
12480.564043	3947.077667	1038.704102	-100.944511
12480.564043	3947.077667	1037.549805	-169.338974
12480.564043	3947.077667	1036.394531	-97.367302
12480.564043	3947.077667	1035.239258	-6.161866
12480.564043	3947.077667	1034.083984	16.148815
12480.564043	3947.077667	1032.928711	-56.792267
12480.564043	3947.077667	1031.773438	-109.076492
12480.564043	3947.077667	1030.617188	-21.483316
12480.564043	3947.077667	1029.460938	145.277176
12480.564043	3947.077667	1028.304688	155.375305
12480.564043	3947.077667	1027.147461	23.861519
12480.564043	3947.077667	1025.991211	-51.039577
12480.564043	3947.077667	1024.833984	112.827995
12480.564043	3947.077667	1023.675781	83.639267
12480.564043	3947.077667	1022.518555	-38.778122
12480.564043	3947.077667	1021.360352	178.632721
12480.564043	3947.077667	1020.202148	109.491463
12480.564043	3947.077667	1019.043945	-212.883072
12480.564043	3947.077667	1017.884766	23.038433
12480.564043	3947.077667	1016.726563	-17.848213
12480.564043	3947.077667	1015.567383	-206.557159
12480.564043	3947.077667	1014.407227	-144.388947
12480.564043	3947.077667	1013.248047	-78.933624
12480.564043	3947.077667	1012.087891	27.470966
12480.564043	3947.077667	1010.927734	-37.665230
12480.564043	3947.077667	1009.767578	-110.126877
12480.564043	3947.077667	1008.606445	-35.943813
12480.564043	3947.077667	1007.446289	-93.140907
12480.564043	3947.077667	1006.285156	-102.543999
12480.564043	3947.077667	1005.123047	-154.285629
12480.564043	3947.077667	1003.961914	68.178154
12480.564043	3947.077667	1002.799805	2.595281
12480.564043	3947.077667	1001.637695	26.469460
12480.564043	3947.077667	1000.475586	142.077560
12480.564043	3947.077667	999.312500	161.628479
12480.564043	3947.077667	998.149414	247.609528
12480.564043	3947.077667	996.986328	217.178421
12480.564043	3947.077667	995.823242	97.684334
12480.564043	3947.077667	994.659180	166.455994
12480.564043	3947.077667	993.496094	-31.329580
12480.564043	3947.077667	992.332031	49.698368
12480.564043	3947.077667	991.166992	90.301880
12480.564043	3947.077667	990.002930	112.935715
12480.564043	3947.077667	988.837891	96.709503
12480.564043	3947.077667	987.672852	77.505707
12480.564043	3947.077667	986.506836	-17.116928
12480.564043	3947.077667	985.341797	203.831070
12480.564043	3947.077667	984.175781	352.594543
12480.564043	3947.077667	983.009766	-11.013088
12480.564043	3947.077667	981.843750	-42.389774
12480.564043	3947.077667	980.676758	-119.211441
12480.564043	3947.077667	979.509766	-19.884230
12480.564043	3947.077667	978.342773	159.106049
12480.564043	3947.077667	977.175781	169.021637
12480.564043	3947.077667	976.007813	175.384613
12480.564043	3947.077667	974.839844	-25.535175
12480.564043	3947.077667	973.671875	53.902470
12480.564043	3947.077667	972.503906	120.317192
12480.564043	3947.077667	971.334961	201.948608
12480.564043	3947.077667	970.166016	320.540436
12480.564043	3947.077667	968.997070	230.191864
12480.564043	3947.077667	967.828125	384.761780
12480.564043	3947.077667	966.658203	268.707336
12480.564043	3947.077667	965.488281	263.999054
12480.564043	3947.077667	964.318359	405.372833
12480.564043	3947.077667	963.148438	384.921906
12480.564043	3947.077667	961.977539	538.216492
12480.564043	3947.077667	960.806641	372.563324
12480.564043	3947.077667	959.635742	317.285095
12480.564043	3947.077667	958.463867	528.509521
12480.564043	3947.077667	957.292969	530.739502
12480.564043	3947.077667	956.121094	415.577576
12480.564043	3947.077667	954.948242	291.812042
12480.564043	3947.077667	953.776367	386.608398
12480.564043	3947.077667	952.603516	539.910461
12480.564043	3947.077667	951.430664	258.424744
12480.564043	3947.077667	950.257813	284.345123
12480.564043	3947.077667	949.084961	323.003143
12480.564043	3947.077667	947.911133	303.264191
12480.564043	3947.077667	946.737305	174.727631
12480.564043	3947.077667	945.563477	369.520844
12480.564043	3947.077667	944.388672	308.519867
12480.564043	3947.077667	943.213867	248.075089
12480.564043	3947.077667	942.039063	160.108871
12480.564043	3947.077667	940.864258	156.660767
12480.564043	3947.077667	939.688477	256.491302
12480.564043	3947.077667	938.513672	260.800415
12480.564043	3947.077667	937.337891	259.529663
12480.564043	3947.077667	936.161133	274.474213
12480.564043	3947.077667	934.985352	386.059875
12480.564043	3947.077667	933.808594	316.298187
12480.564043	3947.077667	932.631836	572.065369
12480.564043	3947.077667	931.454102	386.860870
12480.564043	3947.077667	930.277344	498.325714
12480.564043	3947.077667	929.099609	504.485687
12480.564043	3947.077667	927.921875	508.687836
12480.564043	3947.077667	926.743164	448.918823
12480.564043	3947.077667	925.565430	629.974182
12480.564043	3947.077667	924.386719	467.204590
12480.564043	3947.077667	923.208008	545.205322
12480.564043	3947.077667	922.028320	355.654205
12480.564043	3947.077667	920.849609	386.227997
12480.564043	3947.077667	919.669922	388.115875
12480.564043	3947.077667	919.474609	211.382385
12480.564043	3947.077667	918.309570	394.008453
12480.564043	3947.077667	917.143555	323.643829
12480.564043	3947.077667	915.977539	384.806885
12480.564043	3947.077667	914.810547	92.434891
12480.564043	3947.077667	913.644531	149.415070
12480.564043	3947.077667	912.477539	97.452629
12480.564043	3947.077667	911.310547	72.164696
12480.564043	3947.077667	910.143555	48.892433
12480.564043	3947.077667	908.975586	81.012344
12480.564043	3947.077667	907.807617	279.327209
12480.564043	3947.077667	906.639648	266.148895
12480.564043	3947.077667	905.471680	109.313660
12480.564043	3947.077667	904.303711	272.491699
12480.564043	3947.077667	903.134766	390.441193
12480.564043	3947.077667	901.965820	210.986542
12480.564043	3947.077667	900.796875	197.609512
12480.564043	3947.077667	899.626953	216.988007
12480.564043	3947.077667	898.457031	318.281525
12480.564043	3947.077667	897.287109	308.856598
12480.564043	3947.077667	896.117188	235.894089
12480.564043	3947.077667	894.947266	263.264465
12480.564043	3947.077667	893.776367	313.104370
12480.564043	3947.077667	892.605469	336.268799
12480.564043	3947.077667	891.434570	312.306824
12480.564043	3947.077667	890.262695	218.740768
12480.564043	3947.077667	889.091797	454.547211
12480.564043	3947.077667	887.919922	407.950165
12480.564043	3947.077667	886.748047	226.360413
12480.564043	3947.077667	885.575195	343.310883
12480.564043	3947.077667	884.403320	364.095734
12480.564043	3947.077667	883.230469	215.201462
12480.564043	3947.077667	882.057617	86.758629
12480.564043	3947.077667	880.883789	217.777542
12480.564043	3947.077667	879.710938	52.539967
12480.564043	3947.077667	878.537109	107.872856
12480.564043	3947.077667	877.362305	148.851486
12480.564043	3947.077667	876.188477	132.618164
12480.564043	3947.077667	875.013672	185.738892
12480.564043	3947.077667	873.839844	326.533813
12480.564043	3947.077667	872.664063	138.795425
12480.564043	3947.077667	871.489258	73.466911
12480.564043	3947.077667	870.313477	128.435257
12480.564043	3947.077667	869.138672	93.636116
12480.564043	3947.077667	867.962891	189.264908
12480.564043	3947.077667	866.786133	-24.945873
12480.564043	3947.077667	865.610352	44.100685
12480.564043	3947.077667	864.433594	41.783424
12480.564043	3947.077667	863.256836	23.133799
12480.564043	3947.077667	862.079102	197.893890
12480.564043	3947.077667	860.902344	71.243881
12480.564043	3947.077667	859.724609	251.950027
12480.564043	3947.077667	858.546875	167.997009
12480.564043	3947.077667	857.368164	59.624805
12480.564043	3947.077667	856.190430	83.476723
12480.564043	3947.077667	855.011719	152.021851
12480.564043	3947.077667	853.833008	-98.727661
12480.564043	3947.077667	852.654297	-93.270790
12480.564043	3947.077667	851.474609	156.040482
12480.564043	3947.077667	850.294922	17.089449
12480.564043	3947.077667	849.115234	24.434752
12480.564043	3947.077667	847.935547	64.237564
12480.564043	3947.077667	846.754883	268.478760
12480.564043	3947.077667	845.575195	46.219154
12480.564043	3947.077667	844.393555	156.923615
12480.564043	3947.077667	843.212891	54.443722
12480.564043	3947.077667	842.032227	77.772003
12480.564043	3947.077667	840.850586	257.262207
12480.564043	3947.077667	839.668945	81.688477
12480.564043	3947.077667	838.486328	188.021652
12480.564043	3947.077667	837.304688	97.610069
12480.564043	3947.077667	836.122070	157.197128
12480.564043	3947.077667	834.939453	275.492615
12480.564043	3947.077667	833.756836	274.153778
12480.564043	3947.077667	832.573242	163.383682
12480.564043	3947.077667	831.389648	172.116821
12480.564043	3947.077667	830.206055	77.534805
12480.564043	3947.077667	829.022461	238.043854
12480.564043	3947.077667	827.838867	80.660515
12480.564043	3947.077667	826.654297	121.623840
12480.564043	3947.077667	825.469727	43.158489
12480.564043	3947.077667	824.284180	395.554230
12480.564043	3947.077667	823.099609	203.727432
12480.564043	3947.077667	821.914063	90.798630
12480.564043	3947.077667	820.728516	311.442810
12480.564043	3947.077667	819.542969	172.182343
12480.564043	3947.077667	818.356445	-118.619942
12480.564043	3947.077667	817.169922	160.400452
12480.564043	3947.077667	815.983398	118.093056
12480.564043	3947.077667	814.796875	-15.116449
12480.564043	3947.077667	813.609375	-208.885895
12480.564043	3947.077667	812.422852	-164.407715
12480.564043	3947.077667	811.235352	33.398922
12480.564043	3947.077667	810.046875	63.598297
12480.564043	3947.077667	808.859375	39.275475
12480.564043	3947.077667	807.670898	31.055059
12480.564043	3947.077667	806.482422	83.295959
12480.564043	3947.077667	805.293945	-118.567383
12480.564043	3947.077667	804.104492	22.292267
12480.564043	3947.077667	802.915039	-104.991692
12480.564043	3947.077667	801.725586	-20.695742
12480.564043	3947.077667	800.536133	273.034485
12480.564043	3947.077667	799.345703	109.396156
12480.564043	3947.077667	798.155273	56.535519
12480.564043	3947.077667	796.964844	162.703415
12480.564043	3947.077667	795.774414	-41.196011
12480.564043	3947.077667	794.583008	34.672985
12480.564043	3947.077667	793.392578	-106.828323
12480.564043	3947.077667	792.200195	41.353336
12480.564043	3947.077667	791.008789	30.547216
12480.564043	3947.077667	789.816406	-4.429753
12480.564043	3947.077667	788.625000	-27.371294
12480.564043	3947.077667	787.432617	-40.299484
12480.564043	3947.077667	786.239258	-240.155014
12480.564043	3947.077667	785.046875	90.435593
12480.564043	3947.077667	783.853516	-55.218899
12480.564043	3947.077667	782.660156	-20.112486
12480.564043	3947.077667	781.465820	41.034504
12480.564043	3947.077667	780.272461	-100.639542
12480.564043	3947.077667	779.078125	-170.048798
12480.564043	3947.077667	777.883789	35.430084
12480.564043	3947.077667	776.688477	2.039493
12480.564043	3947.077667	775.494141	66.901512
12480.564043	3947.077667	774.298828	59.495239
12480.564043	3947.077667	773.103516	154.296677
12480.564043	3947.077667	771.907227	-23.605230
12480.564043	3947.077667	770.711914	-95.259010
12480.564043	3947.077667	769.515625	-10.645832
12480.564043	3947.077667	768.318359	107.938141
12480.564043	3947.077667	767.122070	-47.962646
12480.564043	3947.077667	765.924805	-171.811005
12480.564043	3947.077667	764.727539	76.721855
12480.564043	3947.077667	763.530273	-97.237259
12480.564043	3947.077667	762.333008	91.044884
12480.564043	3947.077667	761.134766	55.110023
12480.564043	3947.077667	759.936523	-76.875961
12480.564043	3947.077667	758.738281	-106.859528
12480.564043	3947.077667	757.540039	-98.887695
12480.564043	3947.077667	756.340820	-108.963791
12480.564043	3947.077667	755.141602	-73.114174
12480.564043	3947.077667	753.942383	62.583851
12480.564043	3947.077667	752.742188	-77.532318
12480.564043	3947.077667	751.541992	-81.814125
12480.564043	3947.077667	750.341797	11.710950
12480.564043	3947.077667	749.141602	37.261513
12480.564043	3947.077667	747.941406	-37.059063
12480.564043	3947.077667	746.740234	-27.580564
12480.564043	3947.077667	745.539063	-203.724533
12480.564043	3947.077667	744.337891	130.859482
12480.564043	3947.077667	743.135742	-57.317585
12480.564043	3947.077667	741.933594	-121.832436
12480.564043	3947.077667	740.731445	-158.460571
12480.564043	3947.077667	739.529297	-141.305634
12480.564043	3947.077667	738.326172	-355.386139
12480.564043	3947.077667	737.124023	-55.373451
12480.564043	3947.077667	735.919922	57.202389
12480.564043	3947.077667	734.716797	54.170052
12480.564043	3947.077667	733.513672	78.962158
12480.564043	3947.077667	732.309570	37.992622
12480.564043	3947.077667	731.105469	-168.214264
12480.564043	3947.077667	729.900391	-69.928253
12480.564043	3947.077667	728.696289	-138.854279
12480.564043	3947.077667	727.491211	-44.699753
12480.564043	3947.077667	726.286133	63.283421
12480.564043	3947.077667	725.080078	37.947418
12480.564043	3947.077667	723.874023	10.581457
12480.564043	3947.077667	722.668945	136.211243
12480.564043	3947.077667	721.461914	80.905907
12480.564043	3947.077667	720.255859	116.958527
12480.564043	3947.077667	719.048828	99.310555
12480.564043	3947.077667	717.841797	35.942852
12480.564043	3947.077667	716.634766	220.720612
12480.564043	3947.077667	715.427734	101.667267
12480.564043	3947.077667	714.219727	183.043823
12480.564043	3947.077667	713.011719	117.506157
12480.564043	3947.077667	711.803711	121.372597
12480.564043	3947.077667	710.594727	-5.719941
12480.564043	3947.077667	709.385742	87.287849
12480.564043	3947.077667	708.176758	-33.905773
12480.564043	3947.077667	706.967773	126.349602
12480.564043	3947.077667	705.758789	48.685833
12480.564043	3947.077667	704.548828	-25.040613
12480.564043	3947.077667	703.338867	-160.196945
12480.564043	3947.077667	702.127930	-152.766617
12480.564043	3947.077667	700.917969	-194.889069
12480.564043	3947.077667	699.707031	6.432609
12480.564043	3947.077667	698.496094	-87.276031
12480.564043	3947.077667	697.285156	-250.255142
12480.564043	3947.077667	696.073242	69.482361
12480.564043	3947.077667	694.861328	3.341095
12480.564043	3947.077667	693.649414	87.462761
12480.564043	3947.077667	692.436523	58.797245
12480.564043	3947.077667	691.224609	-86.527573
12480.564043	3947.077667	690.011719	404.496338
12480.564043	3947.077667	688.798828	268.926147
12480.564043	3947.077667	687.584961	81.993874
12480.564043	3947.077667	686.372070	258.488892
12480.564043	3947.077667	685.158203	355.868103
12480.564043	3947.077667	683.943359	350.490997
12480.564043	3947.077667	682.729492	410.201874
12480.564043	3947.077667	681.514648	379.056091
12480.564043	3947.077667	680.299805	503.730347
12480.564043	3947.077667	679.084961	405.407471
12480.564043	3947.077667	677.869141	283.403168
12480.564043	3947.077667	676.653320	354.619873
12480.564043	3947.077667	675.437500	281.853699
12480.564043	3947.077667	674.221680	311.549225
12480.564043	3947.077667	673.004883	228.860916
12480.564043	3947.077667	671.789063	242.692490
12480.564043	3947.077667	670.571289	360.842682
12480.564043	3947.077667	669.354492	413.914642
12480.564043	3947.077667	668.136719	356.657379
12480.564043	3947.077667	666.919922	313.157532
12480.564043	3947.077667	665.701172	194.832535
12480.564043	3947.077667	664.483398	340.160126
12480.564043	3947.077667	663.264648	375.213196
12480.564043	3947.077667	662.045898	333.501190
12480.564043	3947.077667	660.827148	315.352570
12480.564043	3947.077667	659.608398	375.796997
12480.564043	3947.077667	658.388672	300.546234
12480.564043	3947.077667	657.168945	447.325684
12480.564043	3947.077667	655.949219	318.951202
12480.564043	3947.077667	654.728516	416.458649
12480.564043	3947.077667	653.507813	352.847046
12480.564043	3947.077667	652.287109	528.746704
12480.564043	3947.077667	651.066406	321.750793
12480.564043	3947.077667	649.844727	183.478134
12480.564043	3947.077667	648.623047	123.703308
12480.564043	3947.077667	647.401367	530.793945
12480.564043	3947.077667	646.179688	751.345276
12480.564043	3947.077667	644.957031	712.916382
12480.564043	3947.077667	643.734375	692.104248
12480.564043	3947.077667	642.511719	504.653625
12480.564043	3947.077667	641.289063	489.687012
12480.564043	3947.077667	640.065430	658.843506
12480.564043	3947.077667	638.841797	680.976196
12480.564043	3947.077667	637.618164	616.889282
12480.564043	3947.077667	636.393555	744.662354
12480.564043	3947.077667	635.168945	576.749023
12480.564043	3947.077667	633.944336	675.038574
12480.564043	3947.077667	632.719727	759.550171
12480.564043	3947.077667	631.494141	697.256714
12480.564043	3947.077667	630.269531	482.397552
12480.564043	3947.077667	629.042969	605.876770
12480.564043	3947.077667	627.817383	494.664490
12480.564043	3947.077667	626.590820	299.406219
12480.564043	3947.077667	625.365234	362.160858
12480.564043	3947.077667	624.137695	461.961121
12480.564043	3947.077667	622.911133	442.534302
12480.564043	3947.077667	621.683594	469.945648
12480.564043	3947.077667	620.456055	518.789978
12480.564043	3947.077667	619.228516	339.176300
12480.564043	3947.077667	618.000977	298.181458
12480.564043	3947.077667	616.772461	329.364166
12480.564043	3947.077667	615.543945	128.342789
12480.564043	3947.077667	614.314453	414.996307
12480.564043	3947.077667	613.085938	274.433929
12480.564043	3947.077667	611.856445	94.901291
12480.564043	3947.077667	610.626953	272.132080
12480.564043	3947.077667	609.397461	55.591831
12480.564043	3947.077667	608.166992	189.827454
12480.564043	3947.077667	606.936523	166.189880
12480.564043	3947.077667	605.706055	173.698395
12480.564043	3947.077667	604.474609	196.748489
12480.564043	3947.077667	603.244141	247.025894
12480.564043	3947.077667	602.012695	122.078720
12480.564043	3947.077667	600.780273	36.071701
12480.564043	3947.077667	599.548828	22.072502
12480.564043	3947.077667	598.316406	157.825439
12480.564043	3947.077667	597.083984	-25.434584
12480.564043	3947.077667	595.851563	-41.425594
12480.564043	3947.077667	594.618164	146.670685
12480.564043	3947.077667	593.384766	-71.518219
12480.564043	3947.077667	592.151367	64.004509
12480.564043	3947.077667	590.917969	110.091187
12480.564043	3947.077667	589.683594	125.058105
12480.564043	3947.077667	588.449219	-30.877338
12480.564043	3947.077667	587.214844	-33.390186
12480.564043	3947.077667	585.979492	16.483297
12480.564043	3947.077667	584.745117	-28.759287
12480.564043	3947.077667	583.509766	34.645687
12480.564043	3947.077667	582.273438	33.992886
12480.564043	3947.077667	581.038086	112.848305
12480.564043	3947.077667	579.801758	50.111263
12480.564043	3947.077667	578.565430	-22.302546
12480.564043	3947.077667	577.329102	-71.436348
12480.564043	3947.077667	576.091797	90.641304
12480.564043	3947.077667	574.854492	76.350006
12480.564043	3947.077667	573.617188	36.878933
12480.564043	3947.077667	572.378906	-99.410789
12480.564043	3947.077667	571.141602	198.029251
12480.564043	3947.077667	569.903320	75.301437
12480.564043	3947.077667	568.664063	39.697464
12480.564043	3947.077667	567.425781	-164.213760
12480.564043	3947.077667	566.186523	-304.214630
12480.564043	3947.077667	564.947266	116.692474
12480.564043	3947.077667	563.708008	50.162537
12480.564043	3947.077667	562.467773	-0.882852
12480.564043	3947.077667	561.227539	73.719948
12480.564043	3947.077667	559.987305	192.735229
12480.564043	3947.077667	558.747070	91.462410
12480.564043	3947.077667	557.505859	131.226395
12480.564043	3947.077667	556.264648	84.076492
12480.564043	3947.077667	555.023438	35.018143
12480.564043	3947.077667	553.781250	190.582275
12480.564043	3947.077667	552.539063	162.749786
12480.564043	3947.077667	551.296875	28.815134
12480.564043	3947.077667	550.054688	35.759274
12480.564043	3947.077667	548.811523	-30.589056
12480.564043	3947.077667	547.569336	126.774231
12480.564043	3947.077667	546.325195	68.150803
12480.564043	3947.077667	545.082031	115.569908
12480.564043	3947.077667	543.837891	234.265686
12480.564043	3947.077667	542.593750	148.705109
12480.564043	3947.077667	541.349609	201.869034
12480.564043	3947.077667	540.105469	231.910095
12480.564043	3947.077667	538.860352	173.374710
12480.564043	3947.077667	537.615234	214.967072
12480.564043	3947.077667	536.369141	231.524551
12480.564043	3947.077667	535.124023	159.584030
12480.564043	3947.077667	533.877930	222.331726
12480.564043	3947.077667	532.631836	75.428673
12480.564043	3947.077667	531.384766	136.255188
12480.564043	3947.077667	530.138672	108.642830
12480.564043	3947.077667	528.891602	34.915482
12480.564043	3947.077667	527.643555	-25.327177
12480.564043	3947.077667	526.396484	104.670082
12480.564043	3947.077667	525.148438	59.823875
12480.564043	3947.077667	523.900391	-73.329079
12480.564043	3947.077667	522.652344	-22.102371
12480.564043	3947.077667	521.403320	-51.515316
12480.564043	3947.077667	520.154297	-0.303814
12480.564043	3947.077667	518.905273	-43.122395
12480.564043	3947.077667	517.656250	-87.831688
12480.564043	3947.077667	516.406250	-46.216759
12480.564043	3947.077667	515.156250	-165.677780
12480.564043	3947.077667	513.906250	-139.385101
12480.564043	3947.077667	512.655273	-24.938318
12480.564043	3947.077667	511.404297	-98.324715
12480.564043	3947.077667	510.153320	-1.164964
12480.564043	3947.077667	508.902344	-195.184280
12480.564043	3947.077667	507.650391	-69.318398
12480.564043	3947.077667	506.398438	58.412949
12480.564043	3947.077667	505.146484	-22.553505
12480.564043	3947.077667	503.893555	-120.713211
12480.564043	3947.077667	502.641602	-35.140301
12480.564043	3947.077667	501.388672	-35.692146
12480.564043	3947.077667	500.134766	-17.127548
12480.564043	3947.077667	498.881836	12.908834
12480.564043	3947.077667	497.627930	-4.871195
12480.564043	3947.077667	496.374023	6.022851
12480.564043	3947.077667	495.119141	-124.505478
12480.564043	3947.077667	493.865234	-44.825726
12480.564043	3947.077667	492.610352	44.355686
12480.564043	3947.077667	491.355469	93.386383
12480.564043	3947.077667	490.099609	71.737000
12480.564043	3947.077667	488.843750	17.634916
12480.564043	3947.077667	487.587891	-26.916681
12480.564043	3947.077667	486.332031	86.898804
12480.564043	3947.077667	485.075195	131.967682
12480.564043	3947.077667	483.818359	117.874451
12480.564043	3947.077667	482.561523	-102.165108
12480.564043	3947.077667	481.304688	-87.651138
12480.564043	3947.077667	480.046875	-111.296356
12480.564043	3947.077667	478.789063	200.415100
12480.564043	3947.077667	477.531250	75.687904
12480.564043	3947.077667	476.272461	40.495541
12480.564043	3947.077667	475.013672	-116.592644
12480.564043	3947.077667	473.754883	-151.802933
12480.564043	3947.077667	472.496094	-202.265961
12480.564043	3947.077667	471.236328	49.828175
12480.564043	3947.077667	469.976563	126.723320
12480.564043	3947.077667	468.716797	20.918398
12480.564043	3947.077667	467.456055	2.584233
12480.564043	3947.077667	466.196289	-141.286606
12480.564043	3947.077667	464.935547	-70.346657
12480.564043	3947.077667	463.673828	23.298912
12480.564043	3947.077667	462.413086	-107.378876
12480.564043	3947.077667	461.151367	242.567398
12480.564043	3947.077667	459.889648	332.073425
12480.564043	3947.077667	458.626953	153.700439
12480.564043	3947.077667	457.364258	229.727768
12480.564043	3947.077667	456.101563	127.209831
12480.564043	3947.077667	454.838867	129.021255
12480.564043	3947.077667	453.575195	316.664948
12480.564043	3947.077667	452.312500	168.381424
12480.564043	3947.077667	451.047852	380.377228
12480.564043	3947.077667	449.784180	277.427551
12480.564043	3947.077667	448.519531	460.647186
12480.564043	3947.077667	447.254883	384.015106
12480.564043	3947.077667	445.990234	167.070038
12480.564043	3947.077667	444.725586	321.401367
12480.564043	3947.077667	443.459961	450.898834
12480.564043	3947.077667	442.194336	358.641846
12480.564043	3947.077667	440.927734	542.677795
12480.564043	3947.077667	439.662109	207.859009
12480.564043	3947.077667	438.395508	524.001587
12480.564043	3947.077667	437.127930	516.299988
12480.564043	3947.077667	435.861328	555.727966
12480.564043	3947.077667	434.593750	509.845398
12480.564043	3947.077667	433.326172	573.459900
12480.564043	3947.077667	432.058594	697.344788
12480.564043	3947.077667	430.790039	732.136047
12480.564043	3947.077667	429.521484	589.087341
12480.564043	3947.077667	428.252930	827.488159
12480.564043	3947.077667	426.984375	939.016357
12480.564043	3947.077667	425.714844	959.615234
12480.564043	3947.077667	424.445313	1110.229736
12480.564043	3947.077667	423.174805	981.169434
12480.564043	3947.077667	421.905273	1008.547180
12480.564043	3947.077667	420.634766	948.849121
12480.564043	3947.077667	419.364258	1168.067993
12480.564043	3947.077667	418.092773	1047.441650
12480.564043	3947.077667	416.822266	1205.632568
12480.564043	3947.077667	415.550781	1110.844971
12480.564043	3947.077667	414.278320	1089.271729
12480.564043	3947.077667	413.006836	1110.735474
12480.564043	3947.077667	411.734375	1158.217651
12480.564043	3947.077667	410.461914	1054.662476
12480.564043	3947.077667	409.188477	732.356079
12480.564043	3947.077667	407.916016	1063.095703
12480.564043	3947.077667	406.642578	1001.809326
12480.564043	3947.077667	405.368164	883.692932
12480.564043	3947.077667	404.094727	1175.380737
12480.564043	3947.077667	402.820313	1050.824463
12480.564043	3947.077667	401.545898	1117.713745
12480.564043	3947.077667	400.270508	1073.195313
12480.564043	3947.077667	398.996094	1464.359985
12480.564043	3947.077667	397.720703	1548.548462
12480.564043	3947.077667	396.444336	1498.805786
12480.564043	3947.077667	395.168945	1399.773682
12480.564043	3947.077667	393.892578	1335.948486
12480.564043	3947.077667	392.616211	1185.262207
12480.564043	3947.077667	391.339844	1146.749268
12480.564043	3947.077667	390.062500	1128.335449
12480.564043	3947.077667	388.785156	1126.257935
12480.564043	3947.077667	387.507813	1176.138062
12480.564043	3947.077667	386.229492	1144.733643
12480.564043	3947.077667	384.951172	1127.740234
12480.564043	3947.077667	383.672852	1042.638794
12480.564043	3947.077667	382.394531	1116.263916
12480.564043	3947.077667	381.115234	1018.645874
12480.564043	3947.077667	379.835938	1057.173462
12480.564043	3947.077667	378.556641	1020.068298
12480.564043	3947.077667	377.277344	1178.918091
12480.564043	3947.077667	375.997070	1430.571045
12480.564043	3947.077667	374.716797	1649.550293
12480.564043	3947.077667	373.435547	1804.015869
12480.564043	3947.077667	372.155273	1454.318359
12480.564043	3947.077667	370.874023	1521.129028
12480.564043	3947.077667	369.591797	1037.183960
12480.564043	3947.077667	368.310547	857.440186
12480.564043	3947.077667	367.028320	762.889282
12480.564043	3947.077667	365.746094	678.716553
12480.564043	3947.077667	364.463867	728.231079
12480.564043	3947.077667	363.180664	561.918884
12480.564043	3947.077667	361.897461	495.604858
12480.564043	3947.077667	360.614258	570.287415
12480.564043	3947.077667	359.330078	582.305847
12480.564043	3947.077667	358.045898	259.174438
12480.564043	3947.077667	356.761719	431.582977
12480.564043	3947.077667	355.477539	349.103577
12480.564043	3947.077667	354.192383	543.501648
12480.564043	3947.077667	352.907227	331.994202
12480.564043	3947.077667	351.622070	652.743164
12480.564043	3947.077667	350.336914	573.251770
12480.564043	3947.077667	349.050781	481.396667
12480.564043	3947.077667	347.764648	349.245331
12480.564043	3947.077667	346.477539	256.868988
12480.564043	3947.077667	345.191406	429.672150
12480.564043	3947.077667	343.904297	360.849091
12480.564043	3947.077667	342.616211	357.726959
12480.564043	3947.077667	341.329102	49.902218
12480.564043	3947.077667	340.041016	118.581619
12480.564043	3947.077667	338.752930	50.011051
12480.564043	3947.077667	337.463867	50.684464
12480.564043	3947.077667	336.175781	90.866005
12480.564043	3947.077667	334.886719	92.308022
12480.564043	3947.077667	333.596680	71.733597
12480.564043	3947.077667	332.307617	200.214920
12480.564043	3947.077667	331.017578	-76.210793
12480.564043	3947.077667	329.727539	-79.180916
12480.564043	3947.077667	328.436523	129.746262
12480.564043	3947.077667	327.146484	218.117371
12480.564043	3947.077667	325.855469	226.707214
12480.564043	3947.077667	324.563477	298.453918
12480.564043	3947.077667	323.272461	51.121284
12480.564043	3947.077667	321.980469	97.016869
12480.564043	3947.077667	320.688477	207.819183
12480.564043	3947.077667	319.395508	157.134064
12480.564043	3947.077667	318.103516	48.992043
12480.564043	3947.077667	316.810547	-1.810368
12480.564043	3947.077667	315.516602	-100.991318
12480.564043	3947.077667	314.223633	-66.833389
12480.564043	3947.077667	312.929688	-75.591507
12480.564043	3947.077667	311.635742	-188.322952
12480.564043	3947.077667	310.340820	-277.312073
12480.564043	3947.077667	309.045898	-162.967651
12480.564043	3947.077667	307.750977	-60.160900
12480.564043	3947.077667	306.456055	84.732628
12480.564043	3947.077667	305.160156	-170.597809
12480.564043	3947.077667	303.865234	1.024254
12480.564043	3947.077667	302.568359	33.150684
12480.564043	3947.077667	301.272461	131.308624
12480.564043	3947.077667	299.975586	175.085297
12480.564043	3947.077667	298.678711	293.920837
