#X		#Y		#Wave		#Intensity
13313.138723	3903.115500	1999.980469	-26.892893
13313.138723	3903.115500	1999.016602	-15.242985
13313.138723	3903.115500	1998.052734	73.534927
13313.138723	3903.115500	1997.087891	-66.113304
13313.138723	3903.115500	1996.123047	-211.063934
13313.138723	3903.115500	1995.158203	-21.925194
13313.138723	3903.115500	1994.193359	-120.533142
13313.138723	3903.115500	1993.228516	57.878456
13313.138723	3903.115500	1992.262695	-78.553398
13313.138723	3903.115500	1991.297852	57.013924
13313.138723	3903.115500	1990.332031	4.114008
13313.138723	3903.115500	1989.366211	-34.235897
13313.138723	3903.115500	1988.399414	6.293285
13313.138723	3903.115500	1987.433594	175.132751
13313.138723	3903.115500	1986.466797	83.955185
13313.138723	3903.115500	1985.500977	-128.622955
13313.138723	3903.115500	1984.534180	-24.948154
13313.138723	3903.115500	1983.567383	147.640839
13313.138723	3903.115500	1982.599609	-38.407825
13313.138723	3903.115500	1981.632813	29.865334
13313.138723	3903.115500	1980.665039	112.710526
13313.138723	3903.115500	1979.697266	64.403435
13313.138723	3903.115500	1978.729492	188.763443
13313.138723	3903.115500	1977.761719	46.230846
13313.138723	3903.115500	1976.792969	-71.757545
13313.138723	3903.115500	1975.825195	29.769808
13313.138723	3903.115500	1974.856445	57.054527
13313.138723	3903.115500	1973.887695	155.707291
13313.138723	3903.115500	1972.918945	49.429096
13313.138723	3903.115500	1971.949219	34.285831
13313.138723	3903.115500	1970.980469	-32.778557
13313.138723	3903.115500	1970.010742	10.978880
13313.138723	3903.115500	1969.041016	135.925552
13313.138723	3903.115500	1968.071289	58.622860
13313.138723	3903.115500	1967.101563	87.175980
13313.138723	3903.115500	1966.130859	-125.814926
13313.138723	3903.115500	1965.161133	92.191261
13313.138723	3903.115500	1964.190430	95.772842
13313.138723	3903.115500	1963.219727	118.954170
13313.138723	3903.115500	1962.249023	60.802471
13313.138723	3903.115500	1961.277344	-54.020889
13313.138723	3903.115500	1960.306641	234.676712
13313.138723	3903.115500	1959.334961	-0.842585
13313.138723	3903.115500	1958.363281	2.256774
13313.138723	3903.115500	1957.391602	12.668173
13313.138723	3903.115500	1956.419922	69.735237
13313.138723	3903.115500	1955.447266	-37.991333
13313.138723	3903.115500	1954.474609	50.908657
13313.138723	3903.115500	1953.501953	-66.701096
13313.138723	3903.115500	1952.529297	-2.488270
13313.138723	3903.115500	1951.556641	2.705476
13313.138723	3903.115500	1950.583984	118.387962
13313.138723	3903.115500	1949.610352	76.830505
13313.138723	3903.115500	1948.636719	96.643196
13313.138723	3903.115500	1947.663086	-21.042538
13313.138723	3903.115500	1946.689453	30.642925
13313.138723	3903.115500	1945.715820	99.468475
13313.138723	3903.115500	1944.741211	111.824837
13313.138723	3903.115500	1943.767578	-42.631420
13313.138723	3903.115500	1942.792969	104.614090
13313.138723	3903.115500	1941.818359	28.665844
13313.138723	3903.115500	1940.842773	-5.582004
13313.138723	3903.115500	1939.868164	19.012037
13313.138723	3903.115500	1938.892578	-17.669935
13313.138723	3903.115500	1937.916992	-144.989700
13313.138723	3903.115500	1936.941406	-59.127632
13313.138723	3903.115500	1935.965820	-49.215378
13313.138723	3903.115500	1934.990234	51.310627
13313.138723	3903.115500	1934.013672	-119.958878
13313.138723	3903.115500	1933.037109	93.173363
13313.138723	3903.115500	1932.060547	46.812603
13313.138723	3903.115500	1931.083984	76.345253
13313.138723	3903.115500	1930.107422	25.150806
13313.138723	3903.115500	1929.129883	47.376282
13313.138723	3903.115500	1928.153320	-126.029755
13313.138723	3903.115500	1927.175781	-81.728966
13313.138723	3903.115500	1926.198242	-188.992676
13313.138723	3903.115500	1925.219727	-125.093018
13313.138723	3903.115500	1924.242188	107.437531
13313.138723	3903.115500	1923.263672	110.231148
13313.138723	3903.115500	1922.285156	-141.008316
13313.138723	3903.115500	1921.306641	49.959183
13313.138723	3903.115500	1920.328125	47.970322
13313.138723	3903.115500	1919.349609	-56.529919
13313.138723	3903.115500	1918.370117	-131.669479
13313.138723	3903.115500	1917.391602	100.774086
13313.138723	3903.115500	1916.412109	76.944572
13313.138723	3903.115500	1915.431641	-229.850876
13313.138723	3903.115500	1914.452148	0.140986
13313.138723	3903.115500	1913.472656	152.040009
13313.138723	3903.115500	1912.492188	-42.329784
13313.138723	3903.115500	1911.511719	-75.691467
13313.138723	3903.115500	1910.531250	22.616158
13313.138723	3903.115500	1909.550781	-166.641296
13313.138723	3903.115500	1908.569336	-109.707275
13313.138723	3903.115500	1907.588867	5.709624
13313.138723	3903.115500	1906.607422	101.631256
13313.138723	3903.115500	1905.625977	-87.363258
13313.138723	3903.115500	1904.644531	30.521696
13313.138723	3903.115500	1903.662109	133.787704
13313.138723	3903.115500	1902.680664	42.348587
13313.138723	3903.115500	1901.698242	-75.793213
13313.138723	3903.115500	1900.715820	214.868729
13313.138723	3903.115500	1899.733398	-134.276459
13313.138723	3903.115500	1898.750000	-62.528046
13313.138723	3903.115500	1897.767578	-109.919052
13313.138723	3903.115500	1896.784180	-130.520172
13313.138723	3903.115500	1895.800781	147.880692
13313.138723	3903.115500	1894.817383	-132.728897
13313.138723	3903.115500	1893.833984	172.353409
13313.138723	3903.115500	1892.850586	-93.524521
13313.138723	3903.115500	1891.866211	-4.672792
13313.138723	3903.115500	1890.881836	-95.526115
13313.138723	3903.115500	1889.897461	102.599174
13313.138723	3903.115500	1888.913086	-92.569336
13313.138723	3903.115500	1887.927734	-120.181602
13313.138723	3903.115500	1886.943359	-38.566582
13313.138723	3903.115500	1885.958008	77.004089
13313.138723	3903.115500	1884.972656	-71.841187
13313.138723	3903.115500	1883.987305	123.761757
13313.138723	3903.115500	1883.001953	110.785454
13313.138723	3903.115500	1882.015625	119.647278
13313.138723	3903.115500	1881.029297	-87.195435
13313.138723	3903.115500	1880.042969	-247.903046
13313.138723	3903.115500	1879.056641	-18.450369
13313.138723	3903.115500	1878.070313	-188.774185
13313.138723	3903.115500	1877.083984	-36.898186
13313.138723	3903.115500	1876.096680	56.812744
13313.138723	3903.115500	1875.109375	-4.451865
13313.138723	3903.115500	1874.122070	4.511769
13313.138723	3903.115500	1873.134766	-90.588676
13313.138723	3903.115500	1872.146484	39.382851
13313.138723	3903.115500	1871.159180	-60.518677
13313.138723	3903.115500	1870.170898	-165.219086
13313.138723	3903.115500	1869.182617	-61.902016
13313.138723	3903.115500	1868.194336	-113.369644
13313.138723	3903.115500	1867.205078	33.410507
13313.138723	3903.115500	1866.216797	32.695484
13313.138723	3903.115500	1865.227539	-47.769688
13313.138723	3903.115500	1864.238281	106.148651
13313.138723	3903.115500	1863.249023	-95.096817
13313.138723	3903.115500	1862.259766	63.586212
13313.138723	3903.115500	1861.269531	217.368805
13313.138723	3903.115500	1860.279297	8.940269
13313.138723	3903.115500	1859.290039	-8.729760
13313.138723	3903.115500	1858.298828	67.709633
13313.138723	3903.115500	1857.308594	110.325516
13313.138723	3903.115500	1856.318359	-93.164246
13313.138723	3903.115500	1855.327148	125.503105
13313.138723	3903.115500	1854.335938	112.558914
13313.138723	3903.115500	1853.344727	5.563239
13313.138723	3903.115500	1852.353516	255.361282
13313.138723	3903.115500	1851.362305	95.306076
13313.138723	3903.115500	1850.370117	9.984447
13313.138723	3903.115500	1849.377930	187.279221
13313.138723	3903.115500	1848.385742	142.865692
13313.138723	3903.115500	1847.393555	-58.108192
13313.138723	3903.115500	1846.401367	133.452774
13313.138723	3903.115500	1845.408203	187.681198
13313.138723	3903.115500	1844.415039	70.953209
13313.138723	3903.115500	1843.421875	156.384537
13313.138723	3903.115500	1842.428711	107.003059
13313.138723	3903.115500	1841.435547	103.307304
13313.138723	3903.115500	1840.441406	188.561539
13313.138723	3903.115500	1839.448242	244.886230
13313.138723	3903.115500	1838.454102	188.140411
13313.138723	3903.115500	1837.459961	189.062820
13313.138723	3903.115500	1836.464844	175.515228
13313.138723	3903.115500	1835.470703	123.477844
13313.138723	3903.115500	1834.475586	76.213669
13313.138723	3903.115500	1833.480469	281.129608
13313.138723	3903.115500	1832.485352	192.920624
13313.138723	3903.115500	1831.490234	203.138046
13313.138723	3903.115500	1830.495117	-41.177471
13313.138723	3903.115500	1829.499023	249.791611
13313.138723	3903.115500	1828.502930	267.016968
13313.138723	3903.115500	1827.506836	123.421112
13313.138723	3903.115500	1826.510742	186.120895
13313.138723	3903.115500	1825.513672	131.209061
13313.138723	3903.115500	1824.517578	119.421013
13313.138723	3903.115500	1823.520508	157.916138
13313.138723	3903.115500	1822.523438	14.152844
13313.138723	3903.115500	1821.526367	52.519562
13313.138723	3903.115500	1820.529297	-21.817955
13313.138723	3903.115500	1819.531250	117.017891
13313.138723	3903.115500	1818.533203	9.017072
13313.138723	3903.115500	1817.535156	214.704773
13313.138723	3903.115500	1816.537109	255.030045
13313.138723	3903.115500	1815.539063	65.448730
13313.138723	3903.115500	1814.540039	-11.647185
13313.138723	3903.115500	1813.541992	-5.034349
13313.138723	3903.115500	1812.542969	70.877914
13313.138723	3903.115500	1811.543945	-6.412982
13313.138723	3903.115500	1810.543945	-179.425476
13313.138723	3903.115500	1809.544922	171.220734
13313.138723	3903.115500	1808.544922	-37.787560
13313.138723	3903.115500	1807.544922	116.524002
13313.138723	3903.115500	1806.544922	108.181755
13313.138723	3903.115500	1805.544922	-57.943207
13313.138723	3903.115500	1804.544922	31.523155
13313.138723	3903.115500	1803.543945	206.848083
13313.138723	3903.115500	1802.542969	23.812094
13313.138723	3903.115500	1801.541992	43.699432
13313.138723	3903.115500	1800.541016	182.844177
13313.138723	3903.115500	1799.539063	64.077744
13313.138723	3903.115500	1798.538086	76.509026
13313.138723	3903.115500	1797.536133	224.827072
13313.138723	3903.115500	1796.534180	70.057175
13313.138723	3903.115500	1795.532227	13.028628
13313.138723	3903.115500	1794.529297	-89.383568
13313.138723	3903.115500	1793.527344	84.691231
13313.138723	3903.115500	1792.524414	79.831879
13313.138723	3903.115500	1791.521484	22.447042
13313.138723	3903.115500	1790.518555	334.289917
13313.138723	3903.115500	1789.514648	74.188309
13313.138723	3903.115500	1788.511719	326.158386
13313.138723	3903.115500	1787.507813	123.103371
13313.138723	3903.115500	1786.503906	-60.931751
13313.138723	3903.115500	1785.500000	14.458673
13313.138723	3903.115500	1784.496094	-212.531586
13313.138723	3903.115500	1783.491211	0.652299
13313.138723	3903.115500	1782.486328	163.690552
13313.138723	3903.115500	1781.481445	3.076812
13313.138723	3903.115500	1780.476563	175.352570
13313.138723	3903.115500	1779.471680	-18.702345
13313.138723	3903.115500	1778.465820	105.745789
13313.138723	3903.115500	1777.460938	101.700943
13313.138723	3903.115500	1776.455078	-33.154385
13313.138723	3903.115500	1775.449219	60.014206
13313.138723	3903.115500	1774.442383	141.153397
13313.138723	3903.115500	1773.436523	-43.835453
13313.138723	3903.115500	1772.429688	132.051682
13313.138723	3903.115500	1771.422852	134.456345
13313.138723	3903.115500	1770.416016	160.483704
13313.138723	3903.115500	1769.409180	-65.162361
13313.138723	3903.115500	1768.402344	43.714176
13313.138723	3903.115500	1767.394531	159.546753
13313.138723	3903.115500	1766.386719	206.440399
13313.138723	3903.115500	1765.378906	23.183027
13313.138723	3903.115500	1764.371094	-29.717682
13313.138723	3903.115500	1763.362305	90.321732
13313.138723	3903.115500	1762.354492	-43.377834
13313.138723	3903.115500	1761.345703	10.044938
13313.138723	3903.115500	1760.336914	-111.977974
13313.138723	3903.115500	1759.328125	-46.947582
13313.138723	3903.115500	1758.318359	41.618565
13313.138723	3903.115500	1757.308594	9.282701
13313.138723	3903.115500	1756.299805	-91.797760
13313.138723	3903.115500	1755.290039	-53.320251
13313.138723	3903.115500	1754.279297	70.210083
13313.138723	3903.115500	1753.269531	1.947291
13313.138723	3903.115500	1752.258789	-156.300781
13313.138723	3903.115500	1751.249023	40.161404
13313.138723	3903.115500	1750.238281	-130.084290
13313.138723	3903.115500	1749.226563	-26.150314
13313.138723	3903.115500	1748.215820	-172.909775
13313.138723	3903.115500	1747.204102	-111.772583
13313.138723	3903.115500	1746.193359	88.641548
13313.138723	3903.115500	1745.181641	80.971146
13313.138723	3903.115500	1744.168945	40.114613
13313.138723	3903.115500	1743.157227	-95.286339
13313.138723	3903.115500	1742.144531	-157.569336
13313.138723	3903.115500	1741.132813	-68.856842
13313.138723	3903.115500	1740.120117	-284.750519
13313.138723	3903.115500	1739.106445	-224.607758
13313.138723	3903.115500	1738.093750	-242.441925
13313.138723	3903.115500	1737.080078	41.524609
13313.138723	3903.115500	1736.067383	-28.457417
13313.138723	3903.115500	1735.053711	-60.809944
13313.138723	3903.115500	1734.040039	-187.555740
13313.138723	3903.115500	1733.025391	-33.899044
13313.138723	3903.115500	1732.011719	34.766254
13313.138723	3903.115500	1730.997070	-7.447360
13313.138723	3903.115500	1729.982422	105.714188
13313.138723	3903.115500	1728.967773	-23.853041
13313.138723	3903.115500	1727.952148	-66.367348
13313.138723	3903.115500	1726.937500	18.168098
13313.138723	3903.115500	1725.921875	83.721336
13313.138723	3903.115500	1724.906250	-126.195168
13313.138723	3903.115500	1723.890625	108.556931
13313.138723	3903.115500	1722.875000	63.175552
13313.138723	3903.115500	1721.858398	142.349152
13313.138723	3903.115500	1720.841797	-147.799973
13313.138723	3903.115500	1719.825195	232.114639
13313.138723	3903.115500	1718.808594	26.476513
13313.138723	3903.115500	1717.791992	-49.925503
13313.138723	3903.115500	1716.774414	-257.996124
13313.138723	3903.115500	1715.756836	-118.395676
13313.138723	3903.115500	1714.739258	-117.527687
13313.138723	3903.115500	1713.721680	61.716087
13313.138723	3903.115500	1712.704102	196.183151
13313.138723	3903.115500	1711.685547	295.276031
13313.138723	3903.115500	1710.667969	-42.299095
13313.138723	3903.115500	1709.649414	171.591049
13313.138723	3903.115500	1708.630859	31.039791
13313.138723	3903.115500	1707.611328	31.174984
13313.138723	3903.115500	1706.592773	42.956440
13313.138723	3903.115500	1705.573242	85.109619
13313.138723	3903.115500	1704.553711	99.023163
13313.138723	3903.115500	1703.534180	-16.073458
13313.138723	3903.115500	1702.513672	241.375992
13313.138723	3903.115500	1701.494141	90.973808
13313.138723	3903.115500	1700.473633	83.421272
13313.138723	3903.115500	1699.453125	59.390717
13313.138723	3903.115500	1698.432617	-32.624660
13313.138723	3903.115500	1697.412109	146.886932
13313.138723	3903.115500	1696.390625	131.951065
13313.138723	3903.115500	1695.369141	93.535347
13313.138723	3903.115500	1694.347656	38.673080
13313.138723	3903.115500	1693.326172	-58.358284
13313.138723	3903.115500	1692.304688	3.615208
13313.138723	3903.115500	1691.282227	170.702835
13313.138723	3903.115500	1690.260742	216.085800
13313.138723	3903.115500	1689.238281	-131.353439
13313.138723	3903.115500	1688.214844	-135.192093
13313.138723	3903.115500	1687.192383	71.211487
13313.138723	3903.115500	1686.168945	191.007904
13313.138723	3903.115500	1685.146484	-116.746895
13313.138723	3903.115500	1684.123047	140.679535
13313.138723	3903.115500	1683.099609	-13.001103
13313.138723	3903.115500	1682.075195	106.420601
13313.138723	3903.115500	1681.051758	-21.658064
13313.138723	3903.115500	1680.027344	83.584740
13313.138723	3903.115500	1679.002930	86.065117
13313.138723	3903.115500	1677.978516	4.505994
13313.138723	3903.115500	1676.953125	312.374359
13313.138723	3903.115500	1675.928711	209.693085
13313.138723	3903.115500	1674.903320	396.054047
13313.138723	3903.115500	1673.877930	244.313080
13313.138723	3903.115500	1672.852539	302.306488
13313.138723	3903.115500	1671.826172	539.610413
13313.138723	3903.115500	1670.800781	583.436707
13313.138723	3903.115500	1669.774414	217.264542
13313.138723	3903.115500	1668.748047	386.755707
13313.138723	3903.115500	1667.721680	323.315826
13313.138723	3903.115500	1666.694336	413.462280
13313.138723	3903.115500	1665.667969	412.777588
13313.138723	3903.115500	1664.640625	484.160339
13313.138723	3903.115500	1663.613281	483.352753
13313.138723	3903.115500	1662.585938	647.638367
13313.138723	3903.115500	1661.557617	616.463135
13313.138723	3903.115500	1660.530273	773.598389
13313.138723	3903.115500	1659.501953	772.546997
13313.138723	3903.115500	1658.473633	845.826660
13313.138723	3903.115500	1657.444336	951.555176
13313.138723	3903.115500	1656.416016	813.285339
13313.138723	3903.115500	1655.386719	830.641846
13313.138723	3903.115500	1654.358398	926.931580
13313.138723	3903.115500	1653.328125	962.749878
13313.138723	3903.115500	1652.298828	780.328491
13313.138723	3903.115500	1651.269531	813.794800
13313.138723	3903.115500	1650.239258	868.088684
13313.138723	3903.115500	1649.208984	875.932312
13313.138723	3903.115500	1648.178711	974.212830
13313.138723	3903.115500	1647.148438	1090.982422
13313.138723	3903.115500	1646.117188	1049.996338
13313.138723	3903.115500	1645.086914	1287.211304
13313.138723	3903.115500	1644.055664	1155.766357
13313.138723	3903.115500	1643.024414	1221.328735
13313.138723	3903.115500	1641.992188	1238.177368
13313.138723	3903.115500	1640.960938	1482.032593
13313.138723	3903.115500	1639.928711	1447.840942
13313.138723	3903.115500	1638.896484	1559.529907
13313.138723	3903.115500	1637.864258	1381.774414
13313.138723	3903.115500	1636.832031	1535.075317
13313.138723	3903.115500	1635.798828	1542.495117
13313.138723	3903.115500	1634.766602	1512.901123
13313.138723	3903.115500	1633.733398	1659.108765
13313.138723	3903.115500	1632.699219	1634.086182
13313.138723	3903.115500	1631.666016	1717.769897
13313.138723	3903.115500	1630.632813	1718.189575
13313.138723	3903.115500	1629.598633	1871.152954
13313.138723	3903.115500	1628.564453	1737.484985
13313.138723	3903.115500	1627.530273	1816.448975
13313.138723	3903.115500	1626.495117	1772.930786
13313.138723	3903.115500	1625.460938	1914.230103
13313.138723	3903.115500	1624.425781	2027.754395
13313.138723	3903.115500	1623.390625	2023.492554
13313.138723	3903.115500	1622.355469	2026.166748
13313.138723	3903.115500	1621.319336	2388.874023
13313.138723	3903.115500	1620.284180	2299.201904
13313.138723	3903.115500	1619.248047	2239.553955
13313.138723	3903.115500	1618.211914	2184.558838
13313.138723	3903.115500	1617.174805	2244.892822
13313.138723	3903.115500	1616.138672	2464.330811
13313.138723	3903.115500	1615.101563	2510.794922
13313.138723	3903.115500	1614.065430	2513.487549
13313.138723	3903.115500	1613.027344	2324.909180
13313.138723	3903.115500	1611.990234	2325.364746
13313.138723	3903.115500	1610.953125	2415.680664
13313.138723	3903.115500	1609.915039	2492.154053
13313.138723	3903.115500	1608.876953	2331.464111
13313.138723	3903.115500	1607.838867	2223.816406
13313.138723	3903.115500	1606.800781	2330.295166
13313.138723	3903.115500	1605.761719	2386.122803
13313.138723	3903.115500	1604.723633	2269.423340
13313.138723	3903.115500	1603.684570	2221.798340
13313.138723	3903.115500	1602.644531	2399.600098
13313.138723	3903.115500	1601.605469	2335.948975
13313.138723	3903.115500	1600.566406	2348.228760
13313.138723	3903.115500	1599.526367	2369.723633
13313.138723	3903.115500	1598.486328	2460.195068
13313.138723	3903.115500	1597.446289	2610.414307
13313.138723	3903.115500	1596.405273	2599.802979
13313.138723	3903.115500	1595.365234	2724.764404
13313.138723	3903.115500	1594.324219	2496.085693
13313.138723	3903.115500	1593.283203	2474.169922
13313.138723	3903.115500	1592.242188	2424.770020
13313.138723	3903.115500	1591.200195	2480.992432
13313.138723	3903.115500	1590.159180	2459.250977
13313.138723	3903.115500	1589.117188	2377.913574
13313.138723	3903.115500	1588.075195	2280.609375
13313.138723	3903.115500	1587.032227	2353.078369
13313.138723	3903.115500	1585.990234	2281.154053
13313.138723	3903.115500	1584.947266	2172.628418
13313.138723	3903.115500	1583.904297	2609.652344
13313.138723	3903.115500	1582.861328	2388.955078
13313.138723	3903.115500	1581.818359	2367.716797
13313.138723	3903.115500	1580.775391	2332.809814
13313.138723	3903.115500	1579.731445	2144.540039
13313.138723	3903.115500	1578.687500	2013.651978
13313.138723	3903.115500	1577.643555	2185.044434
13313.138723	3903.115500	1576.598633	1905.564209
13313.138723	3903.115500	1575.554688	1699.502808
13313.138723	3903.115500	1574.509766	1877.922974
13313.138723	3903.115500	1573.464844	1694.955811
13313.138723	3903.115500	1572.419922	2058.693115
13313.138723	3903.115500	1571.374023	1622.111450
13313.138723	3903.115500	1570.329102	1972.161133
13313.138723	3903.115500	1569.283203	1890.179321
13313.138723	3903.115500	1568.237305	1742.044556
13313.138723	3903.115500	1567.191406	1683.150757
13313.138723	3903.115500	1566.144531	1825.355347
13313.138723	3903.115500	1565.098633	1889.956421
13313.138723	3903.115500	1564.051758	1397.489380
13313.138723	3903.115500	1563.004883	1624.388916
13313.138723	3903.115500	1561.957031	1830.733521
13313.138723	3903.115500	1560.910156	1509.976074
13313.138723	3903.115500	1559.862305	1449.510742
13313.138723	3903.115500	1558.814453	1630.948608
13313.138723	3903.115500	1557.766602	1762.236328
13313.138723	3903.115500	1556.718750	1599.430420
13313.138723	3903.115500	1555.669922	1730.848022
13313.138723	3903.115500	1554.621094	1607.037720
13313.138723	3903.115500	1553.573242	1583.652466
13313.138723	3903.115500	1552.523438	1405.423218
13313.138723	3903.115500	1551.474609	1284.323242
13313.138723	3903.115500	1550.424805	1413.876343
13313.138723	3903.115500	1549.375000	1545.757446
13313.138723	3903.115500	1548.325195	1279.295288
13313.138723	3903.115500	1547.275391	1513.782104
13313.138723	3903.115500	1546.225586	1361.421875
13313.138723	3903.115500	1545.174805	1322.975098
13313.138723	3903.115500	1544.124023	1093.572021
13313.138723	3903.115500	1543.073242	1289.660645
13313.138723	3903.115500	1542.022461	1235.657104
13313.138723	3903.115500	1540.970703	1327.270386
13313.138723	3903.115500	1539.919922	1353.054810
13313.138723	3903.115500	1538.868164	1199.401367
13313.138723	3903.115500	1537.815430	1159.512451
13313.138723	3903.115500	1536.763672	1217.442383
13313.138723	3903.115500	1535.710938	1507.112549
13313.138723	3903.115500	1534.659180	1547.015015
13313.138723	3903.115500	1533.606445	1455.332275
13313.138723	3903.115500	1532.552734	1361.522339
13313.138723	3903.115500	1531.500000	1490.276123
13313.138723	3903.115500	1530.446289	1199.337280
13313.138723	3903.115500	1529.393555	1187.664551
13313.138723	3903.115500	1528.338867	1216.921631
13313.138723	3903.115500	1527.285156	1153.328125
13313.138723	3903.115500	1526.231445	1323.395142
13313.138723	3903.115500	1525.176758	1142.172241
13313.138723	3903.115500	1524.122070	1260.288330
13313.138723	3903.115500	1523.067383	1131.510498
13313.138723	3903.115500	1522.012695	907.765198
13313.138723	3903.115500	1520.957031	1005.838867
13313.138723	3903.115500	1519.901367	1036.067749
13313.138723	3903.115500	1518.845703	1159.235718
13313.138723	3903.115500	1517.790039	1137.615723
13313.138723	3903.115500	1516.734375	1075.396851
13313.138723	3903.115500	1515.677734	1149.082886
13313.138723	3903.115500	1514.621094	1066.777832
13313.138723	3903.115500	1513.564453	873.810486
13313.138723	3903.115500	1512.507813	1074.517334
13313.138723	3903.115500	1511.450195	940.662109
13313.138723	3903.115500	1510.393555	761.792175
13313.138723	3903.115500	1509.335938	718.716003
13313.138723	3903.115500	1508.278320	603.486206
13313.138723	3903.115500	1507.219727	431.953064
13313.138723	3903.115500	1506.162109	321.612823
13313.138723	3903.115500	1505.103516	374.031921
13313.138723	3903.115500	1504.044922	496.557251
13313.138723	3903.115500	1502.986328	248.976349
13313.138723	3903.115500	1501.926758	443.962372
13313.138723	3903.115500	1500.868164	189.996536
13313.138723	3903.115500	1499.808594	-18.619112
13313.138723	3903.115500	1498.749023	228.594421
13313.138723	3903.115500	1497.688477	42.876175
13313.138723	3903.115500	1496.628906	245.166245
13313.138723	3903.115500	1495.568359	-111.516502
13313.138723	3903.115500	1494.507813	86.491882
13313.138723	3903.115500	1493.447266	7.412421
13313.138723	3903.115500	1492.386719	255.161407
13313.138723	3903.115500	1491.325195	36.711040
13313.138723	3903.115500	1490.263672	-147.731354
13313.138723	3903.115500	1489.202148	32.777821
13313.138723	3903.115500	1488.140625	127.819878
13313.138723	3903.115500	1487.079102	-85.359863
13313.138723	3903.115500	1486.016602	-82.305191
13313.138723	3903.115500	1484.954102	109.863319
13313.138723	3903.115500	1483.891602	-21.787724
13313.138723	3903.115500	1482.829102	37.904930
13313.138723	3903.115500	1481.765625	-16.950680
13313.138723	3903.115500	1480.702148	-33.418072
13313.138723	3903.115500	1479.638672	143.531204
13313.138723	3903.115500	1478.575195	136.310349
13313.138723	3903.115500	1477.511719	-45.976048
13313.138723	3903.115500	1476.447266	182.908615
13313.138723	3903.115500	1475.382813	164.911789
13313.138723	3903.115500	1474.318359	252.583328
13313.138723	3903.115500	1473.253906	308.925262
13313.138723	3903.115500	1472.189453	457.260834
13313.138723	3903.115500	1471.124023	385.948395
13313.138723	3903.115500	1470.058594	187.025421
13313.138723	3903.115500	1468.993164	553.275146
13313.138723	3903.115500	1467.927734	469.093048
13313.138723	3903.115500	1466.861328	418.384796
13313.138723	3903.115500	1465.794922	253.999832
13313.138723	3903.115500	1464.728516	304.546509
13313.138723	3903.115500	1463.662109	561.105774
13313.138723	3903.115500	1462.594727	437.477386
13313.138723	3903.115500	1461.528320	569.725891
13313.138723	3903.115500	1460.460938	530.716492
13313.138723	3903.115500	1459.393555	525.845520
13313.138723	3903.115500	1458.326172	841.578796
13313.138723	3903.115500	1457.257813	930.336731
13313.138723	3903.115500	1456.189453	892.873596
13313.138723	3903.115500	1455.121094	795.272278
13313.138723	3903.115500	1454.052734	940.984741
13313.138723	3903.115500	1452.984375	952.654419
13313.138723	3903.115500	1451.915039	1011.419067
13313.138723	3903.115500	1450.845703	923.128113
13313.138723	3903.115500	1449.776367	1081.335938
13313.138723	3903.115500	1448.707031	1064.386963
13313.138723	3903.115500	1447.636719	1256.086670
13313.138723	3903.115500	1446.567383	741.200562
13313.138723	3903.115500	1445.497070	928.652344
13313.138723	3903.115500	1444.425781	1061.035767
13313.138723	3903.115500	1443.355469	946.658691
13313.138723	3903.115500	1442.285156	1137.620605
13313.138723	3903.115500	1441.213867	1499.630737
13313.138723	3903.115500	1440.142578	1476.087891
13313.138723	3903.115500	1439.070313	1375.825806
13313.138723	3903.115500	1437.999023	1261.527588
13313.138723	3903.115500	1436.926758	1079.765381
13313.138723	3903.115500	1435.854492	1091.056396
13313.138723	3903.115500	1434.782227	903.803589
13313.138723	3903.115500	1433.709961	773.287781
13313.138723	3903.115500	1432.636719	822.266174
13313.138723	3903.115500	1431.563477	734.633423
13313.138723	3903.115500	1430.490234	621.131165
13313.138723	3903.115500	1429.416992	572.100830
13313.138723	3903.115500	1428.343750	788.545776
13313.138723	3903.115500	1427.269531	767.714172
13313.138723	3903.115500	1426.195313	683.876770
13313.138723	3903.115500	1425.121094	632.244019
13313.138723	3903.115500	1424.046875	603.203125
13313.138723	3903.115500	1422.971680	805.932251
13313.138723	3903.115500	1421.896484	979.498596
13313.138723	3903.115500	1420.821289	858.980713
13313.138723	3903.115500	1419.746094	616.619202
13313.138723	3903.115500	1418.669922	531.350647
13313.138723	3903.115500	1417.594727	689.907837
13313.138723	3903.115500	1416.518555	935.794495
13313.138723	3903.115500	1415.442383	1094.294434
13313.138723	3903.115500	1414.365234	1019.379028
13313.138723	3903.115500	1413.289063	763.484070
13313.138723	3903.115500	1412.211914	824.000916
13313.138723	3903.115500	1411.134766	654.762695
13313.138723	3903.115500	1410.057617	688.182007
13313.138723	3903.115500	1408.979492	778.197388
13313.138723	3903.115500	1407.902344	643.244385
13313.138723	3903.115500	1406.824219	723.674377
13313.138723	3903.115500	1405.746094	682.674622
13313.138723	3903.115500	1404.666992	839.555054
13313.138723	3903.115500	1403.588867	612.260132
13313.138723	3903.115500	1402.509766	650.714478
13313.138723	3903.115500	1401.430664	592.637878
13313.138723	3903.115500	1400.351563	858.810852
13313.138723	3903.115500	1399.271484	760.408264
13313.138723	3903.115500	1398.192383	806.821594
13313.138723	3903.115500	1397.112305	761.053650
13313.138723	3903.115500	1396.031250	961.359863
13313.138723	3903.115500	1394.951172	911.583191
13313.138723	3903.115500	1393.871094	675.044128
13313.138723	3903.115500	1392.790039	974.254150
13313.138723	3903.115500	1391.708984	669.257019
13313.138723	3903.115500	1390.626953	779.065491
13313.138723	3903.115500	1389.545898	804.626648
13313.138723	3903.115500	1388.463867	761.979370
13313.138723	3903.115500	1387.381836	1002.571228
13313.138723	3903.115500	1386.299805	920.546082
13313.138723	3903.115500	1385.217773	929.615967
13313.138723	3903.115500	1384.134766	660.171997
13313.138723	3903.115500	1383.051758	1005.518860
13313.138723	3903.115500	1381.968750	852.100098
13313.138723	3903.115500	1380.885742	975.605286
13313.138723	3903.115500	1379.802734	919.174194
13313.138723	3903.115500	1378.718750	926.987427
13313.138723	3903.115500	1377.634766	1037.031860
13313.138723	3903.115500	1376.550781	838.143494
13313.138723	3903.115500	1375.465820	1093.554077
13313.138723	3903.115500	1374.381836	993.527954
13313.138723	3903.115500	1373.296875	1223.640137
13313.138723	3903.115500	1372.211914	1220.322876
13313.138723	3903.115500	1371.126953	938.651672
13313.138723	3903.115500	1370.041016	1270.108643
13313.138723	3903.115500	1368.955078	1389.517578
13313.138723	3903.115500	1367.869141	1228.697754
13313.138723	3903.115500	1366.783203	1515.175781
13313.138723	3903.115500	1365.697266	1340.481934
13313.138723	3903.115500	1364.610352	1403.870239
13313.138723	3903.115500	1363.523438	1218.947388
13313.138723	3903.115500	1362.436523	1334.778564
13313.138723	3903.115500	1361.349609	1337.909912
13313.138723	3903.115500	1360.261719	1367.489502
13313.138723	3903.115500	1359.174805	1268.481934
13313.138723	3903.115500	1358.086914	1594.129883
13313.138723	3903.115500	1356.998047	1669.657959
13313.138723	3903.115500	1355.910156	2076.522949
13313.138723	3903.115500	1354.821289	1927.550415
13313.138723	3903.115500	1353.732422	2086.041504
13313.138723	3903.115500	1352.643555	2144.746338
13313.138723	3903.115500	1351.554688	1871.742065
13313.138723	3903.115500	1350.464844	1997.515991
13313.138723	3903.115500	1349.375000	1989.424561
13313.138723	3903.115500	1348.285156	1923.151367
13313.138723	3903.115500	1347.195313	1826.732544
13313.138723	3903.115500	1346.105469	1609.849609
13313.138723	3903.115500	1345.014648	1714.050293
13313.138723	3903.115500	1343.923828	1402.752686
13313.138723	3903.115500	1342.833008	1504.454956
13313.138723	3903.115500	1341.741211	1336.801636
13313.138723	3903.115500	1340.650391	1286.501709
13313.138723	3903.115500	1339.558594	1178.596069
13313.138723	3903.115500	1338.466797	1019.825134
13313.138723	3903.115500	1337.374023	1294.374512
13313.138723	3903.115500	1336.282227	1072.777954
13313.138723	3903.115500	1335.189453	1002.623901
13313.138723	3903.115500	1334.096680	771.992004
13313.138723	3903.115500	1333.003906	990.118652
13313.138723	3903.115500	1331.910156	1025.140015
13313.138723	3903.115500	1330.817383	1078.764038
13313.138723	3903.115500	1329.723633	889.101135
13313.138723	3903.115500	1328.629883	844.392944
13313.138723	3903.115500	1327.535156	814.607910
13313.138723	3903.115500	1326.441406	918.762085
13313.138723	3903.115500	1325.346680	917.466370
13313.138723	3903.115500	1324.251953	862.935669
13313.138723	3903.115500	1323.156250	896.380066
13313.138723	3903.115500	1322.061523	933.993713
13313.138723	3903.115500	1320.965820	801.362549
13313.138723	3903.115500	1319.870117	1019.106689
13313.138723	3903.115500	1318.774414	793.186951
13313.138723	3903.115500	1317.678711	810.327881
13313.138723	3903.115500	1316.582031	791.754333
13313.138723	3903.115500	1315.485352	866.432861
13313.138723	3903.115500	1314.388672	696.458069
13313.138723	3903.115500	1313.291016	679.343079
13313.138723	3903.115500	1312.194336	790.946167
13313.138723	3903.115500	1311.096680	796.050659
13313.138723	3903.115500	1309.999023	757.374634
13313.138723	3903.115500	1308.901367	826.040161
13313.138723	3903.115500	1307.802734	548.166992
13313.138723	3903.115500	1306.705078	723.234070
13313.138723	3903.115500	1305.606445	760.864075
13313.138723	3903.115500	1304.506836	781.159485
13313.138723	3903.115500	1303.408203	661.277710
13313.138723	3903.115500	1302.308594	872.659973
13313.138723	3903.115500	1301.208984	1045.206665
13313.138723	3903.115500	1300.109375	972.527954
13313.138723	3903.115500	1299.009766	889.497009
13313.138723	3903.115500	1297.909180	1009.212463
13313.138723	3903.115500	1296.808594	820.541443
13313.138723	3903.115500	1295.708008	878.208313
13313.138723	3903.115500	1294.607422	801.101868
13313.138723	3903.115500	1293.506836	690.821533
13313.138723	3903.115500	1292.405273	638.376404
13313.138723	3903.115500	1291.303711	477.454712
13313.138723	3903.115500	1290.202148	558.786804
13313.138723	3903.115500	1289.099609	676.471680
13313.138723	3903.115500	1287.998047	393.368835
13313.138723	3903.115500	1286.895508	526.342407
13313.138723	3903.115500	1285.792969	685.025696
13313.138723	3903.115500	1284.689453	549.468994
13313.138723	3903.115500	1283.586914	500.018860
13313.138723	3903.115500	1282.483398	512.515259
13313.138723	3903.115500	1281.379883	536.973206
13313.138723	3903.115500	1280.276367	634.722778
13313.138723	3903.115500	1279.171875	568.160156
13313.138723	3903.115500	1278.067383	757.823669
13313.138723	3903.115500	1276.962891	527.653748
13313.138723	3903.115500	1275.858398	581.938538
13313.138723	3903.115500	1274.753906	554.093933
13313.138723	3903.115500	1273.648438	443.028931
13313.138723	3903.115500	1272.542969	804.277954
13313.138723	3903.115500	1271.437500	566.130127
13313.138723	3903.115500	1270.331055	743.402527
13313.138723	3903.115500	1269.225586	786.625854
13313.138723	3903.115500	1268.119141	742.930664
13313.138723	3903.115500	1267.012695	763.686279
13313.138723	3903.115500	1265.906250	711.257935
13313.138723	3903.115500	1264.798828	672.055664
13313.138723	3903.115500	1263.691406	759.619751
13313.138723	3903.115500	1262.583984	725.121948
13313.138723	3903.115500	1261.476563	472.340759
13313.138723	3903.115500	1260.368164	431.004578
13313.138723	3903.115500	1259.260742	739.846985
13313.138723	3903.115500	1258.152344	520.127747
13313.138723	3903.115500	1257.043945	498.491394
13313.138723	3903.115500	1255.934570	563.008301
13313.138723	3903.115500	1254.825195	724.416870
13313.138723	3903.115500	1253.716797	573.439880
13313.138723	3903.115500	1252.606445	440.326233
13313.138723	3903.115500	1251.497070	602.680664
13313.138723	3903.115500	1250.387695	716.474915
13313.138723	3903.115500	1249.277344	660.631836
13313.138723	3903.115500	1248.166992	629.803894
13313.138723	3903.115500	1247.055664	713.508728
13313.138723	3903.115500	1245.945313	734.657715
13313.138723	3903.115500	1244.833984	686.947998
13313.138723	3903.115500	1243.722656	845.530273
13313.138723	3903.115500	1242.611328	688.135986
13313.138723	3903.115500	1241.499023	619.328735
13313.138723	3903.115500	1240.387695	437.731781
13313.138723	3903.115500	1239.275391	574.962341
13313.138723	3903.115500	1238.162109	436.438446
13313.138723	3903.115500	1237.049805	389.956360
13313.138723	3903.115500	1235.936523	308.515045
13313.138723	3903.115500	1234.823242	132.538589
13313.138723	3903.115500	1233.709961	83.291763
13313.138723	3903.115500	1232.596680	-35.488903
13313.138723	3903.115500	1231.482422	170.940735
13313.138723	3903.115500	1230.369141	-20.611221
13313.138723	3903.115500	1229.253906	-59.030834
13313.138723	3903.115500	1228.139648	-133.806671
13313.138723	3903.115500	1227.025391	-71.915260
13313.138723	3903.115500	1225.910156	-149.788254
13313.138723	3903.115500	1224.794922	-86.774879
13313.138723	3903.115500	1223.679688	-222.607330
13313.138723	3903.115500	1222.563477	-86.805176
13313.138723	3903.115500	1221.447266	5.593952
13313.138723	3903.115500	1220.331055	19.322714
13313.138723	3903.115500	1219.214844	43.524910
13313.138723	3903.115500	1218.098633	93.565048
13313.138723	3903.115500	1216.981445	26.948868
13313.138723	3903.115500	1215.864258	87.566612
13313.138723	3903.115500	1214.747070	244.126572
13313.138723	3903.115500	1213.629883	233.071381
13313.138723	3903.115500	1212.511719	219.190933
13313.138723	3903.115500	1211.393555	185.820862
13313.138723	3903.115500	1210.275391	282.922424
13313.138723	3903.115500	1209.157227	170.205887
13313.138723	3903.115500	1208.038086	208.336990
13313.138723	3903.115500	1206.918945	118.945496
13313.138723	3903.115500	1205.799805	141.134262
13313.138723	3903.115500	1204.680664	214.157532
13313.138723	3903.115500	1203.560547	38.567684
13313.138723	3903.115500	1202.441406	172.301956
13313.138723	3903.115500	1201.321289	286.301697
13313.138723	3903.115500	1200.200195	135.376770
13313.138723	3903.115500	1199.080078	272.295624
13313.138723	3903.115500	1197.958984	311.179138
13313.138723	3903.115500	1196.837891	346.734497
13313.138723	3903.115500	1195.716797	398.437744
13313.138723	3903.115500	1194.594727	308.329315
13313.138723	3903.115500	1193.473633	193.661453
13313.138723	3903.115500	1192.351563	72.390694
13313.138723	3903.115500	1191.229492	203.399231
13313.138723	3903.115500	1190.106445	341.018463
13313.138723	3903.115500	1188.984375	317.053680
13313.138723	3903.115500	1187.861328	276.679871
13313.138723	3903.115500	1186.738281	174.760880
13313.138723	3903.115500	1185.614258	246.209045
13313.138723	3903.115500	1184.491211	354.629761
13313.138723	3903.115500	1183.367188	276.479980
13313.138723	3903.115500	1182.243164	431.266327
13313.138723	3903.115500	1181.119141	359.661163
13313.138723	3903.115500	1179.994141	426.997559
13313.138723	3903.115500	1178.869141	583.889587
13313.138723	3903.115500	1177.744141	642.413025
13313.138723	3903.115500	1176.619141	753.462952
13313.138723	3903.115500	1175.493164	830.519653
13313.138723	3903.115500	1174.368164	942.216736
13313.138723	3903.115500	1173.242188	693.618896
13313.138723	3903.115500	1172.115234	891.459045
13313.138723	3903.115500	1170.989258	631.150208
13313.138723	3903.115500	1169.862305	583.870178
13313.138723	3903.115500	1168.735352	339.368256
13313.138723	3903.115500	1167.608398	368.708588
13313.138723	3903.115500	1166.481445	286.036255
13313.138723	3903.115500	1165.353516	244.250259
13313.138723	3903.115500	1164.225586	264.661713
13313.138723	3903.115500	1163.097656	250.741867
13313.138723	3903.115500	1161.968750	288.429718
13313.138723	3903.115500	1160.840820	79.083519
13313.138723	3903.115500	1159.711914	180.925278
13313.138723	3903.115500	1158.583008	151.280960
13313.138723	3903.115500	1157.453125	-18.753389
13313.138723	3903.115500	1156.324219	67.120308
13313.138723	3903.115500	1155.194336	-47.433872
13313.138723	3903.115500	1154.064453	8.699302
13313.138723	3903.115500	1152.933594	70.829590
13313.138723	3903.115500	1151.803711	-170.308990
13313.138723	3903.115500	1150.672852	-115.944290
13313.138723	3903.115500	1149.541992	-14.849547
13313.138723	3903.115500	1148.411133	-292.264282
13313.138723	3903.115500	1147.279297	-153.490295
13313.138723	3903.115500	1146.147461	-81.655106
13313.138723	3903.115500	1145.015625	-235.417191
13313.138723	3903.115500	1143.883789	-54.595146
13313.138723	3903.115500	1142.750977	-148.834656
13313.138723	3903.115500	1141.619141	-108.339233
13313.138723	3903.115500	1140.486328	-120.880524
13313.138723	3903.115500	1139.352539	-229.042862
13313.138723	3903.115500	1138.219727	27.573071
13313.138723	3903.115500	1137.085938	-117.761658
13313.138723	3903.115500	1135.952148	-106.839134
13313.138723	3903.115500	1134.818359	-128.871475
13313.138723	3903.115500	1133.683594	-142.959778
13313.138723	3903.115500	1132.549805	159.440369
13313.138723	3903.115500	1131.415039	298.659119
13313.138723	3903.115500	1130.279297	63.849491
13313.138723	3903.115500	1129.144531	119.028854
13313.138723	3903.115500	1128.008789	248.310303
13313.138723	3903.115500	1126.873047	149.784027
13313.138723	3903.115500	1125.737305	98.094429
13313.138723	3903.115500	1124.601563	275.442566
13313.138723	3903.115500	1123.464844	65.381218
13313.138723	3903.115500	1122.328125	137.576035
13313.138723	3903.115500	1121.191406	97.430206
13313.138723	3903.115500	1120.054688	120.617477
13313.138723	3903.115500	1118.916992	-87.070274
13313.138723	3903.115500	1117.779297	-22.261147
13313.138723	3903.115500	1116.641602	58.814323
13313.138723	3903.115500	1115.503906	21.382627
13313.138723	3903.115500	1114.365234	2.072362
13313.138723	3903.115500	1113.226563	32.971500
13313.138723	3903.115500	1112.087891	42.022373
13313.138723	3903.115500	1110.949219	-118.591469
13313.138723	3903.115500	1109.809570	-21.448645
13313.138723	3903.115500	1108.669922	92.699211
13313.138723	3903.115500	1107.530273	33.648941
13313.138723	3903.115500	1106.390625	-66.038925
13313.138723	3903.115500	1105.250000	6.878098
13313.138723	3903.115500	1104.109375	182.861496
13313.138723	3903.115500	1102.968750	10.900531
13313.138723	3903.115500	1101.828125	203.411209
13313.138723	3903.115500	1100.686523	174.919052
13313.138723	3903.115500	1099.544922	116.437515
13313.138723	3903.115500	1098.403320	54.962730
13313.138723	3903.115500	1097.261719	29.074791
13313.138723	3903.115500	1096.120117	23.823538
13313.138723	3903.115500	1094.977539	132.111191
13313.138723	3903.115500	1093.834961	118.395851
13313.138723	3903.115500	1092.691406	-8.942807
13313.138723	3903.115500	1091.548828	44.480507
13313.138723	3903.115500	1090.405273	64.495346
13313.138723	3903.115500	1089.261719	57.645985
13313.138723	3903.115500	1088.118164	259.961792
13313.138723	3903.115500	1086.973633	103.819267
13313.138723	3903.115500	1085.829102	15.176915
13313.138723	3903.115500	1084.684570	89.887360
13313.138723	3903.115500	1083.540039	188.057144
13313.138723	3903.115500	1082.395508	-0.313650
13313.138723	3903.115500	1081.250000	80.918823
13313.138723	3903.115500	1080.104492	-31.563982
13313.138723	3903.115500	1078.958984	199.246826
13313.138723	3903.115500	1077.812500	16.534992
13313.138723	3903.115500	1076.666016	185.555374
13313.138723	3903.115500	1075.519531	205.410629
13313.138723	3903.115500	1074.373047	158.822586
13313.138723	3903.115500	1073.226563	132.168289
13313.138723	3903.115500	1072.079102	98.413506
13313.138723	3903.115500	1070.931641	200.822144
13313.138723	3903.115500	1069.784180	65.552559
13313.138723	3903.115500	1068.635742	309.145538
13313.138723	3903.115500	1067.487305	214.702087
13313.138723	3903.115500	1066.338867	193.222351
13313.138723	3903.115500	1065.190430	133.415497
13313.138723	3903.115500	1064.041992	189.994568
13313.138723	3903.115500	1062.892578	292.454193
13313.138723	3903.115500	1061.743164	216.107620
13313.138723	3903.115500	1060.593750	267.907135
13313.138723	3903.115500	1059.443359	348.555267
13313.138723	3903.115500	1058.292969	175.503052
13313.138723	3903.115500	1057.142578	91.794655
13313.138723	3903.115500	1055.992188	255.972244
13313.138723	3903.115500	1054.841797	114.493996
13313.138723	3903.115500	1053.690430	293.408905
13313.138723	3903.115500	1052.539063	286.958313
13313.138723	3903.115500	1051.387695	215.768417
13313.138723	3903.115500	1050.235352	110.110680
13313.138723	3903.115500	1049.083984	51.838203
13313.138723	3903.115500	1047.931641	-9.086353
13313.138723	3903.115500	1046.778320	152.651520
13313.138723	3903.115500	1045.625977	81.171822
13313.138723	3903.115500	1044.472656	-58.848240
13313.138723	3903.115500	1043.319336	-251.078018
13313.138723	3903.115500	1042.166016	-167.857147
13313.138723	3903.115500	1041.012695	-89.112152
13313.138723	3903.115500	1039.858398	38.213203
13313.138723	3903.115500	1038.704102	83.009323
13313.138723	3903.115500	1037.549805	65.416084
13313.138723	3903.115500	1036.394531	65.871422
13313.138723	3903.115500	1035.239258	296.086212
13313.138723	3903.115500	1034.083984	489.551910
13313.138723	3903.115500	1032.928711	515.431824
13313.138723	3903.115500	1031.773438	428.959595
13313.138723	3903.115500	1030.617188	543.620789
13313.138723	3903.115500	1029.460938	351.322784
13313.138723	3903.115500	1028.304688	523.810974
13313.138723	3903.115500	1027.147461	399.410675
13313.138723	3903.115500	1025.991211	156.718994
13313.138723	3903.115500	1024.833984	208.339386
13313.138723	3903.115500	1023.675781	124.261215
13313.138723	3903.115500	1022.518555	34.006748
13313.138723	3903.115500	1021.360352	233.369568
13313.138723	3903.115500	1020.202148	172.353119
13313.138723	3903.115500	1019.043945	71.766281
13313.138723	3903.115500	1017.884766	133.605835
13313.138723	3903.115500	1016.726563	234.459961
13313.138723	3903.115500	1015.567383	232.295593
13313.138723	3903.115500	1014.407227	201.071854
13313.138723	3903.115500	1013.248047	186.995300
13313.138723	3903.115500	1012.087891	115.560982
13313.138723	3903.115500	1010.927734	108.068611
13313.138723	3903.115500	1009.767578	44.819221
13313.138723	3903.115500	1008.606445	129.994843
13313.138723	3903.115500	1007.446289	-56.795185
13313.138723	3903.115500	1006.285156	359.258179
13313.138723	3903.115500	1005.123047	95.666832
13313.138723	3903.115500	1003.961914	186.874298
13313.138723	3903.115500	1002.799805	72.999962
13313.138723	3903.115500	1001.637695	72.508919
13313.138723	3903.115500	1000.475586	145.316452
13313.138723	3903.115500	999.312500	120.946068
13313.138723	3903.115500	998.149414	100.157906
13313.138723	3903.115500	996.986328	197.503983
13313.138723	3903.115500	995.823242	102.782387
13313.138723	3903.115500	994.659180	100.376823
13313.138723	3903.115500	993.496094	69.302864
13313.138723	3903.115500	992.332031	96.765076
13313.138723	3903.115500	991.166992	-33.510815
13313.138723	3903.115500	990.002930	-61.519733
13313.138723	3903.115500	988.837891	-127.492897
13313.138723	3903.115500	987.672852	65.276482
13313.138723	3903.115500	986.506836	-167.024490
13313.138723	3903.115500	985.341797	35.592979
13313.138723	3903.115500	984.175781	223.142471
13313.138723	3903.115500	983.009766	-169.249176
13313.138723	3903.115500	981.843750	-161.808243
13313.138723	3903.115500	980.676758	43.958797
13313.138723	3903.115500	979.509766	-138.890411
13313.138723	3903.115500	978.342773	14.899240
13313.138723	3903.115500	977.175781	-67.593880
13313.138723	3903.115500	976.007813	-166.581436
13313.138723	3903.115500	974.839844	-232.985153
13313.138723	3903.115500	973.671875	59.251835
13313.138723	3903.115500	972.503906	-27.963013
13313.138723	3903.115500	971.334961	-79.196983
13313.138723	3903.115500	970.166016	-298.482025
13313.138723	3903.115500	968.997070	-38.546402
13313.138723	3903.115500	967.828125	-134.613556
13313.138723	3903.115500	966.658203	47.682690
13313.138723	3903.115500	965.488281	-111.586945
13313.138723	3903.115500	964.318359	-107.329460
13313.138723	3903.115500	963.148438	23.268827
13313.138723	3903.115500	961.977539	-15.796183
13313.138723	3903.115500	960.806641	-178.716324
13313.138723	3903.115500	959.635742	70.760551
13313.138723	3903.115500	958.463867	86.079468
13313.138723	3903.115500	957.292969	159.192764
13313.138723	3903.115500	956.121094	105.655273
13313.138723	3903.115500	954.948242	-71.914757
13313.138723	3903.115500	953.776367	-22.836269
13313.138723	3903.115500	952.603516	85.654335
13313.138723	3903.115500	951.430664	-143.980225
13313.138723	3903.115500	950.257813	147.222122
13313.138723	3903.115500	949.084961	-36.306770
13313.138723	3903.115500	947.911133	158.034988
13313.138723	3903.115500	946.737305	-35.180378
13313.138723	3903.115500	945.563477	-189.474197
13313.138723	3903.115500	944.388672	75.151840
13313.138723	3903.115500	943.213867	-84.357910
13313.138723	3903.115500	942.039063	12.300424
13313.138723	3903.115500	940.864258	-9.882762
13313.138723	3903.115500	939.688477	-72.219856
13313.138723	3903.115500	938.513672	-63.560246
13313.138723	3903.115500	937.337891	-21.970318
13313.138723	3903.115500	936.161133	74.380066
13313.138723	3903.115500	934.985352	199.157318
13313.138723	3903.115500	933.808594	235.994064
13313.138723	3903.115500	932.631836	249.295883
13313.138723	3903.115500	931.454102	184.057739
13313.138723	3903.115500	930.277344	294.305664
13313.138723	3903.115500	929.099609	264.750183
13313.138723	3903.115500	927.921875	66.930702
13313.138723	3903.115500	926.743164	233.890945
13313.138723	3903.115500	925.565430	121.324127
13313.138723	3903.115500	924.386719	112.953209
13313.138723	3903.115500	923.208008	121.116570
13313.138723	3903.115500	922.028320	1.441748
13313.138723	3903.115500	920.849609	-56.697136
13313.138723	3903.115500	919.669922	-53.819565
13313.138723	3903.115500	919.474609	179.009201
13313.138723	3903.115500	918.309570	99.464462
13313.138723	3903.115500	917.143555	100.328743
13313.138723	3903.115500	915.977539	-43.076031
13313.138723	3903.115500	914.810547	31.036663
13313.138723	3903.115500	913.644531	197.261002
13313.138723	3903.115500	912.477539	323.213837
13313.138723	3903.115500	911.310547	28.539484
13313.138723	3903.115500	910.143555	-58.182903
13313.138723	3903.115500	908.975586	86.538109
13313.138723	3903.115500	907.807617	-75.783951
13313.138723	3903.115500	906.639648	-39.776958
13313.138723	3903.115500	905.471680	-62.823677
13313.138723	3903.115500	904.303711	124.119896
13313.138723	3903.115500	903.134766	4.255961
13313.138723	3903.115500	901.965820	-122.670387
13313.138723	3903.115500	900.796875	-93.932541
13313.138723	3903.115500	899.626953	-51.092075
13313.138723	3903.115500	898.457031	12.913572
13313.138723	3903.115500	897.287109	-163.537643
13313.138723	3903.115500	896.117188	-33.625381
13313.138723	3903.115500	894.947266	-12.168960
13313.138723	3903.115500	893.776367	2.179082
13313.138723	3903.115500	892.605469	61.231419
13313.138723	3903.115500	891.434570	26.048611
13313.138723	3903.115500	890.262695	26.156729
13313.138723	3903.115500	889.091797	-53.788372
13313.138723	3903.115500	887.919922	134.507599
13313.138723	3903.115500	886.748047	-37.240208
13313.138723	3903.115500	885.575195	-81.942383
13313.138723	3903.115500	884.403320	-74.926239
13313.138723	3903.115500	883.230469	-9.170208
13313.138723	3903.115500	882.057617	-46.900436
13313.138723	3903.115500	880.883789	-112.848923
13313.138723	3903.115500	879.710938	-105.967789
13313.138723	3903.115500	878.537109	30.080732
13313.138723	3903.115500	877.362305	-80.569695
13313.138723	3903.115500	876.188477	50.652416
13313.138723	3903.115500	875.013672	64.403000
13313.138723	3903.115500	873.839844	118.014381
13313.138723	3903.115500	872.664063	-39.634716
13313.138723	3903.115500	871.489258	-51.786373
13313.138723	3903.115500	870.313477	-61.621819
13313.138723	3903.115500	869.138672	242.782318
13313.138723	3903.115500	867.962891	-57.936943
13313.138723	3903.115500	866.786133	14.184119
13313.138723	3903.115500	865.610352	168.274124
13313.138723	3903.115500	864.433594	50.435707
13313.138723	3903.115500	863.256836	138.784927
13313.138723	3903.115500	862.079102	170.845139
13313.138723	3903.115500	860.902344	334.004944
13313.138723	3903.115500	859.724609	197.356003
13313.138723	3903.115500	858.546875	301.848450
13313.138723	3903.115500	857.368164	291.578766
13313.138723	3903.115500	856.190430	262.555878
13313.138723	3903.115500	855.011719	308.376068
13313.138723	3903.115500	853.833008	344.784576
13313.138723	3903.115500	852.654297	203.409149
13313.138723	3903.115500	851.474609	258.457489
13313.138723	3903.115500	850.294922	189.552750
13313.138723	3903.115500	849.115234	197.765152
13313.138723	3903.115500	847.935547	180.234238
13313.138723	3903.115500	846.754883	305.181183
13313.138723	3903.115500	845.575195	602.880127
13313.138723	3903.115500	844.393555	655.224182
13313.138723	3903.115500	843.212891	569.758423
13313.138723	3903.115500	842.032227	152.826172
13313.138723	3903.115500	840.850586	83.760689
13313.138723	3903.115500	839.668945	206.017441
13313.138723	3903.115500	838.486328	-10.073256
13313.138723	3903.115500	837.304688	-25.531786
13313.138723	3903.115500	836.122070	-27.030428
13313.138723	3903.115500	834.939453	-65.868492
13313.138723	3903.115500	833.756836	28.131636
13313.138723	3903.115500	832.573242	184.975906
13313.138723	3903.115500	831.389648	20.186382
13313.138723	3903.115500	830.206055	-58.384514
13313.138723	3903.115500	829.022461	-1.881441
13313.138723	3903.115500	827.838867	45.244305
13313.138723	3903.115500	826.654297	-59.008331
13313.138723	3903.115500	825.469727	-158.603455
13313.138723	3903.115500	824.284180	7.088668
13313.138723	3903.115500	823.099609	5.157759
13313.138723	3903.115500	821.914063	12.493269
13313.138723	3903.115500	820.728516	54.669304
13313.138723	3903.115500	819.542969	47.959167
13313.138723	3903.115500	818.356445	166.743408
13313.138723	3903.115500	817.169922	-0.435985
13313.138723	3903.115500	815.983398	-116.465881
13313.138723	3903.115500	814.796875	85.792267
13313.138723	3903.115500	813.609375	95.138794
13313.138723	3903.115500	812.422852	113.728462
13313.138723	3903.115500	811.235352	-7.038157
13313.138723	3903.115500	810.046875	141.475433
13313.138723	3903.115500	808.859375	6.744477
13313.138723	3903.115500	807.670898	-0.354061
13313.138723	3903.115500	806.482422	101.542397
13313.138723	3903.115500	805.293945	66.510864
13313.138723	3903.115500	804.104492	119.569199
13313.138723	3903.115500	802.915039	112.283195
13313.138723	3903.115500	801.725586	-57.298439
13313.138723	3903.115500	800.536133	225.053665
13313.138723	3903.115500	799.345703	168.964630
13313.138723	3903.115500	798.155273	-121.111877
13313.138723	3903.115500	796.964844	-244.356674
13313.138723	3903.115500	795.774414	-101.306961
13313.138723	3903.115500	794.583008	-104.210808
13313.138723	3903.115500	793.392578	87.270256
13313.138723	3903.115500	792.200195	0.932280
13313.138723	3903.115500	791.008789	101.991676
13313.138723	3903.115500	789.816406	272.357574
13313.138723	3903.115500	788.625000	176.651962
13313.138723	3903.115500	787.432617	6.950781
13313.138723	3903.115500	786.239258	-33.269596
13313.138723	3903.115500	785.046875	-82.762962
13313.138723	3903.115500	783.853516	24.850155
13313.138723	3903.115500	782.660156	257.127411
13313.138723	3903.115500	781.465820	124.314522
13313.138723	3903.115500	780.272461	220.135529
13313.138723	3903.115500	779.078125	295.088776
13313.138723	3903.115500	777.883789	192.223297
13313.138723	3903.115500	776.688477	105.507309
13313.138723	3903.115500	775.494141	53.394650
13313.138723	3903.115500	774.298828	-91.021873
13313.138723	3903.115500	773.103516	101.316673
13313.138723	3903.115500	771.907227	187.452606
13313.138723	3903.115500	770.711914	100.596909
13313.138723	3903.115500	769.515625	52.914360
13313.138723	3903.115500	768.318359	-27.060053
13313.138723	3903.115500	767.122070	-146.214737
13313.138723	3903.115500	765.924805	73.255516
13313.138723	3903.115500	764.727539	124.461662
13313.138723	3903.115500	763.530273	120.337257
13313.138723	3903.115500	762.333008	148.397873
13313.138723	3903.115500	761.134766	82.029289
13313.138723	3903.115500	759.936523	-147.741333
13313.138723	3903.115500	758.738281	-78.374001
13313.138723	3903.115500	757.540039	-13.684167
13313.138723	3903.115500	756.340820	37.131790
13313.138723	3903.115500	755.141602	78.682243
13313.138723	3903.115500	753.942383	138.557022
13313.138723	3903.115500	752.742188	212.147537
13313.138723	3903.115500	751.541992	23.708763
13313.138723	3903.115500	750.341797	37.466305
13313.138723	3903.115500	749.141602	62.654533
13313.138723	3903.115500	747.941406	280.679718
13313.138723	3903.115500	746.740234	101.374504
13313.138723	3903.115500	745.539063	-71.018593
13313.138723	3903.115500	744.337891	-66.676308
13313.138723	3903.115500	743.135742	95.931183
13313.138723	3903.115500	741.933594	-46.676128
13313.138723	3903.115500	740.731445	14.849449
13313.138723	3903.115500	739.529297	-65.865074
13313.138723	3903.115500	738.326172	112.460976
13313.138723	3903.115500	737.124023	72.920685
13313.138723	3903.115500	735.919922	-3.320871
13313.138723	3903.115500	734.716797	133.497162
13313.138723	3903.115500	733.513672	91.542168
13313.138723	3903.115500	732.309570	251.086868
13313.138723	3903.115500	731.105469	213.605743
13313.138723	3903.115500	729.900391	-103.193016
13313.138723	3903.115500	728.696289	465.831116
13313.138723	3903.115500	727.491211	251.988937
13313.138723	3903.115500	726.286133	218.922104
13313.138723	3903.115500	725.080078	126.349434
13313.138723	3903.115500	723.874023	239.581604
13313.138723	3903.115500	722.668945	419.025116
13313.138723	3903.115500	721.461914	381.185638
13313.138723	3903.115500	720.255859	94.213127
13313.138723	3903.115500	719.048828	-32.747116
13313.138723	3903.115500	717.841797	93.869705
13313.138723	3903.115500	716.634766	106.189758
13313.138723	3903.115500	715.427734	11.137064
13313.138723	3903.115500	714.219727	192.314972
13313.138723	3903.115500	713.011719	76.646843
13313.138723	3903.115500	711.803711	79.645592
13313.138723	3903.115500	710.594727	-58.859924
13313.138723	3903.115500	709.385742	-154.013596
13313.138723	3903.115500	708.176758	-269.697021
13313.138723	3903.115500	706.967773	-57.040791
13313.138723	3903.115500	705.758789	-218.377655
13313.138723	3903.115500	704.548828	-46.939461
13313.138723	3903.115500	703.338867	-174.122787
13313.138723	3903.115500	702.127930	-187.389984
13313.138723	3903.115500	700.917969	-52.640717
13313.138723	3903.115500	699.707031	-216.311707
13313.138723	3903.115500	698.496094	-83.980026
13313.138723	3903.115500	697.285156	59.635868
13313.138723	3903.115500	696.073242	-179.189163
13313.138723	3903.115500	694.861328	-156.294785
13313.138723	3903.115500	693.649414	-131.175766
13313.138723	3903.115500	692.436523	119.049110
13313.138723	3903.115500	691.224609	-28.799517
13313.138723	3903.115500	690.011719	-108.428322
13313.138723	3903.115500	688.798828	-22.138672
13313.138723	3903.115500	687.584961	-138.179321
13313.138723	3903.115500	686.372070	50.239399
13313.138723	3903.115500	685.158203	40.914520
13313.138723	3903.115500	683.943359	31.550478
13313.138723	3903.115500	682.729492	192.446915
13313.138723	3903.115500	681.514648	448.576477
13313.138723	3903.115500	680.299805	359.582428
13313.138723	3903.115500	679.084961	402.196625
13313.138723	3903.115500	677.869141	272.336243
13313.138723	3903.115500	676.653320	49.500069
13313.138723	3903.115500	675.437500	230.368271
13313.138723	3903.115500	674.221680	216.145462
13313.138723	3903.115500	673.004883	195.089523
13313.138723	3903.115500	671.789063	377.974274
13313.138723	3903.115500	670.571289	155.167007
13313.138723	3903.115500	669.354492	353.768311
13313.138723	3903.115500	668.136719	198.936874
13313.138723	3903.115500	666.919922	166.418457
13313.138723	3903.115500	665.701172	260.647491
13313.138723	3903.115500	664.483398	196.374283
13313.138723	3903.115500	663.264648	283.706604
13313.138723	3903.115500	662.045898	273.688629
13313.138723	3903.115500	660.827148	281.739868
13313.138723	3903.115500	659.608398	160.855118
13313.138723	3903.115500	658.388672	263.827179
13313.138723	3903.115500	657.168945	233.356659
13313.138723	3903.115500	655.949219	184.791779
13313.138723	3903.115500	654.728516	152.033813
13313.138723	3903.115500	653.507813	126.040192
13313.138723	3903.115500	652.287109	-40.001888
13313.138723	3903.115500	651.066406	293.048859
13313.138723	3903.115500	649.844727	260.190338
13313.138723	3903.115500	648.623047	398.867401
13313.138723	3903.115500	647.401367	171.878586
13313.138723	3903.115500	646.179688	269.859375
13313.138723	3903.115500	644.957031	76.781227
13313.138723	3903.115500	643.734375	109.291283
13313.138723	3903.115500	642.511719	207.155899
13313.138723	3903.115500	641.289063	298.198059
13313.138723	3903.115500	640.065430	321.563049
13313.138723	3903.115500	638.841797	184.911789
13313.138723	3903.115500	637.618164	219.520370
13313.138723	3903.115500	636.393555	173.006775
13313.138723	3903.115500	635.168945	241.346359
13313.138723	3903.115500	633.944336	77.742065
13313.138723	3903.115500	632.719727	166.303085
13313.138723	3903.115500	631.494141	293.066284
13313.138723	3903.115500	630.269531	379.268921
13313.138723	3903.115500	629.042969	395.677216
13313.138723	3903.115500	627.817383	250.139847
13313.138723	3903.115500	626.590820	133.881119
13313.138723	3903.115500	625.365234	85.110985
13313.138723	3903.115500	624.137695	180.192368
13313.138723	3903.115500	622.911133	93.211296
13313.138723	3903.115500	621.683594	156.783691
13313.138723	3903.115500	620.456055	218.076477
13313.138723	3903.115500	619.228516	48.029018
13313.138723	3903.115500	618.000977	-16.424252
13313.138723	3903.115500	616.772461	152.599289
13313.138723	3903.115500	615.543945	65.698257
13313.138723	3903.115500	614.314453	156.090240
13313.138723	3903.115500	613.085938	141.010651
13313.138723	3903.115500	611.856445	-49.010479
13313.138723	3903.115500	610.626953	-19.195831
13313.138723	3903.115500	609.397461	57.689865
13313.138723	3903.115500	608.166992	-20.119156
13313.138723	3903.115500	606.936523	-41.867054
13313.138723	3903.115500	605.706055	32.740040
13313.138723	3903.115500	604.474609	87.157089
13313.138723	3903.115500	603.244141	233.383118
13313.138723	3903.115500	602.012695	-104.087868
13313.138723	3903.115500	600.780273	39.884708
13313.138723	3903.115500	599.548828	31.618185
13313.138723	3903.115500	598.316406	-79.569160
13313.138723	3903.115500	597.083984	-114.635391
13313.138723	3903.115500	595.851563	13.603001
13313.138723	3903.115500	594.618164	-28.156729
13313.138723	3903.115500	593.384766	50.845081
13313.138723	3903.115500	592.151367	111.946251
13313.138723	3903.115500	590.917969	132.811737
13313.138723	3903.115500	589.683594	184.960144
13313.138723	3903.115500	588.449219	7.020187
13313.138723	3903.115500	587.214844	108.342392
13313.138723	3903.115500	585.979492	229.733475
13313.138723	3903.115500	584.745117	2.842437
13313.138723	3903.115500	583.509766	17.112902
13313.138723	3903.115500	582.273438	64.867096
13313.138723	3903.115500	581.038086	152.785141
13313.138723	3903.115500	579.801758	89.011948
13313.138723	3903.115500	578.565430	-41.609089
13313.138723	3903.115500	577.329102	-18.311483
13313.138723	3903.115500	576.091797	69.642281
13313.138723	3903.115500	574.854492	-76.417168
13313.138723	3903.115500	573.617188	-73.101303
13313.138723	3903.115500	572.378906	-118.770210
13313.138723	3903.115500	571.141602	-249.017624
13313.138723	3903.115500	569.903320	-42.953201
13313.138723	3903.115500	568.664063	143.014740
13313.138723	3903.115500	567.425781	-278.686218
13313.138723	3903.115500	566.186523	-48.175392
13313.138723	3903.115500	564.947266	-106.952499
13313.138723	3903.115500	563.708008	130.164856
13313.138723	3903.115500	562.467773	87.008125
13313.138723	3903.115500	561.227539	19.449535
13313.138723	3903.115500	559.987305	185.360901
13313.138723	3903.115500	558.747070	331.237061
13313.138723	3903.115500	557.505859	-47.292618
13313.138723	3903.115500	556.264648	131.967178
13313.138723	3903.115500	555.023438	471.101074
13313.138723	3903.115500	553.781250	601.397644
13313.138723	3903.115500	552.539063	500.797241
13313.138723	3903.115500	551.296875	626.676331
13313.138723	3903.115500	550.054688	663.780701
13313.138723	3903.115500	548.811523	933.863892
13313.138723	3903.115500	547.569336	959.882324
13313.138723	3903.115500	546.325195	622.230469
13313.138723	3903.115500	545.082031	592.961243
13313.138723	3903.115500	543.837891	450.693634
13313.138723	3903.115500	542.593750	576.697449
13313.138723	3903.115500	541.349609	467.822693
13313.138723	3903.115500	540.105469	638.168518
13313.138723	3903.115500	538.860352	414.247314
13313.138723	3903.115500	537.615234	425.190033
13313.138723	3903.115500	536.369141	405.179108
13313.138723	3903.115500	535.124023	365.306763
13313.138723	3903.115500	533.877930	267.961884
13313.138723	3903.115500	532.631836	93.272224
13313.138723	3903.115500	531.384766	69.117485
13313.138723	3903.115500	530.138672	16.276026
13313.138723	3903.115500	528.891602	180.183792
13313.138723	3903.115500	527.643555	-33.934372
13313.138723	3903.115500	526.396484	202.945648
13313.138723	3903.115500	525.148438	225.440582
13313.138723	3903.115500	523.900391	371.687469
13313.138723	3903.115500	522.652344	248.466553
13313.138723	3903.115500	521.403320	50.266968
13313.138723	3903.115500	520.154297	125.958900
13313.138723	3903.115500	518.905273	161.936752
13313.138723	3903.115500	517.656250	224.431778
13313.138723	3903.115500	516.406250	209.726135
13313.138723	3903.115500	515.156250	285.514862
13313.138723	3903.115500	513.906250	246.642349
13313.138723	3903.115500	512.655273	273.979614
13313.138723	3903.115500	511.404297	173.499756
13313.138723	3903.115500	510.153320	207.549042
13313.138723	3903.115500	508.902344	149.087906
13313.138723	3903.115500	507.650391	128.146515
13313.138723	3903.115500	506.398438	250.423187
13313.138723	3903.115500	505.146484	174.512054
13313.138723	3903.115500	503.893555	107.483238
13313.138723	3903.115500	502.641602	-25.500879
13313.138723	3903.115500	501.388672	114.487701
13313.138723	3903.115500	500.134766	-104.163078
13313.138723	3903.115500	498.881836	-25.721874
13313.138723	3903.115500	497.627930	-77.027252
13313.138723	3903.115500	496.374023	-68.904060
13313.138723	3903.115500	495.119141	-104.711014
13313.138723	3903.115500	493.865234	-118.483879
13313.138723	3903.115500	492.610352	-17.957676
13313.138723	3903.115500	491.355469	-40.459587
13313.138723	3903.115500	490.099609	-109.040840
13313.138723	3903.115500	488.843750	13.479998
13313.138723	3903.115500	487.587891	-156.005936
13313.138723	3903.115500	486.332031	-198.083176
13313.138723	3903.115500	485.075195	53.941067
13313.138723	3903.115500	483.818359	27.250731
13313.138723	3903.115500	482.561523	-131.013306
13313.138723	3903.115500	481.304688	-19.441704
13313.138723	3903.115500	480.046875	81.138550
13313.138723	3903.115500	478.789063	-105.465904
13313.138723	3903.115500	477.531250	100.325928
13313.138723	3903.115500	476.272461	-81.786774
13313.138723	3903.115500	475.013672	-53.503510
13313.138723	3903.115500	473.754883	-38.360718
13313.138723	3903.115500	472.496094	-106.425179
13313.138723	3903.115500	471.236328	114.526428
13313.138723	3903.115500	469.976563	171.229752
13313.138723	3903.115500	468.716797	57.222237
13313.138723	3903.115500	467.456055	-74.239838
13313.138723	3903.115500	466.196289	67.772110
13313.138723	3903.115500	464.935547	148.483063
13313.138723	3903.115500	463.673828	178.860748
13313.138723	3903.115500	462.413086	-186.440903
13313.138723	3903.115500	461.151367	-16.161085
13313.138723	3903.115500	459.889648	-22.958458
13313.138723	3903.115500	458.626953	-243.859695
13313.138723	3903.115500	457.364258	-97.769699
13313.138723	3903.115500	456.101563	59.145874
13313.138723	3903.115500	454.838867	54.411720
13313.138723	3903.115500	453.575195	88.928391
13313.138723	3903.115500	452.312500	36.105125
13313.138723	3903.115500	451.047852	-60.376610
13313.138723	3903.115500	449.784180	74.347427
13313.138723	3903.115500	448.519531	165.343170
13313.138723	3903.115500	447.254883	179.932602
13313.138723	3903.115500	445.990234	142.139618
13313.138723	3903.115500	444.725586	176.215607
13313.138723	3903.115500	443.459961	155.732697
13313.138723	3903.115500	442.194336	281.135651
13313.138723	3903.115500	440.927734	105.848755
13313.138723	3903.115500	439.662109	-43.315651
13313.138723	3903.115500	438.395508	105.737854
13313.138723	3903.115500	437.127930	8.682528
13313.138723	3903.115500	435.861328	-23.146847
13313.138723	3903.115500	434.593750	-7.210340
13313.138723	3903.115500	433.326172	-21.844938
13313.138723	3903.115500	432.058594	141.728745
13313.138723	3903.115500	430.790039	176.827927
13313.138723	3903.115500	429.521484	300.903534
13313.138723	3903.115500	428.252930	172.695496
13313.138723	3903.115500	426.984375	246.465057
13313.138723	3903.115500	425.714844	315.705200
13313.138723	3903.115500	424.445313	363.040527
13313.138723	3903.115500	423.174805	616.463440
13313.138723	3903.115500	421.905273	374.656128
13313.138723	3903.115500	420.634766	410.580383
13313.138723	3903.115500	419.364258	524.421265
13313.138723	3903.115500	418.092773	544.729675
13313.138723	3903.115500	416.822266	621.227112
13313.138723	3903.115500	415.550781	443.764526
13313.138723	3903.115500	414.278320	357.214325
13313.138723	3903.115500	413.006836	465.564331
13313.138723	3903.115500	411.734375	356.919617
13313.138723	3903.115500	410.461914	397.577515
13313.138723	3903.115500	409.188477	279.834503
13313.138723	3903.115500	407.916016	211.699661
13313.138723	3903.115500	406.642578	422.633362
13313.138723	3903.115500	405.368164	228.385742
13313.138723	3903.115500	404.094727	103.198967
13313.138723	3903.115500	402.820313	248.239655
13313.138723	3903.115500	401.545898	434.015137
13313.138723	3903.115500	400.270508	232.234238
13313.138723	3903.115500	398.996094	376.205627
13313.138723	3903.115500	397.720703	199.806213
13313.138723	3903.115500	396.444336	226.305206
13313.138723	3903.115500	395.168945	274.053253
13313.138723	3903.115500	393.892578	72.944672
13313.138723	3903.115500	392.616211	290.592621
13313.138723	3903.115500	391.339844	306.913818
13313.138723	3903.115500	390.062500	288.270508
13313.138723	3903.115500	388.785156	113.799599
13313.138723	3903.115500	387.507813	167.743332
13313.138723	3903.115500	386.229492	24.864763
13313.138723	3903.115500	384.951172	297.941681
13313.138723	3903.115500	383.672852	33.403214
13313.138723	3903.115500	382.394531	53.133369
13313.138723	3903.115500	381.115234	240.508148
13313.138723	3903.115500	379.835938	377.724792
13313.138723	3903.115500	378.556641	184.667664
13313.138723	3903.115500	377.277344	316.480621
13313.138723	3903.115500	375.997070	311.980560
13313.138723	3903.115500	374.716797	306.923950
13313.138723	3903.115500	373.435547	213.008209
13313.138723	3903.115500	372.155273	204.662003
13313.138723	3903.115500	370.874023	301.152618
13313.138723	3903.115500	369.591797	429.242279
13313.138723	3903.115500	368.310547	268.404602
13313.138723	3903.115500	367.028320	225.258896
13313.138723	3903.115500	365.746094	248.121628
13313.138723	3903.115500	364.463867	341.234955
13313.138723	3903.115500	363.180664	162.783615
13313.138723	3903.115500	361.897461	119.069237
13313.138723	3903.115500	360.614258	119.756065
13313.138723	3903.115500	359.330078	98.196373
13313.138723	3903.115500	358.045898	-25.049595
13313.138723	3903.115500	356.761719	97.869141
13313.138723	3903.115500	355.477539	104.023018
13313.138723	3903.115500	354.192383	21.345858
13313.138723	3903.115500	352.907227	-27.806889
13313.138723	3903.115500	351.622070	-112.118492
13313.138723	3903.115500	350.336914	175.885712
13313.138723	3903.115500	349.050781	23.299911
13313.138723	3903.115500	347.764648	-134.425232
13313.138723	3903.115500	346.477539	-55.151627
13313.138723	3903.115500	345.191406	-107.551331
13313.138723	3903.115500	343.904297	4.020503
13313.138723	3903.115500	342.616211	33.127430
13313.138723	3903.115500	341.329102	26.968090
13313.138723	3903.115500	340.041016	-185.781860
13313.138723	3903.115500	338.752930	52.116360
13313.138723	3903.115500	337.463867	-60.014114
13313.138723	3903.115500	336.175781	17.237520
13313.138723	3903.115500	334.886719	41.956326
13313.138723	3903.115500	333.596680	-69.252563
13313.138723	3903.115500	332.307617	139.148865
13313.138723	3903.115500	331.017578	-156.109024
13313.138723	3903.115500	329.727539	-1.533781
13313.138723	3903.115500	328.436523	59.808544
13313.138723	3903.115500	327.146484	60.072342
13313.138723	3903.115500	325.855469	180.732300
13313.138723	3903.115500	324.563477	-11.773989
13313.138723	3903.115500	323.272461	29.317198
13313.138723	3903.115500	321.980469	9.210014
13313.138723	3903.115500	320.688477	-121.120186
13313.138723	3903.115500	319.395508	-184.602264
13313.138723	3903.115500	318.103516	-74.570961
13313.138723	3903.115500	316.810547	-40.756634
13313.138723	3903.115500	315.516602	106.607658
13313.138723	3903.115500	314.223633	-109.944878
13313.138723	3903.115500	312.929688	81.137688
13313.138723	3903.115500	311.635742	-127.882828
13313.138723	3903.115500	310.340820	-91.400757
13313.138723	3903.115500	309.045898	-256.782532
13313.138723	3903.115500	307.750977	8.444187
13313.138723	3903.115500	306.456055	176.041489
13313.138723	3903.115500	305.160156	45.930847
13313.138723	3903.115500	303.865234	201.405426
13313.138723	3903.115500	302.568359	233.622345
13313.138723	3903.115500	301.272461	474.598541
13313.138723	3903.115500	299.975586	339.285004
13313.138723	3903.115500	298.678711	491.245544
