#X		#Y		#Wave		#Intensity
3066.269096	5953.151667	1999.980469	209.944290
3066.269096	5953.151667	1999.016602	-156.856415
3066.269096	5953.151667	1998.052734	-229.693619
3066.269096	5953.151667	1997.087891	-158.910339
3066.269096	5953.151667	1996.123047	-65.991196
3066.269096	5953.151667	1995.158203	-2.963341
3066.269096	5953.151667	1994.193359	-177.850143
3066.269096	5953.151667	1993.228516	182.090500
3066.269096	5953.151667	1992.262695	54.045574
3066.269096	5953.151667	1991.297852	-133.467163
3066.269096	5953.151667	1990.332031	149.221039
3066.269096	5953.151667	1989.366211	157.043503
3066.269096	5953.151667	1988.399414	-80.151588
3066.269096	5953.151667	1987.433594	36.370655
3066.269096	5953.151667	1986.466797	34.058960
3066.269096	5953.151667	1985.500977	147.884613
3066.269096	5953.151667	1984.534180	-72.145615
3066.269096	5953.151667	1983.567383	-77.123962
3066.269096	5953.151667	1982.599609	-84.633064
3066.269096	5953.151667	1981.632813	16.515266
3066.269096	5953.151667	1980.665039	231.205704
3066.269096	5953.151667	1979.697266	-117.363136
3066.269096	5953.151667	1978.729492	-152.236099
3066.269096	5953.151667	1977.761719	20.254759
3066.269096	5953.151667	1976.792969	143.271927
3066.269096	5953.151667	1975.825195	-25.021862
3066.269096	5953.151667	1974.856445	26.331089
3066.269096	5953.151667	1973.887695	-53.121372
3066.269096	5953.151667	1972.918945	143.694412
3066.269096	5953.151667	1971.949219	-152.823380
3066.269096	5953.151667	1970.980469	223.897873
3066.269096	5953.151667	1970.010742	-166.241501
3066.269096	5953.151667	1969.041016	57.493473
3066.269096	5953.151667	1968.071289	116.023590
3066.269096	5953.151667	1967.101563	189.304733
3066.269096	5953.151667	1966.130859	85.187569
3066.269096	5953.151667	1965.161133	224.943481
3066.269096	5953.151667	1964.190430	22.354923
3066.269096	5953.151667	1963.219727	-5.349502
3066.269096	5953.151667	1962.249023	173.738739
3066.269096	5953.151667	1961.277344	106.651505
3066.269096	5953.151667	1960.306641	138.024963
3066.269096	5953.151667	1959.334961	149.717316
3066.269096	5953.151667	1958.363281	149.118820
3066.269096	5953.151667	1957.391602	119.024307
3066.269096	5953.151667	1956.419922	91.416000
3066.269096	5953.151667	1955.447266	61.378078
3066.269096	5953.151667	1954.474609	55.950787
3066.269096	5953.151667	1953.501953	188.168854
3066.269096	5953.151667	1952.529297	72.197784
3066.269096	5953.151667	1951.556641	172.474503
3066.269096	5953.151667	1950.583984	-287.259491
3066.269096	5953.151667	1949.610352	-78.850006
3066.269096	5953.151667	1948.636719	-228.952728
3066.269096	5953.151667	1947.663086	-15.664227
3066.269096	5953.151667	1946.689453	20.864128
3066.269096	5953.151667	1945.715820	131.023895
3066.269096	5953.151667	1944.741211	-129.284897
3066.269096	5953.151667	1943.767578	54.517143
3066.269096	5953.151667	1942.792969	-134.493515
3066.269096	5953.151667	1941.818359	-100.264229
3066.269096	5953.151667	1940.842773	242.886139
3066.269096	5953.151667	1939.868164	93.268860
3066.269096	5953.151667	1938.892578	-53.805202
3066.269096	5953.151667	1937.916992	132.438843
3066.269096	5953.151667	1936.941406	-65.959633
3066.269096	5953.151667	1935.965820	-80.549187
3066.269096	5953.151667	1934.990234	211.004379
3066.269096	5953.151667	1934.013672	105.854691
3066.269096	5953.151667	1933.037109	132.965607
3066.269096	5953.151667	1932.060547	-28.348404
3066.269096	5953.151667	1931.083984	-47.638138
3066.269096	5953.151667	1930.107422	167.984985
3066.269096	5953.151667	1929.129883	-73.854774
3066.269096	5953.151667	1928.153320	-347.359497
3066.269096	5953.151667	1927.175781	-58.333290
3066.269096	5953.151667	1926.198242	105.940903
3066.269096	5953.151667	1925.219727	-328.654877
3066.269096	5953.151667	1924.242188	21.411144
3066.269096	5953.151667	1923.263672	-129.506851
3066.269096	5953.151667	1922.285156	15.259046
3066.269096	5953.151667	1921.306641	138.024719
3066.269096	5953.151667	1920.328125	-7.841287
3066.269096	5953.151667	1919.349609	168.662354
3066.269096	5953.151667	1918.370117	91.263290
3066.269096	5953.151667	1917.391602	-122.751648
3066.269096	5953.151667	1916.412109	12.290227
3066.269096	5953.151667	1915.431641	-118.615700
3066.269096	5953.151667	1914.452148	-105.526642
3066.269096	5953.151667	1913.472656	-46.078392
3066.269096	5953.151667	1912.492188	-52.457447
3066.269096	5953.151667	1911.511719	-19.799438
3066.269096	5953.151667	1910.531250	112.806747
3066.269096	5953.151667	1909.550781	130.850311
3066.269096	5953.151667	1908.569336	-131.286911
3066.269096	5953.151667	1907.588867	-79.053421
3066.269096	5953.151667	1906.607422	129.063492
3066.269096	5953.151667	1905.625977	71.691490
3066.269096	5953.151667	1904.644531	-83.026077
3066.269096	5953.151667	1903.662109	15.493698
3066.269096	5953.151667	1902.680664	126.163315
3066.269096	5953.151667	1901.698242	105.407608
3066.269096	5953.151667	1900.715820	-5.343268
3066.269096	5953.151667	1899.733398	102.880051
3066.269096	5953.151667	1898.750000	55.429935
3066.269096	5953.151667	1897.767578	-135.455231
3066.269096	5953.151667	1896.784180	-163.374069
3066.269096	5953.151667	1895.800781	-115.927841
3066.269096	5953.151667	1894.817383	113.768661
3066.269096	5953.151667	1893.833984	71.256935
3066.269096	5953.151667	1892.850586	300.842072
3066.269096	5953.151667	1891.866211	-140.004501
3066.269096	5953.151667	1890.881836	-184.866669
3066.269096	5953.151667	1889.897461	-161.732361
3066.269096	5953.151667	1888.913086	-87.634399
3066.269096	5953.151667	1887.927734	-1.431592
3066.269096	5953.151667	1886.943359	-153.069458
3066.269096	5953.151667	1885.958008	-159.092117
3066.269096	5953.151667	1884.972656	62.885223
3066.269096	5953.151667	1883.987305	37.401875
3066.269096	5953.151667	1883.001953	-276.627838
3066.269096	5953.151667	1882.015625	-340.851959
3066.269096	5953.151667	1881.029297	210.575226
3066.269096	5953.151667	1880.042969	-96.088257
3066.269096	5953.151667	1879.056641	9.235885
3066.269096	5953.151667	1878.070313	-311.850586
3066.269096	5953.151667	1877.083984	-245.324112
3066.269096	5953.151667	1876.096680	51.200344
3066.269096	5953.151667	1875.109375	173.267715
3066.269096	5953.151667	1874.122070	-273.586731
3066.269096	5953.151667	1873.134766	-32.978054
3066.269096	5953.151667	1872.146484	42.970718
3066.269096	5953.151667	1871.159180	53.533226
3066.269096	5953.151667	1870.170898	-1.251518
3066.269096	5953.151667	1869.182617	21.331484
3066.269096	5953.151667	1868.194336	-18.998930
3066.269096	5953.151667	1867.205078	-211.653091
3066.269096	5953.151667	1866.216797	59.779716
3066.269096	5953.151667	1865.227539	-16.913891
3066.269096	5953.151667	1864.238281	-25.977726
3066.269096	5953.151667	1863.249023	-201.767197
3066.269096	5953.151667	1862.259766	115.153328
3066.269096	5953.151667	1861.269531	117.988419
3066.269096	5953.151667	1860.279297	45.924137
3066.269096	5953.151667	1859.290039	135.552994
3066.269096	5953.151667	1858.298828	85.115257
3066.269096	5953.151667	1857.308594	-139.096008
3066.269096	5953.151667	1856.318359	150.567017
3066.269096	5953.151667	1855.327148	227.800766
3066.269096	5953.151667	1854.335938	39.666622
3066.269096	5953.151667	1853.344727	92.643173
3066.269096	5953.151667	1852.353516	97.314468
3066.269096	5953.151667	1851.362305	-213.825287
3066.269096	5953.151667	1850.370117	-67.070236
3066.269096	5953.151667	1849.377930	274.703857
3066.269096	5953.151667	1848.385742	254.944321
3066.269096	5953.151667	1847.393555	59.299721
3066.269096	5953.151667	1846.401367	97.215431
3066.269096	5953.151667	1845.408203	70.029747
3066.269096	5953.151667	1844.415039	293.097778
3066.269096	5953.151667	1843.421875	106.874725
3066.269096	5953.151667	1842.428711	69.811874
3066.269096	5953.151667	1841.435547	95.215996
3066.269096	5953.151667	1840.441406	175.837067
3066.269096	5953.151667	1839.448242	253.925461
3066.269096	5953.151667	1838.454102	230.906708
3066.269096	5953.151667	1837.459961	37.120956
3066.269096	5953.151667	1836.464844	259.095184
3066.269096	5953.151667	1835.470703	43.545425
3066.269096	5953.151667	1834.475586	128.283157
3066.269096	5953.151667	1833.480469	114.395081
3066.269096	5953.151667	1832.485352	378.990784
3066.269096	5953.151667	1831.490234	143.935730
3066.269096	5953.151667	1830.495117	163.331726
3066.269096	5953.151667	1829.499023	96.195297
3066.269096	5953.151667	1828.502930	268.943817
3066.269096	5953.151667	1827.506836	112.802147
3066.269096	5953.151667	1826.510742	102.930763
3066.269096	5953.151667	1825.513672	311.197327
3066.269096	5953.151667	1824.517578	82.830215
3066.269096	5953.151667	1823.520508	127.742096
3066.269096	5953.151667	1822.523438	100.595253
3066.269096	5953.151667	1821.526367	277.044342
3066.269096	5953.151667	1820.529297	285.564362
3066.269096	5953.151667	1819.531250	-106.135841
3066.269096	5953.151667	1818.533203	158.477615
3066.269096	5953.151667	1817.535156	195.350494
3066.269096	5953.151667	1816.537109	47.705894
3066.269096	5953.151667	1815.539063	225.552094
3066.269096	5953.151667	1814.540039	135.118820
3066.269096	5953.151667	1813.541992	39.795612
3066.269096	5953.151667	1812.542969	212.328445
3066.269096	5953.151667	1811.543945	95.207359
3066.269096	5953.151667	1810.543945	221.929199
3066.269096	5953.151667	1809.544922	80.644394
3066.269096	5953.151667	1808.544922	288.308868
3066.269096	5953.151667	1807.544922	311.692566
3066.269096	5953.151667	1806.544922	265.610565
3066.269096	5953.151667	1805.544922	281.514709
3066.269096	5953.151667	1804.544922	139.589233
3066.269096	5953.151667	1803.543945	262.679718
3066.269096	5953.151667	1802.542969	371.236664
3066.269096	5953.151667	1801.541992	119.069336
3066.269096	5953.151667	1800.541016	203.420715
3066.269096	5953.151667	1799.539063	208.815506
3066.269096	5953.151667	1798.538086	13.606880
3066.269096	5953.151667	1797.536133	-117.281647
3066.269096	5953.151667	1796.534180	-33.607533
3066.269096	5953.151667	1795.532227	233.505081
3066.269096	5953.151667	1794.529297	47.302883
3066.269096	5953.151667	1793.527344	23.117281
3066.269096	5953.151667	1792.524414	234.733612
3066.269096	5953.151667	1791.521484	362.692200
3066.269096	5953.151667	1790.518555	-2.773573
3066.269096	5953.151667	1789.514648	-41.923580
3066.269096	5953.151667	1788.511719	133.128067
3066.269096	5953.151667	1787.507813	-34.969574
3066.269096	5953.151667	1786.503906	153.939972
3066.269096	5953.151667	1785.500000	18.873404
3066.269096	5953.151667	1784.496094	190.685379
3066.269096	5953.151667	1783.491211	93.369041
3066.269096	5953.151667	1782.486328	-56.430077
3066.269096	5953.151667	1781.481445	-223.003754
3066.269096	5953.151667	1780.476563	0.313282
3066.269096	5953.151667	1779.471680	154.408997
3066.269096	5953.151667	1778.465820	106.193756
3066.269096	5953.151667	1777.460938	-120.434708
3066.269096	5953.151667	1776.455078	-168.949997
3066.269096	5953.151667	1775.449219	-267.525482
3066.269096	5953.151667	1774.442383	146.824722
3066.269096	5953.151667	1773.436523	-182.515732
3066.269096	5953.151667	1772.429688	-122.513954
3066.269096	5953.151667	1771.422852	74.971909
3066.269096	5953.151667	1770.416016	-105.209023
3066.269096	5953.151667	1769.409180	-150.242752
3066.269096	5953.151667	1768.402344	279.089020
3066.269096	5953.151667	1767.394531	-79.527657
3066.269096	5953.151667	1766.386719	55.132126
3066.269096	5953.151667	1765.378906	4.583632
3066.269096	5953.151667	1764.371094	-219.212540
3066.269096	5953.151667	1763.362305	-116.006508
3066.269096	5953.151667	1762.354492	122.066124
3066.269096	5953.151667	1761.345703	132.366608
3066.269096	5953.151667	1760.336914	73.765640
3066.269096	5953.151667	1759.328125	303.966125
3066.269096	5953.151667	1758.318359	29.447618
3066.269096	5953.151667	1757.308594	15.288472
3066.269096	5953.151667	1756.299805	-131.615829
3066.269096	5953.151667	1755.290039	21.916212
3066.269096	5953.151667	1754.279297	82.889832
3066.269096	5953.151667	1753.269531	250.126068
3066.269096	5953.151667	1752.258789	-105.682892
3066.269096	5953.151667	1751.249023	106.066048
3066.269096	5953.151667	1750.238281	194.568283
3066.269096	5953.151667	1749.226563	112.606544
3066.269096	5953.151667	1748.215820	-16.779375
3066.269096	5953.151667	1747.204102	82.905701
3066.269096	5953.151667	1746.193359	54.780487
3066.269096	5953.151667	1745.181641	123.310188
3066.269096	5953.151667	1744.168945	-46.948925
3066.269096	5953.151667	1743.157227	-255.107422
3066.269096	5953.151667	1742.144531	-177.718704
3066.269096	5953.151667	1741.132813	-91.099586
3066.269096	5953.151667	1740.120117	-77.888145
3066.269096	5953.151667	1739.106445	-12.983047
3066.269096	5953.151667	1738.093750	160.241470
3066.269096	5953.151667	1737.080078	217.609238
3066.269096	5953.151667	1736.067383	-244.044250
3066.269096	5953.151667	1735.053711	-92.700546
3066.269096	5953.151667	1734.040039	-94.837044
3066.269096	5953.151667	1733.025391	-167.894104
3066.269096	5953.151667	1732.011719	-146.839355
3066.269096	5953.151667	1730.997070	-312.132233
3066.269096	5953.151667	1729.982422	-48.839191
3066.269096	5953.151667	1728.967773	-122.623695
3066.269096	5953.151667	1727.952148	-387.317505
3066.269096	5953.151667	1726.937500	-277.763275
3066.269096	5953.151667	1725.921875	-111.972893
3066.269096	5953.151667	1724.906250	-137.052780
3066.269096	5953.151667	1723.890625	-119.963188
3066.269096	5953.151667	1722.875000	-152.472900
3066.269096	5953.151667	1721.858398	68.837364
3066.269096	5953.151667	1720.841797	33.555363
3066.269096	5953.151667	1719.825195	-55.974365
3066.269096	5953.151667	1718.808594	30.639635
3066.269096	5953.151667	1717.791992	-2.824446
3066.269096	5953.151667	1716.774414	41.057819
3066.269096	5953.151667	1715.756836	-20.978359
3066.269096	5953.151667	1714.739258	358.401917
3066.269096	5953.151667	1713.721680	265.432037
3066.269096	5953.151667	1712.704102	172.314133
3066.269096	5953.151667	1711.685547	219.876205
3066.269096	5953.151667	1710.667969	98.275635
3066.269096	5953.151667	1709.649414	-68.063156
3066.269096	5953.151667	1708.630859	32.938198
3066.269096	5953.151667	1707.611328	173.579788
3066.269096	5953.151667	1706.592773	138.118057
3066.269096	5953.151667	1705.573242	109.507477
3066.269096	5953.151667	1704.553711	174.504883
3066.269096	5953.151667	1703.534180	7.259872
3066.269096	5953.151667	1702.513672	60.165646
3066.269096	5953.151667	1701.494141	119.929543
3066.269096	5953.151667	1700.473633	446.526062
3066.269096	5953.151667	1699.453125	337.199280
3066.269096	5953.151667	1698.432617	323.755157
3066.269096	5953.151667	1697.412109	354.628571
3066.269096	5953.151667	1696.390625	221.452240
3066.269096	5953.151667	1695.369141	-166.929550
3066.269096	5953.151667	1694.347656	83.445564
3066.269096	5953.151667	1693.326172	169.807480
3066.269096	5953.151667	1692.304688	218.552155
3066.269096	5953.151667	1691.282227	239.032303
3066.269096	5953.151667	1690.260742	182.214630
3066.269096	5953.151667	1689.238281	305.230835
3066.269096	5953.151667	1688.214844	222.353424
3066.269096	5953.151667	1687.192383	134.702377
3066.269096	5953.151667	1686.168945	352.955475
3066.269096	5953.151667	1685.146484	414.500824
3066.269096	5953.151667	1684.123047	466.503937
3066.269096	5953.151667	1683.099609	527.680298
3066.269096	5953.151667	1682.075195	474.272217
3066.269096	5953.151667	1681.051758	259.721710
3066.269096	5953.151667	1680.027344	663.468689
3066.269096	5953.151667	1679.002930	686.625671
3066.269096	5953.151667	1677.978516	739.956177
3066.269096	5953.151667	1676.953125	550.555420
3066.269096	5953.151667	1675.928711	587.294495
3066.269096	5953.151667	1674.903320	842.997009
3066.269096	5953.151667	1673.877930	930.647278
3066.269096	5953.151667	1672.852539	775.770508
3066.269096	5953.151667	1671.826172	1212.600220
3066.269096	5953.151667	1670.800781	1080.762695
3066.269096	5953.151667	1669.774414	960.468994
3066.269096	5953.151667	1668.748047	1075.282349
3066.269096	5953.151667	1667.721680	1029.286621
3066.269096	5953.151667	1666.694336	999.453125
3066.269096	5953.151667	1665.667969	1134.770508
3066.269096	5953.151667	1664.640625	1344.349609
3066.269096	5953.151667	1663.613281	941.900391
3066.269096	5953.151667	1662.585938	1151.204224
3066.269096	5953.151667	1661.557617	1211.456665
3066.269096	5953.151667	1660.530273	1511.077026
3066.269096	5953.151667	1659.501953	1808.120483
3066.269096	5953.151667	1658.473633	1588.993164
3066.269096	5953.151667	1657.444336	1771.808105
3066.269096	5953.151667	1656.416016	1989.325439
3066.269096	5953.151667	1655.386719	1821.052734
3066.269096	5953.151667	1654.358398	1989.506226
3066.269096	5953.151667	1653.328125	2187.925049
3066.269096	5953.151667	1652.298828	2314.236572
3066.269096	5953.151667	1651.269531	2410.233154
3066.269096	5953.151667	1650.239258	2554.804932
3066.269096	5953.151667	1649.208984	2430.105225
3066.269096	5953.151667	1648.178711	2681.139893
3066.269096	5953.151667	1647.148438	2586.440430
3066.269096	5953.151667	1646.117188	2707.304932
3066.269096	5953.151667	1645.086914	2663.473633
3066.269096	5953.151667	1644.055664	2862.923340
3066.269096	5953.151667	1643.024414	2955.618408
3066.269096	5953.151667	1641.992188	3096.830811
3066.269096	5953.151667	1640.960938	3261.108643
3066.269096	5953.151667	1639.928711	3545.656494
3066.269096	5953.151667	1638.896484	3563.737305
3066.269096	5953.151667	1637.864258	3241.422119
3066.269096	5953.151667	1636.832031	3687.636963
3066.269096	5953.151667	1635.798828	3929.937012
3066.269096	5953.151667	1634.766602	3535.827881
3066.269096	5953.151667	1633.733398	3810.335693
3066.269096	5953.151667	1632.699219	3707.652344
3066.269096	5953.151667	1631.666016	4155.343750
3066.269096	5953.151667	1630.632813	3895.346680
3066.269096	5953.151667	1629.598633	3931.248779
3066.269096	5953.151667	1628.564453	3955.537109
3066.269096	5953.151667	1627.530273	3889.657227
3066.269096	5953.151667	1626.495117	4027.027588
3066.269096	5953.151667	1625.460938	4291.370605
3066.269096	5953.151667	1624.425781	4158.347656
3066.269096	5953.151667	1623.390625	4237.757324
3066.269096	5953.151667	1622.355469	4268.625977
3066.269096	5953.151667	1621.319336	4280.961426
3066.269096	5953.151667	1620.284180	4180.229004
3066.269096	5953.151667	1619.248047	4254.813965
3066.269096	5953.151667	1618.211914	4414.692871
3066.269096	5953.151667	1617.174805	4477.601563
3066.269096	5953.151667	1616.138672	4621.197754
3066.269096	5953.151667	1615.101563	4619.462402
3066.269096	5953.151667	1614.065430	4889.708984
3066.269096	5953.151667	1613.027344	4747.304688
3066.269096	5953.151667	1611.990234	5012.767578
3066.269096	5953.151667	1610.953125	4916.479492
3066.269096	5953.151667	1609.915039	5278.491211
3066.269096	5953.151667	1608.876953	5285.770020
3066.269096	5953.151667	1607.838867	5233.193359
3066.269096	5953.151667	1606.800781	5436.123047
3066.269096	5953.151667	1605.761719	5887.481934
3066.269096	5953.151667	1604.723633	6051.109375
3066.269096	5953.151667	1603.684570	6067.434570
3066.269096	5953.151667	1602.644531	6171.133301
3066.269096	5953.151667	1601.605469	6242.643555
3066.269096	5953.151667	1600.566406	6017.581055
3066.269096	5953.151667	1599.526367	6040.835449
3066.269096	5953.151667	1598.486328	6431.794922
3066.269096	5953.151667	1597.446289	6259.712891
3066.269096	5953.151667	1596.405273	6365.654297
3066.269096	5953.151667	1595.365234	6152.370605
3066.269096	5953.151667	1594.324219	6189.466797
3066.269096	5953.151667	1593.283203	6288.571777
3066.269096	5953.151667	1592.242188	6148.959961
3066.269096	5953.151667	1591.200195	6053.016602
3066.269096	5953.151667	1590.159180	6315.120117
3066.269096	5953.151667	1589.117188	6411.967773
3066.269096	5953.151667	1588.075195	6914.789551
3066.269096	5953.151667	1587.032227	6410.754395
3066.269096	5953.151667	1585.990234	6521.434570
3066.269096	5953.151667	1584.947266	6318.063965
3066.269096	5953.151667	1583.904297	6048.368652
3066.269096	5953.151667	1582.861328	6388.333496
3066.269096	5953.151667	1581.818359	6286.087891
3066.269096	5953.151667	1580.775391	6287.017578
3066.269096	5953.151667	1579.731445	5969.678223
3066.269096	5953.151667	1578.687500	6163.101074
3066.269096	5953.151667	1577.643555	5839.186523
3066.269096	5953.151667	1576.598633	5703.114258
3066.269096	5953.151667	1575.554688	5747.967773
3066.269096	5953.151667	1574.509766	6044.508301
3066.269096	5953.151667	1573.464844	5714.295410
3066.269096	5953.151667	1572.419922	5889.690430
3066.269096	5953.151667	1571.374023	5767.843262
3066.269096	5953.151667	1570.329102	5248.407715
3066.269096	5953.151667	1569.283203	5277.759277
3066.269096	5953.151667	1568.237305	5261.494629
3066.269096	5953.151667	1567.191406	5032.863770
3066.269096	5953.151667	1566.144531	4886.625977
3066.269096	5953.151667	1565.098633	4726.871094
3066.269096	5953.151667	1564.051758	4893.764160
3066.269096	5953.151667	1563.004883	4355.308105
3066.269096	5953.151667	1561.957031	4355.784180
3066.269096	5953.151667	1560.910156	4472.775879
3066.269096	5953.151667	1559.862305	4249.868164
3066.269096	5953.151667	1558.814453	4191.400391
3066.269096	5953.151667	1557.766602	4014.484131
3066.269096	5953.151667	1556.718750	4095.410156
3066.269096	5953.151667	1555.669922	4037.343262
3066.269096	5953.151667	1554.621094	3879.137451
3066.269096	5953.151667	1553.573242	3800.906006
3066.269096	5953.151667	1552.523438	3939.223633
3066.269096	5953.151667	1551.474609	3863.526367
3066.269096	5953.151667	1550.424805	3633.099609
3066.269096	5953.151667	1549.375000	3662.480713
3066.269096	5953.151667	1548.325195	3434.738037
3066.269096	5953.151667	1547.275391	3744.384033
3066.269096	5953.151667	1546.225586	3136.968994
3066.269096	5953.151667	1545.174805	3624.281738
3066.269096	5953.151667	1544.124023	3158.435059
3066.269096	5953.151667	1543.073242	2945.365967
3066.269096	5953.151667	1542.022461	3019.041992
3066.269096	5953.151667	1540.970703	3090.544922
3066.269096	5953.151667	1539.919922	2907.629150
3066.269096	5953.151667	1538.868164	3006.712402
3066.269096	5953.151667	1537.815430	2706.012695
3066.269096	5953.151667	1536.763672	3155.249756
3066.269096	5953.151667	1535.710938	3077.541748
3066.269096	5953.151667	1534.659180	3186.254639
3066.269096	5953.151667	1533.606445	2952.261475
3066.269096	5953.151667	1532.552734	2943.222656
3066.269096	5953.151667	1531.500000	2904.882080
3066.269096	5953.151667	1530.446289	2757.802734
3066.269096	5953.151667	1529.393555	3014.769043
3066.269096	5953.151667	1528.338867	2741.053467
3066.269096	5953.151667	1527.285156	2805.520020
3066.269096	5953.151667	1526.231445	3099.125488
3066.269096	5953.151667	1525.176758	2783.041992
3066.269096	5953.151667	1524.122070	2682.564453
3066.269096	5953.151667	1523.067383	2636.694580
3066.269096	5953.151667	1522.012695	2776.793701
3066.269096	5953.151667	1520.957031	2785.649658
3066.269096	5953.151667	1519.901367	2622.599609
3066.269096	5953.151667	1518.845703	2683.946045
3066.269096	5953.151667	1517.790039	2505.534424
3066.269096	5953.151667	1516.734375	2501.653564
3066.269096	5953.151667	1515.677734	2353.149414
3066.269096	5953.151667	1514.621094	2361.001953
3066.269096	5953.151667	1513.564453	2348.703369
3066.269096	5953.151667	1512.507813	2135.362793
3066.269096	5953.151667	1511.450195	2218.471191
3066.269096	5953.151667	1510.393555	2041.832642
3066.269096	5953.151667	1509.335938	1535.504150
3066.269096	5953.151667	1508.278320	1775.234253
3066.269096	5953.151667	1507.219727	1283.131836
3066.269096	5953.151667	1506.162109	1220.601196
3066.269096	5953.151667	1505.103516	1212.495361
3066.269096	5953.151667	1504.044922	1118.822021
3066.269096	5953.151667	1502.986328	1151.818726
3066.269096	5953.151667	1501.926758	891.626953
3066.269096	5953.151667	1500.868164	588.910156
3066.269096	5953.151667	1499.808594	1148.295166
3066.269096	5953.151667	1498.749023	938.569580
3066.269096	5953.151667	1497.688477	1092.205322
3066.269096	5953.151667	1496.628906	819.915161
3066.269096	5953.151667	1495.568359	822.958313
3066.269096	5953.151667	1494.507813	722.568665
3066.269096	5953.151667	1493.447266	996.497498
3066.269096	5953.151667	1492.386719	982.199219
3066.269096	5953.151667	1491.325195	1026.697998
3066.269096	5953.151667	1490.263672	843.980469
3066.269096	5953.151667	1489.202148	1003.801880
3066.269096	5953.151667	1488.140625	522.270813
3066.269096	5953.151667	1487.079102	783.863098
3066.269096	5953.151667	1486.016602	591.064880
3066.269096	5953.151667	1484.954102	740.545166
3066.269096	5953.151667	1483.891602	327.914490
3066.269096	5953.151667	1482.829102	714.015747
3066.269096	5953.151667	1481.765625	592.093750
3066.269096	5953.151667	1480.702148	317.634888
3066.269096	5953.151667	1479.638672	470.546448
3066.269096	5953.151667	1478.575195	650.641907
3066.269096	5953.151667	1477.511719	606.285706
3066.269096	5953.151667	1476.447266	739.575195
3066.269096	5953.151667	1475.382813	657.548157
3066.269096	5953.151667	1474.318359	708.209534
3066.269096	5953.151667	1473.253906	725.554321
3066.269096	5953.151667	1472.189453	655.571655
3066.269096	5953.151667	1471.124023	962.694275
3066.269096	5953.151667	1470.058594	554.780823
3066.269096	5953.151667	1468.993164	929.531250
3066.269096	5953.151667	1467.927734	1225.968018
3066.269096	5953.151667	1466.861328	915.184692
3066.269096	5953.151667	1465.794922	1068.699097
3066.269096	5953.151667	1464.728516	953.857544
3066.269096	5953.151667	1463.662109	1085.301514
3066.269096	5953.151667	1462.594727	1497.248779
3066.269096	5953.151667	1461.528320	1123.430054
3066.269096	5953.151667	1460.460938	1076.850830
3066.269096	5953.151667	1459.393555	1156.132568
3066.269096	5953.151667	1458.326172	1143.582397
3066.269096	5953.151667	1457.257813	1294.196655
3066.269096	5953.151667	1456.189453	1398.472900
3066.269096	5953.151667	1455.121094	1247.937134
3066.269096	5953.151667	1454.052734	1336.622925
3066.269096	5953.151667	1452.984375	1480.415771
3066.269096	5953.151667	1451.915039	1190.008179
3066.269096	5953.151667	1450.845703	1534.060547
3066.269096	5953.151667	1449.776367	1542.565430
3066.269096	5953.151667	1448.707031	1757.056519
3066.269096	5953.151667	1447.636719	1642.364014
3066.269096	5953.151667	1446.567383	1720.590454
3066.269096	5953.151667	1445.497070	1597.829834
3066.269096	5953.151667	1444.425781	1358.583374
3066.269096	5953.151667	1443.355469	1697.123657
3066.269096	5953.151667	1442.285156	1750.052734
3066.269096	5953.151667	1441.213867	1364.942993
3066.269096	5953.151667	1440.142578	1323.006226
3066.269096	5953.151667	1439.070313	1435.178467
3066.269096	5953.151667	1437.999023	1325.764526
3066.269096	5953.151667	1436.926758	1238.429199
3066.269096	5953.151667	1435.854492	1387.986816
3066.269096	5953.151667	1434.782227	935.097717
3066.269096	5953.151667	1433.709961	844.474792
3066.269096	5953.151667	1432.636719	1101.487061
3066.269096	5953.151667	1431.563477	971.969177
3066.269096	5953.151667	1430.490234	964.573608
3066.269096	5953.151667	1429.416992	412.817810
3066.269096	5953.151667	1428.343750	368.207642
3066.269096	5953.151667	1427.269531	336.232422
3066.269096	5953.151667	1426.195313	75.438309
3066.269096	5953.151667	1425.121094	127.717781
3066.269096	5953.151667	1424.046875	334.973053
3066.269096	5953.151667	1422.971680	10.981484
3066.269096	5953.151667	1421.896484	139.795959
3066.269096	5953.151667	1420.821289	-77.259544
3066.269096	5953.151667	1419.746094	-48.261425
3066.269096	5953.151667	1418.669922	-106.021164
3066.269096	5953.151667	1417.594727	140.046539
3066.269096	5953.151667	1416.518555	25.260599
3066.269096	5953.151667	1415.442383	729.513916
3066.269096	5953.151667	1414.365234	328.302704
3066.269096	5953.151667	1413.289063	346.508759
3066.269096	5953.151667	1412.211914	285.410156
3066.269096	5953.151667	1411.134766	226.531403
3066.269096	5953.151667	1410.057617	491.827148
3066.269096	5953.151667	1408.979492	740.886536
3066.269096	5953.151667	1407.902344	884.944214
3066.269096	5953.151667	1406.824219	853.809875
3066.269096	5953.151667	1405.746094	724.426697
3066.269096	5953.151667	1404.666992	865.261658
3066.269096	5953.151667	1403.588867	1010.986694
3066.269096	5953.151667	1402.509766	1335.001465
3066.269096	5953.151667	1401.430664	1207.931396
3066.269096	5953.151667	1400.351563	1264.756470
3066.269096	5953.151667	1399.271484	1488.645996
3066.269096	5953.151667	1398.192383	1167.017090
3066.269096	5953.151667	1397.112305	1300.893188
3066.269096	5953.151667	1396.031250	1668.055542
3066.269096	5953.151667	1394.951172	1634.128662
3066.269096	5953.151667	1393.871094	1365.846924
3066.269096	5953.151667	1392.790039	1689.841919
3066.269096	5953.151667	1391.708984	1365.560913
3066.269096	5953.151667	1390.626953	1519.473999
3066.269096	5953.151667	1389.545898	1683.732300
3066.269096	5953.151667	1388.463867	1542.154175
3066.269096	5953.151667	1387.381836	1491.363403
3066.269096	5953.151667	1386.299805	1346.894165
3066.269096	5953.151667	1385.217773	1524.384155
3066.269096	5953.151667	1384.134766	1486.978760
3066.269096	5953.151667	1383.051758	1275.667725
3066.269096	5953.151667	1381.968750	1389.602539
3066.269096	5953.151667	1380.885742	1241.727295
3066.269096	5953.151667	1379.802734	1191.644531
3066.269096	5953.151667	1378.718750	1448.115967
3066.269096	5953.151667	1377.634766	1570.260864
3066.269096	5953.151667	1376.550781	1623.976685
3066.269096	5953.151667	1375.465820	1800.463257
3066.269096	5953.151667	1374.381836	2076.012695
3066.269096	5953.151667	1373.296875	1960.962036
3066.269096	5953.151667	1372.211914	1934.307861
3066.269096	5953.151667	1371.126953	2457.965088
3066.269096	5953.151667	1370.041016	2165.318359
3066.269096	5953.151667	1368.955078	2220.414551
3066.269096	5953.151667	1367.869141	2088.855957
3066.269096	5953.151667	1366.783203	2088.680420
3066.269096	5953.151667	1365.697266	1845.464355
3066.269096	5953.151667	1364.610352	1647.783081
3066.269096	5953.151667	1363.523438	1733.059204
3066.269096	5953.151667	1362.436523	1715.336304
3066.269096	5953.151667	1361.349609	1311.607056
3066.269096	5953.151667	1360.261719	1566.970825
3066.269096	5953.151667	1359.174805	1586.726807
3066.269096	5953.151667	1358.086914	1631.041992
3066.269096	5953.151667	1356.998047	1875.069946
3066.269096	5953.151667	1355.910156	1831.135864
3066.269096	5953.151667	1354.821289	1919.068115
3066.269096	5953.151667	1353.732422	1862.468872
3066.269096	5953.151667	1352.643555	1917.002563
3066.269096	5953.151667	1351.554688	2116.677490
3066.269096	5953.151667	1350.464844	2021.401245
3066.269096	5953.151667	1349.375000	2214.863037
3066.269096	5953.151667	1348.285156	2066.463379
3066.269096	5953.151667	1347.195313	1888.544434
3066.269096	5953.151667	1346.105469	2039.452393
3066.269096	5953.151667	1345.014648	1835.806641
3066.269096	5953.151667	1343.923828	2097.863770
3066.269096	5953.151667	1342.833008	2091.365967
3066.269096	5953.151667	1341.741211	1646.931396
3066.269096	5953.151667	1340.650391	1871.248413
3066.269096	5953.151667	1339.558594	1876.221558
3066.269096	5953.151667	1338.466797	1922.996338
3066.269096	5953.151667	1337.374023	1832.271973
3066.269096	5953.151667	1336.282227	1857.682251
3066.269096	5953.151667	1335.189453	1721.246338
3066.269096	5953.151667	1334.096680	2070.802490
3066.269096	5953.151667	1333.003906	2082.628418
3066.269096	5953.151667	1331.910156	2010.304688
3066.269096	5953.151667	1330.817383	2020.951294
3066.269096	5953.151667	1329.723633	1965.800415
3066.269096	5953.151667	1328.629883	2051.956787
3066.269096	5953.151667	1327.535156	2165.748291
3066.269096	5953.151667	1326.441406	2148.294922
3066.269096	5953.151667	1325.346680	2421.611572
3066.269096	5953.151667	1324.251953	1863.597290
3066.269096	5953.151667	1323.156250	1952.052979
3066.269096	5953.151667	1322.061523	2132.956787
3066.269096	5953.151667	1320.965820	1857.237183
3066.269096	5953.151667	1319.870117	1832.628052
3066.269096	5953.151667	1318.774414	1616.144897
3066.269096	5953.151667	1317.678711	1333.422729
3066.269096	5953.151667	1316.582031	1562.722046
3066.269096	5953.151667	1315.485352	1619.991211
3066.269096	5953.151667	1314.388672	1419.706787
3066.269096	5953.151667	1313.291016	1400.965820
3066.269096	5953.151667	1312.194336	1571.884155
3066.269096	5953.151667	1311.096680	1358.724976
3066.269096	5953.151667	1309.999023	1295.191528
3066.269096	5953.151667	1308.901367	1359.359619
3066.269096	5953.151667	1307.802734	1173.968018
3066.269096	5953.151667	1306.705078	998.511780
3066.269096	5953.151667	1305.606445	1401.843262
3066.269096	5953.151667	1304.506836	1347.866943
3066.269096	5953.151667	1303.408203	1313.725586
3066.269096	5953.151667	1302.308594	1379.885620
3066.269096	5953.151667	1301.208984	1438.676025
3066.269096	5953.151667	1300.109375	1280.061401
3066.269096	5953.151667	1299.009766	1403.086426
3066.269096	5953.151667	1297.909180	1490.365723
3066.269096	5953.151667	1296.808594	1478.216064
3066.269096	5953.151667	1295.708008	1393.541260
3066.269096	5953.151667	1294.607422	1659.501221
3066.269096	5953.151667	1293.506836	1508.990234
3066.269096	5953.151667	1292.405273	1448.893188
3066.269096	5953.151667	1291.303711	1234.758301
3066.269096	5953.151667	1290.202148	1334.739624
3066.269096	5953.151667	1289.099609	1235.173462
3066.269096	5953.151667	1287.998047	994.128418
3066.269096	5953.151667	1286.895508	1271.822510
3066.269096	5953.151667	1285.792969	1186.127808
3066.269096	5953.151667	1284.689453	1179.877075
3066.269096	5953.151667	1283.586914	1104.470093
3066.269096	5953.151667	1282.483398	1157.479126
3066.269096	5953.151667	1281.379883	1536.066772
3066.269096	5953.151667	1280.276367	1402.965088
3066.269096	5953.151667	1279.171875	1529.062134
3066.269096	5953.151667	1278.067383	1462.127319
3066.269096	5953.151667	1276.962891	1417.763916
3066.269096	5953.151667	1275.858398	1376.239136
3066.269096	5953.151667	1274.753906	1136.359131
3066.269096	5953.151667	1273.648438	1195.170532
3066.269096	5953.151667	1272.542969	1322.360596
3066.269096	5953.151667	1271.437500	1142.987183
3066.269096	5953.151667	1270.331055	1143.013550
3066.269096	5953.151667	1269.225586	967.336670
3066.269096	5953.151667	1268.119141	738.504028
3066.269096	5953.151667	1267.012695	982.811707
3066.269096	5953.151667	1265.906250	623.056091
3066.269096	5953.151667	1264.798828	678.460205
3066.269096	5953.151667	1263.691406	532.126465
3066.269096	5953.151667	1262.583984	304.242004
3066.269096	5953.151667	1261.476563	303.054382
3066.269096	5953.151667	1260.368164	301.363098
3066.269096	5953.151667	1259.260742	127.747620
3066.269096	5953.151667	1258.152344	126.166801
3066.269096	5953.151667	1257.043945	261.785126
3066.269096	5953.151667	1255.934570	43.572224
3066.269096	5953.151667	1254.825195	-78.348541
3066.269096	5953.151667	1253.716797	-43.301266
3066.269096	5953.151667	1252.606445	-88.903267
3066.269096	5953.151667	1251.497070	12.723621
3066.269096	5953.151667	1250.387695	-82.511414
3066.269096	5953.151667	1249.277344	-104.113075
3066.269096	5953.151667	1248.166992	-31.323523
3066.269096	5953.151667	1247.055664	-195.934494
3066.269096	5953.151667	1245.945313	-240.668427
3066.269096	5953.151667	1244.833984	-429.231384
3066.269096	5953.151667	1243.722656	-228.648880
3066.269096	5953.151667	1242.611328	-407.069763
3066.269096	5953.151667	1241.499023	-150.244583
3066.269096	5953.151667	1240.387695	101.396881
3066.269096	5953.151667	1239.275391	-63.181198
3066.269096	5953.151667	1238.162109	108.554054
3066.269096	5953.151667	1237.049805	51.924686
3066.269096	5953.151667	1235.936523	89.660629
3066.269096	5953.151667	1234.823242	192.234238
3066.269096	5953.151667	1233.709961	-53.099018
3066.269096	5953.151667	1232.596680	323.652679
3066.269096	5953.151667	1231.482422	175.205750
3066.269096	5953.151667	1230.369141	123.880157
3066.269096	5953.151667	1229.253906	242.423615
3066.269096	5953.151667	1228.139648	425.622833
3066.269096	5953.151667	1227.025391	258.221619
3066.269096	5953.151667	1225.910156	307.377869
3066.269096	5953.151667	1224.794922	365.462341
3066.269096	5953.151667	1223.679688	389.148468
3066.269096	5953.151667	1222.563477	347.883240
3066.269096	5953.151667	1221.447266	423.404633
3066.269096	5953.151667	1220.331055	327.786499
3066.269096	5953.151667	1219.214844	242.100845
3066.269096	5953.151667	1218.098633	239.607132
3066.269096	5953.151667	1216.981445	226.635071
3066.269096	5953.151667	1215.864258	362.746948
3066.269096	5953.151667	1214.747070	137.505005
3066.269096	5953.151667	1213.629883	107.813255
3066.269096	5953.151667	1212.511719	308.059967
3066.269096	5953.151667	1211.393555	146.789948
3066.269096	5953.151667	1210.275391	164.290070
3066.269096	5953.151667	1209.157227	15.439002
3066.269096	5953.151667	1208.038086	-13.642634
3066.269096	5953.151667	1206.918945	-133.136475
3066.269096	5953.151667	1205.799805	-180.691132
3066.269096	5953.151667	1204.680664	126.958824
3066.269096	5953.151667	1203.560547	25.980764
3066.269096	5953.151667	1202.441406	4.476924
3066.269096	5953.151667	1201.321289	-7.085011
3066.269096	5953.151667	1200.200195	-4.896716
3066.269096	5953.151667	1199.080078	-201.297058
3066.269096	5953.151667	1197.958984	-11.109628
3066.269096	5953.151667	1196.837891	88.548874
3066.269096	5953.151667	1195.716797	141.852188
3066.269096	5953.151667	1194.594727	183.389236
3066.269096	5953.151667	1193.473633	212.700638
3066.269096	5953.151667	1192.351563	-81.318901
3066.269096	5953.151667	1191.229492	11.897819
3066.269096	5953.151667	1190.106445	87.361420
3066.269096	5953.151667	1188.984375	-105.345963
3066.269096	5953.151667	1187.861328	88.572311
3066.269096	5953.151667	1186.738281	13.867311
3066.269096	5953.151667	1185.614258	333.694000
3066.269096	5953.151667	1184.491211	149.197556
3066.269096	5953.151667	1183.367188	175.113602
3066.269096	5953.151667	1182.243164	358.302917
3066.269096	5953.151667	1181.119141	389.517548
3066.269096	5953.151667	1179.994141	372.308624
3066.269096	5953.151667	1178.869141	312.388733
3066.269096	5953.151667	1177.744141	553.814636
3066.269096	5953.151667	1176.619141	551.334534
3066.269096	5953.151667	1175.493164	363.575439
3066.269096	5953.151667	1174.368164	443.789581
3066.269096	5953.151667	1173.242188	417.982788
3066.269096	5953.151667	1172.115234	336.606110
3066.269096	5953.151667	1170.989258	448.523712
3066.269096	5953.151667	1169.862305	466.664703
3066.269096	5953.151667	1168.735352	249.937881
3066.269096	5953.151667	1167.608398	393.585724
3066.269096	5953.151667	1166.481445	351.356567
3066.269096	5953.151667	1165.353516	234.562286
3066.269096	5953.151667	1164.225586	301.301575
3066.269096	5953.151667	1163.097656	269.844330
3066.269096	5953.151667	1161.968750	230.984604
3066.269096	5953.151667	1160.840820	373.937958
3066.269096	5953.151667	1159.711914	364.880035
3066.269096	5953.151667	1158.583008	433.656158
3066.269096	5953.151667	1157.453125	468.552246
3066.269096	5953.151667	1156.324219	469.062134
3066.269096	5953.151667	1155.194336	867.970032
3066.269096	5953.151667	1154.064453	566.403076
3066.269096	5953.151667	1152.933594	536.595947
3066.269096	5953.151667	1151.803711	203.254379
3066.269096	5953.151667	1150.672852	288.878601
3066.269096	5953.151667	1149.541992	121.320816
3066.269096	5953.151667	1148.411133	51.880432
3066.269096	5953.151667	1147.279297	-46.282490
3066.269096	5953.151667	1146.147461	-87.205956
3066.269096	5953.151667	1145.015625	177.110657
3066.269096	5953.151667	1143.883789	85.845726
3066.269096	5953.151667	1142.750977	-24.907476
3066.269096	5953.151667	1141.619141	-104.935143
3066.269096	5953.151667	1140.486328	-61.182358
3066.269096	5953.151667	1139.352539	-282.250336
3066.269096	5953.151667	1138.219727	-156.373688
3066.269096	5953.151667	1137.085938	156.771362
3066.269096	5953.151667	1135.952148	-134.633209
3066.269096	5953.151667	1134.818359	-17.356127
3066.269096	5953.151667	1133.683594	164.718460
3066.269096	5953.151667	1132.549805	405.255768
3066.269096	5953.151667	1131.415039	438.793213
3066.269096	5953.151667	1130.279297	644.307800
3066.269096	5953.151667	1129.144531	901.119934
3066.269096	5953.151667	1128.008789	897.100281
3066.269096	5953.151667	1126.873047	998.967163
3066.269096	5953.151667	1125.737305	880.819214
3066.269096	5953.151667	1124.601563	577.192627
3066.269096	5953.151667	1123.464844	578.383789
3066.269096	5953.151667	1122.328125	723.051147
3066.269096	5953.151667	1121.191406	580.941895
3066.269096	5953.151667	1120.054688	546.299255
3066.269096	5953.151667	1118.916992	473.567657
3066.269096	5953.151667	1117.779297	407.689362
3066.269096	5953.151667	1116.641602	215.977997
3066.269096	5953.151667	1115.503906	60.217960
3066.269096	5953.151667	1114.365234	232.333603
3066.269096	5953.151667	1113.226563	325.010071
3066.269096	5953.151667	1112.087891	283.834534
3066.269096	5953.151667	1110.949219	319.497681
3066.269096	5953.151667	1109.809570	171.767136
3066.269096	5953.151667	1108.669922	31.119707
3066.269096	5953.151667	1107.530273	167.505936
3066.269096	5953.151667	1106.390625	283.190826
3066.269096	5953.151667	1105.250000	456.207092
3066.269096	5953.151667	1104.109375	434.202179
3066.269096	5953.151667	1102.968750	471.382568
3066.269096	5953.151667	1101.828125	400.390289
3066.269096	5953.151667	1100.686523	713.845459
3066.269096	5953.151667	1099.544922	710.935181
3066.269096	5953.151667	1098.403320	616.864197
3066.269096	5953.151667	1097.261719	766.817444
3066.269096	5953.151667	1096.120117	687.597351
3066.269096	5953.151667	1094.977539	733.626099
3066.269096	5953.151667	1093.834961	670.376831
3066.269096	5953.151667	1092.691406	473.583984
3066.269096	5953.151667	1091.548828	589.763855
3066.269096	5953.151667	1090.405273	324.594452
3066.269096	5953.151667	1089.261719	571.457947
3066.269096	5953.151667	1088.118164	527.639160
3066.269096	5953.151667	1086.973633	264.409027
3066.269096	5953.151667	1085.829102	29.546637
3066.269096	5953.151667	1084.684570	154.499023
3066.269096	5953.151667	1083.540039	-24.732035
3066.269096	5953.151667	1082.395508	-47.220928
3066.269096	5953.151667	1081.250000	248.226364
3066.269096	5953.151667	1080.104492	-100.201958
3066.269096	5953.151667	1078.958984	100.482292
3066.269096	5953.151667	1077.812500	-77.419861
3066.269096	5953.151667	1076.666016	-17.127872
3066.269096	5953.151667	1075.519531	240.621887
3066.269096	5953.151667	1074.373047	218.464188
3066.269096	5953.151667	1073.226563	103.186104
3066.269096	5953.151667	1072.079102	-41.765507
3066.269096	5953.151667	1070.931641	20.556799
3066.269096	5953.151667	1069.784180	142.117935
3066.269096	5953.151667	1068.635742	-198.885681
3066.269096	5953.151667	1067.487305	71.382614
3066.269096	5953.151667	1066.338867	64.540138
3066.269096	5953.151667	1065.190430	15.264769
3066.269096	5953.151667	1064.041992	277.550812
3066.269096	5953.151667	1062.892578	387.592072
3066.269096	5953.151667	1061.743164	295.942902
3066.269096	5953.151667	1060.593750	51.525375
3066.269096	5953.151667	1059.443359	73.345390
3066.269096	5953.151667	1058.292969	-99.024597
3066.269096	5953.151667	1057.142578	40.593441
3066.269096	5953.151667	1055.992188	-273.983765
3066.269096	5953.151667	1054.841797	-90.509834
3066.269096	5953.151667	1053.690430	-91.104515
3066.269096	5953.151667	1052.539063	-238.932770
3066.269096	5953.151667	1051.387695	-137.111404
3066.269096	5953.151667	1050.235352	-173.922729
3066.269096	5953.151667	1049.083984	-101.472885
3066.269096	5953.151667	1047.931641	-209.907104
3066.269096	5953.151667	1046.778320	-322.248840
3066.269096	5953.151667	1045.625977	-392.433289
3066.269096	5953.151667	1044.472656	-92.266754
3066.269096	5953.151667	1043.319336	-43.258469
3066.269096	5953.151667	1042.166016	219.365540
3066.269096	5953.151667	1041.012695	-28.931265
3066.269096	5953.151667	1039.858398	-80.545692
3066.269096	5953.151667	1038.704102	113.132835
3066.269096	5953.151667	1037.549805	117.936958
3066.269096	5953.151667	1036.394531	235.610123
3066.269096	5953.151667	1035.239258	181.460648
3066.269096	5953.151667	1034.083984	279.467712
3066.269096	5953.151667	1032.928711	380.071503
3066.269096	5953.151667	1031.773438	-27.330828
3066.269096	5953.151667	1030.617188	244.429291
3066.269096	5953.151667	1029.460938	230.541885
3066.269096	5953.151667	1028.304688	39.867096
3066.269096	5953.151667	1027.147461	305.307465
3066.269096	5953.151667	1025.991211	223.841339
3066.269096	5953.151667	1024.833984	209.165512
3066.269096	5953.151667	1023.675781	303.696381
3066.269096	5953.151667	1022.518555	231.256958
3066.269096	5953.151667	1021.360352	240.844025
3066.269096	5953.151667	1020.202148	262.297302
3066.269096	5953.151667	1019.043945	100.338417
3066.269096	5953.151667	1017.884766	261.685303
3066.269096	5953.151667	1016.726563	193.726883
3066.269096	5953.151667	1015.567383	53.372688
3066.269096	5953.151667	1014.407227	86.488480
3066.269096	5953.151667	1013.248047	298.358582
3066.269096	5953.151667	1012.087891	246.040192
3066.269096	5953.151667	1010.927734	279.956299
3066.269096	5953.151667	1009.767578	122.086433
3066.269096	5953.151667	1008.606445	258.547974
3066.269096	5953.151667	1007.446289	89.195023
3066.269096	5953.151667	1006.285156	287.882324
3066.269096	5953.151667	1005.123047	282.956207
3066.269096	5953.151667	1003.961914	382.257996
3066.269096	5953.151667	1002.799805	286.368164
3066.269096	5953.151667	1001.637695	130.355499
3066.269096	5953.151667	1000.475586	29.637093
3066.269096	5953.151667	999.312500	14.738566
3066.269096	5953.151667	998.149414	69.683167
3066.269096	5953.151667	996.986328	339.066772
3066.269096	5953.151667	995.823242	280.610229
3066.269096	5953.151667	994.659180	91.468651
3066.269096	5953.151667	993.496094	-113.207733
3066.269096	5953.151667	992.332031	88.797203
3066.269096	5953.151667	991.166992	-47.548920
3066.269096	5953.151667	990.002930	15.455707
3066.269096	5953.151667	988.837891	-105.561394
3066.269096	5953.151667	987.672852	-237.282822
3066.269096	5953.151667	986.506836	11.916452
3066.269096	5953.151667	985.341797	-45.077209
3066.269096	5953.151667	984.175781	191.302277
3066.269096	5953.151667	983.009766	87.998810
3066.269096	5953.151667	981.843750	107.069305
3066.269096	5953.151667	980.676758	17.688072
3066.269096	5953.151667	979.509766	144.910675
3066.269096	5953.151667	978.342773	-29.927588
3066.269096	5953.151667	977.175781	212.849365
3066.269096	5953.151667	976.007813	-6.491779
3066.269096	5953.151667	974.839844	330.551300
3066.269096	5953.151667	973.671875	53.379349
3066.269096	5953.151667	972.503906	144.987823
3066.269096	5953.151667	971.334961	168.812927
3066.269096	5953.151667	970.166016	166.218781
3066.269096	5953.151667	968.997070	314.856110
3066.269096	5953.151667	967.828125	83.121811
3066.269096	5953.151667	966.658203	367.467316
3066.269096	5953.151667	965.488281	315.585297
3066.269096	5953.151667	964.318359	34.677269
3066.269096	5953.151667	963.148438	90.877449
3066.269096	5953.151667	961.977539	253.498245
3066.269096	5953.151667	960.806641	284.998352
3066.269096	5953.151667	959.635742	124.993378
3066.269096	5953.151667	958.463867	148.882416
3066.269096	5953.151667	957.292969	404.241455
3066.269096	5953.151667	956.121094	498.679749
3066.269096	5953.151667	954.948242	186.626068
3066.269096	5953.151667	953.776367	299.440216
3066.269096	5953.151667	952.603516	437.655640
3066.269096	5953.151667	951.430664	614.895813
3066.269096	5953.151667	950.257813	545.696350
3066.269096	5953.151667	949.084961	-79.410118
3066.269096	5953.151667	947.911133	224.227646
3066.269096	5953.151667	946.737305	479.738342
3066.269096	5953.151667	945.563477	251.899734
3066.269096	5953.151667	944.388672	325.883362
3066.269096	5953.151667	943.213867	357.396301
3066.269096	5953.151667	942.039063	457.684021
3066.269096	5953.151667	940.864258	500.467682
3066.269096	5953.151667	939.688477	641.008362
3066.269096	5953.151667	938.513672	567.459839
3066.269096	5953.151667	937.337891	398.790070
3066.269096	5953.151667	936.161133	474.832306
3066.269096	5953.151667	934.985352	522.002380
3066.269096	5953.151667	933.808594	564.347961
3066.269096	5953.151667	932.631836	711.381409
3066.269096	5953.151667	931.454102	917.362366
3066.269096	5953.151667	930.277344	672.408447
3066.269096	5953.151667	929.099609	697.904541
3066.269096	5953.151667	927.921875	963.033325
3066.269096	5953.151667	926.743164	779.585327
3066.269096	5953.151667	925.565430	819.082886
3066.269096	5953.151667	924.386719	661.629272
3066.269096	5953.151667	923.208008	506.561554
3066.269096	5953.151667	922.028320	562.521667
3066.269096	5953.151667	920.849609	431.106506
3066.269096	5953.151667	919.669922	433.381836
3066.269096	5953.151667	919.474609	72.512283
3066.269096	5953.151667	918.309570	147.265488
3066.269096	5953.151667	917.143555	82.140976
3066.269096	5953.151667	915.977539	128.319763
3066.269096	5953.151667	914.810547	11.008838
3066.269096	5953.151667	913.644531	-101.577148
3066.269096	5953.151667	912.477539	148.038940
3066.269096	5953.151667	911.310547	-54.577927
3066.269096	5953.151667	910.143555	-131.744919
3066.269096	5953.151667	908.975586	-92.999466
3066.269096	5953.151667	907.807617	33.202034
3066.269096	5953.151667	906.639648	-275.853119
3066.269096	5953.151667	905.471680	-24.445034
3066.269096	5953.151667	904.303711	-42.683891
3066.269096	5953.151667	903.134766	-18.415960
3066.269096	5953.151667	901.965820	-157.253738
3066.269096	5953.151667	900.796875	119.734543
3066.269096	5953.151667	899.626953	-108.919586
3066.269096	5953.151667	898.457031	-110.808037
3066.269096	5953.151667	897.287109	246.155212
3066.269096	5953.151667	896.117188	220.509323
3066.269096	5953.151667	894.947266	6.021927
3066.269096	5953.151667	893.776367	-206.054962
3066.269096	5953.151667	892.605469	98.583344
3066.269096	5953.151667	891.434570	145.961288
3066.269096	5953.151667	890.262695	49.434242
3066.269096	5953.151667	889.091797	228.768997
3066.269096	5953.151667	887.919922	85.051247
3066.269096	5953.151667	886.748047	433.931458
3066.269096	5953.151667	885.575195	327.870361
3066.269096	5953.151667	884.403320	89.894600
3066.269096	5953.151667	883.230469	-67.929893
3066.269096	5953.151667	882.057617	63.931179
3066.269096	5953.151667	880.883789	52.093643
3066.269096	5953.151667	879.710938	82.604797
3066.269096	5953.151667	878.537109	115.430733
3066.269096	5953.151667	877.362305	32.925720
3066.269096	5953.151667	876.188477	16.298283
3066.269096	5953.151667	875.013672	124.309250
3066.269096	5953.151667	873.839844	-108.713692
3066.269096	5953.151667	872.664063	6.288603
3066.269096	5953.151667	871.489258	142.376663
3066.269096	5953.151667	870.313477	257.238861
3066.269096	5953.151667	869.138672	-151.921097
3066.269096	5953.151667	867.962891	14.595811
3066.269096	5953.151667	866.786133	-124.293777
3066.269096	5953.151667	865.610352	60.898090
3066.269096	5953.151667	864.433594	-59.196136
3066.269096	5953.151667	863.256836	-230.896637
3066.269096	5953.151667	862.079102	-116.245354
3066.269096	5953.151667	860.902344	-158.853897
3066.269096	5953.151667	859.724609	-241.336121
3066.269096	5953.151667	858.546875	-248.750473
3066.269096	5953.151667	857.368164	-357.000366
3066.269096	5953.151667	856.190430	-139.363434
3066.269096	5953.151667	855.011719	-128.083542
3066.269096	5953.151667	853.833008	-219.926239
3066.269096	5953.151667	852.654297	-185.229965
3066.269096	5953.151667	851.474609	-115.423637
3066.269096	5953.151667	850.294922	-85.469131
3066.269096	5953.151667	849.115234	-146.852417
3066.269096	5953.151667	847.935547	-9.243043
3066.269096	5953.151667	846.754883	93.194588
3066.269096	5953.151667	845.575195	104.320511
3066.269096	5953.151667	844.393555	66.304863
3066.269096	5953.151667	843.212891	-236.011185
3066.269096	5953.151667	842.032227	34.723488
3066.269096	5953.151667	840.850586	174.408798
3066.269096	5953.151667	839.668945	120.011467
3066.269096	5953.151667	838.486328	-191.449509
3066.269096	5953.151667	837.304688	-135.947189
3066.269096	5953.151667	836.122070	55.020092
3066.269096	5953.151667	834.939453	19.343769
3066.269096	5953.151667	833.756836	18.701662
3066.269096	5953.151667	832.573242	102.100914
3066.269096	5953.151667	831.389648	17.395815
3066.269096	5953.151667	830.206055	-27.608932
3066.269096	5953.151667	829.022461	4.393310
3066.269096	5953.151667	827.838867	-220.226395
3066.269096	5953.151667	826.654297	24.022358
3066.269096	5953.151667	825.469727	100.275009
3066.269096	5953.151667	824.284180	241.764069
3066.269096	5953.151667	823.099609	206.044708
3066.269096	5953.151667	821.914063	79.448204
3066.269096	5953.151667	820.728516	22.790600
3066.269096	5953.151667	819.542969	-15.216377
3066.269096	5953.151667	818.356445	-218.568863
3066.269096	5953.151667	817.169922	15.895785
3066.269096	5953.151667	815.983398	-59.360760
3066.269096	5953.151667	814.796875	-74.082932
3066.269096	5953.151667	813.609375	55.463470
3066.269096	5953.151667	812.422852	170.987793
3066.269096	5953.151667	811.235352	230.628601
3066.269096	5953.151667	810.046875	-81.851799
3066.269096	5953.151667	808.859375	149.847702
3066.269096	5953.151667	807.670898	2.534504
3066.269096	5953.151667	806.482422	76.057655
3066.269096	5953.151667	805.293945	279.660797
3066.269096	5953.151667	804.104492	199.742935
3066.269096	5953.151667	802.915039	138.426498
3066.269096	5953.151667	801.725586	346.492157
3066.269096	5953.151667	800.536133	384.972565
3066.269096	5953.151667	799.345703	110.058540
3066.269096	5953.151667	798.155273	83.559967
3066.269096	5953.151667	796.964844	-21.833370
3066.269096	5953.151667	795.774414	278.757721
3066.269096	5953.151667	794.583008	289.295441
3066.269096	5953.151667	793.392578	244.158997
3066.269096	5953.151667	792.200195	236.113098
3066.269096	5953.151667	791.008789	160.832932
3066.269096	5953.151667	789.816406	-143.857239
3066.269096	5953.151667	788.625000	17.250940
3066.269096	5953.151667	787.432617	80.979652
3066.269096	5953.151667	786.239258	146.973495
3066.269096	5953.151667	785.046875	222.177200
3066.269096	5953.151667	783.853516	119.071960
3066.269096	5953.151667	782.660156	168.737076
3066.269096	5953.151667	781.465820	165.132294
3066.269096	5953.151667	780.272461	580.247314
3066.269096	5953.151667	779.078125	275.804352
3066.269096	5953.151667	777.883789	334.529114
3066.269096	5953.151667	776.688477	229.039383
3066.269096	5953.151667	775.494141	84.262520
3066.269096	5953.151667	774.298828	57.379341
3066.269096	5953.151667	773.103516	-112.787682
3066.269096	5953.151667	771.907227	-47.285023
3066.269096	5953.151667	770.711914	-44.207703
3066.269096	5953.151667	769.515625	245.170715
3066.269096	5953.151667	768.318359	508.991547
3066.269096	5953.151667	767.122070	534.912781
3066.269096	5953.151667	765.924805	461.546417
3066.269096	5953.151667	764.727539	443.542084
3066.269096	5953.151667	763.530273	344.761810
3066.269096	5953.151667	762.333008	432.788300
3066.269096	5953.151667	761.134766	506.894897
3066.269096	5953.151667	759.936523	751.516479
3066.269096	5953.151667	758.738281	380.584381
3066.269096	5953.151667	757.540039	505.199707
3066.269096	5953.151667	756.340820	164.317230
3066.269096	5953.151667	755.141602	429.328003
3066.269096	5953.151667	753.942383	549.084106
3066.269096	5953.151667	752.742188	624.985413
3066.269096	5953.151667	751.541992	330.173035
3066.269096	5953.151667	750.341797	399.064453
3066.269096	5953.151667	749.141602	359.714813
3066.269096	5953.151667	747.941406	485.958588
3066.269096	5953.151667	746.740234	393.574219
3066.269096	5953.151667	745.539063	471.332825
3066.269096	5953.151667	744.337891	335.172302
3066.269096	5953.151667	743.135742	711.595581
3066.269096	5953.151667	741.933594	708.590637
3066.269096	5953.151667	740.731445	696.322876
3066.269096	5953.151667	739.529297	546.154053
3066.269096	5953.151667	738.326172	696.840576
3066.269096	5953.151667	737.124023	608.577515
3066.269096	5953.151667	735.919922	685.562988
3066.269096	5953.151667	734.716797	613.242126
3066.269096	5953.151667	733.513672	729.041199
3066.269096	5953.151667	732.309570	812.585327
3066.269096	5953.151667	731.105469	824.898193
3066.269096	5953.151667	729.900391	837.114624
3066.269096	5953.151667	728.696289	1030.375854
3066.269096	5953.151667	727.491211	930.033203
3066.269096	5953.151667	726.286133	923.606628
3066.269096	5953.151667	725.080078	923.959106
3066.269096	5953.151667	723.874023	876.102905
3066.269096	5953.151667	722.668945	1052.638672
3066.269096	5953.151667	721.461914	970.222534
3066.269096	5953.151667	720.255859	912.923340
3066.269096	5953.151667	719.048828	855.540405
3066.269096	5953.151667	717.841797	763.746460
3066.269096	5953.151667	716.634766	1086.028076
3066.269096	5953.151667	715.427734	886.487061
3066.269096	5953.151667	714.219727	915.626099
3066.269096	5953.151667	713.011719	638.227722
3066.269096	5953.151667	711.803711	863.788208
3066.269096	5953.151667	710.594727	684.562073
3066.269096	5953.151667	709.385742	749.810547
3066.269096	5953.151667	708.176758	883.453735
3066.269096	5953.151667	706.967773	1211.075806
3066.269096	5953.151667	705.758789	1177.598633
3066.269096	5953.151667	704.548828	961.338867
3066.269096	5953.151667	703.338867	1311.181274
3066.269096	5953.151667	702.127930	871.049561
3066.269096	5953.151667	700.917969	903.319275
3066.269096	5953.151667	699.707031	876.118896
3066.269096	5953.151667	698.496094	778.085571
3066.269096	5953.151667	697.285156	844.145264
3066.269096	5953.151667	696.073242	944.228943
3066.269096	5953.151667	694.861328	932.435059
3066.269096	5953.151667	693.649414	831.621155
3066.269096	5953.151667	692.436523	744.366455
3066.269096	5953.151667	691.224609	857.474060
3066.269096	5953.151667	690.011719	902.051147
3066.269096	5953.151667	688.798828	1028.431152
3066.269096	5953.151667	687.584961	1250.216064
3066.269096	5953.151667	686.372070	1200.899658
3066.269096	5953.151667	685.158203	1235.638794
3066.269096	5953.151667	683.943359	1174.640381
3066.269096	5953.151667	682.729492	1254.541626
3066.269096	5953.151667	681.514648	1270.562988
3066.269096	5953.151667	680.299805	1531.976318
3066.269096	5953.151667	679.084961	1165.694214
3066.269096	5953.151667	677.869141	1038.030640
3066.269096	5953.151667	676.653320	1253.369263
3066.269096	5953.151667	675.437500	1318.503174
3066.269096	5953.151667	674.221680	1344.823608
3066.269096	5953.151667	673.004883	1246.052124
3066.269096	5953.151667	671.789063	1442.303101
3066.269096	5953.151667	670.571289	1504.351807
3066.269096	5953.151667	669.354492	1854.417847
3066.269096	5953.151667	668.136719	2022.631226
3066.269096	5953.151667	666.919922	1986.435303
3066.269096	5953.151667	665.701172	1745.934204
3066.269096	5953.151667	664.483398	2226.423340
3066.269096	5953.151667	663.264648	2495.678223
3066.269096	5953.151667	662.045898	2630.902344
3066.269096	5953.151667	660.827148	2747.749268
3066.269096	5953.151667	659.608398	3004.820801
3066.269096	5953.151667	658.388672	3189.094971
3066.269096	5953.151667	657.168945	3447.829102
3066.269096	5953.151667	655.949219	3613.424316
3066.269096	5953.151667	654.728516	3441.454102
3066.269096	5953.151667	653.507813	3706.152832
3066.269096	5953.151667	652.287109	3287.195068
3066.269096	5953.151667	651.066406	3320.659668
3066.269096	5953.151667	649.844727	3039.512207
3066.269096	5953.151667	648.623047	2893.952393
3066.269096	5953.151667	647.401367	2626.165039
3066.269096	5953.151667	646.179688	2733.496826
3066.269096	5953.151667	644.957031	2528.703369
3066.269096	5953.151667	643.734375	2398.344971
3066.269096	5953.151667	642.511719	2331.080811
3066.269096	5953.151667	641.289063	2132.642578
3066.269096	5953.151667	640.065430	2046.961426
3066.269096	5953.151667	638.841797	2078.488770
3066.269096	5953.151667	637.618164	1951.798218
3066.269096	5953.151667	636.393555	2251.414307
3066.269096	5953.151667	635.168945	2054.357422
3066.269096	5953.151667	633.944336	1805.289185
3066.269096	5953.151667	632.719727	2180.763672
3066.269096	5953.151667	631.494141	1895.248047
3066.269096	5953.151667	630.269531	1801.247192
3066.269096	5953.151667	629.042969	1783.662109
3066.269096	5953.151667	627.817383	2043.014648
3066.269096	5953.151667	626.590820	1973.130249
3066.269096	5953.151667	625.365234	1682.348999
3066.269096	5953.151667	624.137695	1855.296631
3066.269096	5953.151667	622.911133	1661.007080
3066.269096	5953.151667	621.683594	1925.718506
3066.269096	5953.151667	620.456055	1683.778076
3066.269096	5953.151667	619.228516	1558.703491
3066.269096	5953.151667	618.000977	1725.871338
3066.269096	5953.151667	616.772461	1627.362915
3066.269096	5953.151667	615.543945	1330.811523
3066.269096	5953.151667	614.314453	1094.839111
3066.269096	5953.151667	613.085938	1157.664673
3066.269096	5953.151667	611.856445	1370.768311
3066.269096	5953.151667	610.626953	1304.991211
3066.269096	5953.151667	609.397461	1212.066040
3066.269096	5953.151667	608.166992	1150.374023
3066.269096	5953.151667	606.936523	1176.040039
3066.269096	5953.151667	605.706055	1060.062744
3066.269096	5953.151667	604.474609	1291.727173
3066.269096	5953.151667	603.244141	1271.798340
3066.269096	5953.151667	602.012695	1195.558716
3066.269096	5953.151667	600.780273	1051.832764
3066.269096	5953.151667	599.548828	1345.185669
3066.269096	5953.151667	598.316406	1566.440063
3066.269096	5953.151667	597.083984	1401.886719
3066.269096	5953.151667	595.851563	1203.567749
3066.269096	5953.151667	594.618164	1273.931152
3066.269096	5953.151667	593.384766	1247.729492
3066.269096	5953.151667	592.151367	1375.835083
3066.269096	5953.151667	590.917969	1288.739136
3066.269096	5953.151667	589.683594	1277.547607
3066.269096	5953.151667	588.449219	1174.390991
3066.269096	5953.151667	587.214844	871.934448
3066.269096	5953.151667	585.979492	940.703674
3066.269096	5953.151667	584.745117	986.885803
3066.269096	5953.151667	583.509766	1240.764893
3066.269096	5953.151667	582.273438	1158.978760
3066.269096	5953.151667	581.038086	1090.447876
3066.269096	5953.151667	579.801758	961.387512
3066.269096	5953.151667	578.565430	818.769592
3066.269096	5953.151667	577.329102	1325.988403
3066.269096	5953.151667	576.091797	1283.418457
3066.269096	5953.151667	574.854492	1115.635864
3066.269096	5953.151667	573.617188	1092.816406
3066.269096	5953.151667	572.378906	1136.740601
3066.269096	5953.151667	571.141602	1109.071899
3066.269096	5953.151667	569.903320	1049.969116
3066.269096	5953.151667	568.664063	1010.752075
3066.269096	5953.151667	567.425781	1053.884521
3066.269096	5953.151667	566.186523	934.049622
3066.269096	5953.151667	564.947266	999.075195
3066.269096	5953.151667	563.708008	780.887451
3066.269096	5953.151667	562.467773	767.555237
3066.269096	5953.151667	561.227539	740.686279
3066.269096	5953.151667	559.987305	980.884766
3066.269096	5953.151667	558.747070	826.723511
3066.269096	5953.151667	557.505859	627.915771
3066.269096	5953.151667	556.264648	809.585571
3066.269096	5953.151667	555.023438	857.511047
3066.269096	5953.151667	553.781250	753.959900
3066.269096	5953.151667	552.539063	705.894653
3066.269096	5953.151667	551.296875	619.890503
3066.269096	5953.151667	550.054688	671.604736
3066.269096	5953.151667	548.811523	660.884888
3066.269096	5953.151667	547.569336	450.050934
3066.269096	5953.151667	546.325195	401.297241
3066.269096	5953.151667	545.082031	68.129272
3066.269096	5953.151667	543.837891	436.699524
3066.269096	5953.151667	542.593750	65.622200
3066.269096	5953.151667	541.349609	194.027649
3066.269096	5953.151667	540.105469	315.589203
3066.269096	5953.151667	538.860352	128.528946
3066.269096	5953.151667	537.615234	331.862091
3066.269096	5953.151667	536.369141	508.347748
3066.269096	5953.151667	535.124023	221.224365
3066.269096	5953.151667	533.877930	310.971527
3066.269096	5953.151667	532.631836	380.620544
3066.269096	5953.151667	531.384766	53.447987
3066.269096	5953.151667	530.138672	83.038773
3066.269096	5953.151667	528.891602	132.428696
3066.269096	5953.151667	527.643555	8.943649
3066.269096	5953.151667	526.396484	100.213974
3066.269096	5953.151667	525.148438	206.827911
3066.269096	5953.151667	523.900391	52.163212
3066.269096	5953.151667	522.652344	156.370300
3066.269096	5953.151667	521.403320	213.975586
3066.269096	5953.151667	520.154297	244.944916
3066.269096	5953.151667	518.905273	94.512787
3066.269096	5953.151667	517.656250	-248.254242
3066.269096	5953.151667	516.406250	-45.015381
3066.269096	5953.151667	515.156250	-69.529144
3066.269096	5953.151667	513.906250	-173.619553
3066.269096	5953.151667	512.655273	-101.025925
3066.269096	5953.151667	511.404297	-278.055450
3066.269096	5953.151667	510.153320	-156.977478
3066.269096	5953.151667	508.902344	-104.416748
3066.269096	5953.151667	507.650391	-102.694672
3066.269096	5953.151667	506.398438	-70.106621
3066.269096	5953.151667	505.146484	-92.707077
3066.269096	5953.151667	503.893555	-5.061592
3066.269096	5953.151667	502.641602	-120.309921
3066.269096	5953.151667	501.388672	31.213472
3066.269096	5953.151667	500.134766	-39.975609
3066.269096	5953.151667	498.881836	-91.278702
3066.269096	5953.151667	497.627930	-155.799820
3066.269096	5953.151667	496.374023	244.483917
3066.269096	5953.151667	495.119141	245.977600
3066.269096	5953.151667	493.865234	293.748230
3066.269096	5953.151667	492.610352	279.853912
3066.269096	5953.151667	491.355469	164.750916
3066.269096	5953.151667	490.099609	148.713440
3066.269096	5953.151667	488.843750	218.510117
3066.269096	5953.151667	487.587891	103.558762
3066.269096	5953.151667	486.332031	226.179443
3066.269096	5953.151667	485.075195	177.284973
3066.269096	5953.151667	483.818359	-3.422775
3066.269096	5953.151667	482.561523	277.471771
3066.269096	5953.151667	481.304688	127.679077
3066.269096	5953.151667	480.046875	371.164612
3066.269096	5953.151667	478.789063	405.975433
3066.269096	5953.151667	477.531250	418.878357
3066.269096	5953.151667	476.272461	418.645477
3066.269096	5953.151667	475.013672	508.460114
3066.269096	5953.151667	473.754883	545.647400
3066.269096	5953.151667	472.496094	545.598755
3066.269096	5953.151667	471.236328	414.008026
3066.269096	5953.151667	469.976563	350.528442
3066.269096	5953.151667	468.716797	653.271912
3066.269096	5953.151667	467.456055	298.398712
3066.269096	5953.151667	466.196289	272.489441
3066.269096	5953.151667	464.935547	505.178772
3066.269096	5953.151667	463.673828	234.041107
3066.269096	5953.151667	462.413086	120.812218
3066.269096	5953.151667	461.151367	215.699173
3066.269096	5953.151667	459.889648	249.349640
3066.269096	5953.151667	458.626953	53.265320
3066.269096	5953.151667	457.364258	192.132431
3066.269096	5953.151667	456.101563	13.840464
3066.269096	5953.151667	454.838867	-227.699799
3066.269096	5953.151667	453.575195	-248.213638
3066.269096	5953.151667	452.312500	-198.638016
3066.269096	5953.151667	451.047852	-291.097046
3066.269096	5953.151667	449.784180	-97.132866
3066.269096	5953.151667	448.519531	-123.833633
3066.269096	5953.151667	447.254883	-242.163986
3066.269096	5953.151667	445.990234	-157.251816
3066.269096	5953.151667	444.725586	-159.613983
3066.269096	5953.151667	443.459961	167.706619
3066.269096	5953.151667	442.194336	-33.150555
3066.269096	5953.151667	440.927734	250.527039
3066.269096	5953.151667	439.662109	-157.317062
3066.269096	5953.151667	438.395508	95.907860
3066.269096	5953.151667	437.127930	312.017426
3066.269096	5953.151667	435.861328	192.414734
3066.269096	5953.151667	434.593750	160.102051
3066.269096	5953.151667	433.326172	-37.731182
3066.269096	5953.151667	432.058594	36.910732
3066.269096	5953.151667	430.790039	139.880875
3066.269096	5953.151667	429.521484	-5.384589
3066.269096	5953.151667	428.252930	12.753457
3066.269096	5953.151667	426.984375	385.736450
3066.269096	5953.151667	425.714844	-20.513529
3066.269096	5953.151667	424.445313	17.305002
3066.269096	5953.151667	423.174805	159.527374
3066.269096	5953.151667	421.905273	53.801193
3066.269096	5953.151667	420.634766	176.418518
3066.269096	5953.151667	419.364258	-72.742928
3066.269096	5953.151667	418.092773	10.707028
3066.269096	5953.151667	416.822266	274.482361
3066.269096	5953.151667	415.550781	262.197449
3066.269096	5953.151667	414.278320	67.416122
3066.269096	5953.151667	413.006836	59.444569
3066.269096	5953.151667	411.734375	-0.704079
3066.269096	5953.151667	410.461914	34.609894
3066.269096	5953.151667	409.188477	32.915329
3066.269096	5953.151667	407.916016	-79.504982
3066.269096	5953.151667	406.642578	183.261749
3066.269096	5953.151667	405.368164	319.984100
3066.269096	5953.151667	404.094727	105.281319
3066.269096	5953.151667	402.820313	-259.078766
3066.269096	5953.151667	401.545898	113.424461
3066.269096	5953.151667	400.270508	91.197517
3066.269096	5953.151667	398.996094	114.289574
3066.269096	5953.151667	397.720703	-16.648573
3066.269096	5953.151667	396.444336	-80.667793
3066.269096	5953.151667	395.168945	-134.075592
3066.269096	5953.151667	393.892578	-220.234238
3066.269096	5953.151667	392.616211	33.087635
3066.269096	5953.151667	391.339844	41.492859
3066.269096	5953.151667	390.062500	136.042450
3066.269096	5953.151667	388.785156	126.370277
3066.269096	5953.151667	387.507813	317.379395
3066.269096	5953.151667	386.229492	313.309021
3066.269096	5953.151667	384.951172	540.031433
3066.269096	5953.151667	383.672852	368.607239
3066.269096	5953.151667	382.394531	211.871460
3066.269096	5953.151667	381.115234	393.718323
3066.269096	5953.151667	379.835938	242.388779
3066.269096	5953.151667	378.556641	325.834198
3066.269096	5953.151667	377.277344	371.918915
3066.269096	5953.151667	375.997070	356.869202
3066.269096	5953.151667	374.716797	282.872894
3066.269096	5953.151667	373.435547	100.295631
3066.269096	5953.151667	372.155273	-54.914124
3066.269096	5953.151667	370.874023	54.288525
3066.269096	5953.151667	369.591797	134.540848
3066.269096	5953.151667	368.310547	347.508362
3066.269096	5953.151667	367.028320	66.015724
3066.269096	5953.151667	365.746094	18.467531
3066.269096	5953.151667	364.463867	155.134842
3066.269096	5953.151667	363.180664	135.610489
3066.269096	5953.151667	361.897461	59.010284
3066.269096	5953.151667	360.614258	-51.004028
3066.269096	5953.151667	359.330078	143.335434
3066.269096	5953.151667	358.045898	106.135109
3066.269096	5953.151667	356.761719	71.939346
3066.269096	5953.151667	355.477539	-38.874844
3066.269096	5953.151667	354.192383	68.185127
3066.269096	5953.151667	352.907227	291.936646
3066.269096	5953.151667	351.622070	116.492546
3066.269096	5953.151667	350.336914	210.235611
3066.269096	5953.151667	349.050781	-118.780098
3066.269096	5953.151667	347.764648	-73.555275
3066.269096	5953.151667	346.477539	4.165236
3066.269096	5953.151667	345.191406	-362.157928
3066.269096	5953.151667	343.904297	-60.694088
3066.269096	5953.151667	342.616211	-46.787502
3066.269096	5953.151667	341.329102	183.914612
3066.269096	5953.151667	340.041016	-173.196991
3066.269096	5953.151667	338.752930	53.023014
3066.269096	5953.151667	337.463867	148.162125
3066.269096	5953.151667	336.175781	230.231277
3066.269096	5953.151667	334.886719	-114.540283
3066.269096	5953.151667	333.596680	13.852465
3066.269096	5953.151667	332.307617	107.503716
3066.269096	5953.151667	331.017578	110.537575
3066.269096	5953.151667	329.727539	-285.317963
3066.269096	5953.151667	328.436523	-150.967972
3066.269096	5953.151667	327.146484	-49.550213
3066.269096	5953.151667	325.855469	-220.922943
3066.269096	5953.151667	324.563477	-367.669373
3066.269096	5953.151667	323.272461	10.699046
3066.269096	5953.151667	321.980469	-200.433182
3066.269096	5953.151667	320.688477	115.199112
3066.269096	5953.151667	319.395508	-75.252274
3066.269096	5953.151667	318.103516	237.185135
3066.269096	5953.151667	316.810547	182.398483
3066.269096	5953.151667	315.516602	-139.111923
3066.269096	5953.151667	314.223633	276.548126
3066.269096	5953.151667	312.929688	344.027802
3066.269096	5953.151667	311.635742	360.221008
3066.269096	5953.151667	310.340820	346.263977
3066.269096	5953.151667	309.045898	385.363953
3066.269096	5953.151667	307.750977	293.908630
3066.269096	5953.151667	306.456055	370.415894
3066.269096	5953.151667	305.160156	394.902954
3066.269096	5953.151667	303.865234	471.965973
3066.269096	5953.151667	302.568359	385.782776
3066.269096	5953.151667	301.272461	422.226288
3066.269096	5953.151667	299.975586	785.301941
3066.269096	5953.151667	298.678711	448.210815
