#X		#Y		#Wave		#Intensity
-13842.578032	17566.770500	2000.043945	41.303265
-13842.578032	17566.770500	1999.080078	237.895935
-13842.578032	17566.770500	1998.116211	-33.466591
-13842.578032	17566.770500	1997.151367	-12.405416
-13842.578032	17566.770500	1996.186523	-340.818481
-13842.578032	17566.770500	1995.222656	-10.271319
-13842.578032	17566.770500	1994.256836	94.676079
-13842.578032	17566.770500	1993.291992	-3.583683
-13842.578032	17566.770500	1992.327148	385.843597
-13842.578032	17566.770500	1991.361328	22.511875
-13842.578032	17566.770500	1990.395508	-130.406006
-13842.578032	17566.770500	1989.429688	23.474886
-13842.578032	17566.770500	1988.463867	241.535583
-13842.578032	17566.770500	1987.497070	73.552208
-13842.578032	17566.770500	1986.531250	278.982544
-13842.578032	17566.770500	1985.564453	26.818029
-13842.578032	17566.770500	1984.597656	345.739777
-13842.578032	17566.770500	1983.630859	-104.246346
-13842.578032	17566.770500	1982.664063	335.517883
-13842.578032	17566.770500	1981.696289	149.929077
-13842.578032	17566.770500	1980.728516	322.535736
-13842.578032	17566.770500	1979.761719	-290.421997
-13842.578032	17566.770500	1978.792969	-520.453918
-13842.578032	17566.770500	1977.825195	84.043327
-13842.578032	17566.770500	1976.857422	-417.651062
-13842.578032	17566.770500	1975.888672	100.089401
-13842.578032	17566.770500	1974.919922	220.294006
-13842.578032	17566.770500	1973.951172	59.132462
-13842.578032	17566.770500	1972.982422	144.641647
-13842.578032	17566.770500	1972.013672	62.358429
-13842.578032	17566.770500	1971.043945	-10.087196
-13842.578032	17566.770500	1970.075195	144.245026
-13842.578032	17566.770500	1969.105469	93.886765
-13842.578032	17566.770500	1968.135742	267.754272
-13842.578032	17566.770500	1967.165039	86.703819
-13842.578032	17566.770500	1966.195313	36.234577
-13842.578032	17566.770500	1965.224609	-43.817593
-13842.578032	17566.770500	1964.253906	385.862122
-13842.578032	17566.770500	1963.283203	-290.146698
-13842.578032	17566.770500	1962.312500	33.481682
-13842.578032	17566.770500	1961.341797	654.752563
-13842.578032	17566.770500	1960.370117	212.717148
-13842.578032	17566.770500	1959.399414	-216.890640
-13842.578032	17566.770500	1958.427734	30.072912
-13842.578032	17566.770500	1957.455078	171.159851
-13842.578032	17566.770500	1956.483398	174.455887
-13842.578032	17566.770500	1955.511719	339.976807
-13842.578032	17566.770500	1954.539063	99.835876
-13842.578032	17566.770500	1953.566406	540.492615
-13842.578032	17566.770500	1952.593750	15.323311
-13842.578032	17566.770500	1951.621094	-13.444296
-13842.578032	17566.770500	1950.647461	-59.415863
-13842.578032	17566.770500	1949.674805	91.053200
-13842.578032	17566.770500	1948.701172	72.035439
-13842.578032	17566.770500	1947.727539	-50.103336
-13842.578032	17566.770500	1946.753906	-39.686214
-13842.578032	17566.770500	1945.780273	289.709778
-13842.578032	17566.770500	1944.805664	-6.658043
-13842.578032	17566.770500	1943.831055	-60.091785
-13842.578032	17566.770500	1942.856445	153.800201
-13842.578032	17566.770500	1941.881836	205.757217
-13842.578032	17566.770500	1940.907227	-220.383835
-13842.578032	17566.770500	1939.932617	157.592880
-13842.578032	17566.770500	1938.957031	314.854645
-13842.578032	17566.770500	1937.981445	-201.767914
-13842.578032	17566.770500	1937.005859	-262.555084
-13842.578032	17566.770500	1936.030273	203.271317
-13842.578032	17566.770500	1935.054688	73.837196
-13842.578032	17566.770500	1934.078125	-114.315353
-13842.578032	17566.770500	1933.101563	165.148224
-13842.578032	17566.770500	1932.125000	172.826385
-13842.578032	17566.770500	1931.148438	60.591022
-13842.578032	17566.770500	1930.171875	366.755402
-13842.578032	17566.770500	1929.194336	-34.130688
-13842.578032	17566.770500	1928.217773	-459.332581
-13842.578032	17566.770500	1927.240234	176.842316
-13842.578032	17566.770500	1926.262695	118.466690
-13842.578032	17566.770500	1925.284180	111.441849
-13842.578032	17566.770500	1924.306641	192.389114
-13842.578032	17566.770500	1923.328125	6.981416
-13842.578032	17566.770500	1922.350586	24.398657
-13842.578032	17566.770500	1921.372070	-344.100342
-13842.578032	17566.770500	1920.392578	149.570969
-13842.578032	17566.770500	1919.414063	-169.981827
-13842.578032	17566.770500	1918.434570	123.300858
-13842.578032	17566.770500	1917.456055	-57.010548
-13842.578032	17566.770500	1916.476563	397.198181
-13842.578032	17566.770500	1915.497070	270.581604
-13842.578032	17566.770500	1914.516602	-48.689640
-13842.578032	17566.770500	1913.537109	236.989960
-13842.578032	17566.770500	1912.556641	-4.116986
-13842.578032	17566.770500	1911.576172	-357.277863
-13842.578032	17566.770500	1910.595703	245.183578
-13842.578032	17566.770500	1909.615234	-178.556534
-13842.578032	17566.770500	1908.633789	-465.683105
-13842.578032	17566.770500	1907.653320	-2.383718
-13842.578032	17566.770500	1906.671875	-121.364578
-13842.578032	17566.770500	1905.690430	202.903702
-13842.578032	17566.770500	1904.708984	-235.008224
-13842.578032	17566.770500	1903.727539	-293.006317
-13842.578032	17566.770500	1902.745117	-277.959106
-13842.578032	17566.770500	1901.762695	155.631439
-13842.578032	17566.770500	1900.780273	97.613243
-13842.578032	17566.770500	1899.797852	-152.532974
-13842.578032	17566.770500	1898.815430	346.474274
-13842.578032	17566.770500	1897.832031	62.348419
-13842.578032	17566.770500	1896.849609	-104.973473
-13842.578032	17566.770500	1895.866211	-46.170212
-13842.578032	17566.770500	1894.882813	318.822479
-13842.578032	17566.770500	1893.898438	-1.496775
-13842.578032	17566.770500	1892.915039	195.750305
-13842.578032	17566.770500	1891.930664	-68.544724
-13842.578032	17566.770500	1890.947266	106.801056
-13842.578032	17566.770500	1889.962891	150.987793
-13842.578032	17566.770500	1888.977539	178.175781
-13842.578032	17566.770500	1887.993164	-15.495117
-13842.578032	17566.770500	1887.007813	-269.746613
-13842.578032	17566.770500	1886.023438	206.357971
-13842.578032	17566.770500	1885.038086	-52.668671
-13842.578032	17566.770500	1884.051758	-25.416319
-13842.578032	17566.770500	1883.066406	-240.639801
-13842.578032	17566.770500	1882.081055	181.811768
-13842.578032	17566.770500	1881.094727	-6.688050
-13842.578032	17566.770500	1880.108398	-144.212006
-13842.578032	17566.770500	1879.122070	202.907852
-13842.578032	17566.770500	1878.135742	-92.047256
-13842.578032	17566.770500	1877.148438	182.292343
-13842.578032	17566.770500	1876.162109	98.148148
-13842.578032	17566.770500	1875.174805	-228.060791
-13842.578032	17566.770500	1874.187500	21.971527
-13842.578032	17566.770500	1873.199219	213.841339
-13842.578032	17566.770500	1872.211914	-8.128403
-13842.578032	17566.770500	1871.223633	72.403252
-13842.578032	17566.770500	1870.236328	-6.725190
-13842.578032	17566.770500	1869.248047	-359.094604
-13842.578032	17566.770500	1868.258789	176.060516
-13842.578032	17566.770500	1867.270508	22.043447
-13842.578032	17566.770500	1866.282227	208.891800
-13842.578032	17566.770500	1865.292969	38.029953
-13842.578032	17566.770500	1864.303711	-26.451134
-13842.578032	17566.770500	1863.314453	-61.910995
-13842.578032	17566.770500	1862.324219	284.254425
-13842.578032	17566.770500	1861.334961	142.520081
-13842.578032	17566.770500	1860.344727	-3.983853
-13842.578032	17566.770500	1859.354492	-215.596191
-13842.578032	17566.770500	1858.364258	-84.422600
-13842.578032	17566.770500	1857.374023	123.923431
-13842.578032	17566.770500	1856.383789	-200.956757
-13842.578032	17566.770500	1855.392578	-7.123153
-13842.578032	17566.770500	1854.401367	27.483791
-13842.578032	17566.770500	1853.410156	-68.120529
-13842.578032	17566.770500	1852.418945	176.223785
-13842.578032	17566.770500	1851.426758	-382.117462
-13842.578032	17566.770500	1850.435547	-7.665647
-13842.578032	17566.770500	1849.443359	-26.063976
-13842.578032	17566.770500	1848.451172	466.227509
-13842.578032	17566.770500	1847.458984	218.954636
-13842.578032	17566.770500	1846.466797	-242.523514
-13842.578032	17566.770500	1845.473633	54.537754
-13842.578032	17566.770500	1844.480469	-36.040394
-13842.578032	17566.770500	1843.487305	234.405807
-13842.578032	17566.770500	1842.494141	100.524490
-13842.578032	17566.770500	1841.500977	62.924732
-13842.578032	17566.770500	1840.506836	121.550438
-13842.578032	17566.770500	1839.513672	-154.108215
-13842.578032	17566.770500	1838.519531	-275.780304
-13842.578032	17566.770500	1837.525391	-255.578339
-13842.578032	17566.770500	1836.530273	-79.156067
-13842.578032	17566.770500	1835.536133	164.484467
-13842.578032	17566.770500	1834.541016	23.629803
-13842.578032	17566.770500	1833.545898	-69.129456
-13842.578032	17566.770500	1832.550781	200.792297
-13842.578032	17566.770500	1831.555664	-2.417782
-13842.578032	17566.770500	1830.560547	509.861053
-13842.578032	17566.770500	1829.564453	131.451599
-13842.578032	17566.770500	1828.568359	451.530365
-13842.578032	17566.770500	1827.572266	248.425140
-13842.578032	17566.770500	1826.576172	98.170700
-13842.578032	17566.770500	1825.580078	151.837021
-13842.578032	17566.770500	1824.583008	526.821106
-13842.578032	17566.770500	1823.585938	251.920517
-13842.578032	17566.770500	1822.588867	156.904449
-13842.578032	17566.770500	1821.591797	-103.450119
-13842.578032	17566.770500	1820.594727	307.223633
-13842.578032	17566.770500	1819.596680	46.935955
-13842.578032	17566.770500	1818.599609	-31.221478
-13842.578032	17566.770500	1817.601563	-20.739517
-13842.578032	17566.770500	1816.603516	241.140381
-13842.578032	17566.770500	1815.604492	148.615936
-13842.578032	17566.770500	1814.606445	458.224182
-13842.578032	17566.770500	1813.607422	415.935150
-13842.578032	17566.770500	1812.608398	667.944885
-13842.578032	17566.770500	1811.609375	-237.938354
-13842.578032	17566.770500	1810.610352	143.230331
-13842.578032	17566.770500	1809.610352	-4.206816
-13842.578032	17566.770500	1808.611328	51.615410
-13842.578032	17566.770500	1807.611328	97.846672
-13842.578032	17566.770500	1806.611328	263.546326
-13842.578032	17566.770500	1805.610352	163.951126
-13842.578032	17566.770500	1804.610352	30.938046
-13842.578032	17566.770500	1803.609375	74.715263
-13842.578032	17566.770500	1802.608398	419.357819
-13842.578032	17566.770500	1801.607422	4.603641
-13842.578032	17566.770500	1800.606445	150.971863
-13842.578032	17566.770500	1799.605469	311.598877
-13842.578032	17566.770500	1798.603516	92.736916
-13842.578032	17566.770500	1797.601563	-271.585785
-13842.578032	17566.770500	1796.599609	335.052307
-13842.578032	17566.770500	1795.597656	440.615662
-13842.578032	17566.770500	1794.595703	417.369537
-13842.578032	17566.770500	1793.592773	105.656036
-13842.578032	17566.770500	1792.589844	-53.406761
-13842.578032	17566.770500	1791.587891	297.553253
-13842.578032	17566.770500	1790.583984	93.215286
-13842.578032	17566.770500	1789.581055	167.653336
-13842.578032	17566.770500	1788.577148	358.754944
-13842.578032	17566.770500	1787.574219	342.592834
-13842.578032	17566.770500	1786.570313	195.476395
-13842.578032	17566.770500	1785.566406	507.812897
-13842.578032	17566.770500	1784.561523	334.510742
-13842.578032	17566.770500	1783.557617	289.744324
-13842.578032	17566.770500	1782.552734	14.213559
-13842.578032	17566.770500	1781.547852	86.044533
-13842.578032	17566.770500	1780.542969	67.455681
-13842.578032	17566.770500	1779.538086	-336.322845
-13842.578032	17566.770500	1778.532227	-250.261673
-13842.578032	17566.770500	1777.527344	427.563843
-13842.578032	17566.770500	1776.521484	275.775299
-13842.578032	17566.770500	1775.515625	67.006729
-13842.578032	17566.770500	1774.508789	399.892914
-13842.578032	17566.770500	1773.502930	122.261024
-13842.578032	17566.770500	1772.496094	-262.138611
-13842.578032	17566.770500	1771.489258	-100.374977
-13842.578032	17566.770500	1770.482422	99.278214
-13842.578032	17566.770500	1769.475586	139.836288
-13842.578032	17566.770500	1768.467773	320.348022
-13842.578032	17566.770500	1767.460938	69.011894
-13842.578032	17566.770500	1766.453125	-16.222727
-13842.578032	17566.770500	1765.445313	0.520627
-13842.578032	17566.770500	1764.437500	-115.535652
-13842.578032	17566.770500	1763.428711	24.438364
-13842.578032	17566.770500	1762.420898	363.414856
-13842.578032	17566.770500	1761.412109	-108.153145
-13842.578032	17566.770500	1760.403320	64.833656
-13842.578032	17566.770500	1759.393555	169.041046
-13842.578032	17566.770500	1758.384766	-356.761749
-13842.578032	17566.770500	1757.375000	-373.321014
-13842.578032	17566.770500	1756.366211	40.948963
-13842.578032	17566.770500	1755.356445	45.571350
-13842.578032	17566.770500	1754.345703	319.936462
-13842.578032	17566.770500	1753.335938	-16.248665
-13842.578032	17566.770500	1752.325195	49.808479
-13842.578032	17566.770500	1751.315430	274.268127
-13842.578032	17566.770500	1750.304688	285.801666
-13842.578032	17566.770500	1749.292969	-38.403694
-13842.578032	17566.770500	1748.282227	209.499954
-13842.578032	17566.770500	1747.270508	178.422134
-13842.578032	17566.770500	1746.259766	-32.246204
-13842.578032	17566.770500	1745.248047	229.607498
-13842.578032	17566.770500	1744.235352	134.686127
-13842.578032	17566.770500	1743.223633	-113.720718
-13842.578032	17566.770500	1742.211914	22.779060
-13842.578032	17566.770500	1741.199219	-312.906921
-13842.578032	17566.770500	1740.186523	-188.276428
-13842.578032	17566.770500	1739.173828	89.654739
-13842.578032	17566.770500	1738.160156	-434.678467
-13842.578032	17566.770500	1737.147461	-218.193161
-13842.578032	17566.770500	1736.133789	-199.913925
-13842.578032	17566.770500	1735.120117	56.470177
-13842.578032	17566.770500	1734.106445	109.990311
-13842.578032	17566.770500	1733.091797	-223.078873
-13842.578032	17566.770500	1732.078125	-358.107269
-13842.578032	17566.770500	1731.063477	39.356796
-13842.578032	17566.770500	1730.048828	-288.887238
-13842.578032	17566.770500	1729.034180	-339.128479
-13842.578032	17566.770500	1728.019531	81.558731
-13842.578032	17566.770500	1727.003906	-208.926025
-13842.578032	17566.770500	1725.988281	-35.634811
-13842.578032	17566.770500	1724.972656	71.666733
-13842.578032	17566.770500	1723.957031	-28.154253
-13842.578032	17566.770500	1722.941406	241.363144
-13842.578032	17566.770500	1721.924805	47.403500
-13842.578032	17566.770500	1720.909180	-217.062576
-13842.578032	17566.770500	1719.892578	-13.583900
-13842.578032	17566.770500	1718.875977	91.057274
-13842.578032	17566.770500	1717.858398	148.623566
-13842.578032	17566.770500	1716.841797	-136.929794
-13842.578032	17566.770500	1715.824219	82.699753
-13842.578032	17566.770500	1714.806641	-87.695694
-13842.578032	17566.770500	1713.789063	-110.108292
-13842.578032	17566.770500	1712.770508	-1.056784
-13842.578032	17566.770500	1711.752930	-150.304367
-13842.578032	17566.770500	1710.734375	198.048904
-13842.578032	17566.770500	1709.715820	220.060959
-13842.578032	17566.770500	1708.697266	-304.615814
-13842.578032	17566.770500	1707.678711	-310.727417
-13842.578032	17566.770500	1706.659180	-96.409904
-13842.578032	17566.770500	1705.640625	63.862926
-13842.578032	17566.770500	1704.621094	57.592335
-13842.578032	17566.770500	1703.600586	16.141617
-13842.578032	17566.770500	1702.581055	-311.228455
-13842.578032	17566.770500	1701.561523	71.424210
-13842.578032	17566.770500	1700.541016	-426.895966
-13842.578032	17566.770500	1699.520508	84.388779
-13842.578032	17566.770500	1698.500000	195.028610
-13842.578032	17566.770500	1697.478516	-172.011169
-13842.578032	17566.770500	1696.458008	76.675133
-13842.578032	17566.770500	1695.436523	-177.923386
-13842.578032	17566.770500	1694.415039	-233.568634
-13842.578032	17566.770500	1693.393555	80.403633
-13842.578032	17566.770500	1692.372070	160.329514
-13842.578032	17566.770500	1691.349609	156.010162
-13842.578032	17566.770500	1690.327148	32.425995
-13842.578032	17566.770500	1689.304688	70.151428
-13842.578032	17566.770500	1688.282227	231.706192
-13842.578032	17566.770500	1687.259766	369.801422
-13842.578032	17566.770500	1686.236328	274.191315
-13842.578032	17566.770500	1685.213867	166.911102
-13842.578032	17566.770500	1684.190430	-136.527176
-13842.578032	17566.770500	1683.166016	197.552429
-13842.578032	17566.770500	1682.142578	375.072021
-13842.578032	17566.770500	1681.119141	-145.378311
-13842.578032	17566.770500	1680.094727	183.764145
-13842.578032	17566.770500	1679.070313	-2.863630
-13842.578032	17566.770500	1678.045898	-245.429321
-13842.578032	17566.770500	1677.020508	216.399231
-13842.578032	17566.770500	1675.996094	167.364761
-13842.578032	17566.770500	1674.970703	512.318787
-13842.578032	17566.770500	1673.945313	120.562569
-13842.578032	17566.770500	1672.919922	-14.723946
-13842.578032	17566.770500	1671.893555	73.693695
-13842.578032	17566.770500	1670.868164	122.452988
-13842.578032	17566.770500	1669.841797	124.584991
-13842.578032	17566.770500	1668.815430	101.078560
-13842.578032	17566.770500	1667.789063	-141.288635
-13842.578032	17566.770500	1666.761719	61.006828
-13842.578032	17566.770500	1665.735352	202.692551
-13842.578032	17566.770500	1664.708008	230.287674
-13842.578032	17566.770500	1663.680664	-37.597710
-13842.578032	17566.770500	1662.653320	-26.295267
-13842.578032	17566.770500	1661.625000	140.788666
-13842.578032	17566.770500	1660.597656	172.940506
-13842.578032	17566.770500	1659.569336	293.386292
-13842.578032	17566.770500	1658.541016	427.712738
-13842.578032	17566.770500	1657.512695	157.646866
-13842.578032	17566.770500	1656.483398	331.403381
-13842.578032	17566.770500	1655.455078	133.428986
-13842.578032	17566.770500	1654.425781	274.570709
-13842.578032	17566.770500	1653.396484	376.169373
-13842.578032	17566.770500	1652.366211	384.849731
-13842.578032	17566.770500	1651.336914	-1.054524
-13842.578032	17566.770500	1650.306641	332.537842
-13842.578032	17566.770500	1649.276367	141.643478
-13842.578032	17566.770500	1648.246094	384.579254
-13842.578032	17566.770500	1647.215820	539.275269
-13842.578032	17566.770500	1646.185547	378.548431
-13842.578032	17566.770500	1645.154297	285.097717
-13842.578032	17566.770500	1644.123047	666.826599
-13842.578032	17566.770500	1643.091797	566.376160
-13842.578032	17566.770500	1642.060547	384.856201
-13842.578032	17566.770500	1641.028320	747.770508
-13842.578032	17566.770500	1639.997070	647.323975
-13842.578032	17566.770500	1638.964844	614.054810
-13842.578032	17566.770500	1637.931641	715.061096
-13842.578032	17566.770500	1636.899414	598.438599
-13842.578032	17566.770500	1635.867188	326.800354
-13842.578032	17566.770500	1634.833984	420.829681
-13842.578032	17566.770500	1633.800781	313.555176
-13842.578032	17566.770500	1632.767578	474.610199
-13842.578032	17566.770500	1631.734375	459.842926
-13842.578032	17566.770500	1630.700195	759.506958
-13842.578032	17566.770500	1629.666016	166.791199
-13842.578032	17566.770500	1628.631836	274.559387
-13842.578032	17566.770500	1627.597656	310.648041
-13842.578032	17566.770500	1626.563477	644.737366
-13842.578032	17566.770500	1625.528320	537.522400
-13842.578032	17566.770500	1624.493164	227.125671
-13842.578032	17566.770500	1623.458008	378.617981
-13842.578032	17566.770500	1622.422852	576.214783
-13842.578032	17566.770500	1621.387695	801.428284
-13842.578032	17566.770500	1620.351563	373.523956
-13842.578032	17566.770500	1619.315430	307.995300
-13842.578032	17566.770500	1618.279297	433.936707
-13842.578032	17566.770500	1617.243164	682.055725
-13842.578032	17566.770500	1616.207031	307.532715
-13842.578032	17566.770500	1615.169922	1016.629089
-13842.578032	17566.770500	1614.132813	443.975220
-13842.578032	17566.770500	1613.095703	184.938828
-13842.578032	17566.770500	1612.058594	446.692444
-13842.578032	17566.770500	1611.020508	498.728058
-13842.578032	17566.770500	1609.983398	792.563416
-13842.578032	17566.770500	1608.945313	701.760193
-13842.578032	17566.770500	1607.907227	560.346985
-13842.578032	17566.770500	1606.868164	1019.733948
-13842.578032	17566.770500	1605.830078	857.614441
-13842.578032	17566.770500	1604.791016	670.253418
-13842.578032	17566.770500	1603.751953	662.402100
-13842.578032	17566.770500	1602.712891	712.053406
-13842.578032	17566.770500	1601.673828	768.594604
-13842.578032	17566.770500	1600.633789	622.814697
-13842.578032	17566.770500	1599.594727	739.129822
-13842.578032	17566.770500	1598.554688	820.937683
-13842.578032	17566.770500	1597.513672	1212.906860
-13842.578032	17566.770500	1596.473633	649.105835
-13842.578032	17566.770500	1595.433594	1034.089233
-13842.578032	17566.770500	1594.392578	681.821777
-13842.578032	17566.770500	1593.351563	742.961243
-13842.578032	17566.770500	1592.310547	957.879211
-13842.578032	17566.770500	1591.268555	1259.935181
-13842.578032	17566.770500	1590.227539	834.533325
-13842.578032	17566.770500	1589.185547	962.181030
-13842.578032	17566.770500	1588.143555	770.984863
-13842.578032	17566.770500	1587.100586	1160.046631
-13842.578032	17566.770500	1586.058594	879.504822
-13842.578032	17566.770500	1585.015625	885.620667
-13842.578032	17566.770500	1583.972656	1311.157104
-13842.578032	17566.770500	1582.929688	1374.513306
-13842.578032	17566.770500	1581.886719	1261.463257
-13842.578032	17566.770500	1580.843750	978.984314
-13842.578032	17566.770500	1579.799805	1630.963501
-13842.578032	17566.770500	1578.755859	977.659546
-13842.578032	17566.770500	1577.711914	967.874023
-13842.578032	17566.770500	1576.666992	836.818237
-13842.578032	17566.770500	1575.623047	854.575500
-13842.578032	17566.770500	1574.578125	931.829529
-13842.578032	17566.770500	1573.533203	1107.436768
-13842.578032	17566.770500	1572.488281	663.257141
-13842.578032	17566.770500	1571.443359	660.561035
-13842.578032	17566.770500	1570.397461	1030.505127
-13842.578032	17566.770500	1569.351563	719.250488
-13842.578032	17566.770500	1568.305664	862.875916
-13842.578032	17566.770500	1567.259766	768.874207
-13842.578032	17566.770500	1566.213867	761.738281
-13842.578032	17566.770500	1565.166992	428.062653
-13842.578032	17566.770500	1564.120117	576.324463
-13842.578032	17566.770500	1563.073242	907.188538
-13842.578032	17566.770500	1562.026367	728.983643
-13842.578032	17566.770500	1560.978516	603.370789
-13842.578032	17566.770500	1559.930664	1020.834961
-13842.578032	17566.770500	1558.883789	509.786652
-13842.578032	17566.770500	1557.834961	676.313293
-13842.578032	17566.770500	1556.787109	765.285828
-13842.578032	17566.770500	1555.739258	291.174011
-13842.578032	17566.770500	1554.690430	571.724976
-13842.578032	17566.770500	1553.641602	738.263306
-13842.578032	17566.770500	1552.592773	1159.949707
-13842.578032	17566.770500	1551.542969	800.191833
-13842.578032	17566.770500	1550.494141	732.129822
-13842.578032	17566.770500	1549.444336	625.429504
-13842.578032	17566.770500	1548.394531	678.173035
-13842.578032	17566.770500	1547.344727	542.021301
-13842.578032	17566.770500	1546.293945	337.698334
-13842.578032	17566.770500	1545.244141	411.078308
-13842.578032	17566.770500	1544.193359	261.546295
-13842.578032	17566.770500	1543.142578	562.438110
-13842.578032	17566.770500	1542.090820	638.142029
-13842.578032	17566.770500	1541.040039	775.250671
-13842.578032	17566.770500	1539.988281	328.196289
-13842.578032	17566.770500	1538.936523	474.498138
-13842.578032	17566.770500	1537.884766	541.270081
-13842.578032	17566.770500	1536.833008	360.458191
-13842.578032	17566.770500	1535.780273	420.513458
-13842.578032	17566.770500	1534.727539	521.474487
-13842.578032	17566.770500	1533.674805	463.525513
-13842.578032	17566.770500	1532.622070	494.174988
-13842.578032	17566.770500	1531.569336	577.064148
-13842.578032	17566.770500	1530.515625	482.999847
-13842.578032	17566.770500	1529.461914	518.332825
-13842.578032	17566.770500	1528.408203	540.098938
-13842.578032	17566.770500	1527.354492	264.857361
-13842.578032	17566.770500	1526.299805	125.809631
-13842.578032	17566.770500	1525.246094	206.749893
-13842.578032	17566.770500	1524.191406	496.209564
-13842.578032	17566.770500	1523.136719	178.378983
-13842.578032	17566.770500	1522.081055	420.280182
-13842.578032	17566.770500	1521.026367	426.593597
-13842.578032	17566.770500	1519.970703	124.999474
-13842.578032	17566.770500	1518.915039	-303.198792
-13842.578032	17566.770500	1517.859375	70.140015
-13842.578032	17566.770500	1516.802734	8.878077
-13842.578032	17566.770500	1515.747070	345.929565
-13842.578032	17566.770500	1514.690430	42.705811
-13842.578032	17566.770500	1513.633789	146.787216
-13842.578032	17566.770500	1512.577148	-97.349098
-13842.578032	17566.770500	1511.519531	-205.668762
-13842.578032	17566.770500	1510.461914	-58.450958
-13842.578032	17566.770500	1509.405273	-315.760284
-13842.578032	17566.770500	1508.346680	-177.478851
-13842.578032	17566.770500	1507.289063	-82.106232
-13842.578032	17566.770500	1506.231445	-409.068939
-13842.578032	17566.770500	1505.172852	-616.140808
-13842.578032	17566.770500	1504.114258	-89.296776
-13842.578032	17566.770500	1503.055664	-167.544098
-13842.578032	17566.770500	1501.996094	-313.394775
-13842.578032	17566.770500	1500.937500	-161.268463
-13842.578032	17566.770500	1499.877930	-90.341965
-13842.578032	17566.770500	1498.818359	-89.289742
-13842.578032	17566.770500	1497.757813	-151.303192
-13842.578032	17566.770500	1496.698242	-156.857285
-13842.578032	17566.770500	1495.637695	-36.096989
-13842.578032	17566.770500	1494.577148	30.607609
-13842.578032	17566.770500	1493.516602	-452.442230
-13842.578032	17566.770500	1492.456055	67.285271
-13842.578032	17566.770500	1491.394531	113.892052
-13842.578032	17566.770500	1490.333008	-193.000076
-13842.578032	17566.770500	1489.271484	315.347626
-13842.578032	17566.770500	1488.209961	-171.384674
-13842.578032	17566.770500	1487.148438	-180.716049
-13842.578032	17566.770500	1486.085938	-120.208229
-13842.578032	17566.770500	1485.023438	118.080475
-13842.578032	17566.770500	1483.960938	221.400528
-13842.578032	17566.770500	1482.898438	90.892998
-13842.578032	17566.770500	1481.834961	162.871399
-13842.578032	17566.770500	1480.772461	-118.008682
-13842.578032	17566.770500	1479.708984	-137.983841
-13842.578032	17566.770500	1478.644531	298.251251
-13842.578032	17566.770500	1477.581055	314.320465
-13842.578032	17566.770500	1476.517578	395.572571
-13842.578032	17566.770500	1475.453125	364.708252
-13842.578032	17566.770500	1474.388672	407.910614
-13842.578032	17566.770500	1473.323242	119.013313
-13842.578032	17566.770500	1472.258789	-52.649723
-13842.578032	17566.770500	1471.193359	342.990814
-13842.578032	17566.770500	1470.127930	-133.452621
-13842.578032	17566.770500	1469.062500	55.828907
-13842.578032	17566.770500	1467.997070	77.195137
-13842.578032	17566.770500	1466.930664	381.198914
-13842.578032	17566.770500	1465.865234	151.395844
-13842.578032	17566.770500	1464.798828	312.090546
-13842.578032	17566.770500	1463.731445	74.424210
-13842.578032	17566.770500	1462.665039	319.647247
-13842.578032	17566.770500	1461.597656	200.291336
-13842.578032	17566.770500	1460.530273	412.514954
-13842.578032	17566.770500	1459.462891	64.361420
-13842.578032	17566.770500	1458.395508	277.799744
-13842.578032	17566.770500	1457.327148	459.770203
-13842.578032	17566.770500	1456.259766	407.170593
-13842.578032	17566.770500	1455.191406	540.787415
-13842.578032	17566.770500	1454.123047	452.020844
-13842.578032	17566.770500	1453.053711	49.862247
-13842.578032	17566.770500	1451.985352	228.884476
-13842.578032	17566.770500	1450.916016	596.952820
-13842.578032	17566.770500	1449.846680	851.787415
-13842.578032	17566.770500	1448.776367	280.704163
-13842.578032	17566.770500	1447.707031	296.509552
-13842.578032	17566.770500	1446.636719	551.085144
-13842.578032	17566.770500	1445.566406	806.201538
-13842.578032	17566.770500	1444.496094	523.362793
-13842.578032	17566.770500	1443.425781	617.643372
-13842.578032	17566.770500	1442.354492	368.883026
-13842.578032	17566.770500	1441.283203	409.746429
-13842.578032	17566.770500	1440.211914	360.608765
-13842.578032	17566.770500	1439.140625	177.540543
-13842.578032	17566.770500	1438.069336	71.077057
-13842.578032	17566.770500	1436.997070	394.785095
-13842.578032	17566.770500	1435.924805	160.738983
-13842.578032	17566.770500	1434.852539	130.540436
-13842.578032	17566.770500	1433.780273	244.912231
-13842.578032	17566.770500	1432.707031	128.194931
-13842.578032	17566.770500	1431.633789	162.552307
-13842.578032	17566.770500	1430.560547	94.105583
-13842.578032	17566.770500	1429.487305	324.593140
-13842.578032	17566.770500	1428.413086	52.941776
-13842.578032	17566.770500	1427.339844	-38.631413
-13842.578032	17566.770500	1426.265625	-91.577545
-13842.578032	17566.770500	1425.191406	-80.756836
-13842.578032	17566.770500	1424.116211	-148.484344
-13842.578032	17566.770500	1423.041992	50.878147
-13842.578032	17566.770500	1421.966797	101.059898
-13842.578032	17566.770500	1420.891602	52.422955
-13842.578032	17566.770500	1419.816406	-307.599060
-13842.578032	17566.770500	1418.740234	-215.969193
-13842.578032	17566.770500	1417.665039	52.789639
-13842.578032	17566.770500	1416.588867	-284.084625
-13842.578032	17566.770500	1415.512695	-124.328056
-13842.578032	17566.770500	1414.435547	119.612190
-13842.578032	17566.770500	1413.359375	73.837494
-13842.578032	17566.770500	1412.282227	-117.495552
-13842.578032	17566.770500	1411.205078	-388.830444
-13842.578032	17566.770500	1410.127930	74.078827
-13842.578032	17566.770500	1409.049805	-194.487854
-13842.578032	17566.770500	1407.972656	235.987915
-13842.578032	17566.770500	1406.894531	138.229965
-13842.578032	17566.770500	1405.816406	211.388077
-13842.578032	17566.770500	1404.737305	-115.816200
-13842.578032	17566.770500	1403.659180	233.923859
-13842.578032	17566.770500	1402.580078	-19.581263
-13842.578032	17566.770500	1401.500977	-18.365807
-13842.578032	17566.770500	1400.421875	-4.226753
-13842.578032	17566.770500	1399.341797	62.261021
-13842.578032	17566.770500	1398.262695	83.059525
-13842.578032	17566.770500	1397.182617	84.573868
-13842.578032	17566.770500	1396.102539	-186.312729
-13842.578032	17566.770500	1395.021484	495.715820
-13842.578032	17566.770500	1393.941406	307.445007
-13842.578032	17566.770500	1392.860352	294.104828
-13842.578032	17566.770500	1391.779297	330.148438
-13842.578032	17566.770500	1390.698242	421.645996
-13842.578032	17566.770500	1389.616211	24.226433
-13842.578032	17566.770500	1388.535156	74.416534
-13842.578032	17566.770500	1387.453125	233.662003
-13842.578032	17566.770500	1386.371094	220.841263
-13842.578032	17566.770500	1385.288086	48.927395
-13842.578032	17566.770500	1384.206055	238.157333
-13842.578032	17566.770500	1383.123047	548.485229
-13842.578032	17566.770500	1382.040039	273.414246
-13842.578032	17566.770500	1380.957031	253.947952
-13842.578032	17566.770500	1379.873047	246.567657
-13842.578032	17566.770500	1378.789063	101.405037
-13842.578032	17566.770500	1377.705078	83.604355
-13842.578032	17566.770500	1376.621094	110.809875
-13842.578032	17566.770500	1375.537109	-30.908369
-13842.578032	17566.770500	1374.452148	238.173462
-13842.578032	17566.770500	1373.367188	197.151428
-13842.578032	17566.770500	1372.282227	233.950989
-13842.578032	17566.770500	1371.197266	264.626556
-13842.578032	17566.770500	1370.112305	404.388733
-13842.578032	17566.770500	1369.026367	624.504700
-13842.578032	17566.770500	1367.940430	97.050583
-13842.578032	17566.770500	1366.854492	582.986938
-13842.578032	17566.770500	1365.767578	190.729584
-13842.578032	17566.770500	1364.681641	627.363831
-13842.578032	17566.770500	1363.594727	608.296143
-13842.578032	17566.770500	1362.507813	630.004272
-13842.578032	17566.770500	1361.419922	467.181915
-13842.578032	17566.770500	1360.333008	472.065887
-13842.578032	17566.770500	1359.245117	859.578857
-13842.578032	17566.770500	1358.157227	819.819458
-13842.578032	17566.770500	1357.069336	752.861572
-13842.578032	17566.770500	1355.981445	582.009399
-13842.578032	17566.770500	1354.892578	592.476501
-13842.578032	17566.770500	1353.803711	865.474487
-13842.578032	17566.770500	1352.714844	982.108337
-13842.578032	17566.770500	1351.625000	1028.427734
-13842.578032	17566.770500	1350.536133	1459.500000
-13842.578032	17566.770500	1349.446289	879.104797
-13842.578032	17566.770500	1348.356445	1118.300903
-13842.578032	17566.770500	1347.266602	1407.587769
-13842.578032	17566.770500	1346.175781	1551.249878
-13842.578032	17566.770500	1345.085938	1273.791138
-13842.578032	17566.770500	1343.995117	1234.562378
-13842.578032	17566.770500	1342.903320	1514.223389
-13842.578032	17566.770500	1341.812500	1437.887085
-13842.578032	17566.770500	1340.720703	1542.111450
-13842.578032	17566.770500	1339.629883	1669.485962
-13842.578032	17566.770500	1338.538086	1104.240479
-13842.578032	17566.770500	1337.445313	963.699219
-13842.578032	17566.770500	1336.353516	940.712585
-13842.578032	17566.770500	1335.260742	1075.472046
-13842.578032	17566.770500	1334.167969	997.179932
-13842.578032	17566.770500	1333.075195	847.288818
-13842.578032	17566.770500	1331.981445	644.845642
-13842.578032	17566.770500	1330.888672	625.965881
-13842.578032	17566.770500	1329.794922	359.115112
-13842.578032	17566.770500	1328.701172	620.581177
-13842.578032	17566.770500	1327.606445	840.778503
-13842.578032	17566.770500	1326.512695	703.079651
-13842.578032	17566.770500	1325.417969	505.036865
-13842.578032	17566.770500	1324.323242	355.492249
-13842.578032	17566.770500	1323.227539	343.540222
-13842.578032	17566.770500	1322.132813	492.435608
-13842.578032	17566.770500	1321.037109	486.125580
-13842.578032	17566.770500	1319.941406	404.995026
-13842.578032	17566.770500	1318.845703	280.910553
-13842.578032	17566.770500	1317.750000	396.808960
-13842.578032	17566.770500	1316.653320	514.714722
-13842.578032	17566.770500	1315.556641	401.270142
-13842.578032	17566.770500	1314.459961	744.212952
-13842.578032	17566.770500	1313.363281	219.292511
-13842.578032	17566.770500	1312.265625	413.947418
-13842.578032	17566.770500	1311.167969	509.265198
-13842.578032	17566.770500	1310.070313	36.870171
-13842.578032	17566.770500	1308.972656	309.249908
-13842.578032	17566.770500	1307.874023	448.066010
-13842.578032	17566.770500	1306.776367	370.915253
-13842.578032	17566.770500	1305.677734	218.746429
-13842.578032	17566.770500	1304.579102	340.306824
-13842.578032	17566.770500	1303.479492	-240.351181
-13842.578032	17566.770500	1302.380859	263.337433
-13842.578032	17566.770500	1301.281250	240.259460
-13842.578032	17566.770500	1300.181641	125.482208
-13842.578032	17566.770500	1299.081055	-2.430009
-13842.578032	17566.770500	1297.981445	160.509232
-13842.578032	17566.770500	1296.880859	222.495773
-13842.578032	17566.770500	1295.780273	185.639603
-13842.578032	17566.770500	1294.679688	193.338455
-13842.578032	17566.770500	1293.578125	462.774048
-13842.578032	17566.770500	1292.476563	61.567970
-13842.578032	17566.770500	1291.375000	292.348358
-13842.578032	17566.770500	1290.273438	485.907440
-13842.578032	17566.770500	1289.171875	238.334335
-13842.578032	17566.770500	1288.069336	416.600037
-13842.578032	17566.770500	1286.966797	88.747757
-13842.578032	17566.770500	1285.864258	-14.168614
-13842.578032	17566.770500	1284.761719	271.205627
-13842.578032	17566.770500	1283.658203	166.271408
-13842.578032	17566.770500	1282.554688	137.536514
-13842.578032	17566.770500	1281.451172	70.836090
-13842.578032	17566.770500	1280.347656	215.829544
-13842.578032	17566.770500	1279.244141	312.516052
-13842.578032	17566.770500	1278.139648	315.507690
-13842.578032	17566.770500	1277.035156	110.894066
-13842.578032	17566.770500	1275.930664	-170.542450
-13842.578032	17566.770500	1274.825195	150.281021
-13842.578032	17566.770500	1273.720703	-180.121948
-13842.578032	17566.770500	1272.615234	-432.360199
-13842.578032	17566.770500	1271.508789	-351.889496
-13842.578032	17566.770500	1270.403320	-333.374268
-13842.578032	17566.770500	1269.297852	-68.424911
-13842.578032	17566.770500	1268.191406	-143.350937
-13842.578032	17566.770500	1267.084961	-322.426453
-13842.578032	17566.770500	1265.977539	-326.384674
-13842.578032	17566.770500	1264.871094	-284.060333
-13842.578032	17566.770500	1263.763672	-213.173050
-13842.578032	17566.770500	1262.656250	-131.155212
-13842.578032	17566.770500	1261.548828	-446.579956
-13842.578032	17566.770500	1260.440430	-350.184235
-13842.578032	17566.770500	1259.333008	-66.986755
-13842.578032	17566.770500	1258.224609	-195.439194
-13842.578032	17566.770500	1257.115234	-210.708298
-13842.578032	17566.770500	1256.006836	-90.789452
-13842.578032	17566.770500	1254.897461	-279.309998
-13842.578032	17566.770500	1253.788086	-297.882263
-13842.578032	17566.770500	1252.678711	-110.745438
-13842.578032	17566.770500	1251.569336	-248.029221
-13842.578032	17566.770500	1250.458984	-197.280945
-13842.578032	17566.770500	1249.349609	-215.781479
-13842.578032	17566.770500	1248.239258	-206.745728
-13842.578032	17566.770500	1247.127930	-177.192047
-13842.578032	17566.770500	1246.017578	-191.315506
-13842.578032	17566.770500	1244.906250	-140.461731
-13842.578032	17566.770500	1243.794922	-112.436691
-13842.578032	17566.770500	1242.683594	-158.469757
-13842.578032	17566.770500	1241.571289	-2.619804
-13842.578032	17566.770500	1240.459961	3.072184
-13842.578032	17566.770500	1239.347656	190.331070
-13842.578032	17566.770500	1238.234375	65.118965
-13842.578032	17566.770500	1237.122070	167.330338
-13842.578032	17566.770500	1236.008789	299.996796
-13842.578032	17566.770500	1234.896484	213.311569
-13842.578032	17566.770500	1233.782227	295.265961
-13842.578032	17566.770500	1232.668945	449.384583
-13842.578032	17566.770500	1231.555664	303.678925
-13842.578032	17566.770500	1230.441406	363.230865
-13842.578032	17566.770500	1229.327148	399.665863
-13842.578032	17566.770500	1228.211914	500.778717
-13842.578032	17566.770500	1227.097656	541.983154
-13842.578032	17566.770500	1225.982422	787.492676
-13842.578032	17566.770500	1224.867188	793.493286
-13842.578032	17566.770500	1223.751953	831.923523
-13842.578032	17566.770500	1222.635742	788.134827
-13842.578032	17566.770500	1221.520508	601.605469
-13842.578032	17566.770500	1220.404297	813.232544
-13842.578032	17566.770500	1219.287109	893.005432
-13842.578032	17566.770500	1218.170898	687.497925
-13842.578032	17566.770500	1217.053711	475.447174
-13842.578032	17566.770500	1215.936523	650.453064
-13842.578032	17566.770500	1214.819336	530.057678
-13842.578032	17566.770500	1213.702148	621.127502
-13842.578032	17566.770500	1212.583984	400.801086
-13842.578032	17566.770500	1211.465820	753.455750
-13842.578032	17566.770500	1210.347656	661.737183
-13842.578032	17566.770500	1209.229492	553.281250
-13842.578032	17566.770500	1208.110352	402.363281
-13842.578032	17566.770500	1206.992188	389.441925
-13842.578032	17566.770500	1205.873047	354.099854
-13842.578032	17566.770500	1204.752930	401.613617
-13842.578032	17566.770500	1203.633789	295.853973
-13842.578032	17566.770500	1202.513672	11.675097
-13842.578032	17566.770500	1201.393555	275.878174
-13842.578032	17566.770500	1200.273438	127.876488
-13842.578032	17566.770500	1199.152344	386.669922
-13842.578032	17566.770500	1198.032227	178.746490
-13842.578032	17566.770500	1196.911133	228.270889
-13842.578032	17566.770500	1195.790039	237.774826
-13842.578032	17566.770500	1194.667969	300.414398
-13842.578032	17566.770500	1193.545898	420.783875
-13842.578032	17566.770500	1192.424805	293.112274
-13842.578032	17566.770500	1191.301758	449.588257
-13842.578032	17566.770500	1190.179688	542.324341
-13842.578032	17566.770500	1189.056641	524.879639
-13842.578032	17566.770500	1187.933594	608.740967
-13842.578032	17566.770500	1186.810547	796.268982
-13842.578032	17566.770500	1185.687500	1190.933472
-13842.578032	17566.770500	1184.563477	960.433655
-13842.578032	17566.770500	1183.440430	1372.786987
-13842.578032	17566.770500	1182.316406	1465.031128
-13842.578032	17566.770500	1181.191406	1457.075195
-13842.578032	17566.770500	1180.067383	1652.593384
-13842.578032	17566.770500	1178.942383	1693.386597
-13842.578032	17566.770500	1177.817383	1738.108032
-13842.578032	17566.770500	1176.692383	1678.182617
-13842.578032	17566.770500	1175.566406	1515.989014
-13842.578032	17566.770500	1174.440430	1283.721313
-13842.578032	17566.770500	1173.314453	1747.335938
-13842.578032	17566.770500	1172.188477	1563.251953
-13842.578032	17566.770500	1171.062500	1306.820313
-13842.578032	17566.770500	1169.935547	1318.562012
-13842.578032	17566.770500	1168.808594	1048.313965
-13842.578032	17566.770500	1167.681641	996.954346
-13842.578032	17566.770500	1166.553711	1103.935791
-13842.578032	17566.770500	1165.426758	711.081482
-13842.578032	17566.770500	1164.298828	970.562866
-13842.578032	17566.770500	1163.170898	780.053040
-13842.578032	17566.770500	1162.041992	771.213318
-13842.578032	17566.770500	1160.914063	820.502075
-13842.578032	17566.770500	1159.785156	865.654968
-13842.578032	17566.770500	1158.656250	1076.581421
-13842.578032	17566.770500	1157.526367	782.575623
-13842.578032	17566.770500	1156.397461	599.193787
-13842.578032	17566.770500	1155.267578	713.487732
-13842.578032	17566.770500	1154.137695	809.669861
-13842.578032	17566.770500	1153.006836	577.557617
-13842.578032	17566.770500	1151.876953	541.662537
-13842.578032	17566.770500	1150.746094	616.700317
-13842.578032	17566.770500	1149.615234	667.537781
-13842.578032	17566.770500	1148.484375	515.854004
-13842.578032	17566.770500	1147.352539	291.839325
-13842.578032	17566.770500	1146.220703	363.720123
-13842.578032	17566.770500	1145.088867	132.669632
-13842.578032	17566.770500	1143.957031	433.859100
-13842.578032	17566.770500	1142.825195	81.032150
-13842.578032	17566.770500	1141.692383	-21.062454
-13842.578032	17566.770500	1140.559570	129.848724
-13842.578032	17566.770500	1139.426758	87.770981
-13842.578032	17566.770500	1138.292969	100.027229
-13842.578032	17566.770500	1137.159180	180.017990
-13842.578032	17566.770500	1136.025391	125.953667
-13842.578032	17566.770500	1134.891602	-246.750259
-13842.578032	17566.770500	1133.757813	71.493561
-13842.578032	17566.770500	1132.623047	-73.669861
-13842.578032	17566.770500	1131.488281	199.556717
-13842.578032	17566.770500	1130.353516	-1.108479
-13842.578032	17566.770500	1129.217773	-105.569382
-13842.578032	17566.770500	1128.083008	103.999901
-13842.578032	17566.770500	1126.947266	68.797783
-13842.578032	17566.770500	1125.811523	98.582710
-13842.578032	17566.770500	1124.674805	-326.951782
-13842.578032	17566.770500	1123.539063	-68.737183
-13842.578032	17566.770500	1122.402344	-425.714142
-13842.578032	17566.770500	1121.265625	-248.987228
-13842.578032	17566.770500	1120.127930	-9.310375
-13842.578032	17566.770500	1118.990234	-223.877930
-13842.578032	17566.770500	1117.853516	-389.520782
-13842.578032	17566.770500	1116.714844	-31.749949
-13842.578032	17566.770500	1115.577148	230.138092
-13842.578032	17566.770500	1114.439453	-214.173080
-13842.578032	17566.770500	1113.300781	-87.851700
-13842.578032	17566.770500	1112.162109	10.230487
-13842.578032	17566.770500	1111.022461	-151.192474
-13842.578032	17566.770500	1109.883789	40.771423
-13842.578032	17566.770500	1108.744141	-194.485535
-13842.578032	17566.770500	1107.604492	113.731522
-13842.578032	17566.770500	1106.463867	15.443573
-13842.578032	17566.770500	1105.324219	-286.935455
-13842.578032	17566.770500	1104.183594	40.293003
-13842.578032	17566.770500	1103.042969	120.357231
-13842.578032	17566.770500	1101.902344	37.825256
-13842.578032	17566.770500	1100.760742	196.702209
-13842.578032	17566.770500	1099.619141	107.628685
-13842.578032	17566.770500	1098.477539	113.682510
-13842.578032	17566.770500	1097.335938	110.793053
-13842.578032	17566.770500	1096.193359	144.623459
-13842.578032	17566.770500	1095.051758	223.360168
-13842.578032	17566.770500	1093.909180	103.622696
-13842.578032	17566.770500	1092.765625	101.504341
-13842.578032	17566.770500	1091.623047	501.717316
-13842.578032	17566.770500	1090.479492	491.320221
-13842.578032	17566.770500	1089.335938	386.387848
-13842.578032	17566.770500	1088.192383	230.929718
-13842.578032	17566.770500	1087.047852	464.833160
-13842.578032	17566.770500	1085.903320	228.089157
-13842.578032	17566.770500	1084.758789	406.472870
-13842.578032	17566.770500	1083.614258	-74.056915
-13842.578032	17566.770500	1082.469727	157.728073
-13842.578032	17566.770500	1081.324219	161.453217
-13842.578032	17566.770500	1080.178711	95.728973
-13842.578032	17566.770500	1079.033203	379.992645
-13842.578032	17566.770500	1077.886719	326.424133
-13842.578032	17566.770500	1076.740234	615.554016
-13842.578032	17566.770500	1075.593750	443.983612
-13842.578032	17566.770500	1074.447266	446.871063
-13842.578032	17566.770500	1073.300781	520.620483
-13842.578032	17566.770500	1072.153320	419.016968
-13842.578032	17566.770500	1071.005859	370.081665
-13842.578032	17566.770500	1069.858398	222.857376
-13842.578032	17566.770500	1068.709961	578.800964
-13842.578032	17566.770500	1067.561523	475.199402
-13842.578032	17566.770500	1066.413086	523.296692
-13842.578032	17566.770500	1065.264648	562.600525
-13842.578032	17566.770500	1064.116211	399.681152
-13842.578032	17566.770500	1062.966797	566.211975
-13842.578032	17566.770500	1061.817383	355.999695
-13842.578032	17566.770500	1060.667969	216.669342
-13842.578032	17566.770500	1059.517578	303.663635
-13842.578032	17566.770500	1058.368164	523.075317
-13842.578032	17566.770500	1057.217773	620.053650
-13842.578032	17566.770500	1056.067383	708.083435
-13842.578032	17566.770500	1054.916016	800.011475
-13842.578032	17566.770500	1053.764648	454.121735
-13842.578032	17566.770500	1052.613281	252.992233
-13842.578032	17566.770500	1051.461914	437.691315
-13842.578032	17566.770500	1050.310547	968.385010
-13842.578032	17566.770500	1049.158203	770.849548
-13842.578032	17566.770500	1048.005859	550.136719
-13842.578032	17566.770500	1046.853516	623.637146
-13842.578032	17566.770500	1045.700195	803.587891
-13842.578032	17566.770500	1044.547852	735.411255
-13842.578032	17566.770500	1043.394531	561.391968
-13842.578032	17566.770500	1042.240234	533.715271
-13842.578032	17566.770500	1041.086914	540.932922
-13842.578032	17566.770500	1039.932617	745.133911
-13842.578032	17566.770500	1038.778320	554.487610
-13842.578032	17566.770500	1037.624023	445.087830
-13842.578032	17566.770500	1036.469727	709.022583
-13842.578032	17566.770500	1035.314453	329.665161
-13842.578032	17566.770500	1034.159180	908.538757
-13842.578032	17566.770500	1033.003906	574.299744
-13842.578032	17566.770500	1031.847656	691.377869
-13842.578032	17566.770500	1030.692383	641.847534
-13842.578032	17566.770500	1029.536133	642.435181
-13842.578032	17566.770500	1028.378906	680.525513
-13842.578032	17566.770500	1027.222656	600.404297
-13842.578032	17566.770500	1026.065430	324.688232
-13842.578032	17566.770500	1024.908203	185.803513
-13842.578032	17566.770500	1023.750977	441.355743
-13842.578032	17566.770500	1022.593750	400.407593
-13842.578032	17566.770500	1021.435547	364.312134
-13842.578032	17566.770500	1020.277344	449.335602
-13842.578032	17566.770500	1019.119141	414.739899
-13842.578032	17566.770500	1017.959961	129.114258
-13842.578032	17566.770500	1016.800781	-150.854919
-13842.578032	17566.770500	1015.641602	5.691903
-13842.578032	17566.770500	1014.482422	308.340881
-13842.578032	17566.770500	1013.323242	211.783569
-13842.578032	17566.770500	1012.163086	292.980072
-13842.578032	17566.770500	1011.002930	262.468658
-13842.578032	17566.770500	1009.842773	199.849152
-13842.578032	17566.770500	1008.681641	293.733795
-13842.578032	17566.770500	1007.520508	-126.264740
-13842.578032	17566.770500	1006.359375	250.291275
-13842.578032	17566.770500	1005.198242	339.642334
-13842.578032	17566.770500	1004.037109	407.665588
-13842.578032	17566.770500	1002.875000	123.516037
-13842.578032	17566.770500	1001.712891	336.000000
-13842.578032	17566.770500	1000.550781	435.397064
-13842.578032	17566.770500	999.387695	47.881512
-13842.578032	17566.770500	998.224609	378.806793
-13842.578032	17566.770500	997.061523	375.323578
-13842.578032	17566.770500	995.898438	572.465332
-13842.578032	17566.770500	994.734375	110.767471
-13842.578032	17566.770500	993.571289	182.048584
-13842.578032	17566.770500	992.407227	216.744461
-13842.578032	17566.770500	991.242188	212.122833
-13842.578032	17566.770500	990.078125	391.891235
-13842.578032	17566.770500	988.913086	133.506638
-13842.578032	17566.770500	987.748047	132.518356
-13842.578032	17566.770500	986.583008	341.051666
-13842.578032	17566.770500	985.416992	162.795914
-13842.578032	17566.770500	984.250977	308.433380
-13842.578032	17566.770500	983.084961	163.640137
-13842.578032	17566.770500	981.918945	181.146988
-13842.578032	17566.770500	980.751953	-244.210419
-13842.578032	17566.770500	979.584961	329.367584
-13842.578032	17566.770500	978.417969	-43.304241
-13842.578032	17566.770500	977.250977	-50.883743
-13842.578032	17566.770500	976.083008	-146.129227
-13842.578032	17566.770500	974.915039	204.577545
-13842.578032	17566.770500	973.747070	223.774048
-13842.578032	17566.770500	972.579102	262.228210
-13842.578032	17566.770500	971.410156	215.554550
-13842.578032	17566.770500	970.242188	435.855072
-13842.578032	17566.770500	969.072266	-55.130959
-13842.578032	17566.770500	967.903320	66.674316
-13842.578032	17566.770500	966.733398	-142.516235
-13842.578032	17566.770500	965.563477	56.023510
-13842.578032	17566.770500	964.393555	373.133728
-13842.578032	17566.770500	963.223633	133.943741
-13842.578032	17566.770500	962.052734	58.419250
-13842.578032	17566.770500	960.881836	167.061966
-13842.578032	17566.770500	959.710938	3.780469
-13842.578032	17566.770500	958.540039	-73.504951
-13842.578032	17566.770500	957.368164	-316.742798
-13842.578032	17566.770500	956.196289	23.145027
-13842.578032	17566.770500	955.024414	236.481140
-13842.578032	17566.770500	953.851563	19.213388
-13842.578032	17566.770500	952.679688	-33.259842
-13842.578032	17566.770500	951.506836	434.196960
-13842.578032	17566.770500	950.333984	-245.509796
-13842.578032	17566.770500	949.160156	-301.039825
-13842.578032	17566.770500	947.986328	-71.638969
-13842.578032	17566.770500	946.812500	-107.658386
-13842.578032	17566.770500	945.638672	129.562469
-13842.578032	17566.770500	944.464844	-62.575638
-13842.578032	17566.770500	943.290039	-249.349838
-13842.578032	17566.770500	942.115234	-1.529163
-13842.578032	17566.770500	940.940430	190.009827
-13842.578032	17566.770500	939.764648	33.718361
-13842.578032	17566.770500	938.588867	-87.111900
-13842.578032	17566.770500	937.413086	-184.703232
-13842.578032	17566.770500	936.237305	57.726036
-13842.578032	17566.770500	935.060547	-288.501953
-13842.578032	17566.770500	933.883789	-195.859039
-13842.578032	17566.770500	932.707031	-33.178829
-13842.578032	17566.770500	931.530273	-20.650366
-13842.578032	17566.770500	930.352539	214.747574
-13842.578032	17566.770500	929.175781	170.807648
-13842.578032	17566.770500	927.998047	-248.256226
-13842.578032	17566.770500	926.819336	139.380417
-13842.578032	17566.770500	925.641602	95.451904
-13842.578032	17566.770500	924.462891	-30.525377
-13842.578032	17566.770500	923.284180	-341.710419
-13842.578032	17566.770500	922.104492	-191.131104
-13842.578032	17566.770500	920.924805	-94.547920
-13842.578032	17566.770500	919.746094	-83.938004
-13842.578032	17566.770500	919.551758	-228.213821
-13842.578032	17566.770500	918.386719	53.144356
-13842.578032	17566.770500	917.220703	-311.912292
-13842.578032	17566.770500	916.054688	76.965233
-13842.578032	17566.770500	914.887695	-145.243347
-13842.578032	17566.770500	913.721680	-152.119415
-13842.578032	17566.770500	912.554688	-128.606339
-13842.578032	17566.770500	911.387695	-60.696751
-13842.578032	17566.770500	910.220703	-210.355133
-13842.578032	17566.770500	909.052734	-189.289490
-13842.578032	17566.770500	907.885742	37.442596
-13842.578032	17566.770500	906.717773	-151.981506
-13842.578032	17566.770500	905.548828	-98.331055
-13842.578032	17566.770500	904.380859	-196.608795
-13842.578032	17566.770500	903.211914	-28.588717
-13842.578032	17566.770500	902.042969	223.400864
-13842.578032	17566.770500	900.874023	108.672775
-13842.578032	17566.770500	899.704102	-132.094513
-13842.578032	17566.770500	898.535156	-370.473724
-13842.578032	17566.770500	897.365234	-240.094696
-13842.578032	17566.770500	896.194336	-116.795029
-13842.578032	17566.770500	895.024414	-77.557449
-13842.578032	17566.770500	893.853516	-168.957260
-13842.578032	17566.770500	892.682617	-246.363571
-13842.578032	17566.770500	891.511719	72.513000
-13842.578032	17566.770500	890.340820	-18.962002
-13842.578032	17566.770500	889.168945	127.248962
-13842.578032	17566.770500	887.997070	-80.742653
-13842.578032	17566.770500	886.825195	-51.102558
-13842.578032	17566.770500	885.653320	171.775009
-13842.578032	17566.770500	884.480469	91.866928
-13842.578032	17566.770500	883.307617	-36.922283
-13842.578032	17566.770500	882.134766	-35.363827
-13842.578032	17566.770500	880.961914	61.562119
-13842.578032	17566.770500	879.788086	-225.419662
-13842.578032	17566.770500	878.614258	-296.010010
-13842.578032	17566.770500	877.440430	205.443680
-13842.578032	17566.770500	876.266602	-346.523163
-13842.578032	17566.770500	875.091797	159.331696
-13842.578032	17566.770500	873.916992	144.383682
-13842.578032	17566.770500	872.742188	-44.849361
-13842.578032	17566.770500	871.567383	239.857407
-13842.578032	17566.770500	870.391602	13.470727
-13842.578032	17566.770500	869.215820	121.524300
-13842.578032	17566.770500	868.040039	120.391411
-13842.578032	17566.770500	866.864258	-252.148407
-13842.578032	17566.770500	865.687500	53.068718
-13842.578032	17566.770500	864.510742	-182.462494
-13842.578032	17566.770500	863.333984	273.336334
-13842.578032	17566.770500	862.157227	19.248569
-13842.578032	17566.770500	860.979492	-225.483871
-13842.578032	17566.770500	859.802734	-120.092216
-13842.578032	17566.770500	858.625000	-91.251144
-13842.578032	17566.770500	857.446289	-178.306244
-13842.578032	17566.770500	856.268555	14.976258
-13842.578032	17566.770500	855.089844	175.732056
-13842.578032	17566.770500	853.911133	104.807617
-13842.578032	17566.770500	852.731445	31.577436
-13842.578032	17566.770500	851.552734	46.310589
-13842.578032	17566.770500	850.373047	248.488281
-13842.578032	17566.770500	849.193359	31.730492
-13842.578032	17566.770500	848.013672	-80.859123
-13842.578032	17566.770500	846.833008	88.769585
-13842.578032	17566.770500	845.652344	-16.890324
-13842.578032	17566.770500	844.471680	34.688633
-13842.578032	17566.770500	843.291016	-128.759033
-13842.578032	17566.770500	842.110352	-65.672676
-13842.578032	17566.770500	840.928711	-32.670246
-13842.578032	17566.770500	839.747070	-64.389450
-13842.578032	17566.770500	838.564453	206.455978
-13842.578032	17566.770500	837.382813	306.274261
-13842.578032	17566.770500	836.200195	87.428795
-13842.578032	17566.770500	835.017578	25.610088
-13842.578032	17566.770500	833.834961	72.259628
-13842.578032	17566.770500	832.651367	-277.986847
-13842.578032	17566.770500	831.467773	-49.097015
-13842.578032	17566.770500	830.284180	-281.598145
-13842.578032	17566.770500	829.100586	-255.769470
-13842.578032	17566.770500	827.916992	92.783577
-13842.578032	17566.770500	826.732422	56.249352
-13842.578032	17566.770500	825.547852	100.363380
-13842.578032	17566.770500	824.363281	165.170624
-13842.578032	17566.770500	823.177734	59.472626
-13842.578032	17566.770500	821.992188	11.370193
-13842.578032	17566.770500	820.806641	76.087952
-13842.578032	17566.770500	819.621094	60.182560
-13842.578032	17566.770500	818.434570	46.566776
-13842.578032	17566.770500	817.249023	210.114273
-13842.578032	17566.770500	816.062500	76.791191
-13842.578032	17566.770500	814.875000	-137.002182
-13842.578032	17566.770500	813.688477	1.117732
-13842.578032	17566.770500	812.500977	-125.248352
-13842.578032	17566.770500	811.313477	125.408730
-13842.578032	17566.770500	810.125977	224.253006
-13842.578032	17566.770500	808.937500	-51.508068
-13842.578032	17566.770500	807.749023	272.427673
-13842.578032	17566.770500	806.560547	274.642242
-13842.578032	17566.770500	805.372070	3.559368
-13842.578032	17566.770500	804.182617	-99.826462
-13842.578032	17566.770500	802.994141	60.774883
-13842.578032	17566.770500	801.803711	223.592972
-13842.578032	17566.770500	800.614258	49.019165
-13842.578032	17566.770500	799.424805	87.838921
-13842.578032	17566.770500	798.234375	307.812195
-13842.578032	17566.770500	797.043945	-272.614197
-13842.578032	17566.770500	795.852539	112.364616
-13842.578032	17566.770500	794.662109	164.794861
-13842.578032	17566.770500	793.470703	201.139786
-13842.578032	17566.770500	792.279297	164.127533
-13842.578032	17566.770500	791.087891	-63.023251
-13842.578032	17566.770500	789.895508	101.527260
-13842.578032	17566.770500	788.703125	483.509247
-13842.578032	17566.770500	787.510742	-215.229813
-13842.578032	17566.770500	786.318359	276.468170
-13842.578032	17566.770500	785.125000	-19.242645
-13842.578032	17566.770500	783.931641	446.996918
-13842.578032	17566.770500	782.738281	110.145622
-13842.578032	17566.770500	781.544922	173.615463
-13842.578032	17566.770500	780.350586	360.503876
-13842.578032	17566.770500	779.156250	485.564545
-13842.578032	17566.770500	777.961914	443.705536
-13842.578032	17566.770500	776.767578	24.811432
-13842.578032	17566.770500	775.572266	72.112350
-13842.578032	17566.770500	774.376953	-6.258985
-13842.578032	17566.770500	773.181641	-185.105499
-13842.578032	17566.770500	771.986328	-3.175461
-13842.578032	17566.770500	770.790039	-47.324768
-13842.578032	17566.770500	769.593750	202.911407
-13842.578032	17566.770500	768.397461	49.157833
-13842.578032	17566.770500	767.201172	93.902588
-13842.578032	17566.770500	766.003906	-189.823639
-13842.578032	17566.770500	764.806641	342.871796
-13842.578032	17566.770500	763.609375	159.461288
-13842.578032	17566.770500	762.412109	-115.074875
-13842.578032	17566.770500	761.213867	-68.208107
-13842.578032	17566.770500	760.015625	-240.114029
-13842.578032	17566.770500	758.817383	-77.132729
-13842.578032	17566.770500	757.618164	-244.470047
-13842.578032	17566.770500	756.419922	168.841583
-13842.578032	17566.770500	755.220703	-340.011688
-13842.578032	17566.770500	754.021484	84.468513
-13842.578032	17566.770500	752.821289	137.835922
-13842.578032	17566.770500	751.621094	136.544037
-13842.578032	17566.770500	750.420898	-121.805885
-13842.578032	17566.770500	749.220703	138.410919
-13842.578032	17566.770500	748.020508	-13.040192
-13842.578032	17566.770500	746.819336	78.767456
-13842.578032	17566.770500	745.618164	-47.673481
-13842.578032	17566.770500	744.416992	155.371094
-13842.578032	17566.770500	743.214844	324.224243
-13842.578032	17566.770500	742.012695	-111.179871
-13842.578032	17566.770500	740.810547	370.951416
-13842.578032	17566.770500	739.608398	24.188160
-13842.578032	17566.770500	738.406250	276.764435
-13842.578032	17566.770500	737.203125	-151.600327
-13842.578032	17566.770500	736.000000	57.729301
-13842.578032	17566.770500	734.795898	124.029305
-13842.578032	17566.770500	733.592773	242.420670
-13842.578032	17566.770500	732.388672	-38.343201
-13842.578032	17566.770500	731.184570	107.164253
-13842.578032	17566.770500	729.979492	544.955200
-13842.578032	17566.770500	728.775391	128.223221
-13842.578032	17566.770500	727.570313	-159.229813
-13842.578032	17566.770500	726.365234	-256.336517
-13842.578032	17566.770500	725.160156	65.508278
-13842.578032	17566.770500	723.954102	163.035339
-13842.578032	17566.770500	722.748047	305.751587
-13842.578032	17566.770500	721.541992	-56.323784
-13842.578032	17566.770500	720.334961	2.580958
-13842.578032	17566.770500	719.128906	38.792664
-13842.578032	17566.770500	717.921875	29.714315
-13842.578032	17566.770500	716.714844	133.663528
-13842.578032	17566.770500	715.506836	-13.422125
-13842.578032	17566.770500	714.298828	-4.523797
-13842.578032	17566.770500	713.090820	225.793793
-13842.578032	17566.770500	711.882813	-257.998901
-13842.578032	17566.770500	710.674805	-258.222473
-13842.578032	17566.770500	709.465820	93.833908
-13842.578032	17566.770500	708.256836	-39.769676
-13842.578032	17566.770500	707.047852	61.419640
-13842.578032	17566.770500	705.837891	316.003204
-13842.578032	17566.770500	704.627930	250.002167
-13842.578032	17566.770500	703.417969	48.619385
-13842.578032	17566.770500	702.208008	23.212032
-13842.578032	17566.770500	700.998047	13.555274
-13842.578032	17566.770500	699.787109	-187.788757
-13842.578032	17566.770500	698.576172	88.796959
-13842.578032	17566.770500	697.364258	94.774872
-13842.578032	17566.770500	696.153320	75.912735
-13842.578032	17566.770500	694.941406	129.104401
-13842.578032	17566.770500	693.729492	155.199463
-13842.578032	17566.770500	692.516602	273.560669
-13842.578032	17566.770500	691.304688	-67.452148
-13842.578032	17566.770500	690.091797	210.622955
-13842.578032	17566.770500	688.878906	83.459976
-13842.578032	17566.770500	687.665039	-45.945690
-13842.578032	17566.770500	686.451172	137.328094
-13842.578032	17566.770500	685.237305	129.312408
-13842.578032	17566.770500	684.023438	-51.885498
-13842.578032	17566.770500	682.809570	-37.476715
-13842.578032	17566.770500	681.594727	-256.868378
-13842.578032	17566.770500	680.379883	85.555275
-13842.578032	17566.770500	679.165039	171.669067
-13842.578032	17566.770500	677.949219	167.854858
-13842.578032	17566.770500	676.733398	38.232414
-13842.578032	17566.770500	675.517578	-41.991348
-13842.578032	17566.770500	674.301758	21.429550
-13842.578032	17566.770500	673.084961	8.470566
-13842.578032	17566.770500	671.869141	-65.118378
-13842.578032	17566.770500	670.651367	197.774719
-13842.578032	17566.770500	669.434570	399.943939
-13842.578032	17566.770500	668.216797	292.533478
-13842.578032	17566.770500	667.000000	220.985016
-13842.578032	17566.770500	665.781250	290.628845
-13842.578032	17566.770500	664.563477	234.695129
-13842.578032	17566.770500	663.344727	306.442993
-13842.578032	17566.770500	662.125977	613.309204
-13842.578032	17566.770500	660.907227	398.182434
-13842.578032	17566.770500	659.688477	295.047028
-13842.578032	17566.770500	658.468750	339.651459
-13842.578032	17566.770500	657.249023	393.137817
-13842.578032	17566.770500	656.029297	292.152588
-13842.578032	17566.770500	654.808594	256.035950
-13842.578032	17566.770500	653.587891	45.420361
-13842.578032	17566.770500	652.367188	-48.873833
-13842.578032	17566.770500	651.146484	-127.532120
-13842.578032	17566.770500	649.924805	187.203537
-13842.578032	17566.770500	648.704102	77.137527
-13842.578032	17566.770500	647.482422	212.842499
-13842.578032	17566.770500	646.259766	80.378944
-13842.578032	17566.770500	645.037109	177.957794
-13842.578032	17566.770500	643.815430	137.001083
-13842.578032	17566.770500	642.591797	258.979492
-13842.578032	17566.770500	641.369141	347.373779
-13842.578032	17566.770500	640.145508	326.338165
-13842.578032	17566.770500	638.921875	120.083801
-13842.578032	17566.770500	637.698242	107.923378
-13842.578032	17566.770500	636.474609	131.398071
-13842.578032	17566.770500	635.250000	449.121033
-13842.578032	17566.770500	634.025391	637.368103
-13842.578032	17566.770500	632.800781	315.121857
-13842.578032	17566.770500	631.575195	356.155579
-13842.578032	17566.770500	630.349609	145.391678
-13842.578032	17566.770500	629.124023	306.613586
-13842.578032	17566.770500	627.898438	331.886047
-13842.578032	17566.770500	626.671875	323.704803
-13842.578032	17566.770500	625.445313	110.699516
-13842.578032	17566.770500	624.218750	-209.082642
-13842.578032	17566.770500	622.992188	-393.059357
-13842.578032	17566.770500	621.764648	172.620483
-13842.578032	17566.770500	620.537109	124.203949
-13842.578032	17566.770500	619.309570	198.050720
-13842.578032	17566.770500	618.081055	211.796997
-13842.578032	17566.770500	616.852539	12.127486
-13842.578032	17566.770500	615.624023	-163.062943
-13842.578032	17566.770500	614.395508	-164.941879
-13842.578032	17566.770500	613.166992	-140.214066
-13842.578032	17566.770500	611.937500	8.813182
-13842.578032	17566.770500	610.708008	-141.991577
-13842.578032	17566.770500	609.477539	-279.459167
-13842.578032	17566.770500	608.248047	-8.579164
-13842.578032	17566.770500	607.017578	-166.076096
-13842.578032	17566.770500	605.787109	-443.339050
-13842.578032	17566.770500	604.555664	-341.282959
-13842.578032	17566.770500	603.325195	-137.316971
-13842.578032	17566.770500	602.093750	-82.009636
-13842.578032	17566.770500	600.861328	-104.344978
-13842.578032	17566.770500	599.629883	6.242622
-13842.578032	17566.770500	598.397461	-262.100677
-13842.578032	17566.770500	597.165039	-107.310570
-13842.578032	17566.770500	595.932617	-220.583847
-13842.578032	17566.770500	594.699219	-163.368805
-13842.578032	17566.770500	593.465820	-418.331512
-13842.578032	17566.770500	592.232422	-297.000763
-13842.578032	17566.770500	590.999023	-124.870232
-13842.578032	17566.770500	589.764648	-45.763306
-13842.578032	17566.770500	588.530273	207.993942
-13842.578032	17566.770500	587.295898	368.734039
-13842.578032	17566.770500	586.061523	-151.538605
-13842.578032	17566.770500	584.826172	239.002884
-13842.578032	17566.770500	583.590820	125.505219
-13842.578032	17566.770500	582.355469	-213.329910
-13842.578032	17566.770500	581.119141	-116.914009
-13842.578032	17566.770500	579.882813	122.972015
-13842.578032	17566.770500	578.646484	-125.227989
-13842.578032	17566.770500	577.410156	-68.732262
-13842.578032	17566.770500	576.172852	-138.089127
-13842.578032	17566.770500	574.935547	-59.616520
-13842.578032	17566.770500	573.698242	73.939964
-13842.578032	17566.770500	572.460938	-147.688736
-13842.578032	17566.770500	571.222656	-14.234615
-13842.578032	17566.770500	569.984375	46.377033
-13842.578032	17566.770500	568.746094	3.338085
-13842.578032	17566.770500	567.506836	-15.474190
-13842.578032	17566.770500	566.267578	18.567719
-13842.578032	17566.770500	565.028320	-218.373642
-13842.578032	17566.770500	563.789063	99.729523
-13842.578032	17566.770500	562.548828	65.381294
-13842.578032	17566.770500	561.309570	-208.927231
-13842.578032	17566.770500	560.068359	130.889511
-13842.578032	17566.770500	558.828125	-211.583328
-13842.578032	17566.770500	557.586914	24.636467
-13842.578032	17566.770500	556.345703	-247.341095
-13842.578032	17566.770500	555.104492	-132.210999
-13842.578032	17566.770500	553.863281	152.126709
-13842.578032	17566.770500	552.621094	-64.835899
-13842.578032	17566.770500	551.378906	28.124491
-13842.578032	17566.770500	550.136719	-21.790697
-13842.578032	17566.770500	548.893555	180.898788
-13842.578032	17566.770500	547.650391	-3.044683
-13842.578032	17566.770500	546.407227	69.957184
-13842.578032	17566.770500	545.164063	265.836212
-13842.578032	17566.770500	543.919922	-5.874813
-13842.578032	17566.770500	542.675781	-62.456516
-13842.578032	17566.770500	541.431641	-29.094374
-13842.578032	17566.770500	540.186523	164.341934
-13842.578032	17566.770500	538.941406	52.862736
-13842.578032	17566.770500	537.696289	224.223862
-13842.578032	17566.770500	536.451172	156.567841
-13842.578032	17566.770500	535.205078	73.573601
-13842.578032	17566.770500	533.959961	32.220818
-13842.578032	17566.770500	532.712891	34.667446
-13842.578032	17566.770500	531.466797	-256.379639
-13842.578032	17566.770500	530.219727	-102.843971
-13842.578032	17566.770500	528.972656	304.536530
-13842.578032	17566.770500	527.725586	-60.875195
-13842.578032	17566.770500	526.478516	287.186066
-13842.578032	17566.770500	525.230469	236.908463
-13842.578032	17566.770500	523.982422	177.874313
-13842.578032	17566.770500	522.734375	-10.180648
-13842.578032	17566.770500	521.485352	-40.775494
-13842.578032	17566.770500	520.236328	44.462955
-13842.578032	17566.770500	518.987305	107.780029
-13842.578032	17566.770500	517.737305	68.347809
-13842.578032	17566.770500	516.488281	240.786392
-13842.578032	17566.770500	515.238281	286.450348
-13842.578032	17566.770500	513.988281	238.167694
-13842.578032	17566.770500	512.737305	395.073029
-13842.578032	17566.770500	511.486328	687.189575
-13842.578032	17566.770500	510.235352	341.978973
-13842.578032	17566.770500	508.984375	71.051231
-13842.578032	17566.770500	507.732422	-149.637283
-13842.578032	17566.770500	506.480469	155.264587
-13842.578032	17566.770500	505.228516	191.829468
-13842.578032	17566.770500	503.976563	500.795898
-13842.578032	17566.770500	502.723633	436.926392
-13842.578032	17566.770500	501.470703	562.591431
-13842.578032	17566.770500	500.217773	540.023315
-13842.578032	17566.770500	498.963867	1009.601440
-13842.578032	17566.770500	497.709961	1078.283936
-13842.578032	17566.770500	496.456055	1029.326172
-13842.578032	17566.770500	495.202148	1117.442627
-13842.578032	17566.770500	493.947266	1235.920166
-13842.578032	17566.770500	492.692383	1119.323975
-13842.578032	17566.770500	491.437500	1141.913086
-13842.578032	17566.770500	490.181641	1090.481567
-13842.578032	17566.770500	488.926758	1089.002441
-13842.578032	17566.770500	487.670898	1104.832397
-13842.578032	17566.770500	486.414063	1035.817505
-13842.578032	17566.770500	485.158203	1390.424927
-13842.578032	17566.770500	483.901367	1453.707520
-13842.578032	17566.770500	482.644531	1167.218262
-13842.578032	17566.770500	481.386719	1215.132813
-13842.578032	17566.770500	480.128906	1469.151978
-13842.578032	17566.770500	478.871094	1204.240601
-13842.578032	17566.770500	477.613281	1488.315918
-13842.578032	17566.770500	476.355469	1401.182129
-13842.578032	17566.770500	475.096680	1407.230225
-13842.578032	17566.770500	473.837891	1458.686279
-13842.578032	17566.770500	472.578125	1278.013062
-13842.578032	17566.770500	471.319336	1285.859253
-13842.578032	17566.770500	470.059570	1211.209839
-13842.578032	17566.770500	468.799805	1149.446655
-13842.578032	17566.770500	467.539063	1187.197266
-13842.578032	17566.770500	466.278320	1302.735962
-13842.578032	17566.770500	465.017578	1223.189331
-13842.578032	17566.770500	463.756836	1379.462891
-13842.578032	17566.770500	462.495117	1442.423096
-13842.578032	17566.770500	461.233398	1217.384888
-13842.578032	17566.770500	459.971680	1610.964111
-13842.578032	17566.770500	458.709961	1344.497070
-13842.578032	17566.770500	457.447266	1287.684692
-13842.578032	17566.770500	456.184570	1436.063965
-13842.578032	17566.770500	454.921875	1363.683472
-13842.578032	17566.770500	453.658203	1693.043457
-13842.578032	17566.770500	452.394531	1836.212158
-13842.578032	17566.770500	451.130859	1309.446167
-13842.578032	17566.770500	449.867188	1387.333740
-13842.578032	17566.770500	448.602539	1331.043457
-13842.578032	17566.770500	447.337891	1436.398804
-13842.578032	17566.770500	446.073242	1532.782227
-13842.578032	17566.770500	444.807617	1637.448364
-13842.578032	17566.770500	443.542969	1174.399048
-13842.578032	17566.770500	442.276367	1584.718506
-13842.578032	17566.770500	441.010742	1427.413452
-13842.578032	17566.770500	439.744141	1888.553589
-13842.578032	17566.770500	438.478516	2019.368286
-13842.578032	17566.770500	437.210938	1888.987793
-13842.578032	17566.770500	435.944336	1818.609985
-13842.578032	17566.770500	434.676758	1517.377441
-13842.578032	17566.770500	433.409180	1917.913574
-13842.578032	17566.770500	432.141602	1863.552124
-13842.578032	17566.770500	430.873047	1744.183228
-13842.578032	17566.770500	429.604492	1467.301392
-13842.578032	17566.770500	428.335938	1665.586670
-13842.578032	17566.770500	427.067383	2009.578369
-13842.578032	17566.770500	425.797852	1916.306152
-13842.578032	17566.770500	424.528320	1848.354004
-13842.578032	17566.770500	423.258789	1552.013794
-13842.578032	17566.770500	421.988281	1732.386719
-13842.578032	17566.770500	420.717773	1970.126953
-13842.578032	17566.770500	419.447266	1951.509277
-13842.578032	17566.770500	418.175781	1895.757446
-13842.578032	17566.770500	416.905273	1974.705322
-13842.578032	17566.770500	415.633789	1718.016602
-13842.578032	17566.770500	414.362305	1823.534546
-13842.578032	17566.770500	413.089844	2078.521729
-13842.578032	17566.770500	411.817383	1815.590942
-13842.578032	17566.770500	410.544922	1697.906128
-13842.578032	17566.770500	409.272461	1884.056519
-13842.578032	17566.770500	407.999023	1792.722168
-13842.578032	17566.770500	406.725586	1301.881104
-13842.578032	17566.770500	405.452148	1873.489868
-13842.578032	17566.770500	404.177734	1696.131226
-13842.578032	17566.770500	402.903320	1511.539185
-13842.578032	17566.770500	401.628906	1664.535645
-13842.578032	17566.770500	400.354492	1820.815308
-13842.578032	17566.770500	399.079102	1952.488647
-13842.578032	17566.770500	397.803711	1871.203979
-13842.578032	17566.770500	396.528320	1547.108765
-13842.578032	17566.770500	395.251953	1583.669067
-13842.578032	17566.770500	393.976563	1666.215088
-13842.578032	17566.770500	392.700195	1895.156250
-13842.578032	17566.770500	391.422852	1755.060425
-13842.578032	17566.770500	390.145508	1487.725098
-13842.578032	17566.770500	388.869141	1317.637573
-13842.578032	17566.770500	387.590820	1699.746704
-13842.578032	17566.770500	386.313477	1185.327881
-13842.578032	17566.770500	385.035156	1334.035034
-13842.578032	17566.770500	383.756836	1688.460815
-13842.578032	17566.770500	382.478516	1550.315308
-13842.578032	17566.770500	381.199219	1336.061279
-13842.578032	17566.770500	379.919922	1638.997314
-13842.578032	17566.770500	378.640625	1048.483154
-13842.578032	17566.770500	377.360352	1134.958130
-13842.578032	17566.770500	376.080078	1377.617920
-13842.578032	17566.770500	374.799805	1337.103027
-13842.578032	17566.770500	373.519531	1162.771973
-13842.578032	17566.770500	372.238281	1197.744873
-13842.578032	17566.770500	370.957031	1209.634399
-13842.578032	17566.770500	369.675781	1010.942932
-13842.578032	17566.770500	368.394531	976.609009
-13842.578032	17566.770500	367.112305	1083.005249
-13842.578032	17566.770500	365.830078	872.325928
-13842.578032	17566.770500	364.546875	1044.930786
-13842.578032	17566.770500	363.264648	1006.914917
-13842.578032	17566.770500	361.981445	1085.897949
-13842.578032	17566.770500	360.698242	947.853577
-13842.578032	17566.770500	359.414063	865.015503
-13842.578032	17566.770500	358.129883	939.397156
-13842.578032	17566.770500	356.845703	650.058716
-13842.578032	17566.770500	355.561523	964.137329
-13842.578032	17566.770500	354.276367	1058.847412
-13842.578032	17566.770500	352.991211	855.735901
-13842.578032	17566.770500	351.706055	943.229431
-13842.578032	17566.770500	350.420898	512.085571
-13842.578032	17566.770500	349.134766	662.150452
-13842.578032	17566.770500	347.848633	881.547974
-13842.578032	17566.770500	346.561523	701.143066
-13842.578032	17566.770500	345.275391	377.979340
-13842.578032	17566.770500	343.988281	406.119781
-13842.578032	17566.770500	342.700195	566.840698
-13842.578032	17566.770500	341.413086	552.737976
-13842.578032	17566.770500	340.125000	240.741714
-13842.578032	17566.770500	338.836914	476.604492
-13842.578032	17566.770500	337.548828	488.683868
-13842.578032	17566.770500	336.259766	429.463257
-13842.578032	17566.770500	334.970703	430.305573
-13842.578032	17566.770500	333.681641	215.839325
-13842.578032	17566.770500	332.391602	217.857681
-13842.578032	17566.770500	331.101563	-150.007690
-13842.578032	17566.770500	329.811523	1.089797
-13842.578032	17566.770500	328.521484	-135.268448
-13842.578032	17566.770500	327.230469	229.798233
-13842.578032	17566.770500	325.939453	66.195908
-13842.578032	17566.770500	324.648438	-14.850521
-13842.578032	17566.770500	323.356445	294.974396
-13842.578032	17566.770500	322.064453	336.133453
-13842.578032	17566.770500	320.772461	-320.175110
-13842.578032	17566.770500	319.480469	-9.149232
-13842.578032	17566.770500	318.187500	-2.952973
-13842.578032	17566.770500	316.894531	104.015198
-13842.578032	17566.770500	315.601563	-351.221558
-13842.578032	17566.770500	314.307617	-490.632965
-13842.578032	17566.770500	313.013672	59.067127
-13842.578032	17566.770500	311.719727	-432.445648
-13842.578032	17566.770500	310.425781	-193.038528
-13842.578032	17566.770500	309.130859	-104.843483
-13842.578032	17566.770500	307.835938	152.710342
-13842.578032	17566.770500	306.541016	221.093353
-13842.578032	17566.770500	305.245117	-144.300415
-13842.578032	17566.770500	303.949219	259.787506
-13842.578032	17566.770500	302.653320	48.930588
-13842.578032	17566.770500	301.356445	398.229340
-13842.578032	17566.770500	300.060547	724.396973
-13842.578032	17566.770500	298.763672	728.038391
