#X		#Y		#Wave		#Intensity
-13854.869574	17612.064667	2000.043945	141.410233
-13854.869574	17612.064667	1999.080078	-283.617432
-13854.869574	17612.064667	1998.116211	-206.622238
-13854.869574	17612.064667	1997.151367	-124.620804
-13854.869574	17612.064667	1996.186523	-35.140553
-13854.869574	17612.064667	1995.222656	128.693207
-13854.869574	17612.064667	1994.256836	215.762161
-13854.869574	17612.064667	1993.291992	-172.589691
-13854.869574	17612.064667	1992.327148	-107.648117
-13854.869574	17612.064667	1991.361328	-337.237549
-13854.869574	17612.064667	1990.395508	143.630096
-13854.869574	17612.064667	1989.429688	87.413589
-13854.869574	17612.064667	1988.463867	154.978027
-13854.869574	17612.064667	1987.497070	269.573608
-13854.869574	17612.064667	1986.531250	230.842300
-13854.869574	17612.064667	1985.564453	-181.185928
-13854.869574	17612.064667	1984.597656	237.641006
-13854.869574	17612.064667	1983.630859	-65.385811
-13854.869574	17612.064667	1982.664063	172.954483
-13854.869574	17612.064667	1981.696289	-16.196739
-13854.869574	17612.064667	1980.728516	-49.601452
-13854.869574	17612.064667	1979.761719	20.778992
-13854.869574	17612.064667	1978.792969	231.939117
-13854.869574	17612.064667	1977.825195	171.463165
-13854.869574	17612.064667	1976.857422	36.992863
-13854.869574	17612.064667	1975.888672	33.416161
-13854.869574	17612.064667	1974.919922	385.213257
-13854.869574	17612.064667	1973.951172	-13.105591
-13854.869574	17612.064667	1972.982422	-270.643341
-13854.869574	17612.064667	1972.013672	216.747070
-13854.869574	17612.064667	1971.043945	124.528175
-13854.869574	17612.064667	1970.075195	540.224121
-13854.869574	17612.064667	1969.105469	450.495697
-13854.869574	17612.064667	1968.135742	139.030212
-13854.869574	17612.064667	1967.165039	-44.166595
-13854.869574	17612.064667	1966.195313	-281.473053
-13854.869574	17612.064667	1965.224609	252.256439
-13854.869574	17612.064667	1964.253906	335.158325
-13854.869574	17612.064667	1963.283203	-64.526237
-13854.869574	17612.064667	1962.312500	82.439964
-13854.869574	17612.064667	1961.341797	-68.432373
-13854.869574	17612.064667	1960.370117	-238.918411
-13854.869574	17612.064667	1959.399414	-72.271507
-13854.869574	17612.064667	1958.427734	-259.880798
-13854.869574	17612.064667	1957.455078	135.459869
-13854.869574	17612.064667	1956.483398	-305.362244
-13854.869574	17612.064667	1955.511719	-20.766657
-13854.869574	17612.064667	1954.539063	209.659164
-13854.869574	17612.064667	1953.566406	24.684631
-13854.869574	17612.064667	1952.593750	58.469128
-13854.869574	17612.064667	1951.621094	99.617348
-13854.869574	17612.064667	1950.647461	455.147461
-13854.869574	17612.064667	1949.674805	154.876404
-13854.869574	17612.064667	1948.701172	171.454575
-13854.869574	17612.064667	1947.727539	-113.907143
-13854.869574	17612.064667	1946.753906	278.235931
-13854.869574	17612.064667	1945.780273	-78.195000
-13854.869574	17612.064667	1944.805664	107.716827
-13854.869574	17612.064667	1943.831055	53.174538
-13854.869574	17612.064667	1942.856445	135.990051
-13854.869574	17612.064667	1941.881836	334.026093
-13854.869574	17612.064667	1940.907227	183.864151
-13854.869574	17612.064667	1939.932617	63.171631
-13854.869574	17612.064667	1938.957031	280.716980
-13854.869574	17612.064667	1937.981445	341.371368
-13854.869574	17612.064667	1937.005859	-7.111772
-13854.869574	17612.064667	1936.030273	-105.639153
-13854.869574	17612.064667	1935.054688	60.347355
-13854.869574	17612.064667	1934.078125	42.639671
-13854.869574	17612.064667	1933.101563	-97.457336
-13854.869574	17612.064667	1932.125000	305.833252
-13854.869574	17612.064667	1931.148438	195.093094
-13854.869574	17612.064667	1930.171875	-157.818848
-13854.869574	17612.064667	1929.194336	27.545641
-13854.869574	17612.064667	1928.217773	-26.843796
-13854.869574	17612.064667	1927.240234	60.604973
-13854.869574	17612.064667	1926.262695	106.458641
-13854.869574	17612.064667	1925.284180	108.290451
-13854.869574	17612.064667	1924.306641	237.195114
-13854.869574	17612.064667	1923.328125	207.225723
-13854.869574	17612.064667	1922.350586	91.758263
-13854.869574	17612.064667	1921.372070	-62.751831
-13854.869574	17612.064667	1920.392578	146.652145
-13854.869574	17612.064667	1919.414063	-327.673218
-13854.869574	17612.064667	1918.434570	-496.686646
-13854.869574	17612.064667	1917.456055	198.343506
-13854.869574	17612.064667	1916.476563	139.087448
-13854.869574	17612.064667	1915.497070	-34.825466
-13854.869574	17612.064667	1914.516602	54.767860
-13854.869574	17612.064667	1913.537109	76.024910
-13854.869574	17612.064667	1912.556641	-305.063812
-13854.869574	17612.064667	1911.576172	-198.435333
-13854.869574	17612.064667	1910.595703	-118.671837
-13854.869574	17612.064667	1909.615234	95.089722
-13854.869574	17612.064667	1908.633789	-112.761002
-13854.869574	17612.064667	1907.653320	-505.691406
-13854.869574	17612.064667	1906.671875	-145.867279
-13854.869574	17612.064667	1905.690430	189.458023
-13854.869574	17612.064667	1904.708984	-125.430473
-13854.869574	17612.064667	1903.727539	-77.501709
-13854.869574	17612.064667	1902.745117	-299.752808
-13854.869574	17612.064667	1901.762695	-346.733856
-13854.869574	17612.064667	1900.780273	-291.523132
-13854.869574	17612.064667	1899.797852	70.144791
-13854.869574	17612.064667	1898.815430	125.230736
-13854.869574	17612.064667	1897.832031	-65.301521
-13854.869574	17612.064667	1896.849609	-404.071411
-13854.869574	17612.064667	1895.866211	127.442528
-13854.869574	17612.064667	1894.882813	138.682480
-13854.869574	17612.064667	1893.898438	77.022354
-13854.869574	17612.064667	1892.915039	-79.379837
-13854.869574	17612.064667	1891.930664	87.305885
-13854.869574	17612.064667	1890.947266	105.780571
-13854.869574	17612.064667	1889.962891	221.350693
-13854.869574	17612.064667	1888.977539	412.121582
-13854.869574	17612.064667	1887.993164	173.224030
-13854.869574	17612.064667	1887.007813	67.862900
-13854.869574	17612.064667	1886.023438	52.290157
-13854.869574	17612.064667	1885.038086	223.487946
-13854.869574	17612.064667	1884.051758	147.237381
-13854.869574	17612.064667	1883.066406	-64.783737
-13854.869574	17612.064667	1882.081055	-90.072670
-13854.869574	17612.064667	1881.094727	480.900574
-13854.869574	17612.064667	1880.108398	-254.558304
-13854.869574	17612.064667	1879.122070	117.523239
-13854.869574	17612.064667	1878.135742	-123.436958
-13854.869574	17612.064667	1877.148438	-59.147205
-13854.869574	17612.064667	1876.162109	164.925995
-13854.869574	17612.064667	1875.174805	207.315308
-13854.869574	17612.064667	1874.187500	114.119446
-13854.869574	17612.064667	1873.199219	30.626150
-13854.869574	17612.064667	1872.211914	-314.185669
-13854.869574	17612.064667	1871.223633	-196.799072
-13854.869574	17612.064667	1870.236328	118.870384
-13854.869574	17612.064667	1869.248047	-90.383087
-13854.869574	17612.064667	1868.258789	-77.118248
-13854.869574	17612.064667	1867.270508	-30.035686
-13854.869574	17612.064667	1866.282227	-28.914165
-13854.869574	17612.064667	1865.292969	47.112026
-13854.869574	17612.064667	1864.303711	125.505058
-13854.869574	17612.064667	1863.314453	119.303886
-13854.869574	17612.064667	1862.324219	40.635891
-13854.869574	17612.064667	1861.334961	-301.230591
-13854.869574	17612.064667	1860.344727	-41.821964
-13854.869574	17612.064667	1859.354492	-202.539261
-13854.869574	17612.064667	1858.364258	-232.890396
-13854.869574	17612.064667	1857.374023	238.644043
-13854.869574	17612.064667	1856.383789	41.724106
-13854.869574	17612.064667	1855.392578	105.359863
-13854.869574	17612.064667	1854.401367	181.013641
-13854.869574	17612.064667	1853.410156	-61.646698
-13854.869574	17612.064667	1852.418945	-84.863464
-13854.869574	17612.064667	1851.426758	-129.782898
-13854.869574	17612.064667	1850.435547	3.621499
-13854.869574	17612.064667	1849.443359	180.322968
-13854.869574	17612.064667	1848.451172	75.104225
-13854.869574	17612.064667	1847.458984	42.156582
-13854.869574	17612.064667	1846.466797	98.300217
-13854.869574	17612.064667	1845.473633	-238.021378
-13854.869574	17612.064667	1844.480469	27.529293
-13854.869574	17612.064667	1843.487305	25.827101
-13854.869574	17612.064667	1842.494141	555.864136
-13854.869574	17612.064667	1841.500977	130.620682
-13854.869574	17612.064667	1840.506836	80.735504
-13854.869574	17612.064667	1839.513672	148.684708
-13854.869574	17612.064667	1838.519531	175.714539
-13854.869574	17612.064667	1837.525391	-191.520996
-13854.869574	17612.064667	1836.530273	181.616760
-13854.869574	17612.064667	1835.536133	76.400917
-13854.869574	17612.064667	1834.541016	-4.770063
-13854.869574	17612.064667	1833.545898	163.886810
-13854.869574	17612.064667	1832.550781	37.055012
-13854.869574	17612.064667	1831.555664	183.984406
-13854.869574	17612.064667	1830.560547	-120.493103
-13854.869574	17612.064667	1829.564453	-36.039814
-13854.869574	17612.064667	1828.568359	581.123474
-13854.869574	17612.064667	1827.572266	108.719254
-13854.869574	17612.064667	1826.576172	377.735718
-13854.869574	17612.064667	1825.580078	229.297699
-13854.869574	17612.064667	1824.583008	174.418594
-13854.869574	17612.064667	1823.585938	-12.329351
-13854.869574	17612.064667	1822.588867	100.604523
-13854.869574	17612.064667	1821.591797	472.313843
-13854.869574	17612.064667	1820.594727	79.474220
-13854.869574	17612.064667	1819.596680	-28.143232
-13854.869574	17612.064667	1818.599609	-210.002975
-13854.869574	17612.064667	1817.601563	173.366943
-13854.869574	17612.064667	1816.603516	60.933460
-13854.869574	17612.064667	1815.604492	185.518356
-13854.869574	17612.064667	1814.606445	264.551880
-13854.869574	17612.064667	1813.607422	-13.025455
-13854.869574	17612.064667	1812.608398	178.421371
-13854.869574	17612.064667	1811.609375	-256.963257
-13854.869574	17612.064667	1810.610352	85.086136
-13854.869574	17612.064667	1809.610352	300.246674
-13854.869574	17612.064667	1808.611328	-127.816727
-13854.869574	17612.064667	1807.611328	-194.804459
-13854.869574	17612.064667	1806.611328	111.027992
-13854.869574	17612.064667	1805.610352	-111.337662
-13854.869574	17612.064667	1804.610352	-78.029327
-13854.869574	17612.064667	1803.609375	-94.915504
-13854.869574	17612.064667	1802.608398	-92.716446
-13854.869574	17612.064667	1801.607422	50.321625
-13854.869574	17612.064667	1800.606445	303.093109
-13854.869574	17612.064667	1799.605469	188.187729
-13854.869574	17612.064667	1798.603516	94.778435
-13854.869574	17612.064667	1797.601563	354.477142
-13854.869574	17612.064667	1796.599609	-299.540527
-13854.869574	17612.064667	1795.597656	-206.860626
-13854.869574	17612.064667	1794.595703	74.126122
-13854.869574	17612.064667	1793.592773	152.342529
-13854.869574	17612.064667	1792.589844	-189.005600
-13854.869574	17612.064667	1791.587891	-268.106964
-13854.869574	17612.064667	1790.583984	45.928188
-13854.869574	17612.064667	1789.581055	40.604420
-13854.869574	17612.064667	1788.577148	366.318146
-13854.869574	17612.064667	1787.574219	-58.225674
-13854.869574	17612.064667	1786.570313	38.763824
-13854.869574	17612.064667	1785.566406	-207.085541
-13854.869574	17612.064667	1784.561523	249.215271
-13854.869574	17612.064667	1783.557617	53.332375
-13854.869574	17612.064667	1782.552734	35.923595
-13854.869574	17612.064667	1781.547852	104.120789
-13854.869574	17612.064667	1780.542969	-122.623024
-13854.869574	17612.064667	1779.538086	-71.120438
-13854.869574	17612.064667	1778.532227	75.422096
-13854.869574	17612.064667	1777.527344	136.315582
-13854.869574	17612.064667	1776.521484	-2.454359
-13854.869574	17612.064667	1775.515625	257.943542
-13854.869574	17612.064667	1774.508789	104.892563
-13854.869574	17612.064667	1773.502930	32.621902
-13854.869574	17612.064667	1772.496094	12.585745
-13854.869574	17612.064667	1771.489258	234.681854
-13854.869574	17612.064667	1770.482422	119.609352
-13854.869574	17612.064667	1769.475586	87.614273
-13854.869574	17612.064667	1768.467773	271.517273
-13854.869574	17612.064667	1767.460938	123.200188
-13854.869574	17612.064667	1766.453125	10.491926
-13854.869574	17612.064667	1765.445313	-178.092392
-13854.869574	17612.064667	1764.437500	154.966675
-13854.869574	17612.064667	1763.428711	212.899857
-13854.869574	17612.064667	1762.420898	218.632233
-13854.869574	17612.064667	1761.412109	200.640884
-13854.869574	17612.064667	1760.403320	-75.605797
-13854.869574	17612.064667	1759.393555	337.497803
-13854.869574	17612.064667	1758.384766	328.873077
-13854.869574	17612.064667	1757.375000	225.512543
-13854.869574	17612.064667	1756.366211	-67.228676
-13854.869574	17612.064667	1755.356445	-269.944122
-13854.869574	17612.064667	1754.345703	-115.290207
-13854.869574	17612.064667	1753.335938	-71.923294
-13854.869574	17612.064667	1752.325195	129.883194
-13854.869574	17612.064667	1751.315430	-79.937164
-13854.869574	17612.064667	1750.304688	-3.595406
-13854.869574	17612.064667	1749.292969	39.591969
-13854.869574	17612.064667	1748.282227	125.277458
-13854.869574	17612.064667	1747.270508	-169.586060
-13854.869574	17612.064667	1746.259766	287.001709
-13854.869574	17612.064667	1745.248047	-135.412750
-13854.869574	17612.064667	1744.235352	-71.141983
-13854.869574	17612.064667	1743.223633	-143.896484
-13854.869574	17612.064667	1742.211914	130.417297
-13854.869574	17612.064667	1741.199219	52.869335
-13854.869574	17612.064667	1740.186523	197.170868
-13854.869574	17612.064667	1739.173828	-47.959335
-13854.869574	17612.064667	1738.160156	-118.443550
-13854.869574	17612.064667	1737.147461	-12.030951
-13854.869574	17612.064667	1736.133789	16.488575
-13854.869574	17612.064667	1735.120117	-117.728271
-13854.869574	17612.064667	1734.106445	-16.181461
-13854.869574	17612.064667	1733.091797	-63.199623
-13854.869574	17612.064667	1732.078125	-433.066803
-13854.869574	17612.064667	1731.063477	-37.108265
-13854.869574	17612.064667	1730.048828	-157.214066
-13854.869574	17612.064667	1729.034180	-230.196640
-13854.869574	17612.064667	1728.019531	-258.446533
-13854.869574	17612.064667	1727.003906	-232.569885
-13854.869574	17612.064667	1725.988281	212.242661
-13854.869574	17612.064667	1724.972656	-477.461975
-13854.869574	17612.064667	1723.957031	-277.539154
-13854.869574	17612.064667	1722.941406	-195.344284
-13854.869574	17612.064667	1721.924805	-129.678894
-13854.869574	17612.064667	1720.909180	-151.072449
-13854.869574	17612.064667	1719.892578	-31.428940
-13854.869574	17612.064667	1718.875977	-184.532562
-13854.869574	17612.064667	1717.858398	-208.349030
-13854.869574	17612.064667	1716.841797	129.670578
-13854.869574	17612.064667	1715.824219	-89.249046
-13854.869574	17612.064667	1714.806641	363.651031
-13854.869574	17612.064667	1713.789063	-167.629089
-13854.869574	17612.064667	1712.770508	158.261200
-13854.869574	17612.064667	1711.752930	195.257797
-13854.869574	17612.064667	1710.734375	194.655518
-13854.869574	17612.064667	1709.715820	111.889183
-13854.869574	17612.064667	1708.697266	237.935501
-13854.869574	17612.064667	1707.678711	33.161842
-13854.869574	17612.064667	1706.659180	-178.604782
-13854.869574	17612.064667	1705.640625	130.232040
-13854.869574	17612.064667	1704.621094	56.787125
-13854.869574	17612.064667	1703.600586	-33.068329
-13854.869574	17612.064667	1702.581055	139.551315
-13854.869574	17612.064667	1701.561523	253.504318
-13854.869574	17612.064667	1700.541016	11.308985
-13854.869574	17612.064667	1699.520508	-340.896393
-13854.869574	17612.064667	1698.500000	-91.189774
-13854.869574	17612.064667	1697.478516	226.283081
-13854.869574	17612.064667	1696.458008	354.009674
-13854.869574	17612.064667	1695.436523	453.573181
-13854.869574	17612.064667	1694.415039	199.752640
-13854.869574	17612.064667	1693.393555	161.227982
-13854.869574	17612.064667	1692.372070	-34.020092
-13854.869574	17612.064667	1691.349609	208.081253
-13854.869574	17612.064667	1690.327148	-3.520867
-13854.869574	17612.064667	1689.304688	32.716785
-13854.869574	17612.064667	1688.282227	216.153839
-13854.869574	17612.064667	1687.259766	58.337410
-13854.869574	17612.064667	1686.236328	444.902771
-13854.869574	17612.064667	1685.213867	107.193459
-13854.869574	17612.064667	1684.190430	290.374237
-13854.869574	17612.064667	1683.166016	296.003937
-13854.869574	17612.064667	1682.142578	763.828552
-13854.869574	17612.064667	1681.119141	568.592773
-13854.869574	17612.064667	1680.094727	415.412140
-13854.869574	17612.064667	1679.070313	353.253632
-13854.869574	17612.064667	1678.045898	293.430115
-13854.869574	17612.064667	1677.020508	9.713344
-13854.869574	17612.064667	1675.996094	164.455154
-13854.869574	17612.064667	1674.970703	552.241821
-13854.869574	17612.064667	1673.945313	117.063911
-13854.869574	17612.064667	1672.919922	173.749847
-13854.869574	17612.064667	1671.893555	344.555786
-13854.869574	17612.064667	1670.868164	277.669647
-13854.869574	17612.064667	1669.841797	427.384644
-13854.869574	17612.064667	1668.815430	281.289063
-13854.869574	17612.064667	1667.789063	593.879333
-13854.869574	17612.064667	1666.761719	627.001404
-13854.869574	17612.064667	1665.735352	464.601166
-13854.869574	17612.064667	1664.708008	497.694397
-13854.869574	17612.064667	1663.680664	430.721008
-13854.869574	17612.064667	1662.653320	519.591553
-13854.869574	17612.064667	1661.625000	801.421448
-13854.869574	17612.064667	1660.597656	204.270111
-13854.869574	17612.064667	1659.569336	395.360107
-13854.869574	17612.064667	1658.541016	623.545593
-13854.869574	17612.064667	1657.512695	544.897278
-13854.869574	17612.064667	1656.483398	742.729736
-13854.869574	17612.064667	1655.455078	789.489258
-13854.869574	17612.064667	1654.425781	492.507721
-13854.869574	17612.064667	1653.396484	766.807312
-13854.869574	17612.064667	1652.366211	688.128357
-13854.869574	17612.064667	1651.336914	660.526611
-13854.869574	17612.064667	1650.306641	670.048706
-13854.869574	17612.064667	1649.276367	1071.650635
-13854.869574	17612.064667	1648.246094	863.016174
-13854.869574	17612.064667	1647.215820	1055.673340
-13854.869574	17612.064667	1646.185547	707.978027
-13854.869574	17612.064667	1645.154297	731.326721
-13854.869574	17612.064667	1644.123047	1002.663635
-13854.869574	17612.064667	1643.091797	1090.809570
-13854.869574	17612.064667	1642.060547	1067.702515
-13854.869574	17612.064667	1641.028320	1202.109985
-13854.869574	17612.064667	1639.997070	1408.256104
-13854.869574	17612.064667	1638.964844	1114.144409
-13854.869574	17612.064667	1637.931641	813.189392
-13854.869574	17612.064667	1636.899414	817.884521
-13854.869574	17612.064667	1635.867188	1093.341309
-13854.869574	17612.064667	1634.833984	977.647705
-13854.869574	17612.064667	1633.800781	1225.185425
-13854.869574	17612.064667	1632.767578	1199.701172
-13854.869574	17612.064667	1631.734375	771.855530
-13854.869574	17612.064667	1630.700195	866.681824
-13854.869574	17612.064667	1629.666016	1308.198608
-13854.869574	17612.064667	1628.631836	1224.918091
-13854.869574	17612.064667	1627.597656	1056.176636
-13854.869574	17612.064667	1626.563477	1573.623413
-13854.869574	17612.064667	1625.528320	1263.975220
-13854.869574	17612.064667	1624.493164	1728.063110
-13854.869574	17612.064667	1623.458008	1312.293945
-13854.869574	17612.064667	1622.422852	1783.113525
-13854.869574	17612.064667	1621.387695	1879.862183
-13854.869574	17612.064667	1620.351563	2089.639893
-13854.869574	17612.064667	1619.315430	2068.628906
-13854.869574	17612.064667	1618.279297	1840.033203
-13854.869574	17612.064667	1617.243164	1565.404053
-13854.869574	17612.064667	1616.207031	1493.788818
-13854.869574	17612.064667	1615.169922	1728.803101
-13854.869574	17612.064667	1614.132813	1857.707397
-13854.869574	17612.064667	1613.095703	1362.084473
-13854.869574	17612.064667	1612.058594	1357.391968
-13854.869574	17612.064667	1611.020508	1345.792114
-13854.869574	17612.064667	1609.983398	1315.786255
-13854.869574	17612.064667	1608.945313	1370.987549
-13854.869574	17612.064667	1607.907227	954.238708
-13854.869574	17612.064667	1606.868164	1147.604492
-13854.869574	17612.064667	1605.830078	1239.652588
-13854.869574	17612.064667	1604.791016	1037.171997
-13854.869574	17612.064667	1603.751953	1189.028931
-13854.869574	17612.064667	1602.712891	1379.934814
-13854.869574	17612.064667	1601.673828	1662.757446
-13854.869574	17612.064667	1600.633789	1248.882080
-13854.869574	17612.064667	1599.594727	1042.055786
-13854.869574	17612.064667	1598.554688	1579.899902
-13854.869574	17612.064667	1597.513672	1053.735352
-13854.869574	17612.064667	1596.473633	893.047485
-13854.869574	17612.064667	1595.433594	929.959839
-13854.869574	17612.064667	1594.392578	1281.459229
-13854.869574	17612.064667	1593.351563	1143.825562
-13854.869574	17612.064667	1592.310547	1389.590942
-13854.869574	17612.064667	1591.268555	1483.812500
-13854.869574	17612.064667	1590.227539	972.264343
-13854.869574	17612.064667	1589.185547	1192.739990
-13854.869574	17612.064667	1588.143555	1192.961060
-13854.869574	17612.064667	1587.100586	1177.144653
-13854.869574	17612.064667	1586.058594	1156.776001
-13854.869574	17612.064667	1585.015625	1292.304932
-13854.869574	17612.064667	1583.972656	1216.956665
-13854.869574	17612.064667	1582.929688	1306.641968
-13854.869574	17612.064667	1581.886719	1435.256104
-13854.869574	17612.064667	1580.843750	1513.455811
-13854.869574	17612.064667	1579.799805	1298.525269
-13854.869574	17612.064667	1578.755859	1200.470825
-13854.869574	17612.064667	1577.711914	1372.597656
-13854.869574	17612.064667	1576.666992	1254.022095
-13854.869574	17612.064667	1575.623047	986.783142
-13854.869574	17612.064667	1574.578125	1200.108765
-13854.869574	17612.064667	1573.533203	1033.684692
-13854.869574	17612.064667	1572.488281	1301.863281
-13854.869574	17612.064667	1571.443359	911.473206
-13854.869574	17612.064667	1570.397461	592.130859
-13854.869574	17612.064667	1569.351563	828.326660
-13854.869574	17612.064667	1568.305664	660.002686
-13854.869574	17612.064667	1567.259766	802.487732
-13854.869574	17612.064667	1566.213867	912.973816
-13854.869574	17612.064667	1565.166992	669.468079
-13854.869574	17612.064667	1564.120117	875.898315
-13854.869574	17612.064667	1563.073242	785.515198
-13854.869574	17612.064667	1562.026367	528.588867
-13854.869574	17612.064667	1560.978516	771.540649
-13854.869574	17612.064667	1559.930664	622.020874
-13854.869574	17612.064667	1558.883789	687.015747
-13854.869574	17612.064667	1557.834961	679.045898
-13854.869574	17612.064667	1556.787109	648.314636
-13854.869574	17612.064667	1555.739258	850.165161
-13854.869574	17612.064667	1554.690430	757.948730
-13854.869574	17612.064667	1553.641602	750.131836
-13854.869574	17612.064667	1552.592773	658.054932
-13854.869574	17612.064667	1551.542969	982.917114
-13854.869574	17612.064667	1550.494141	975.181702
-13854.869574	17612.064667	1549.444336	641.882690
-13854.869574	17612.064667	1548.394531	570.564636
-13854.869574	17612.064667	1547.344727	494.767181
-13854.869574	17612.064667	1546.293945	471.384857
-13854.869574	17612.064667	1545.244141	661.927429
-13854.869574	17612.064667	1544.193359	743.257568
-13854.869574	17612.064667	1543.142578	594.892212
-13854.869574	17612.064667	1542.090820	535.315796
-13854.869574	17612.064667	1541.040039	596.303406
-13854.869574	17612.064667	1539.988281	264.092987
-13854.869574	17612.064667	1538.936523	552.463074
-13854.869574	17612.064667	1537.884766	961.191528
-13854.869574	17612.064667	1536.833008	706.489929
-13854.869574	17612.064667	1535.780273	667.706421
-13854.869574	17612.064667	1534.727539	227.072266
-13854.869574	17612.064667	1533.674805	429.154510
-13854.869574	17612.064667	1532.622070	490.481079
-13854.869574	17612.064667	1531.569336	690.275208
-13854.869574	17612.064667	1530.515625	492.979034
-13854.869574	17612.064667	1529.461914	195.999405
-13854.869574	17612.064667	1528.408203	146.415009
-13854.869574	17612.064667	1527.354492	137.722534
-13854.869574	17612.064667	1526.299805	582.524475
-13854.869574	17612.064667	1525.246094	483.199646
-13854.869574	17612.064667	1524.191406	476.890015
-13854.869574	17612.064667	1523.136719	525.021606
-13854.869574	17612.064667	1522.081055	194.876801
-13854.869574	17612.064667	1521.026367	417.568329
-13854.869574	17612.064667	1519.970703	103.551147
-13854.869574	17612.064667	1518.915039	387.422852
-13854.869574	17612.064667	1517.859375	8.019923
-13854.869574	17612.064667	1516.802734	117.664131
-13854.869574	17612.064667	1515.747070	496.588684
-13854.869574	17612.064667	1514.690430	488.585022
-13854.869574	17612.064667	1513.633789	82.578583
-13854.869574	17612.064667	1512.577148	214.999588
-13854.869574	17612.064667	1511.519531	521.517700
-13854.869574	17612.064667	1510.461914	466.316040
-13854.869574	17612.064667	1509.405273	673.358582
-13854.869574	17612.064667	1508.346680	410.407715
-13854.869574	17612.064667	1507.289063	64.041916
-13854.869574	17612.064667	1506.231445	343.524780
-13854.869574	17612.064667	1505.172852	-2.547830
-13854.869574	17612.064667	1504.114258	453.084808
-13854.869574	17612.064667	1503.055664	211.102936
-13854.869574	17612.064667	1501.996094	-206.745132
-13854.869574	17612.064667	1500.937500	181.182159
-13854.869574	17612.064667	1499.877930	162.955307
-13854.869574	17612.064667	1498.818359	-270.204315
-13854.869574	17612.064667	1497.757813	-391.915253
-13854.869574	17612.064667	1496.698242	-233.935059
-13854.869574	17612.064667	1495.637695	-416.321503
-13854.869574	17612.064667	1494.577148	-183.873123
-13854.869574	17612.064667	1493.516602	-73.116783
-13854.869574	17612.064667	1492.456055	-223.657501
-13854.869574	17612.064667	1491.394531	-259.187653
-13854.869574	17612.064667	1490.333008	-67.181831
-13854.869574	17612.064667	1489.271484	-163.366150
-13854.869574	17612.064667	1488.209961	-378.736267
-13854.869574	17612.064667	1487.148438	-290.112091
-13854.869574	17612.064667	1486.085938	-12.427832
-13854.869574	17612.064667	1485.023438	8.755598
-13854.869574	17612.064667	1483.960938	-140.924667
-13854.869574	17612.064667	1482.898438	33.359879
-13854.869574	17612.064667	1481.834961	-183.551254
-13854.869574	17612.064667	1480.772461	-166.511597
-13854.869574	17612.064667	1479.708984	14.688754
-13854.869574	17612.064667	1478.644531	-172.598022
-13854.869574	17612.064667	1477.581055	-267.651733
-13854.869574	17612.064667	1476.517578	169.734482
-13854.869574	17612.064667	1475.453125	-342.728424
-13854.869574	17612.064667	1474.388672	-161.191986
-13854.869574	17612.064667	1473.323242	4.570584
-13854.869574	17612.064667	1472.258789	-33.768185
-13854.869574	17612.064667	1471.193359	87.373894
-13854.869574	17612.064667	1470.127930	401.028534
-13854.869574	17612.064667	1469.062500	387.352295
-13854.869574	17612.064667	1467.997070	423.318146
-13854.869574	17612.064667	1466.930664	367.227509
-13854.869574	17612.064667	1465.865234	562.087891
-13854.869574	17612.064667	1464.798828	313.833954
-13854.869574	17612.064667	1463.731445	265.157623
-13854.869574	17612.064667	1462.665039	581.331543
-13854.869574	17612.064667	1461.597656	512.005615
-13854.869574	17612.064667	1460.530273	657.999878
-13854.869574	17612.064667	1459.462891	428.728668
-13854.869574	17612.064667	1458.395508	445.340637
-13854.869574	17612.064667	1457.327148	736.462097
-13854.869574	17612.064667	1456.259766	674.013123
-13854.869574	17612.064667	1455.191406	610.949280
-13854.869574	17612.064667	1454.123047	653.183777
-13854.869574	17612.064667	1453.053711	223.296417
-13854.869574	17612.064667	1451.985352	455.733795
-13854.869574	17612.064667	1450.916016	648.635803
-13854.869574	17612.064667	1449.846680	1041.200439
-13854.869574	17612.064667	1448.776367	776.468628
-13854.869574	17612.064667	1447.707031	659.530945
-13854.869574	17612.064667	1446.636719	754.082520
-13854.869574	17612.064667	1445.566406	327.711700
-13854.869574	17612.064667	1444.496094	428.316956
-13854.869574	17612.064667	1443.425781	528.414124
-13854.869574	17612.064667	1442.354492	672.310303
-13854.869574	17612.064667	1441.283203	682.413635
-13854.869574	17612.064667	1440.211914	932.048523
-13854.869574	17612.064667	1439.140625	519.039307
-13854.869574	17612.064667	1438.069336	654.526611
-13854.869574	17612.064667	1436.997070	1048.029053
-13854.869574	17612.064667	1435.924805	365.407288
-13854.869574	17612.064667	1434.852539	560.571655
-13854.869574	17612.064667	1433.780273	749.498840
-13854.869574	17612.064667	1432.707031	696.793396
-13854.869574	17612.064667	1431.633789	356.843262
-13854.869574	17612.064667	1430.560547	554.734375
-13854.869574	17612.064667	1429.487305	659.224548
-13854.869574	17612.064667	1428.413086	850.457947
-13854.869574	17612.064667	1427.339844	485.588013
-13854.869574	17612.064667	1426.265625	563.613770
-13854.869574	17612.064667	1425.191406	424.934296
-13854.869574	17612.064667	1424.116211	472.002472
-13854.869574	17612.064667	1423.041992	622.697632
-13854.869574	17612.064667	1421.966797	149.894592
-13854.869574	17612.064667	1420.891602	259.569977
-13854.869574	17612.064667	1419.816406	698.005066
-13854.869574	17612.064667	1418.740234	642.348511
-13854.869574	17612.064667	1417.665039	479.541290
-13854.869574	17612.064667	1416.588867	541.693237
-13854.869574	17612.064667	1415.512695	235.206482
-13854.869574	17612.064667	1414.435547	439.097137
-13854.869574	17612.064667	1413.359375	118.676506
-13854.869574	17612.064667	1412.282227	374.332550
-13854.869574	17612.064667	1411.205078	294.017700
-13854.869574	17612.064667	1410.127930	329.708374
-13854.869574	17612.064667	1409.049805	251.483704
-13854.869574	17612.064667	1407.972656	437.919678
-13854.869574	17612.064667	1406.894531	205.709732
-13854.869574	17612.064667	1405.816406	449.469879
-13854.869574	17612.064667	1404.737305	482.787354
-13854.869574	17612.064667	1403.659180	485.604614
-13854.869574	17612.064667	1402.580078	536.385315
-13854.869574	17612.064667	1401.500977	321.397400
-13854.869574	17612.064667	1400.421875	728.101624
-13854.869574	17612.064667	1399.341797	837.113037
-13854.869574	17612.064667	1398.262695	457.337921
-13854.869574	17612.064667	1397.182617	230.014221
-13854.869574	17612.064667	1396.102539	488.104767
-13854.869574	17612.064667	1395.021484	298.330292
-13854.869574	17612.064667	1393.941406	302.549591
-13854.869574	17612.064667	1392.860352	163.442612
-13854.869574	17612.064667	1391.779297	383.694489
-13854.869574	17612.064667	1390.698242	109.211220
-13854.869574	17612.064667	1389.616211	181.643570
-13854.869574	17612.064667	1388.535156	311.310425
-13854.869574	17612.064667	1387.453125	115.830070
-13854.869574	17612.064667	1386.371094	175.805084
-13854.869574	17612.064667	1385.288086	-111.949387
-13854.869574	17612.064667	1384.206055	-191.185455
-13854.869574	17612.064667	1383.123047	-112.604568
-13854.869574	17612.064667	1382.040039	-263.305634
-13854.869574	17612.064667	1380.957031	10.451286
-13854.869574	17612.064667	1379.873047	181.827377
-13854.869574	17612.064667	1378.789063	-26.174988
-13854.869574	17612.064667	1377.705078	91.475113
-13854.869574	17612.064667	1376.621094	506.515625
-13854.869574	17612.064667	1375.537109	568.305542
-13854.869574	17612.064667	1374.452148	538.590454
-13854.869574	17612.064667	1373.367188	495.901520
-13854.869574	17612.064667	1372.282227	490.386871
-13854.869574	17612.064667	1371.197266	319.319550
-13854.869574	17612.064667	1370.112305	647.062439
-13854.869574	17612.064667	1369.026367	374.244263
-13854.869574	17612.064667	1367.940430	98.919235
-13854.869574	17612.064667	1366.854492	426.942413
-13854.869574	17612.064667	1365.767578	417.786499
-13854.869574	17612.064667	1364.681641	320.766663
-13854.869574	17612.064667	1363.594727	75.918541
-13854.869574	17612.064667	1362.507813	383.745209
-13854.869574	17612.064667	1361.419922	256.200043
-13854.869574	17612.064667	1360.333008	149.234344
-13854.869574	17612.064667	1359.245117	46.864803
-13854.869574	17612.064667	1358.157227	-249.071899
-13854.869574	17612.064667	1357.069336	95.441345
-13854.869574	17612.064667	1355.981445	-212.619400
-13854.869574	17612.064667	1354.892578	165.359863
-13854.869574	17612.064667	1353.803711	205.481079
-13854.869574	17612.064667	1352.714844	156.163681
-13854.869574	17612.064667	1351.625000	109.074585
-13854.869574	17612.064667	1350.536133	267.067932
-13854.869574	17612.064667	1349.446289	197.347260
-13854.869574	17612.064667	1348.356445	41.271946
-13854.869574	17612.064667	1347.266602	-62.986664
-13854.869574	17612.064667	1346.175781	221.166382
-13854.869574	17612.064667	1345.085938	-111.589317
-13854.869574	17612.064667	1343.995117	207.862534
-13854.869574	17612.064667	1342.903320	74.056740
-13854.869574	17612.064667	1341.812500	177.022064
-13854.869574	17612.064667	1340.720703	237.996292
-13854.869574	17612.064667	1339.629883	-47.492104
-13854.869574	17612.064667	1338.538086	148.107452
-13854.869574	17612.064667	1337.445313	243.730087
-13854.869574	17612.064667	1336.353516	111.546448
-13854.869574	17612.064667	1335.260742	-89.435516
-13854.869574	17612.064667	1334.167969	173.310577
-13854.869574	17612.064667	1333.075195	92.141533
-13854.869574	17612.064667	1331.981445	64.104256
-13854.869574	17612.064667	1330.888672	123.540573
-13854.869574	17612.064667	1329.794922	417.109467
-13854.869574	17612.064667	1328.701172	87.231468
-13854.869574	17612.064667	1327.606445	-39.954464
-13854.869574	17612.064667	1326.512695	229.213287
-13854.869574	17612.064667	1325.417969	-47.971092
-13854.869574	17612.064667	1324.323242	117.869728
-13854.869574	17612.064667	1323.227539	190.064346
-13854.869574	17612.064667	1322.132813	271.934052
-13854.869574	17612.064667	1321.037109	129.425842
-13854.869574	17612.064667	1319.941406	-77.698486
-13854.869574	17612.064667	1318.845703	85.066246
-13854.869574	17612.064667	1317.750000	156.752533
-13854.869574	17612.064667	1316.653320	72.697098
-13854.869574	17612.064667	1315.556641	-23.332621
-13854.869574	17612.064667	1314.459961	51.648975
-13854.869574	17612.064667	1313.363281	120.752502
-13854.869574	17612.064667	1312.265625	210.295334
-13854.869574	17612.064667	1311.167969	44.312237
-13854.869574	17612.064667	1310.070313	190.138428
-13854.869574	17612.064667	1308.972656	-1.910443
-13854.869574	17612.064667	1307.874023	204.821091
-13854.869574	17612.064667	1306.776367	232.289444
-13854.869574	17612.064667	1305.677734	-1.916346
-13854.869574	17612.064667	1304.579102	193.990128
-13854.869574	17612.064667	1303.479492	161.019958
-13854.869574	17612.064667	1302.380859	272.539337
-13854.869574	17612.064667	1301.281250	282.272400
-13854.869574	17612.064667	1300.181641	106.690895
-13854.869574	17612.064667	1299.081055	333.128357
-13854.869574	17612.064667	1297.981445	119.106857
-13854.869574	17612.064667	1296.880859	106.141884
-13854.869574	17612.064667	1295.780273	122.597572
-13854.869574	17612.064667	1294.679688	-125.905785
-13854.869574	17612.064667	1293.578125	71.598343
-13854.869574	17612.064667	1292.476563	68.821594
-13854.869574	17612.064667	1291.375000	-14.131370
-13854.869574	17612.064667	1290.273438	148.568726
-13854.869574	17612.064667	1289.171875	62.930817
-13854.869574	17612.064667	1288.069336	184.542709
-13854.869574	17612.064667	1286.966797	-278.712280
-13854.869574	17612.064667	1285.864258	-135.797897
-13854.869574	17612.064667	1284.761719	-276.714935
-13854.869574	17612.064667	1283.658203	19.708492
-13854.869574	17612.064667	1282.554688	-289.915955
-13854.869574	17612.064667	1281.451172	28.707790
-13854.869574	17612.064667	1280.347656	-146.243408
-13854.869574	17612.064667	1279.244141	-152.526215
-13854.869574	17612.064667	1278.139648	-112.630707
-13854.869574	17612.064667	1277.035156	-130.154373
-13854.869574	17612.064667	1275.930664	-241.642990
-13854.869574	17612.064667	1274.825195	58.954479
-13854.869574	17612.064667	1273.720703	-350.081787
-13854.869574	17612.064667	1272.615234	-328.225006
-13854.869574	17612.064667	1271.508789	-342.050140
-13854.869574	17612.064667	1270.403320	29.443447
-13854.869574	17612.064667	1269.297852	-66.464592
-13854.869574	17612.064667	1268.191406	-149.941833
-13854.869574	17612.064667	1267.084961	-127.461044
-13854.869574	17612.064667	1265.977539	-141.871399
-13854.869574	17612.064667	1264.871094	-297.516174
-13854.869574	17612.064667	1263.763672	-130.024490
-13854.869574	17612.064667	1262.656250	-123.865280
-13854.869574	17612.064667	1261.548828	-43.277706
-13854.869574	17612.064667	1260.440430	-18.263176
-13854.869574	17612.064667	1259.333008	21.604340
-13854.869574	17612.064667	1258.224609	-11.991554
-13854.869574	17612.064667	1257.115234	-113.393471
-13854.869574	17612.064667	1256.006836	-356.075897
-13854.869574	17612.064667	1254.897461	-390.616791
-13854.869574	17612.064667	1253.788086	-223.329102
-13854.869574	17612.064667	1252.678711	-133.112091
-13854.869574	17612.064667	1251.569336	-200.117020
-13854.869574	17612.064667	1250.458984	-134.681122
-13854.869574	17612.064667	1249.349609	-82.374733
-13854.869574	17612.064667	1248.239258	-195.842102
-13854.869574	17612.064667	1247.127930	-83.252052
-13854.869574	17612.064667	1246.017578	16.037910
-13854.869574	17612.064667	1244.906250	-373.938690
-13854.869574	17612.064667	1243.794922	-249.096375
-13854.869574	17612.064667	1242.683594	-149.990738
-13854.869574	17612.064667	1241.571289	-183.099518
-13854.869574	17612.064667	1240.459961	-163.118210
-13854.869574	17612.064667	1239.347656	-50.626476
-13854.869574	17612.064667	1238.234375	-133.599792
-13854.869574	17612.064667	1237.122070	-109.284439
-13854.869574	17612.064667	1236.008789	-51.769829
-13854.869574	17612.064667	1234.896484	-96.829590
-13854.869574	17612.064667	1233.782227	15.466063
-13854.869574	17612.064667	1232.668945	-94.398354
-13854.869574	17612.064667	1231.555664	-141.252151
-13854.869574	17612.064667	1230.441406	0.559741
-13854.869574	17612.064667	1229.327148	49.696949
-13854.869574	17612.064667	1228.211914	-30.904213
-13854.869574	17612.064667	1227.097656	-0.757578
-13854.869574	17612.064667	1225.982422	-62.642029
-13854.869574	17612.064667	1224.867188	136.852097
-13854.869574	17612.064667	1223.751953	212.057922
-13854.869574	17612.064667	1222.635742	170.593414
-13854.869574	17612.064667	1221.520508	237.067825
-13854.869574	17612.064667	1220.404297	98.174889
-13854.869574	17612.064667	1219.287109	186.675461
-13854.869574	17612.064667	1218.170898	91.315613
-13854.869574	17612.064667	1217.053711	119.546822
-13854.869574	17612.064667	1215.936523	125.313980
-13854.869574	17612.064667	1214.819336	82.700256
-13854.869574	17612.064667	1213.702148	137.157959
-13854.869574	17612.064667	1212.583984	73.799080
-13854.869574	17612.064667	1211.465820	-97.866966
-13854.869574	17612.064667	1210.347656	151.994934
-13854.869574	17612.064667	1209.229492	18.540249
-13854.869574	17612.064667	1208.110352	137.906311
-13854.869574	17612.064667	1206.992188	-125.834373
-13854.869574	17612.064667	1205.873047	-98.146553
-13854.869574	17612.064667	1204.752930	-24.611153
-13854.869574	17612.064667	1203.633789	27.156969
-13854.869574	17612.064667	1202.513672	72.138252
-13854.869574	17612.064667	1201.393555	93.447754
-13854.869574	17612.064667	1200.273438	39.287815
-13854.869574	17612.064667	1199.152344	-49.010983
-13854.869574	17612.064667	1198.032227	-270.080841
-13854.869574	17612.064667	1196.911133	262.214691
-13854.869574	17612.064667	1195.790039	-105.952492
-13854.869574	17612.064667	1194.667969	-139.218750
-13854.869574	17612.064667	1193.545898	-80.128990
-13854.869574	17612.064667	1192.424805	153.352036
-13854.869574	17612.064667	1191.301758	-81.060173
-13854.869574	17612.064667	1190.179688	98.843201
-13854.869574	17612.064667	1189.056641	-52.157124
-13854.869574	17612.064667	1187.933594	138.089386
-13854.869574	17612.064667	1186.810547	297.154297
-13854.869574	17612.064667	1185.687500	46.380619
-13854.869574	17612.064667	1184.563477	73.075226
-13854.869574	17612.064667	1183.440430	-128.963669
-13854.869574	17612.064667	1182.316406	81.366615
-13854.869574	17612.064667	1181.191406	187.616058
-13854.869574	17612.064667	1180.067383	-35.657139
-13854.869574	17612.064667	1178.942383	268.206146
-13854.869574	17612.064667	1177.817383	51.220078
-13854.869574	17612.064667	1176.692383	28.274582
-13854.869574	17612.064667	1175.566406	158.707550
-13854.869574	17612.064667	1174.440430	62.310585
-13854.869574	17612.064667	1173.314453	706.311523
-13854.869574	17612.064667	1172.188477	445.410950
-13854.869574	17612.064667	1171.062500	433.807434
-13854.869574	17612.064667	1169.935547	724.555481
-13854.869574	17612.064667	1168.808594	235.105057
-13854.869574	17612.064667	1167.681641	330.797424
-13854.869574	17612.064667	1166.553711	206.831482
-13854.869574	17612.064667	1165.426758	63.289917
-13854.869574	17612.064667	1164.298828	68.592682
-13854.869574	17612.064667	1163.170898	43.752525
-13854.869574	17612.064667	1162.041992	-157.998535
-13854.869574	17612.064667	1160.914063	174.281876
-13854.869574	17612.064667	1159.785156	322.114990
-13854.869574	17612.064667	1158.656250	-77.800720
-13854.869574	17612.064667	1157.526367	69.219757
-13854.869574	17612.064667	1156.397461	-208.656219
-13854.869574	17612.064667	1155.267578	-87.280800
-13854.869574	17612.064667	1154.137695	-93.918182
-13854.869574	17612.064667	1153.006836	-180.287811
-13854.869574	17612.064667	1151.876953	13.834675
-13854.869574	17612.064667	1150.746094	-31.135588
-13854.869574	17612.064667	1149.615234	62.847935
-13854.869574	17612.064667	1148.484375	-244.990646
-13854.869574	17612.064667	1147.352539	123.273552
-13854.869574	17612.064667	1146.220703	25.280979
-13854.869574	17612.064667	1145.088867	-8.220789
-13854.869574	17612.064667	1143.957031	-135.191208
-13854.869574	17612.064667	1142.825195	22.322382
-13854.869574	17612.064667	1141.692383	-67.513138
-13854.869574	17612.064667	1140.559570	201.585526
-13854.869574	17612.064667	1139.426758	409.420685
-13854.869574	17612.064667	1138.292969	-20.840950
-13854.869574	17612.064667	1137.159180	-29.888529
-13854.869574	17612.064667	1136.025391	-11.212708
-13854.869574	17612.064667	1134.891602	-110.509209
-13854.869574	17612.064667	1133.757813	-119.379990
-13854.869574	17612.064667	1132.623047	-43.144863
-13854.869574	17612.064667	1131.488281	-96.840363
-13854.869574	17612.064667	1130.353516	74.410095
-13854.869574	17612.064667	1129.217773	-36.000553
-13854.869574	17612.064667	1128.083008	2.289097
-13854.869574	17612.064667	1126.947266	-146.639801
-13854.869574	17612.064667	1125.811523	-220.384048
-13854.869574	17612.064667	1124.674805	-372.841888
-13854.869574	17612.064667	1123.539063	-105.536201
-13854.869574	17612.064667	1122.402344	-117.466347
-13854.869574	17612.064667	1121.265625	-406.150726
-13854.869574	17612.064667	1120.127930	-388.634247
-13854.869574	17612.064667	1118.990234	-164.984055
-13854.869574	17612.064667	1117.853516	-192.872452
-13854.869574	17612.064667	1116.714844	-20.988642
-13854.869574	17612.064667	1115.577148	-19.854910
-13854.869574	17612.064667	1114.439453	189.843109
-13854.869574	17612.064667	1113.300781	131.153961
-13854.869574	17612.064667	1112.162109	-28.948055
-13854.869574	17612.064667	1111.022461	-44.789516
-13854.869574	17612.064667	1109.883789	-15.290299
-13854.869574	17612.064667	1108.744141	187.117355
-13854.869574	17612.064667	1107.604492	439.988098
-13854.869574	17612.064667	1106.463867	67.368202
-13854.869574	17612.064667	1105.324219	39.939850
-13854.869574	17612.064667	1104.183594	456.631714
-13854.869574	17612.064667	1103.042969	162.897095
-13854.869574	17612.064667	1101.902344	10.280798
-13854.869574	17612.064667	1100.760742	-163.575470
-13854.869574	17612.064667	1099.619141	342.815063
-13854.869574	17612.064667	1098.477539	551.596741
-13854.869574	17612.064667	1097.335938	398.396484
-13854.869574	17612.064667	1096.193359	374.039307
-13854.869574	17612.064667	1095.051758	312.657806
-13854.869574	17612.064667	1093.909180	296.869080
-13854.869574	17612.064667	1092.765625	208.581055
-13854.869574	17612.064667	1091.623047	473.760651
-13854.869574	17612.064667	1090.479492	91.440697
-13854.869574	17612.064667	1089.335938	275.126099
-13854.869574	17612.064667	1088.192383	301.474976
-13854.869574	17612.064667	1087.047852	338.735931
-13854.869574	17612.064667	1085.903320	378.498016
-13854.869574	17612.064667	1084.758789	375.235870
-13854.869574	17612.064667	1083.614258	35.134987
-13854.869574	17612.064667	1082.469727	179.582062
-13854.869574	17612.064667	1081.324219	163.882004
-13854.869574	17612.064667	1080.178711	346.018829
-13854.869574	17612.064667	1079.033203	16.482782
-13854.869574	17612.064667	1077.886719	-46.054207
-13854.869574	17612.064667	1076.740234	105.380371
-13854.869574	17612.064667	1075.593750	287.600983
-13854.869574	17612.064667	1074.447266	179.683868
-13854.869574	17612.064667	1073.300781	349.170074
-13854.869574	17612.064667	1072.153320	367.924591
-13854.869574	17612.064667	1071.005859	206.707458
-13854.869574	17612.064667	1069.858398	127.585091
-13854.869574	17612.064667	1068.709961	299.352081
-13854.869574	17612.064667	1067.561523	72.901382
-13854.869574	17612.064667	1066.413086	235.992874
-13854.869574	17612.064667	1065.264648	234.261414
-13854.869574	17612.064667	1064.116211	146.806717
-13854.869574	17612.064667	1062.966797	196.469971
-13854.869574	17612.064667	1061.817383	225.580032
-13854.869574	17612.064667	1060.667969	234.377274
-13854.869574	17612.064667	1059.517578	95.679283
-13854.869574	17612.064667	1058.368164	161.892258
-13854.869574	17612.064667	1057.217773	209.725403
-13854.869574	17612.064667	1056.067383	405.918091
-13854.869574	17612.064667	1054.916016	-98.009178
-13854.869574	17612.064667	1053.764648	211.267059
-13854.869574	17612.064667	1052.613281	199.100525
-13854.869574	17612.064667	1051.461914	-54.264481
-13854.869574	17612.064667	1050.310547	113.371483
-13854.869574	17612.064667	1049.158203	176.011078
-13854.869574	17612.064667	1048.005859	263.142181
-13854.869574	17612.064667	1046.853516	-162.492828
-13854.869574	17612.064667	1045.700195	179.067581
-13854.869574	17612.064667	1044.547852	267.406891
-13854.869574	17612.064667	1043.394531	281.533752
-13854.869574	17612.064667	1042.240234	174.930695
-13854.869574	17612.064667	1041.086914	361.441315
-13854.869574	17612.064667	1039.932617	321.499725
-13854.869574	17612.064667	1038.778320	315.647095
-13854.869574	17612.064667	1037.624023	260.465668
-13854.869574	17612.064667	1036.469727	240.799500
-13854.869574	17612.064667	1035.314453	206.709274
-13854.869574	17612.064667	1034.159180	589.234375
-13854.869574	17612.064667	1033.003906	590.882935
-13854.869574	17612.064667	1031.847656	503.815033
-13854.869574	17612.064667	1030.692383	541.560974
-13854.869574	17612.064667	1029.536133	817.091003
-13854.869574	17612.064667	1028.378906	212.030273
-13854.869574	17612.064667	1027.222656	690.342957
-13854.869574	17612.064667	1026.065430	573.532288
-13854.869574	17612.064667	1024.908203	460.682983
-13854.869574	17612.064667	1023.750977	376.369720
-13854.869574	17612.064667	1022.593750	301.877960
-13854.869574	17612.064667	1021.435547	286.343933
-13854.869574	17612.064667	1020.277344	302.809784
-13854.869574	17612.064667	1019.119141	113.641068
-13854.869574	17612.064667	1017.959961	57.321564
-13854.869574	17612.064667	1016.800781	-51.499023
-13854.869574	17612.064667	1015.641602	455.738281
-13854.869574	17612.064667	1014.482422	84.477211
-13854.869574	17612.064667	1013.323242	234.216217
-13854.869574	17612.064667	1012.163086	81.040390
-13854.869574	17612.064667	1011.002930	227.732513
-13854.869574	17612.064667	1009.842773	211.263702
-13854.869574	17612.064667	1008.681641	2.994290
-13854.869574	17612.064667	1007.520508	167.886932
-13854.869574	17612.064667	1006.359375	322.932281
-13854.869574	17612.064667	1005.198242	141.890533
-13854.869574	17612.064667	1004.037109	78.406624
-13854.869574	17612.064667	1002.875000	695.475464
-13854.869574	17612.064667	1001.712891	484.348999
-13854.869574	17612.064667	1000.550781	489.320648
-13854.869574	17612.064667	999.387695	418.891022
-13854.869574	17612.064667	998.224609	91.511467
-13854.869574	17612.064667	997.061523	323.994934
-13854.869574	17612.064667	995.898438	222.640717
-13854.869574	17612.064667	994.734375	82.459000
-13854.869574	17612.064667	993.571289	-143.190399
-13854.869574	17612.064667	992.407227	337.952667
-13854.869574	17612.064667	991.242188	-13.213038
-13854.869574	17612.064667	990.078125	22.768282
-13854.869574	17612.064667	988.913086	-204.739960
-13854.869574	17612.064667	987.748047	-218.955902
-13854.869574	17612.064667	986.583008	231.156082
-13854.869574	17612.064667	985.416992	137.055084
-13854.869574	17612.064667	984.250977	23.493805
-13854.869574	17612.064667	983.084961	-209.693283
-13854.869574	17612.064667	981.918945	7.730618
-13854.869574	17612.064667	980.751953	-89.658363
-13854.869574	17612.064667	979.584961	-150.570236
-13854.869574	17612.064667	978.417969	-78.088516
-13854.869574	17612.064667	977.250977	-452.968567
-13854.869574	17612.064667	976.083008	-220.444962
-13854.869574	17612.064667	974.915039	-321.006866
-13854.869574	17612.064667	973.747070	-301.636169
-13854.869574	17612.064667	972.579102	-80.701584
-13854.869574	17612.064667	971.410156	-37.957317
-13854.869574	17612.064667	970.242188	120.559662
-13854.869574	17612.064667	969.072266	-365.961334
-13854.869574	17612.064667	967.903320	-376.722351
-13854.869574	17612.064667	966.733398	96.796822
-13854.869574	17612.064667	965.563477	-44.330212
-13854.869574	17612.064667	964.393555	19.477135
-13854.869574	17612.064667	963.223633	-67.073624
-13854.869574	17612.064667	962.052734	134.557907
-13854.869574	17612.064667	960.881836	-243.433395
-13854.869574	17612.064667	959.710938	22.210777
-13854.869574	17612.064667	958.540039	210.576859
-13854.869574	17612.064667	957.368164	438.843750
-13854.869574	17612.064667	956.196289	357.267059
-13854.869574	17612.064667	955.024414	314.034729
-13854.869574	17612.064667	953.851563	57.831455
-13854.869574	17612.064667	952.679688	-97.538826
-13854.869574	17612.064667	951.506836	-48.357666
-13854.869574	17612.064667	950.333984	-15.250193
-13854.869574	17612.064667	949.160156	-50.664669
-13854.869574	17612.064667	947.986328	73.060951
-13854.869574	17612.064667	946.812500	14.470095
-13854.869574	17612.064667	945.638672	170.969498
-13854.869574	17612.064667	944.464844	-94.553680
-13854.869574	17612.064667	943.290039	-388.206024
-13854.869574	17612.064667	942.115234	-149.016800
-13854.869574	17612.064667	940.940430	-164.801926
-13854.869574	17612.064667	939.764648	-77.677887
-13854.869574	17612.064667	938.588867	60.878891
-13854.869574	17612.064667	937.413086	-63.566685
-13854.869574	17612.064667	936.237305	-55.139168
-13854.869574	17612.064667	935.060547	-68.468819
-13854.869574	17612.064667	933.883789	-232.145248
-13854.869574	17612.064667	932.707031	465.214813
-13854.869574	17612.064667	931.530273	116.857841
-13854.869574	17612.064667	930.352539	-270.430481
-13854.869574	17612.064667	929.175781	-25.505333
-13854.869574	17612.064667	927.998047	4.272450
-13854.869574	17612.064667	926.819336	138.373932
-13854.869574	17612.064667	925.641602	-138.016907
-13854.869574	17612.064667	924.462891	-17.052010
-13854.869574	17612.064667	923.284180	-106.721222
-13854.869574	17612.064667	922.104492	-161.649231
-13854.869574	17612.064667	920.924805	124.133156
-13854.869574	17612.064667	919.746094	131.044434
-13854.869574	17612.064667	919.551758	122.341965
-13854.869574	17612.064667	918.386719	4.335736
-13854.869574	17612.064667	917.220703	200.842316
-13854.869574	17612.064667	916.054688	-101.485435
-13854.869574	17612.064667	914.887695	159.960022
-13854.869574	17612.064667	913.721680	70.134552
-13854.869574	17612.064667	912.554688	-125.858452
-13854.869574	17612.064667	911.387695	191.698364
-13854.869574	17612.064667	910.220703	216.670578
-13854.869574	17612.064667	909.052734	282.763275
-13854.869574	17612.064667	907.885742	-60.438633
-13854.869574	17612.064667	906.717773	118.216873
-13854.869574	17612.064667	905.548828	-205.361755
-13854.869574	17612.064667	904.380859	-111.185196
-13854.869574	17612.064667	903.211914	91.115227
-13854.869574	17612.064667	902.042969	-80.903191
-13854.869574	17612.064667	900.874023	103.968819
-13854.869574	17612.064667	899.704102	24.961565
-13854.869574	17612.064667	898.535156	-71.332001
-13854.869574	17612.064667	897.365234	355.446838
-13854.869574	17612.064667	896.194336	339.052216
-13854.869574	17612.064667	895.024414	65.545891
-13854.869574	17612.064667	893.853516	-121.459610
-13854.869574	17612.064667	892.682617	190.456375
-13854.869574	17612.064667	891.511719	-7.328964
-13854.869574	17612.064667	890.340820	92.848656
-13854.869574	17612.064667	889.168945	-25.009192
-13854.869574	17612.064667	887.997070	245.572891
-13854.869574	17612.064667	886.825195	-113.928345
-13854.869574	17612.064667	885.653320	-91.520508
-13854.869574	17612.064667	884.480469	209.055710
-13854.869574	17612.064667	883.307617	168.836258
-13854.869574	17612.064667	882.134766	292.444366
-13854.869574	17612.064667	880.961914	146.589188
-13854.869574	17612.064667	879.788086	74.045563
-13854.869574	17612.064667	878.614258	-119.125137
-13854.869574	17612.064667	877.440430	34.538177
-13854.869574	17612.064667	876.266602	93.373528
-13854.869574	17612.064667	875.091797	5.772863
-13854.869574	17612.064667	873.916992	-131.315704
-13854.869574	17612.064667	872.742188	304.094269
-13854.869574	17612.064667	871.567383	-317.149445
-13854.869574	17612.064667	870.391602	193.389923
-13854.869574	17612.064667	869.215820	110.090202
-13854.869574	17612.064667	868.040039	-57.050480
-13854.869574	17612.064667	866.864258	162.842941
-13854.869574	17612.064667	865.687500	17.230623
-13854.869574	17612.064667	864.510742	-29.484219
-13854.869574	17612.064667	863.333984	-121.311295
-13854.869574	17612.064667	862.157227	227.249420
-13854.869574	17612.064667	860.979492	-72.941605
-13854.869574	17612.064667	859.802734	54.271725
-13854.869574	17612.064667	858.625000	228.655197
-13854.869574	17612.064667	857.446289	-79.976768
-13854.869574	17612.064667	856.268555	128.668686
-13854.869574	17612.064667	855.089844	-119.769691
-13854.869574	17612.064667	853.911133	157.416031
-13854.869574	17612.064667	852.731445	-163.866943
-13854.869574	17612.064667	851.552734	-189.142120
-13854.869574	17612.064667	850.373047	-124.380241
-13854.869574	17612.064667	849.193359	210.394211
-13854.869574	17612.064667	848.013672	-29.266094
-13854.869574	17612.064667	846.833008	43.954140
-13854.869574	17612.064667	845.652344	40.018738
-13854.869574	17612.064667	844.471680	16.796753
-13854.869574	17612.064667	843.291016	62.084957
-13854.869574	17612.064667	842.110352	100.916451
-13854.869574	17612.064667	840.928711	-104.262733
-13854.869574	17612.064667	839.747070	-294.393036
-13854.869574	17612.064667	838.564453	-236.294067
-13854.869574	17612.064667	837.382813	-19.963749
-13854.869574	17612.064667	836.200195	-137.328323
-13854.869574	17612.064667	835.017578	-438.531342
-13854.869574	17612.064667	833.834961	-34.229206
-13854.869574	17612.064667	832.651367	-247.733871
-13854.869574	17612.064667	831.467773	-102.204475
-13854.869574	17612.064667	830.284180	75.292358
-13854.869574	17612.064667	829.100586	133.094345
-13854.869574	17612.064667	827.916992	-54.710854
-13854.869574	17612.064667	826.732422	-82.333694
-13854.869574	17612.064667	825.547852	-188.937225
-13854.869574	17612.064667	824.363281	-212.289246
-13854.869574	17612.064667	823.177734	97.198509
-13854.869574	17612.064667	821.992188	-120.349861
-13854.869574	17612.064667	820.806641	71.653282
-13854.869574	17612.064667	819.621094	-130.911469
-13854.869574	17612.064667	818.434570	-126.619987
-13854.869574	17612.064667	817.249023	-113.829185
-13854.869574	17612.064667	816.062500	156.787964
-13854.869574	17612.064667	814.875000	143.918625
-13854.869574	17612.064667	813.688477	-28.727657
-13854.869574	17612.064667	812.500977	-301.411865
-13854.869574	17612.064667	811.313477	211.671814
-13854.869574	17612.064667	810.125977	-16.285540
-13854.869574	17612.064667	808.937500	-139.881485
-13854.869574	17612.064667	807.749023	253.629272
-13854.869574	17612.064667	806.560547	-57.230183
-13854.869574	17612.064667	805.372070	-151.028549
-13854.869574	17612.064667	804.182617	-129.972855
-13854.869574	17612.064667	802.994141	-162.107178
-13854.869574	17612.064667	801.803711	-90.085144
-13854.869574	17612.064667	800.614258	387.800812
-13854.869574	17612.064667	799.424805	83.536995
-13854.869574	17612.064667	798.234375	-199.380630
-13854.869574	17612.064667	797.043945	-19.189095
-13854.869574	17612.064667	795.852539	-149.124893
-13854.869574	17612.064667	794.662109	154.065002
-13854.869574	17612.064667	793.470703	-43.828362
-13854.869574	17612.064667	792.279297	-139.801727
-13854.869574	17612.064667	791.087891	35.816353
-13854.869574	17612.064667	789.895508	-174.736145
-13854.869574	17612.064667	788.703125	47.423016
-13854.869574	17612.064667	787.510742	-194.909729
-13854.869574	17612.064667	786.318359	88.581573
-13854.869574	17612.064667	785.125000	147.259796
-13854.869574	17612.064667	783.931641	-141.649017
-13854.869574	17612.064667	782.738281	39.872276
-13854.869574	17612.064667	781.544922	73.012657
-13854.869574	17612.064667	780.350586	152.701279
-13854.869574	17612.064667	779.156250	69.291229
-13854.869574	17612.064667	777.961914	280.129700
-13854.869574	17612.064667	776.767578	294.016998
-13854.869574	17612.064667	775.572266	79.339203
-13854.869574	17612.064667	774.376953	78.388924
-13854.869574	17612.064667	773.181641	123.937187
-13854.869574	17612.064667	771.986328	99.647575
-13854.869574	17612.064667	770.790039	238.132568
-13854.869574	17612.064667	769.593750	245.466171
-13854.869574	17612.064667	768.397461	295.026825
-13854.869574	17612.064667	767.201172	-130.879349
-13854.869574	17612.064667	766.003906	-24.294273
-13854.869574	17612.064667	764.806641	-88.868439
-13854.869574	17612.064667	763.609375	663.739441
-13854.869574	17612.064667	762.412109	149.290649
-13854.869574	17612.064667	761.213867	259.795807
-13854.869574	17612.064667	760.015625	157.075272
-13854.869574	17612.064667	758.817383	191.497665
-13854.869574	17612.064667	757.618164	194.225922
-13854.869574	17612.064667	756.419922	367.733521
-13854.869574	17612.064667	755.220703	279.670898
-13854.869574	17612.064667	754.021484	117.819572
-13854.869574	17612.064667	752.821289	46.623512
-13854.869574	17612.064667	751.621094	53.381817
-13854.869574	17612.064667	750.420898	201.246353
-13854.869574	17612.064667	749.220703	313.195160
-13854.869574	17612.064667	748.020508	425.052002
-13854.869574	17612.064667	746.819336	250.475540
-13854.869574	17612.064667	745.618164	452.726013
-13854.869574	17612.064667	744.416992	-142.794693
-13854.869574	17612.064667	743.214844	383.400146
-13854.869574	17612.064667	742.012695	299.250519
-13854.869574	17612.064667	740.810547	-30.994001
-13854.869574	17612.064667	739.608398	103.574341
-13854.869574	17612.064667	738.406250	-205.566376
-13854.869574	17612.064667	737.203125	149.589920
-13854.869574	17612.064667	736.000000	256.569397
-13854.869574	17612.064667	734.795898	535.745239
-13854.869574	17612.064667	733.592773	453.440125
-13854.869574	17612.064667	732.388672	201.002335
-13854.869574	17612.064667	731.184570	343.374268
-13854.869574	17612.064667	729.979492	246.311783
-13854.869574	17612.064667	728.775391	497.651520
-13854.869574	17612.064667	727.570313	387.899750
-13854.869574	17612.064667	726.365234	53.655262
-13854.869574	17612.064667	725.160156	6.861070
-13854.869574	17612.064667	723.954102	83.765038
-13854.869574	17612.064667	722.748047	49.456387
-13854.869574	17612.064667	721.541992	319.061737
-13854.869574	17612.064667	720.334961	420.836609
-13854.869574	17612.064667	719.128906	164.200531
-13854.869574	17612.064667	717.921875	-140.565552
-13854.869574	17612.064667	716.714844	13.434487
-13854.869574	17612.064667	715.506836	100.301804
-13854.869574	17612.064667	714.298828	40.524426
-13854.869574	17612.064667	713.090820	-128.134247
-13854.869574	17612.064667	711.882813	259.889984
-13854.869574	17612.064667	710.674805	124.616371
-13854.869574	17612.064667	709.465820	-50.402920
-13854.869574	17612.064667	708.256836	228.431763
-13854.869574	17612.064667	707.047852	145.348694
-13854.869574	17612.064667	705.837891	-222.072723
-13854.869574	17612.064667	704.627930	45.991951
-13854.869574	17612.064667	703.417969	-120.766060
-13854.869574	17612.064667	702.208008	220.168701
-13854.869574	17612.064667	700.998047	297.712128
-13854.869574	17612.064667	699.787109	-136.484329
-13854.869574	17612.064667	698.576172	-119.570518
-13854.869574	17612.064667	697.364258	164.474106
-13854.869574	17612.064667	696.153320	3.797564
-13854.869574	17612.064667	694.941406	49.702759
-13854.869574	17612.064667	693.729492	108.042030
-13854.869574	17612.064667	692.516602	299.783051
-13854.869574	17612.064667	691.304688	155.650513
-13854.869574	17612.064667	690.091797	-13.500323
-13854.869574	17612.064667	688.878906	328.036682
-13854.869574	17612.064667	687.665039	210.897064
-13854.869574	17612.064667	686.451172	135.414017
-13854.869574	17612.064667	685.237305	380.698944
-13854.869574	17612.064667	684.023438	269.683563
-13854.869574	17612.064667	682.809570	191.969559
-13854.869574	17612.064667	681.594727	565.973511
-13854.869574	17612.064667	680.379883	777.411865
-13854.869574	17612.064667	679.165039	216.687027
-13854.869574	17612.064667	677.949219	467.516388
-13854.869574	17612.064667	676.733398	768.100830
-13854.869574	17612.064667	675.517578	563.157410
-13854.869574	17612.064667	674.301758	393.584808
-13854.869574	17612.064667	673.084961	338.354126
-13854.869574	17612.064667	671.869141	459.736786
-13854.869574	17612.064667	670.651367	763.858398
-13854.869574	17612.064667	669.434570	398.871338
-13854.869574	17612.064667	668.216797	571.910767
-13854.869574	17612.064667	667.000000	287.982971
-13854.869574	17612.064667	665.781250	381.963043
-13854.869574	17612.064667	664.563477	388.668091
-13854.869574	17612.064667	663.344727	264.572845
-13854.869574	17612.064667	662.125977	306.455261
-13854.869574	17612.064667	660.907227	375.227905
-13854.869574	17612.064667	659.688477	398.289703
-13854.869574	17612.064667	658.468750	383.963074
-13854.869574	17612.064667	657.249023	520.916870
-13854.869574	17612.064667	656.029297	545.837158
-13854.869574	17612.064667	654.808594	740.608826
-13854.869574	17612.064667	653.587891	218.432098
-13854.869574	17612.064667	652.367188	357.159241
-13854.869574	17612.064667	651.146484	431.576050
-13854.869574	17612.064667	649.924805	129.100525
-13854.869574	17612.064667	648.704102	567.742493
-13854.869574	17612.064667	647.482422	2.434903
-13854.869574	17612.064667	646.259766	540.131531
-13854.869574	17612.064667	645.037109	328.704956
-13854.869574	17612.064667	643.815430	291.047516
-13854.869574	17612.064667	642.591797	354.678925
-13854.869574	17612.064667	641.369141	267.321381
-13854.869574	17612.064667	640.145508	165.485641
-13854.869574	17612.064667	638.921875	483.136444
-13854.869574	17612.064667	637.698242	523.763000
-13854.869574	17612.064667	636.474609	423.870148
-13854.869574	17612.064667	635.250000	367.344513
-13854.869574	17612.064667	634.025391	195.176407
-13854.869574	17612.064667	632.800781	293.460632
-13854.869574	17612.064667	631.575195	373.085693
-13854.869574	17612.064667	630.349609	110.118294
-13854.869574	17612.064667	629.124023	152.539978
-13854.869574	17612.064667	627.898438	283.597992
-13854.869574	17612.064667	626.671875	428.997223
-13854.869574	17612.064667	625.445313	21.779211
-13854.869574	17612.064667	624.218750	208.329880
-13854.869574	17612.064667	622.992188	184.570389
-13854.869574	17612.064667	621.764648	76.316986
-13854.869574	17612.064667	620.537109	268.824249
-13854.869574	17612.064667	619.309570	177.017273
-13854.869574	17612.064667	618.081055	54.333447
-13854.869574	17612.064667	616.852539	104.599709
-13854.869574	17612.064667	615.624023	154.819382
-13854.869574	17612.064667	614.395508	-282.681976
-13854.869574	17612.064667	613.166992	22.657625
-13854.869574	17612.064667	611.937500	-204.874847
-13854.869574	17612.064667	610.708008	-117.700302
-13854.869574	17612.064667	609.477539	-310.191864
-13854.869574	17612.064667	608.248047	33.875740
-13854.869574	17612.064667	607.017578	137.336807
-13854.869574	17612.064667	605.787109	-517.424744
-13854.869574	17612.064667	604.555664	-107.838654
-13854.869574	17612.064667	603.325195	1.715011
-13854.869574	17612.064667	602.093750	207.719009
-13854.869574	17612.064667	600.861328	-113.967659
-13854.869574	17612.064667	599.629883	147.378510
-13854.869574	17612.064667	598.397461	-40.785088
-13854.869574	17612.064667	597.165039	-271.955231
-13854.869574	17612.064667	595.932617	-382.007263
-13854.869574	17612.064667	594.699219	-209.013351
-13854.869574	17612.064667	593.465820	-54.542576
-13854.869574	17612.064667	592.232422	-318.302216
-13854.869574	17612.064667	590.999023	-295.025024
-13854.869574	17612.064667	589.764648	154.437607
-13854.869574	17612.064667	588.530273	-178.823196
-13854.869574	17612.064667	587.295898	-28.579166
-13854.869574	17612.064667	586.061523	-52.437996
-13854.869574	17612.064667	584.826172	32.231384
-13854.869574	17612.064667	583.590820	-302.712311
-13854.869574	17612.064667	582.355469	-179.109207
-13854.869574	17612.064667	581.119141	-284.683624
-13854.869574	17612.064667	579.882813	-386.100311
-13854.869574	17612.064667	578.646484	-43.672062
-13854.869574	17612.064667	577.410156	-132.779953
-13854.869574	17612.064667	576.172852	-305.634583
-13854.869574	17612.064667	574.935547	10.067931
-13854.869574	17612.064667	573.698242	-93.211731
-13854.869574	17612.064667	572.460938	-210.714081
-13854.869574	17612.064667	571.222656	215.153107
-13854.869574	17612.064667	569.984375	-73.825935
-13854.869574	17612.064667	568.746094	-38.034332
-13854.869574	17612.064667	567.506836	-55.288006
-13854.869574	17612.064667	566.267578	58.109245
-13854.869574	17612.064667	565.028320	-112.094879
-13854.869574	17612.064667	563.789063	38.069954
-13854.869574	17612.064667	562.548828	31.182434
-13854.869574	17612.064667	561.309570	120.175827
-13854.869574	17612.064667	560.068359	58.330025
-13854.869574	17612.064667	558.828125	-58.467793
-13854.869574	17612.064667	557.586914	81.578918
-13854.869574	17612.064667	556.345703	-153.226700
-13854.869574	17612.064667	555.104492	13.366730
-13854.869574	17612.064667	553.863281	21.110592
-13854.869574	17612.064667	552.621094	35.015324
-13854.869574	17612.064667	551.378906	-119.967827
-13854.869574	17612.064667	550.136719	-364.368866
-13854.869574	17612.064667	548.893555	66.883240
-13854.869574	17612.064667	547.650391	50.497265
-13854.869574	17612.064667	546.407227	32.148148
-13854.869574	17612.064667	545.164063	428.663116
-13854.869574	17612.064667	543.919922	186.757721
-13854.869574	17612.064667	542.675781	101.521210
-13854.869574	17612.064667	541.431641	-199.002563
-13854.869574	17612.064667	540.186523	36.999577
-13854.869574	17612.064667	538.941406	179.540375
-13854.869574	17612.064667	537.696289	151.513077
-13854.869574	17612.064667	536.451172	438.254242
-13854.869574	17612.064667	535.205078	477.311401
-13854.869574	17612.064667	533.959961	41.550121
-13854.869574	17612.064667	532.712891	-47.003353
-13854.869574	17612.064667	531.466797	-38.077728
-13854.869574	17612.064667	530.219727	112.880455
-13854.869574	17612.064667	528.972656	209.103531
-13854.869574	17612.064667	527.725586	84.394241
-13854.869574	17612.064667	526.478516	294.227142
-13854.869574	17612.064667	525.230469	366.253021
-13854.869574	17612.064667	523.982422	227.631317
-13854.869574	17612.064667	522.734375	417.263977
-13854.869574	17612.064667	521.485352	128.985245
-13854.869574	17612.064667	520.236328	35.260643
-13854.869574	17612.064667	518.987305	158.233994
-13854.869574	17612.064667	517.737305	-74.950134
-13854.869574	17612.064667	516.488281	276.764069
-13854.869574	17612.064667	515.238281	201.576630
-13854.869574	17612.064667	513.988281	185.137665
-13854.869574	17612.064667	512.737305	457.915680
-13854.869574	17612.064667	511.486328	227.277191
-13854.869574	17612.064667	510.235352	285.820099
-13854.869574	17612.064667	508.984375	524.237915
-13854.869574	17612.064667	507.732422	376.748566
-13854.869574	17612.064667	506.480469	433.378021
-13854.869574	17612.064667	505.228516	366.858246
-13854.869574	17612.064667	503.976563	514.424927
-13854.869574	17612.064667	502.723633	663.998779
-13854.869574	17612.064667	501.470703	866.024658
-13854.869574	17612.064667	500.217773	737.114685
-13854.869574	17612.064667	498.963867	680.921387
-13854.869574	17612.064667	497.709961	727.642883
-13854.869574	17612.064667	496.456055	1046.582031
-13854.869574	17612.064667	495.202148	1061.014160
-13854.869574	17612.064667	493.947266	898.104858
-13854.869574	17612.064667	492.692383	1317.629272
-13854.869574	17612.064667	491.437500	1311.908936
-13854.869574	17612.064667	490.181641	1278.006958
-13854.869574	17612.064667	488.926758	1205.862183
-13854.869574	17612.064667	487.670898	1260.587891
-13854.869574	17612.064667	486.414063	1419.955688
-13854.869574	17612.064667	485.158203	1565.155518
-13854.869574	17612.064667	483.901367	1597.604370
-13854.869574	17612.064667	482.644531	1457.020874
-13854.869574	17612.064667	481.386719	1346.637817
-13854.869574	17612.064667	480.128906	1620.306030
-13854.869574	17612.064667	478.871094	2024.477173
-13854.869574	17612.064667	477.613281	1837.531982
-13854.869574	17612.064667	476.355469	1656.636353
-13854.869574	17612.064667	475.096680	1937.810791
-13854.869574	17612.064667	473.837891	2056.093750
-13854.869574	17612.064667	472.578125	2057.772705
-13854.869574	17612.064667	471.319336	2123.596924
-13854.869574	17612.064667	470.059570	2046.774170
-13854.869574	17612.064667	468.799805	1953.812500
-13854.869574	17612.064667	467.539063	1963.089233
-13854.869574	17612.064667	466.278320	1881.957275
-13854.869574	17612.064667	465.017578	1957.139893
-13854.869574	17612.064667	463.756836	2096.287354
-13854.869574	17612.064667	462.495117	1902.435059
-13854.869574	17612.064667	461.233398	2185.477539
-13854.869574	17612.064667	459.971680	2127.560303
-13854.869574	17612.064667	458.709961	2141.572266
-13854.869574	17612.064667	457.447266	2385.684570
-13854.869574	17612.064667	456.184570	2090.785156
-13854.869574	17612.064667	454.921875	2068.033203
-13854.869574	17612.064667	453.658203	2453.341797
-13854.869574	17612.064667	452.394531	2227.840332
-13854.869574	17612.064667	451.130859	2196.201660
-13854.869574	17612.064667	449.867188	2340.282227
-13854.869574	17612.064667	448.602539	2291.968750
-13854.869574	17612.064667	447.337891	2247.317139
-13854.869574	17612.064667	446.073242	2574.120850
-13854.869574	17612.064667	444.807617	2530.649414
-13854.869574	17612.064667	443.542969	2458.806152
-13854.869574	17612.064667	442.276367	2666.231689
-13854.869574	17612.064667	441.010742	2457.675537
-13854.869574	17612.064667	439.744141	2426.445557
-13854.869574	17612.064667	438.478516	2454.622803
-13854.869574	17612.064667	437.210938	2444.327148
-13854.869574	17612.064667	435.944336	2405.552734
-13854.869574	17612.064667	434.676758	2601.638184
-13854.869574	17612.064667	433.409180	2872.834717
-13854.869574	17612.064667	432.141602	2899.990234
-13854.869574	17612.064667	430.873047	2846.719727
-13854.869574	17612.064667	429.604492	2766.876953
-13854.869574	17612.064667	428.335938	2963.379883
-13854.869574	17612.064667	427.067383	2738.635498
-13854.869574	17612.064667	425.797852	2732.343262
-13854.869574	17612.064667	424.528320	2786.995117
-13854.869574	17612.064667	423.258789	2707.380615
-13854.869574	17612.064667	421.988281	2726.466064
-13854.869574	17612.064667	420.717773	2631.194092
-13854.869574	17612.064667	419.447266	2964.859619
-13854.869574	17612.064667	418.175781	2774.162354
-13854.869574	17612.064667	416.905273	2664.111572
-13854.869574	17612.064667	415.633789	3072.090088
-13854.869574	17612.064667	414.362305	3130.877686
-13854.869574	17612.064667	413.089844	3055.327393
-13854.869574	17612.064667	411.817383	3026.351318
-13854.869574	17612.064667	410.544922	3157.132080
-13854.869574	17612.064667	409.272461	2998.575928
-13854.869574	17612.064667	407.999023	2928.161377
-13854.869574	17612.064667	406.725586	3094.725586
-13854.869574	17612.064667	405.452148	3095.076172
-13854.869574	17612.064667	404.177734	2913.374756
-13854.869574	17612.064667	402.903320	3188.666992
-13854.869574	17612.064667	401.628906	2754.073730
-13854.869574	17612.064667	400.354492	2944.884277
-13854.869574	17612.064667	399.079102	3042.750977
-13854.869574	17612.064667	397.803711	3057.623779
-13854.869574	17612.064667	396.528320	2890.392334
-13854.869574	17612.064667	395.251953	2802.679688
-13854.869574	17612.064667	393.976563	2836.050049
-13854.869574	17612.064667	392.700195	2998.224854
-13854.869574	17612.064667	391.422852	3132.602051
-13854.869574	17612.064667	390.145508	3007.510498
-13854.869574	17612.064667	388.869141	2850.752930
-13854.869574	17612.064667	387.590820	3093.622803
-13854.869574	17612.064667	386.313477	2894.955322
-13854.869574	17612.064667	385.035156	2599.115234
-13854.869574	17612.064667	383.756836	3030.911377
-13854.869574	17612.064667	382.478516	2864.915283
-13854.869574	17612.064667	381.199219	2773.578857
-13854.869574	17612.064667	379.919922	2893.217285
-13854.869574	17612.064667	378.640625	3027.977783
-13854.869574	17612.064667	377.360352	2881.362305
-13854.869574	17612.064667	376.080078	2495.010986
-13854.869574	17612.064667	374.799805	2579.955078
-13854.869574	17612.064667	373.519531	2719.199463
-13854.869574	17612.064667	372.238281	2525.661621
-13854.869574	17612.064667	370.957031	2733.700684
-13854.869574	17612.064667	369.675781	2788.520752
-13854.869574	17612.064667	368.394531	2232.465332
-13854.869574	17612.064667	367.112305	2513.424072
-13854.869574	17612.064667	365.830078	2345.181641
-13854.869574	17612.064667	364.546875	2185.231934
-13854.869574	17612.064667	363.264648	2315.484863
-13854.869574	17612.064667	361.981445	2030.026978
-13854.869574	17612.064667	360.698242	2000.931152
-13854.869574	17612.064667	359.414063	2174.654541
-13854.869574	17612.064667	358.129883	2289.134277
-13854.869574	17612.064667	356.845703	2021.413574
-13854.869574	17612.064667	355.561523	2092.078125
-13854.869574	17612.064667	354.276367	1868.968384
-13854.869574	17612.064667	352.991211	2196.347900
-13854.869574	17612.064667	351.706055	1810.845093
-13854.869574	17612.064667	350.420898	1784.661865
-13854.869574	17612.064667	349.134766	1741.772339
-13854.869574	17612.064667	347.848633	1699.868408
-13854.869574	17612.064667	346.561523	1623.325806
-13854.869574	17612.064667	345.275391	1364.914307
-13854.869574	17612.064667	343.988281	1596.251709
-13854.869574	17612.064667	342.700195	1297.488647
-13854.869574	17612.064667	341.413086	1403.837280
-13854.869574	17612.064667	340.125000	1254.955811
-13854.869574	17612.064667	338.836914	1322.092896
-13854.869574	17612.064667	337.548828	1198.750732
-13854.869574	17612.064667	336.259766	1190.817505
-13854.869574	17612.064667	334.970703	980.451294
-13854.869574	17612.064667	333.681641	832.386536
-13854.869574	17612.064667	332.391602	961.941833
-13854.869574	17612.064667	331.101563	876.905762
-13854.869574	17612.064667	329.811523	171.582520
-13854.869574	17612.064667	328.521484	490.164246
-13854.869574	17612.064667	327.230469	664.069885
-13854.869574	17612.064667	325.939453	542.596619
-13854.869574	17612.064667	324.648438	676.009521
-13854.869574	17612.064667	323.356445	409.881195
-13854.869574	17612.064667	322.064453	167.265793
-13854.869574	17612.064667	320.772461	321.735596
-13854.869574	17612.064667	319.480469	84.402634
-13854.869574	17612.064667	318.187500	468.313934
-13854.869574	17612.064667	316.894531	-208.699936
-13854.869574	17612.064667	315.601563	71.576462
-13854.869574	17612.064667	314.307617	-134.519608
-13854.869574	17612.064667	313.013672	-195.390900
-13854.869574	17612.064667	311.719727	-242.242554
-13854.869574	17612.064667	310.425781	125.162254
-13854.869574	17612.064667	309.130859	-275.514709
-13854.869574	17612.064667	307.835938	-307.307526
-13854.869574	17612.064667	306.541016	54.697071
-13854.869574	17612.064667	305.245117	-109.557076
-13854.869574	17612.064667	303.949219	-3.515053
-13854.869574	17612.064667	302.653320	159.756165
-13854.869574	17612.064667	301.356445	502.538971
-13854.869574	17612.064667	300.060547	713.129761
-13854.869574	17612.064667	298.763672	566.495178
