#X		#Y		#Wave		#Intensity
12480.082021	3951.239833	1999.980469	-91.744652
12480.082021	3951.239833	1999.016602	292.685822
12480.082021	3951.239833	1998.052734	71.807480
12480.082021	3951.239833	1997.087891	36.913006
12480.082021	3951.239833	1996.123047	-35.084942
12480.082021	3951.239833	1995.158203	83.739471
12480.082021	3951.239833	1994.193359	370.987823
12480.082021	3951.239833	1993.228516	73.774384
12480.082021	3951.239833	1992.262695	51.531658
12480.082021	3951.239833	1991.297852	276.889801
12480.082021	3951.239833	1990.332031	-94.246178
12480.082021	3951.239833	1989.366211	-193.005081
12480.082021	3951.239833	1988.399414	-98.712097
12480.082021	3951.239833	1987.433594	77.227272
12480.082021	3951.239833	1986.466797	-201.900711
12480.082021	3951.239833	1985.500977	199.099762
12480.082021	3951.239833	1984.534180	-15.572749
12480.082021	3951.239833	1983.567383	306.241547
12480.082021	3951.239833	1982.599609	39.824116
12480.082021	3951.239833	1981.632813	-26.306467
12480.082021	3951.239833	1980.665039	169.485214
12480.082021	3951.239833	1979.697266	209.650665
12480.082021	3951.239833	1978.729492	96.745293
12480.082021	3951.239833	1977.761719	-16.069075
12480.082021	3951.239833	1976.792969	41.524410
12480.082021	3951.239833	1975.825195	-61.270878
12480.082021	3951.239833	1974.856445	169.135086
12480.082021	3951.239833	1973.887695	17.099653
12480.082021	3951.239833	1972.918945	148.832397
12480.082021	3951.239833	1971.949219	-72.109436
12480.082021	3951.239833	1970.980469	5.436893
12480.082021	3951.239833	1970.010742	9.034478
12480.082021	3951.239833	1969.041016	167.961212
12480.082021	3951.239833	1968.071289	-42.782391
12480.082021	3951.239833	1967.101563	-39.043472
12480.082021	3951.239833	1966.130859	245.565445
12480.082021	3951.239833	1965.161133	177.909546
12480.082021	3951.239833	1964.190430	-42.361660
12480.082021	3951.239833	1963.219727	5.858407
12480.082021	3951.239833	1962.249023	-9.900536
12480.082021	3951.239833	1961.277344	262.338013
12480.082021	3951.239833	1960.306641	5.469911
12480.082021	3951.239833	1959.334961	-34.766083
12480.082021	3951.239833	1958.363281	-99.545929
12480.082021	3951.239833	1957.391602	-6.866366
12480.082021	3951.239833	1956.419922	98.112755
12480.082021	3951.239833	1955.447266	-30.465914
12480.082021	3951.239833	1954.474609	-60.640858
12480.082021	3951.239833	1953.501953	-142.376663
12480.082021	3951.239833	1952.529297	122.397209
12480.082021	3951.239833	1951.556641	11.249364
12480.082021	3951.239833	1950.583984	-153.859070
12480.082021	3951.239833	1949.610352	-100.322403
12480.082021	3951.239833	1948.636719	51.435753
12480.082021	3951.239833	1947.663086	97.614784
12480.082021	3951.239833	1946.689453	-67.263672
12480.082021	3951.239833	1945.715820	89.403030
12480.082021	3951.239833	1944.741211	93.925743
12480.082021	3951.239833	1943.767578	213.768112
12480.082021	3951.239833	1942.792969	122.674721
12480.082021	3951.239833	1941.818359	144.434540
12480.082021	3951.239833	1940.842773	-47.079048
12480.082021	3951.239833	1939.868164	-103.680031
12480.082021	3951.239833	1938.892578	-84.272095
12480.082021	3951.239833	1937.916992	-72.198280
12480.082021	3951.239833	1936.941406	-20.910746
12480.082021	3951.239833	1935.965820	3.435206
12480.082021	3951.239833	1934.990234	20.445990
12480.082021	3951.239833	1934.013672	-99.644592
12480.082021	3951.239833	1933.037109	-53.213970
12480.082021	3951.239833	1932.060547	-11.679208
12480.082021	3951.239833	1931.083984	144.864868
12480.082021	3951.239833	1930.107422	-148.799606
12480.082021	3951.239833	1929.129883	68.888344
12480.082021	3951.239833	1928.153320	156.893341
12480.082021	3951.239833	1927.175781	29.694841
12480.082021	3951.239833	1926.198242	-97.445137
12480.082021	3951.239833	1925.219727	-4.548625
12480.082021	3951.239833	1924.242188	-187.824982
12480.082021	3951.239833	1923.263672	-104.704857
12480.082021	3951.239833	1922.285156	144.506287
12480.082021	3951.239833	1921.306641	-153.477905
12480.082021	3951.239833	1920.328125	-124.121513
12480.082021	3951.239833	1919.349609	-33.735317
12480.082021	3951.239833	1918.370117	193.312912
12480.082021	3951.239833	1917.391602	61.509949
12480.082021	3951.239833	1916.412109	142.045258
12480.082021	3951.239833	1915.431641	149.349258
12480.082021	3951.239833	1914.452148	-172.647018
12480.082021	3951.239833	1913.472656	12.742358
12480.082021	3951.239833	1912.492188	85.886833
12480.082021	3951.239833	1911.511719	107.799141
12480.082021	3951.239833	1910.531250	7.823694
12480.082021	3951.239833	1909.550781	239.304901
12480.082021	3951.239833	1908.569336	19.924643
12480.082021	3951.239833	1907.588867	78.328873
12480.082021	3951.239833	1906.607422	-267.618317
12480.082021	3951.239833	1905.625977	46.475674
12480.082021	3951.239833	1904.644531	319.046051
12480.082021	3951.239833	1903.662109	165.496277
12480.082021	3951.239833	1902.680664	250.499710
12480.082021	3951.239833	1901.698242	118.878311
12480.082021	3951.239833	1900.715820	157.586227
12480.082021	3951.239833	1899.733398	-139.419891
12480.082021	3951.239833	1898.750000	74.370705
12480.082021	3951.239833	1897.767578	-30.471945
12480.082021	3951.239833	1896.784180	-4.030452
12480.082021	3951.239833	1895.800781	-232.842758
12480.082021	3951.239833	1894.817383	99.765533
12480.082021	3951.239833	1893.833984	-48.864220
12480.082021	3951.239833	1892.850586	18.730465
12480.082021	3951.239833	1891.866211	6.109914
12480.082021	3951.239833	1890.881836	-149.815445
12480.082021	3951.239833	1889.897461	-60.504074
12480.082021	3951.239833	1888.913086	-92.637054
12480.082021	3951.239833	1887.927734	15.961007
12480.082021	3951.239833	1886.943359	-76.922409
12480.082021	3951.239833	1885.958008	257.169373
12480.082021	3951.239833	1884.972656	45.324707
12480.082021	3951.239833	1883.987305	168.187668
12480.082021	3951.239833	1883.001953	4.838879
12480.082021	3951.239833	1882.015625	-30.019199
12480.082021	3951.239833	1881.029297	-1.894722
12480.082021	3951.239833	1880.042969	79.478462
12480.082021	3951.239833	1879.056641	-176.014359
12480.082021	3951.239833	1878.070313	55.441780
12480.082021	3951.239833	1877.083984	211.673599
12480.082021	3951.239833	1876.096680	-58.407772
12480.082021	3951.239833	1875.109375	-93.603157
12480.082021	3951.239833	1874.122070	-92.538979
12480.082021	3951.239833	1873.134766	-118.160027
12480.082021	3951.239833	1872.146484	49.735630
12480.082021	3951.239833	1871.159180	45.741760
12480.082021	3951.239833	1870.170898	181.964752
12480.082021	3951.239833	1869.182617	-15.663439
12480.082021	3951.239833	1868.194336	-87.558296
12480.082021	3951.239833	1867.205078	-82.145149
12480.082021	3951.239833	1866.216797	80.301277
12480.082021	3951.239833	1865.227539	-23.210920
12480.082021	3951.239833	1864.238281	35.113831
12480.082021	3951.239833	1863.249023	298.670624
12480.082021	3951.239833	1862.259766	74.180702
12480.082021	3951.239833	1861.269531	23.548403
12480.082021	3951.239833	1860.279297	91.153587
12480.082021	3951.239833	1859.290039	35.550266
12480.082021	3951.239833	1858.298828	64.338463
12480.082021	3951.239833	1857.308594	95.448616
12480.082021	3951.239833	1856.318359	-13.465087
12480.082021	3951.239833	1855.327148	68.116432
12480.082021	3951.239833	1854.335938	291.856781
12480.082021	3951.239833	1853.344727	288.778015
12480.082021	3951.239833	1852.353516	104.808487
12480.082021	3951.239833	1851.362305	43.732044
12480.082021	3951.239833	1850.370117	88.604469
12480.082021	3951.239833	1849.377930	427.294891
12480.082021	3951.239833	1848.385742	178.003143
12480.082021	3951.239833	1847.393555	292.370514
12480.082021	3951.239833	1846.401367	336.762939
12480.082021	3951.239833	1845.408203	27.128281
12480.082021	3951.239833	1844.415039	66.523712
12480.082021	3951.239833	1843.421875	156.336609
12480.082021	3951.239833	1842.428711	436.091125
12480.082021	3951.239833	1841.435547	87.752808
12480.082021	3951.239833	1840.441406	-12.834421
12480.082021	3951.239833	1839.448242	66.868225
12480.082021	3951.239833	1838.454102	100.739227
12480.082021	3951.239833	1837.459961	247.465393
12480.082021	3951.239833	1836.464844	-134.736664
12480.082021	3951.239833	1835.470703	220.803574
12480.082021	3951.239833	1834.475586	100.387589
12480.082021	3951.239833	1833.480469	424.276886
12480.082021	3951.239833	1832.485352	63.470329
12480.082021	3951.239833	1831.490234	-203.677780
12480.082021	3951.239833	1830.495117	275.766968
12480.082021	3951.239833	1829.499023	207.643494
12480.082021	3951.239833	1828.502930	300.204163
12480.082021	3951.239833	1827.506836	-68.065773
12480.082021	3951.239833	1826.510742	-107.679146
12480.082021	3951.239833	1825.513672	257.919342
12480.082021	3951.239833	1824.517578	-50.571743
12480.082021	3951.239833	1823.520508	58.080280
12480.082021	3951.239833	1822.523438	343.944946
12480.082021	3951.239833	1821.526367	85.534920
12480.082021	3951.239833	1820.529297	-12.369563
12480.082021	3951.239833	1819.531250	-72.051788
12480.082021	3951.239833	1818.533203	90.911880
12480.082021	3951.239833	1817.535156	296.784149
12480.082021	3951.239833	1816.537109	203.144104
12480.082021	3951.239833	1815.539063	205.154922
12480.082021	3951.239833	1814.540039	-96.953613
12480.082021	3951.239833	1813.541992	2.945839
12480.082021	3951.239833	1812.542969	150.503174
12480.082021	3951.239833	1811.543945	-144.677307
12480.082021	3951.239833	1810.543945	241.717743
12480.082021	3951.239833	1809.544922	68.291382
12480.082021	3951.239833	1808.544922	-83.709854
12480.082021	3951.239833	1807.544922	89.277939
12480.082021	3951.239833	1806.544922	-110.763618
12480.082021	3951.239833	1805.544922	-2.645851
12480.082021	3951.239833	1804.544922	52.722260
12480.082021	3951.239833	1803.543945	-116.610512
12480.082021	3951.239833	1802.542969	86.500610
12480.082021	3951.239833	1801.541992	84.050980
12480.082021	3951.239833	1800.541016	-42.682743
12480.082021	3951.239833	1799.539063	-88.388634
12480.082021	3951.239833	1798.538086	-43.542358
12480.082021	3951.239833	1797.536133	-53.755795
12480.082021	3951.239833	1796.534180	-214.396896
12480.082021	3951.239833	1795.532227	-220.118622
12480.082021	3951.239833	1794.529297	-125.863579
12480.082021	3951.239833	1793.527344	23.040586
12480.082021	3951.239833	1792.524414	-109.538918
12480.082021	3951.239833	1791.521484	-3.922338
12480.082021	3951.239833	1790.518555	94.344872
12480.082021	3951.239833	1789.514648	111.405373
12480.082021	3951.239833	1788.511719	-14.590316
12480.082021	3951.239833	1787.507813	121.223595
12480.082021	3951.239833	1786.503906	104.449570
12480.082021	3951.239833	1785.500000	11.346947
12480.082021	3951.239833	1784.496094	-22.387438
12480.082021	3951.239833	1783.491211	-82.463280
12480.082021	3951.239833	1782.486328	-57.039158
12480.082021	3951.239833	1781.481445	-76.980667
12480.082021	3951.239833	1780.476563	76.518494
12480.082021	3951.239833	1779.471680	-119.719734
12480.082021	3951.239833	1778.465820	59.527866
12480.082021	3951.239833	1777.460938	143.487640
12480.082021	3951.239833	1776.455078	163.071045
12480.082021	3951.239833	1775.449219	118.329704
12480.082021	3951.239833	1774.442383	-254.384796
12480.082021	3951.239833	1773.436523	218.372009
12480.082021	3951.239833	1772.429688	78.141266
12480.082021	3951.239833	1771.422852	156.205780
12480.082021	3951.239833	1770.416016	-69.747108
12480.082021	3951.239833	1769.409180	34.081306
12480.082021	3951.239833	1768.402344	-189.732910
12480.082021	3951.239833	1767.394531	184.154999
12480.082021	3951.239833	1766.386719	-37.588490
12480.082021	3951.239833	1765.378906	276.501434
12480.082021	3951.239833	1764.371094	158.801712
12480.082021	3951.239833	1763.362305	240.070572
12480.082021	3951.239833	1762.354492	20.170258
12480.082021	3951.239833	1761.345703	32.374992
12480.082021	3951.239833	1760.336914	203.133591
12480.082021	3951.239833	1759.328125	91.787918
12480.082021	3951.239833	1758.318359	93.966660
12480.082021	3951.239833	1757.308594	-159.744141
12480.082021	3951.239833	1756.299805	178.312576
12480.082021	3951.239833	1755.290039	144.454163
12480.082021	3951.239833	1754.279297	37.059254
12480.082021	3951.239833	1753.269531	-174.545990
12480.082021	3951.239833	1752.258789	-88.213020
12480.082021	3951.239833	1751.249023	170.584213
12480.082021	3951.239833	1750.238281	57.851086
12480.082021	3951.239833	1749.226563	56.083500
12480.082021	3951.239833	1748.215820	146.349533
12480.082021	3951.239833	1747.204102	-323.695923
12480.082021	3951.239833	1746.193359	-42.347397
12480.082021	3951.239833	1745.181641	-113.284592
12480.082021	3951.239833	1744.168945	-238.710693
12480.082021	3951.239833	1743.157227	6.506516
12480.082021	3951.239833	1742.144531	152.278305
12480.082021	3951.239833	1741.132813	-306.446045
12480.082021	3951.239833	1740.120117	-94.925766
12480.082021	3951.239833	1739.106445	196.550110
12480.082021	3951.239833	1738.093750	1.779512
12480.082021	3951.239833	1737.080078	63.992580
12480.082021	3951.239833	1736.067383	81.230080
12480.082021	3951.239833	1735.053711	126.567299
12480.082021	3951.239833	1734.040039	112.783791
12480.082021	3951.239833	1733.025391	134.170898
12480.082021	3951.239833	1732.011719	77.645699
12480.082021	3951.239833	1730.997070	28.020609
12480.082021	3951.239833	1729.982422	44.206745
12480.082021	3951.239833	1728.967773	46.091518
12480.082021	3951.239833	1727.952148	153.748840
12480.082021	3951.239833	1726.937500	49.345387
12480.082021	3951.239833	1725.921875	326.108246
12480.082021	3951.239833	1724.906250	364.918121
12480.082021	3951.239833	1723.890625	48.267994
12480.082021	3951.239833	1722.875000	140.900848
12480.082021	3951.239833	1721.858398	-298.231232
12480.082021	3951.239833	1720.841797	-31.897272
12480.082021	3951.239833	1719.825195	-228.985092
12480.082021	3951.239833	1718.808594	-94.714485
12480.082021	3951.239833	1717.791992	-174.518143
12480.082021	3951.239833	1716.774414	191.973373
12480.082021	3951.239833	1715.756836	-148.959320
12480.082021	3951.239833	1714.739258	-186.918793
12480.082021	3951.239833	1713.721680	129.590103
12480.082021	3951.239833	1712.704102	243.902374
12480.082021	3951.239833	1711.685547	113.857552
12480.082021	3951.239833	1710.667969	309.974823
12480.082021	3951.239833	1709.649414	132.736847
12480.082021	3951.239833	1708.630859	-42.234821
12480.082021	3951.239833	1707.611328	89.969261
12480.082021	3951.239833	1706.592773	41.420124
12480.082021	3951.239833	1705.573242	-185.484451
12480.082021	3951.239833	1704.553711	7.188182
12480.082021	3951.239833	1703.534180	-23.023668
12480.082021	3951.239833	1702.513672	54.402180
12480.082021	3951.239833	1701.494141	47.338902
12480.082021	3951.239833	1700.473633	168.950684
12480.082021	3951.239833	1699.453125	121.747093
12480.082021	3951.239833	1698.432617	-91.829201
12480.082021	3951.239833	1697.412109	17.621534
12480.082021	3951.239833	1696.390625	44.941189
12480.082021	3951.239833	1695.369141	158.706284
12480.082021	3951.239833	1694.347656	106.168167
12480.082021	3951.239833	1693.326172	-100.878830
12480.082021	3951.239833	1692.304688	-39.001698
12480.082021	3951.239833	1691.282227	347.744507
12480.082021	3951.239833	1690.260742	-37.307255
12480.082021	3951.239833	1689.238281	-10.950213
12480.082021	3951.239833	1688.214844	-10.466451
12480.082021	3951.239833	1687.192383	-14.750810
12480.082021	3951.239833	1686.168945	-79.925247
12480.082021	3951.239833	1685.146484	272.938110
12480.082021	3951.239833	1684.123047	300.906403
12480.082021	3951.239833	1683.099609	183.983429
12480.082021	3951.239833	1682.075195	223.367264
12480.082021	3951.239833	1681.051758	321.000336
12480.082021	3951.239833	1680.027344	189.765411
12480.082021	3951.239833	1679.002930	350.106262
12480.082021	3951.239833	1677.978516	531.268616
12480.082021	3951.239833	1676.953125	527.979492
12480.082021	3951.239833	1675.928711	599.231140
12480.082021	3951.239833	1674.903320	294.981598
12480.082021	3951.239833	1673.877930	510.520966
12480.082021	3951.239833	1672.852539	583.723938
12480.082021	3951.239833	1671.826172	728.992859
12480.082021	3951.239833	1670.800781	927.717529
12480.082021	3951.239833	1669.774414	755.919617
12480.082021	3951.239833	1668.748047	798.321350
12480.082021	3951.239833	1667.721680	1094.381470
12480.082021	3951.239833	1666.694336	687.240417
12480.082021	3951.239833	1665.667969	985.353088
12480.082021	3951.239833	1664.640625	1066.836304
12480.082021	3951.239833	1663.613281	1127.266235
12480.082021	3951.239833	1662.585938	1280.621216
12480.082021	3951.239833	1661.557617	1108.240479
12480.082021	3951.239833	1660.530273	1540.374878
12480.082021	3951.239833	1659.501953	1509.646362
12480.082021	3951.239833	1658.473633	1299.896973
12480.082021	3951.239833	1657.444336	1761.651611
12480.082021	3951.239833	1656.416016	1753.901489
12480.082021	3951.239833	1655.386719	1597.393311
12480.082021	3951.239833	1654.358398	1759.062134
12480.082021	3951.239833	1653.328125	1901.960327
12480.082021	3951.239833	1652.298828	2023.875244
12480.082021	3951.239833	1651.269531	2122.468262
12480.082021	3951.239833	1650.239258	2399.607666
12480.082021	3951.239833	1649.208984	2439.930664
12480.082021	3951.239833	1648.178711	2628.635254
12480.082021	3951.239833	1647.148438	2745.314697
12480.082021	3951.239833	1646.117188	2966.204590
12480.082021	3951.239833	1645.086914	2920.386963
12480.082021	3951.239833	1644.055664	2962.578369
12480.082021	3951.239833	1643.024414	3227.173096
12480.082021	3951.239833	1641.992188	3192.702637
12480.082021	3951.239833	1640.960938	3209.195068
12480.082021	3951.239833	1639.928711	3522.054443
12480.082021	3951.239833	1638.896484	3471.207764
12480.082021	3951.239833	1637.864258	3297.639648
12480.082021	3951.239833	1636.832031	3272.240723
12480.082021	3951.239833	1635.798828	3714.256104
12480.082021	3951.239833	1634.766602	3964.057373
12480.082021	3951.239833	1633.733398	3963.859131
12480.082021	3951.239833	1632.699219	4044.548096
12480.082021	3951.239833	1631.666016	3838.472900
12480.082021	3951.239833	1630.632813	4201.198730
12480.082021	3951.239833	1629.598633	4075.996094
12480.082021	3951.239833	1628.564453	3832.956055
12480.082021	3951.239833	1627.530273	3858.026367
12480.082021	3951.239833	1626.495117	3869.176270
12480.082021	3951.239833	1625.460938	4009.684814
12480.082021	3951.239833	1624.425781	4193.970703
12480.082021	3951.239833	1623.390625	3976.439697
12480.082021	3951.239833	1622.355469	4033.682617
12480.082021	3951.239833	1621.319336	4337.814941
12480.082021	3951.239833	1620.284180	4254.199219
12480.082021	3951.239833	1619.248047	4470.499023
12480.082021	3951.239833	1618.211914	4280.756836
12480.082021	3951.239833	1617.174805	4699.879883
12480.082021	3951.239833	1616.138672	4431.781738
12480.082021	3951.239833	1615.101563	4477.277832
12480.082021	3951.239833	1614.065430	4697.960938
12480.082021	3951.239833	1613.027344	5105.159668
12480.082021	3951.239833	1611.990234	4920.143555
12480.082021	3951.239833	1610.953125	5025.453125
12480.082021	3951.239833	1609.915039	5312.644043
12480.082021	3951.239833	1608.876953	5019.504395
12480.082021	3951.239833	1607.838867	5308.931152
12480.082021	3951.239833	1606.800781	5220.801758
12480.082021	3951.239833	1605.761719	5452.570801
12480.082021	3951.239833	1604.723633	5854.566406
12480.082021	3951.239833	1603.684570	5485.804688
12480.082021	3951.239833	1602.644531	5860.043457
12480.082021	3951.239833	1601.605469	5886.994629
12480.082021	3951.239833	1600.566406	6070.305664
12480.082021	3951.239833	1599.526367	6193.791992
12480.082021	3951.239833	1598.486328	6098.959473
12480.082021	3951.239833	1597.446289	6328.173340
12480.082021	3951.239833	1596.405273	6646.905762
12480.082021	3951.239833	1595.365234	6327.107910
12480.082021	3951.239833	1594.324219	6374.860352
12480.082021	3951.239833	1593.283203	6418.059570
12480.082021	3951.239833	1592.242188	6548.523438
12480.082021	3951.239833	1591.200195	6426.521484
12480.082021	3951.239833	1590.159180	6444.627441
12480.082021	3951.239833	1589.117188	6721.982910
12480.082021	3951.239833	1588.075195	6708.013184
12480.082021	3951.239833	1587.032227	6522.104980
12480.082021	3951.239833	1585.990234	6723.832520
12480.082021	3951.239833	1584.947266	6347.884277
12480.082021	3951.239833	1583.904297	6281.548828
12480.082021	3951.239833	1582.861328	6524.649902
12480.082021	3951.239833	1581.818359	6043.815430
12480.082021	3951.239833	1580.775391	6108.378418
12480.082021	3951.239833	1579.731445	5877.562500
12480.082021	3951.239833	1578.687500	5917.089844
12480.082021	3951.239833	1577.643555	5993.318359
12480.082021	3951.239833	1576.598633	5806.386230
12480.082021	3951.239833	1575.554688	5869.064453
12480.082021	3951.239833	1574.509766	5892.895508
12480.082021	3951.239833	1573.464844	5747.555664
12480.082021	3951.239833	1572.419922	5757.881348
12480.082021	3951.239833	1571.374023	5939.756836
12480.082021	3951.239833	1570.329102	5602.785645
12480.082021	3951.239833	1569.283203	5764.265137
12480.082021	3951.239833	1568.237305	5955.499512
12480.082021	3951.239833	1567.191406	5518.504395
12480.082021	3951.239833	1566.144531	5604.840332
12480.082021	3951.239833	1565.098633	5483.470703
12480.082021	3951.239833	1564.051758	5524.353027
12480.082021	3951.239833	1563.004883	5649.803711
12480.082021	3951.239833	1561.957031	5699.985840
12480.082021	3951.239833	1560.910156	5526.673340
12480.082021	3951.239833	1559.862305	5287.368652
12480.082021	3951.239833	1558.814453	4998.105957
12480.082021	3951.239833	1557.766602	4670.320801
12480.082021	3951.239833	1556.718750	4851.267090
12480.082021	3951.239833	1555.669922	4330.113281
12480.082021	3951.239833	1554.621094	4094.209473
12480.082021	3951.239833	1553.573242	3833.499023
12480.082021	3951.239833	1552.523438	3563.870605
12480.082021	3951.239833	1551.474609	3542.809082
12480.082021	3951.239833	1550.424805	3628.917969
12480.082021	3951.239833	1549.375000	3038.881104
12480.082021	3951.239833	1548.325195	3168.612793
12480.082021	3951.239833	1547.275391	3309.831787
12480.082021	3951.239833	1546.225586	3498.940430
12480.082021	3951.239833	1545.174805	2878.139160
12480.082021	3951.239833	1544.124023	2990.214111
12480.082021	3951.239833	1543.073242	3075.114746
12480.082021	3951.239833	1542.022461	3048.731689
12480.082021	3951.239833	1540.970703	3511.281494
12480.082021	3951.239833	1539.919922	2864.643799
12480.082021	3951.239833	1538.868164	3009.239990
12480.082021	3951.239833	1537.815430	3017.605713
12480.082021	3951.239833	1536.763672	3262.416260
12480.082021	3951.239833	1535.710938	2882.713623
12480.082021	3951.239833	1534.659180	3132.355957
12480.082021	3951.239833	1533.606445	3080.112061
12480.082021	3951.239833	1532.552734	3282.267334
12480.082021	3951.239833	1531.500000	2935.366943
12480.082021	3951.239833	1530.446289	3108.352295
12480.082021	3951.239833	1529.393555	2526.079834
12480.082021	3951.239833	1528.338867	3320.875244
12480.082021	3951.239833	1527.285156	2897.886963
12480.082021	3951.239833	1526.231445	2983.097168
12480.082021	3951.239833	1525.176758	2825.914795
12480.082021	3951.239833	1524.122070	2442.372070
12480.082021	3951.239833	1523.067383	2491.947998
12480.082021	3951.239833	1522.012695	2476.014648
12480.082021	3951.239833	1520.957031	2183.952637
12480.082021	3951.239833	1519.901367	2148.096436
12480.082021	3951.239833	1518.845703	1987.945801
12480.082021	3951.239833	1517.790039	2301.150879
12480.082021	3951.239833	1516.734375	1806.519775
12480.082021	3951.239833	1515.677734	1866.627075
12480.082021	3951.239833	1514.621094	1630.577759
12480.082021	3951.239833	1513.564453	1548.640991
12480.082021	3951.239833	1512.507813	1423.994141
12480.082021	3951.239833	1511.450195	1299.597290
12480.082021	3951.239833	1510.393555	1462.564453
12480.082021	3951.239833	1509.335938	1379.337891
12480.082021	3951.239833	1508.278320	1479.394043
12480.082021	3951.239833	1507.219727	1523.141235
12480.082021	3951.239833	1506.162109	866.951477
12480.082021	3951.239833	1505.103516	1008.368164
12480.082021	3951.239833	1504.044922	813.562317
12480.082021	3951.239833	1502.986328	774.822449
12480.082021	3951.239833	1501.926758	1059.042114
12480.082021	3951.239833	1500.868164	1248.640015
12480.082021	3951.239833	1499.808594	621.735718
12480.082021	3951.239833	1498.749023	917.817566
12480.082021	3951.239833	1497.688477	792.314941
12480.082021	3951.239833	1496.628906	829.455200
12480.082021	3951.239833	1495.568359	652.666504
12480.082021	3951.239833	1494.507813	534.791504
12480.082021	3951.239833	1493.447266	565.929077
12480.082021	3951.239833	1492.386719	581.535645
12480.082021	3951.239833	1491.325195	347.360291
12480.082021	3951.239833	1490.263672	304.943878
12480.082021	3951.239833	1489.202148	303.326691
12480.082021	3951.239833	1488.140625	326.726715
12480.082021	3951.239833	1487.079102	492.160706
12480.082021	3951.239833	1486.016602	338.259766
12480.082021	3951.239833	1484.954102	348.903351
12480.082021	3951.239833	1483.891602	242.848404
12480.082021	3951.239833	1482.829102	238.291306
12480.082021	3951.239833	1481.765625	13.651168
12480.082021	3951.239833	1480.702148	-156.683838
12480.082021	3951.239833	1479.638672	-178.367020
12480.082021	3951.239833	1478.575195	2.460045
12480.082021	3951.239833	1477.511719	165.579575
12480.082021	3951.239833	1476.447266	-185.535416
12480.082021	3951.239833	1475.382813	96.999908
12480.082021	3951.239833	1474.318359	51.989182
12480.082021	3951.239833	1473.253906	238.216507
12480.082021	3951.239833	1472.189453	59.262802
12480.082021	3951.239833	1471.124023	257.051514
12480.082021	3951.239833	1470.058594	163.917236
12480.082021	3951.239833	1468.993164	391.392029
12480.082021	3951.239833	1467.927734	298.955200
12480.082021	3951.239833	1466.861328	278.355347
12480.082021	3951.239833	1465.794922	380.939606
12480.082021	3951.239833	1464.728516	768.239929
12480.082021	3951.239833	1463.662109	710.384033
12480.082021	3951.239833	1462.594727	867.431946
12480.082021	3951.239833	1461.528320	899.638794
12480.082021	3951.239833	1460.460938	914.481750
12480.082021	3951.239833	1459.393555	1047.712524
12480.082021	3951.239833	1458.326172	1160.386353
12480.082021	3951.239833	1457.257813	1133.890869
12480.082021	3951.239833	1456.189453	1146.945557
12480.082021	3951.239833	1455.121094	1257.642700
12480.082021	3951.239833	1454.052734	1060.176147
12480.082021	3951.239833	1452.984375	958.374573
12480.082021	3951.239833	1451.915039	962.562256
12480.082021	3951.239833	1450.845703	1176.869385
12480.082021	3951.239833	1449.776367	1341.862671
12480.082021	3951.239833	1448.707031	1536.935303
12480.082021	3951.239833	1447.636719	1585.289429
12480.082021	3951.239833	1446.567383	1630.584229
12480.082021	3951.239833	1445.497070	1360.991821
12480.082021	3951.239833	1444.425781	1622.687012
12480.082021	3951.239833	1443.355469	1651.450562
12480.082021	3951.239833	1442.285156	1366.455811
12480.082021	3951.239833	1441.213867	1908.004150
12480.082021	3951.239833	1440.142578	2032.023560
12480.082021	3951.239833	1439.070313	1939.269287
12480.082021	3951.239833	1437.999023	1912.028687
12480.082021	3951.239833	1436.926758	2046.552246
12480.082021	3951.239833	1435.854492	2500.110596
12480.082021	3951.239833	1434.782227	2268.240723
12480.082021	3951.239833	1433.709961	2312.149902
12480.082021	3951.239833	1432.636719	2500.866211
12480.082021	3951.239833	1431.563477	2882.635498
12480.082021	3951.239833	1430.490234	2667.760498
12480.082021	3951.239833	1429.416992	2662.094482
12480.082021	3951.239833	1428.343750	3041.909424
12480.082021	3951.239833	1427.269531	3061.335693
12480.082021	3951.239833	1426.195313	3259.635498
12480.082021	3951.239833	1425.121094	3183.429932
12480.082021	3951.239833	1424.046875	3358.927734
12480.082021	3951.239833	1422.971680	3288.307373
12480.082021	3951.239833	1421.896484	3760.892578
12480.082021	3951.239833	1420.821289	3552.895996
12480.082021	3951.239833	1419.746094	3289.481201
12480.082021	3951.239833	1418.669922	3563.882813
12480.082021	3951.239833	1417.594727	2839.289307
12480.082021	3951.239833	1416.518555	3229.971191
12480.082021	3951.239833	1415.442383	3150.904297
12480.082021	3951.239833	1414.365234	2904.415771
12480.082021	3951.239833	1413.289063	2729.387207
12480.082021	3951.239833	1412.211914	2623.321777
12480.082021	3951.239833	1411.134766	2575.574463
12480.082021	3951.239833	1410.057617	2210.822998
12480.082021	3951.239833	1408.979492	2338.041992
12480.082021	3951.239833	1407.902344	2469.761230
12480.082021	3951.239833	1406.824219	2228.741455
12480.082021	3951.239833	1405.746094	2350.936523
12480.082021	3951.239833	1404.666992	2682.326172
12480.082021	3951.239833	1403.588867	2692.504150
12480.082021	3951.239833	1402.509766	2209.198242
12480.082021	3951.239833	1401.430664	2576.943359
12480.082021	3951.239833	1400.351563	2557.838135
12480.082021	3951.239833	1399.271484	2697.543213
12480.082021	3951.239833	1398.192383	2710.323486
12480.082021	3951.239833	1397.112305	2982.891846
12480.082021	3951.239833	1396.031250	2927.609619
12480.082021	3951.239833	1394.951172	3014.704346
12480.082021	3951.239833	1393.871094	3008.083740
12480.082021	3951.239833	1392.790039	3072.075684
12480.082021	3951.239833	1391.708984	3024.497559
12480.082021	3951.239833	1390.626953	3259.947266
12480.082021	3951.239833	1389.545898	3304.491699
12480.082021	3951.239833	1388.463867	3669.457275
12480.082021	3951.239833	1387.381836	3492.341797
12480.082021	3951.239833	1386.299805	3254.540771
12480.082021	3951.239833	1385.217773	3265.464844
12480.082021	3951.239833	1384.134766	3381.673340
12480.082021	3951.239833	1383.051758	2975.951416
12480.082021	3951.239833	1381.968750	2850.930664
12480.082021	3951.239833	1380.885742	2779.389648
12480.082021	3951.239833	1379.802734	2649.680664
12480.082021	3951.239833	1378.718750	2492.510010
12480.082021	3951.239833	1377.634766	2449.134521
12480.082021	3951.239833	1376.550781	2406.351807
12480.082021	3951.239833	1375.465820	2293.829834
12480.082021	3951.239833	1374.381836	2366.436279
12480.082021	3951.239833	1373.296875	2173.276123
12480.082021	3951.239833	1372.211914	2252.399902
12480.082021	3951.239833	1371.126953	2125.415283
12480.082021	3951.239833	1370.041016	2061.645996
12480.082021	3951.239833	1368.955078	2127.524170
12480.082021	3951.239833	1367.869141	2022.825928
12480.082021	3951.239833	1366.783203	2397.143799
12480.082021	3951.239833	1365.697266	2643.403809
12480.082021	3951.239833	1364.610352	2368.489258
12480.082021	3951.239833	1363.523438	2683.075195
12480.082021	3951.239833	1362.436523	2868.539307
12480.082021	3951.239833	1361.349609	3008.538086
12480.082021	3951.239833	1360.261719	3140.668701
12480.082021	3951.239833	1359.174805	3029.361816
12480.082021	3951.239833	1358.086914	3089.060791
12480.082021	3951.239833	1356.998047	3298.792480
12480.082021	3951.239833	1355.910156	3528.474609
12480.082021	3951.239833	1354.821289	3103.286133
12480.082021	3951.239833	1353.732422	3033.677490
12480.082021	3951.239833	1352.643555	2651.873535
12480.082021	3951.239833	1351.554688	2605.599121
12480.082021	3951.239833	1350.464844	2810.279297
12480.082021	3951.239833	1349.375000	2866.739990
12480.082021	3951.239833	1348.285156	2621.733643
12480.082021	3951.239833	1347.195313	2811.660889
12480.082021	3951.239833	1346.105469	2979.711182
12480.082021	3951.239833	1345.014648	2916.785400
12480.082021	3951.239833	1343.923828	3263.872314
12480.082021	3951.239833	1342.833008	3361.351074
12480.082021	3951.239833	1341.741211	3129.837646
12480.082021	3951.239833	1340.650391	2656.552002
12480.082021	3951.239833	1339.558594	2939.698730
12480.082021	3951.239833	1338.466797	2755.410156
12480.082021	3951.239833	1337.374023	2604.379150
12480.082021	3951.239833	1336.282227	2722.693359
12480.082021	3951.239833	1335.189453	2862.460938
12480.082021	3951.239833	1334.096680	2536.256836
12480.082021	3951.239833	1333.003906	2332.102783
12480.082021	3951.239833	1331.910156	2231.174561
12480.082021	3951.239833	1330.817383	1909.538452
12480.082021	3951.239833	1329.723633	1579.023315
12480.082021	3951.239833	1328.629883	1728.275269
12480.082021	3951.239833	1327.535156	1705.402710
12480.082021	3951.239833	1326.441406	1453.692871
12480.082021	3951.239833	1325.346680	1379.888184
12480.082021	3951.239833	1324.251953	1333.618286
12480.082021	3951.239833	1323.156250	1312.818481
12480.082021	3951.239833	1322.061523	1264.647339
12480.082021	3951.239833	1320.965820	1213.899658
12480.082021	3951.239833	1319.870117	1036.921143
12480.082021	3951.239833	1318.774414	1006.434204
12480.082021	3951.239833	1317.678711	1145.466064
12480.082021	3951.239833	1316.582031	1251.068237
12480.082021	3951.239833	1315.485352	1085.376709
12480.082021	3951.239833	1314.388672	1428.834595
12480.082021	3951.239833	1313.291016	1508.638550
12480.082021	3951.239833	1312.194336	1427.412354
12480.082021	3951.239833	1311.096680	1525.766479
12480.082021	3951.239833	1309.999023	1723.871094
12480.082021	3951.239833	1308.901367	1541.235474
12480.082021	3951.239833	1307.802734	1784.521973
12480.082021	3951.239833	1306.705078	2111.298340
12480.082021	3951.239833	1305.606445	1776.394653
12480.082021	3951.239833	1304.506836	2173.372070
12480.082021	3951.239833	1303.408203	1964.459106
12480.082021	3951.239833	1302.308594	2351.963867
12480.082021	3951.239833	1301.208984	2322.971191
12480.082021	3951.239833	1300.109375	2312.250244
12480.082021	3951.239833	1299.009766	2588.525391
12480.082021	3951.239833	1297.909180	2737.518311
12480.082021	3951.239833	1296.808594	3071.041992
12480.082021	3951.239833	1295.708008	3293.266113
12480.082021	3951.239833	1294.607422	3014.066895
12480.082021	3951.239833	1293.506836	3122.742920
12480.082021	3951.239833	1292.405273	3024.237305
12480.082021	3951.239833	1291.303711	2831.674805
12480.082021	3951.239833	1290.202148	2833.133301
12480.082021	3951.239833	1289.099609	2651.502930
12480.082021	3951.239833	1287.998047	2130.337646
12480.082021	3951.239833	1286.895508	2146.721680
12480.082021	3951.239833	1285.792969	2074.474854
12480.082021	3951.239833	1284.689453	1772.017212
12480.082021	3951.239833	1283.586914	1734.989014
12480.082021	3951.239833	1282.483398	1755.265259
12480.082021	3951.239833	1281.379883	1326.400757
12480.082021	3951.239833	1280.276367	1328.553467
12480.082021	3951.239833	1279.171875	1545.261475
12480.082021	3951.239833	1278.067383	1355.520996
12480.082021	3951.239833	1276.962891	1489.562012
12480.082021	3951.239833	1275.858398	952.962158
12480.082021	3951.239833	1274.753906	1036.334229
12480.082021	3951.239833	1273.648438	1007.941345
12480.082021	3951.239833	1272.542969	1042.101563
12480.082021	3951.239833	1271.437500	942.124939
12480.082021	3951.239833	1270.331055	740.417480
12480.082021	3951.239833	1269.225586	940.017151
12480.082021	3951.239833	1268.119141	902.910461
12480.082021	3951.239833	1267.012695	1020.539978
12480.082021	3951.239833	1265.906250	1129.598511
12480.082021	3951.239833	1264.798828	1247.572632
12480.082021	3951.239833	1263.691406	1071.289185
12480.082021	3951.239833	1262.583984	1266.337646
12480.082021	3951.239833	1261.476563	1197.434204
12480.082021	3951.239833	1260.368164	1513.872314
12480.082021	3951.239833	1259.260742	1785.770508
12480.082021	3951.239833	1258.152344	1759.630493
12480.082021	3951.239833	1257.043945	1753.001221
12480.082021	3951.239833	1255.934570	1788.475464
12480.082021	3951.239833	1254.825195	2182.930420
12480.082021	3951.239833	1253.716797	2338.832764
12480.082021	3951.239833	1252.606445	2370.387207
12480.082021	3951.239833	1251.497070	2175.444824
12480.082021	3951.239833	1250.387695	2101.533447
12480.082021	3951.239833	1249.277344	2123.744141
12480.082021	3951.239833	1248.166992	2168.278320
12480.082021	3951.239833	1247.055664	1928.306274
12480.082021	3951.239833	1245.945313	1978.992920
12480.082021	3951.239833	1244.833984	2078.946045
12480.082021	3951.239833	1243.722656	1475.191162
12480.082021	3951.239833	1242.611328	1527.604370
12480.082021	3951.239833	1241.499023	1587.558228
12480.082021	3951.239833	1240.387695	1572.882568
12480.082021	3951.239833	1239.275391	1574.180176
12480.082021	3951.239833	1238.162109	1534.221924
12480.082021	3951.239833	1237.049805	1224.044800
12480.082021	3951.239833	1235.936523	1035.288696
12480.082021	3951.239833	1234.823242	1245.921997
12480.082021	3951.239833	1233.709961	1207.920532
12480.082021	3951.239833	1232.596680	1059.948242
12480.082021	3951.239833	1231.482422	936.418396
12480.082021	3951.239833	1230.369141	794.315125
12480.082021	3951.239833	1229.253906	614.497009
12480.082021	3951.239833	1228.139648	721.907288
12480.082021	3951.239833	1227.025391	755.162598
12480.082021	3951.239833	1225.910156	623.602173
12480.082021	3951.239833	1224.794922	518.180786
12480.082021	3951.239833	1223.679688	568.687012
12480.082021	3951.239833	1222.563477	547.153503
12480.082021	3951.239833	1221.447266	585.390503
12480.082021	3951.239833	1220.331055	421.755035
12480.082021	3951.239833	1219.214844	540.574768
12480.082021	3951.239833	1218.098633	581.915710
12480.082021	3951.239833	1216.981445	673.630798
12480.082021	3951.239833	1215.864258	640.460022
12480.082021	3951.239833	1214.747070	718.362000
12480.082021	3951.239833	1213.629883	807.824585
12480.082021	3951.239833	1212.511719	929.036682
12480.082021	3951.239833	1211.393555	959.093750
12480.082021	3951.239833	1210.275391	659.950684
12480.082021	3951.239833	1209.157227	996.278870
12480.082021	3951.239833	1208.038086	1132.810059
12480.082021	3951.239833	1206.918945	1283.554077
12480.082021	3951.239833	1205.799805	1138.782104
12480.082021	3951.239833	1204.680664	932.187195
12480.082021	3951.239833	1203.560547	793.961853
12480.082021	3951.239833	1202.441406	883.684998
12480.082021	3951.239833	1201.321289	722.546631
12480.082021	3951.239833	1200.200195	625.026855
12480.082021	3951.239833	1199.080078	425.197113
12480.082021	3951.239833	1197.958984	555.885742
12480.082021	3951.239833	1196.837891	325.847198
12480.082021	3951.239833	1195.716797	411.411377
12480.082021	3951.239833	1194.594727	127.883682
12480.082021	3951.239833	1193.473633	245.476913
12480.082021	3951.239833	1192.351563	2.194627
12480.082021	3951.239833	1191.229492	-158.860703
12480.082021	3951.239833	1190.106445	-56.401443
12480.082021	3951.239833	1188.984375	-6.200577
12480.082021	3951.239833	1187.861328	-248.981552
12480.082021	3951.239833	1186.738281	-42.221695
12480.082021	3951.239833	1185.614258	-132.518341
12480.082021	3951.239833	1184.491211	-18.264944
12480.082021	3951.239833	1183.367188	-3.540958
12480.082021	3951.239833	1182.243164	72.883690
12480.082021	3951.239833	1181.119141	-75.360146
12480.082021	3951.239833	1179.994141	-202.129913
12480.082021	3951.239833	1178.869141	126.132881
12480.082021	3951.239833	1177.744141	-20.872522
12480.082021	3951.239833	1176.619141	118.086357
12480.082021	3951.239833	1175.493164	15.181105
12480.082021	3951.239833	1174.368164	19.353857
12480.082021	3951.239833	1173.242188	36.664440
12480.082021	3951.239833	1172.115234	216.636139
12480.082021	3951.239833	1170.989258	111.215599
12480.082021	3951.239833	1169.862305	236.391830
12480.082021	3951.239833	1168.735352	266.302368
12480.082021	3951.239833	1167.608398	339.822388
12480.082021	3951.239833	1166.481445	496.959930
12480.082021	3951.239833	1165.353516	850.376099
12480.082021	3951.239833	1164.225586	600.033142
12480.082021	3951.239833	1163.097656	1159.626587
12480.082021	3951.239833	1161.968750	1067.000854
12480.082021	3951.239833	1160.840820	1113.920898
12480.082021	3951.239833	1159.711914	930.427002
12480.082021	3951.239833	1158.583008	579.563904
12480.082021	3951.239833	1157.453125	698.345581
12480.082021	3951.239833	1156.324219	371.006836
12480.082021	3951.239833	1155.194336	258.407135
12480.082021	3951.239833	1154.064453	226.988419
12480.082021	3951.239833	1152.933594	467.557220
12480.082021	3951.239833	1151.803711	395.741913
12480.082021	3951.239833	1150.672852	307.639435
12480.082021	3951.239833	1149.541992	233.961731
12480.082021	3951.239833	1148.411133	389.924225
12480.082021	3951.239833	1147.279297	312.885651
12480.082021	3951.239833	1146.147461	263.886536
12480.082021	3951.239833	1145.015625	105.200882
12480.082021	3951.239833	1143.883789	84.440651
12480.082021	3951.239833	1142.750977	159.173172
12480.082021	3951.239833	1141.619141	330.302643
12480.082021	3951.239833	1140.486328	376.298981
12480.082021	3951.239833	1139.352539	382.969086
12480.082021	3951.239833	1138.219727	485.165344
12480.082021	3951.239833	1137.085938	546.415466
12480.082021	3951.239833	1135.952148	468.372620
12480.082021	3951.239833	1134.818359	869.654846
12480.082021	3951.239833	1133.683594	721.092163
12480.082021	3951.239833	1132.549805	1051.815796
12480.082021	3951.239833	1131.415039	1129.297485
12480.082021	3951.239833	1130.279297	1461.258423
12480.082021	3951.239833	1129.144531	1851.412720
12480.082021	3951.239833	1128.008789	2028.147461
12480.082021	3951.239833	1126.873047	1871.775146
12480.082021	3951.239833	1125.737305	1767.677734
12480.082021	3951.239833	1124.601563	1648.908936
12480.082021	3951.239833	1123.464844	1719.403198
12480.082021	3951.239833	1122.328125	1786.147827
12480.082021	3951.239833	1121.191406	1706.606567
12480.082021	3951.239833	1120.054688	1841.098877
12480.082021	3951.239833	1118.916992	2149.447510
12480.082021	3951.239833	1117.779297	1856.915894
12480.082021	3951.239833	1116.641602	1805.178589
12480.082021	3951.239833	1115.503906	1448.657104
12480.082021	3951.239833	1114.365234	1066.186890
12480.082021	3951.239833	1113.226563	1190.364136
12480.082021	3951.239833	1112.087891	926.326782
12480.082021	3951.239833	1110.949219	830.572205
12480.082021	3951.239833	1109.809570	749.406372
12480.082021	3951.239833	1108.669922	569.730591
12480.082021	3951.239833	1107.530273	508.140106
12480.082021	3951.239833	1106.390625	707.075623
12480.082021	3951.239833	1105.250000	706.754700
12480.082021	3951.239833	1104.109375	704.200623
12480.082021	3951.239833	1102.968750	890.008545
12480.082021	3951.239833	1101.828125	818.183838
12480.082021	3951.239833	1100.686523	742.781372
12480.082021	3951.239833	1099.544922	888.772339
12480.082021	3951.239833	1098.403320	771.541199
12480.082021	3951.239833	1097.261719	838.860901
12480.082021	3951.239833	1096.120117	930.412720
12480.082021	3951.239833	1094.977539	731.946289
12480.082021	3951.239833	1093.834961	743.363281
12480.082021	3951.239833	1092.691406	743.170898
12480.082021	3951.239833	1091.548828	760.391052
12480.082021	3951.239833	1090.405273	563.346558
12480.082021	3951.239833	1089.261719	934.854187
12480.082021	3951.239833	1088.118164	892.526978
12480.082021	3951.239833	1086.973633	891.252136
12480.082021	3951.239833	1085.829102	898.690674
12480.082021	3951.239833	1084.684570	767.545471
12480.082021	3951.239833	1083.540039	728.308777
12480.082021	3951.239833	1082.395508	808.187378
12480.082021	3951.239833	1081.250000	986.724182
12480.082021	3951.239833	1080.104492	927.301819
12480.082021	3951.239833	1078.958984	991.039307
12480.082021	3951.239833	1077.812500	1066.500610
12480.082021	3951.239833	1076.666016	1023.664429
12480.082021	3951.239833	1075.519531	1083.786865
12480.082021	3951.239833	1074.373047	897.576904
12480.082021	3951.239833	1073.226563	960.634338
12480.082021	3951.239833	1072.079102	866.239075
12480.082021	3951.239833	1070.931641	806.863159
12480.082021	3951.239833	1069.784180	761.114075
12480.082021	3951.239833	1068.635742	725.146545
12480.082021	3951.239833	1067.487305	669.620483
12480.082021	3951.239833	1066.338867	702.542053
12480.082021	3951.239833	1065.190430	898.101013
12480.082021	3951.239833	1064.041992	982.084778
12480.082021	3951.239833	1062.892578	1187.508423
12480.082021	3951.239833	1061.743164	899.863220
12480.082021	3951.239833	1060.593750	936.731445
12480.082021	3951.239833	1059.443359	936.067322
12480.082021	3951.239833	1058.292969	782.842896
12480.082021	3951.239833	1057.142578	916.654419
12480.082021	3951.239833	1055.992188	609.164429
12480.082021	3951.239833	1054.841797	560.049133
12480.082021	3951.239833	1053.690430	916.662598
12480.082021	3951.239833	1052.539063	822.921143
12480.082021	3951.239833	1051.387695	359.751007
12480.082021	3951.239833	1050.235352	696.552734
12480.082021	3951.239833	1049.083984	726.005554
12480.082021	3951.239833	1047.931641	453.171387
12480.082021	3951.239833	1046.778320	680.505493
12480.082021	3951.239833	1045.625977	725.713501
12480.082021	3951.239833	1044.472656	715.647522
12480.082021	3951.239833	1043.319336	742.207703
12480.082021	3951.239833	1042.166016	526.855713
12480.082021	3951.239833	1041.012695	298.791504
12480.082021	3951.239833	1039.858398	417.117523
12480.082021	3951.239833	1038.704102	339.871338
12480.082021	3951.239833	1037.549805	6.010793
12480.082021	3951.239833	1036.394531	156.399597
12480.082021	3951.239833	1035.239258	336.691101
12480.082021	3951.239833	1034.083984	105.665512
12480.082021	3951.239833	1032.928711	419.265137
12480.082021	3951.239833	1031.773438	253.123718
12480.082021	3951.239833	1030.617188	103.467613
12480.082021	3951.239833	1029.460938	424.759613
12480.082021	3951.239833	1028.304688	213.992874
12480.082021	3951.239833	1027.147461	473.043793
12480.082021	3951.239833	1025.991211	185.094177
12480.082021	3951.239833	1024.833984	296.829254
12480.082021	3951.239833	1023.675781	26.517216
12480.082021	3951.239833	1022.518555	95.538109
12480.082021	3951.239833	1021.360352	70.457176
12480.082021	3951.239833	1020.202148	328.269775
12480.082021	3951.239833	1019.043945	-63.401844
12480.082021	3951.239833	1017.884766	-319.885437
12480.082021	3951.239833	1016.726563	83.669266
12480.082021	3951.239833	1015.567383	-380.523376
12480.082021	3951.239833	1014.407227	43.662418
12480.082021	3951.239833	1013.248047	3.945001
12480.082021	3951.239833	1012.087891	-36.014790
12480.082021	3951.239833	1010.927734	77.974968
12480.082021	3951.239833	1009.767578	36.876484
12480.082021	3951.239833	1008.606445	-103.968979
12480.082021	3951.239833	1007.446289	58.324322
12480.082021	3951.239833	1006.285156	-176.742203
12480.082021	3951.239833	1005.123047	154.516022
12480.082021	3951.239833	1003.961914	123.794136
12480.082021	3951.239833	1002.799805	295.635834
12480.082021	3951.239833	1001.637695	319.089630
12480.082021	3951.239833	1000.475586	327.430389
12480.082021	3951.239833	999.312500	383.127380
12480.082021	3951.239833	998.149414	911.370239
12480.082021	3951.239833	996.986328	977.338074
12480.082021	3951.239833	995.823242	736.628174
12480.082021	3951.239833	994.659180	736.758118
12480.082021	3951.239833	993.496094	704.663696
12480.082021	3951.239833	992.332031	761.589661
12480.082021	3951.239833	991.166992	655.304810
12480.082021	3951.239833	990.002930	641.751404
12480.082021	3951.239833	988.837891	845.497864
12480.082021	3951.239833	987.672852	738.766113
12480.082021	3951.239833	986.506836	513.717712
12480.082021	3951.239833	985.341797	184.973633
12480.082021	3951.239833	984.175781	236.808487
12480.082021	3951.239833	983.009766	224.632202
12480.082021	3951.239833	981.843750	260.792084
12480.082021	3951.239833	980.676758	219.304764
12480.082021	3951.239833	979.509766	171.767975
12480.082021	3951.239833	978.342773	-115.488480
12480.082021	3951.239833	977.175781	122.753830
12480.082021	3951.239833	976.007813	35.841213
12480.082021	3951.239833	974.839844	30.823071
12480.082021	3951.239833	973.671875	-148.609467
12480.082021	3951.239833	972.503906	-0.470352
12480.082021	3951.239833	971.334961	-171.212433
12480.082021	3951.239833	970.166016	-54.535900
12480.082021	3951.239833	968.997070	-231.724213
12480.082021	3951.239833	967.828125	73.939194
12480.082021	3951.239833	966.658203	-50.678551
12480.082021	3951.239833	965.488281	248.322357
12480.082021	3951.239833	964.318359	21.605753
12480.082021	3951.239833	963.148438	-247.471161
12480.082021	3951.239833	961.977539	8.886191
12480.082021	3951.239833	960.806641	123.212730
12480.082021	3951.239833	959.635742	338.041443
12480.082021	3951.239833	958.463867	-192.751251
12480.082021	3951.239833	957.292969	-32.625889
12480.082021	3951.239833	956.121094	22.986893
12480.082021	3951.239833	954.948242	-23.669161
12480.082021	3951.239833	953.776367	-25.681107
12480.082021	3951.239833	952.603516	133.094238
12480.082021	3951.239833	951.430664	44.879894
12480.082021	3951.239833	950.257813	179.109268
12480.082021	3951.239833	949.084961	137.579056
12480.082021	3951.239833	947.911133	-5.024360
12480.082021	3951.239833	946.737305	58.588711
12480.082021	3951.239833	945.563477	-113.468628
12480.082021	3951.239833	944.388672	8.202731
12480.082021	3951.239833	943.213867	248.695389
12480.082021	3951.239833	942.039063	267.558014
12480.082021	3951.239833	940.864258	711.419250
12480.082021	3951.239833	939.688477	150.363678
12480.082021	3951.239833	938.513672	695.133789
12480.082021	3951.239833	937.337891	718.556885
12480.082021	3951.239833	936.161133	712.593506
12480.082021	3951.239833	934.985352	855.310791
12480.082021	3951.239833	933.808594	933.979065
12480.082021	3951.239833	932.631836	806.197205
12480.082021	3951.239833	931.454102	1030.281738
12480.082021	3951.239833	930.277344	889.407593
12480.082021	3951.239833	929.099609	1097.293823
12480.082021	3951.239833	927.921875	914.012268
12480.082021	3951.239833	926.743164	870.779663
12480.082021	3951.239833	925.565430	483.993683
12480.082021	3951.239833	924.386719	929.547119
12480.082021	3951.239833	923.208008	703.978577
12480.082021	3951.239833	922.028320	404.500763
12480.082021	3951.239833	920.849609	646.419922
12480.082021	3951.239833	919.669922	648.833557
12480.082021	3951.239833	919.474609	284.052856
12480.082021	3951.239833	918.309570	407.033905
12480.082021	3951.239833	917.143555	-37.429756
12480.082021	3951.239833	915.977539	373.100952
12480.082021	3951.239833	914.810547	303.354126
12480.082021	3951.239833	913.644531	257.345123
12480.082021	3951.239833	912.477539	274.620300
12480.082021	3951.239833	911.310547	384.138336
12480.082021	3951.239833	910.143555	158.857773
12480.082021	3951.239833	908.975586	563.459778
12480.082021	3951.239833	907.807617	224.916595
12480.082021	3951.239833	906.639648	-0.236954
12480.082021	3951.239833	905.471680	24.879513
12480.082021	3951.239833	904.303711	34.177658
12480.082021	3951.239833	903.134766	188.250595
12480.082021	3951.239833	901.965820	268.558929
12480.082021	3951.239833	900.796875	-51.145859
12480.082021	3951.239833	899.626953	87.049606
12480.082021	3951.239833	898.457031	306.728973
12480.082021	3951.239833	897.287109	166.030365
12480.082021	3951.239833	896.117188	248.879059
12480.082021	3951.239833	894.947266	336.952209
12480.082021	3951.239833	893.776367	141.147491
12480.082021	3951.239833	892.605469	5.864911
12480.082021	3951.239833	891.434570	146.490585
12480.082021	3951.239833	890.262695	90.072563
12480.082021	3951.239833	889.091797	414.462097
12480.082021	3951.239833	887.919922	-41.048798
12480.082021	3951.239833	886.748047	44.385071
12480.082021	3951.239833	885.575195	245.272659
12480.082021	3951.239833	884.403320	125.970963
12480.082021	3951.239833	883.230469	-77.212395
12480.082021	3951.239833	882.057617	113.128242
12480.082021	3951.239833	880.883789	447.638519
12480.082021	3951.239833	879.710938	320.595184
12480.082021	3951.239833	878.537109	259.157471
12480.082021	3951.239833	877.362305	155.834381
12480.082021	3951.239833	876.188477	-7.689288
12480.082021	3951.239833	875.013672	-40.140980
12480.082021	3951.239833	873.839844	-9.697354
12480.082021	3951.239833	872.664063	-322.269348
12480.082021	3951.239833	871.489258	53.849075
12480.082021	3951.239833	870.313477	-91.034294
12480.082021	3951.239833	869.138672	224.749329
12480.082021	3951.239833	867.962891	64.246094
12480.082021	3951.239833	866.786133	120.960938
12480.082021	3951.239833	865.610352	36.453072
12480.082021	3951.239833	864.433594	-212.719559
12480.082021	3951.239833	863.256836	-276.144135
12480.082021	3951.239833	862.079102	-297.686676
12480.082021	3951.239833	860.902344	-52.641808
12480.082021	3951.239833	859.724609	66.933327
12480.082021	3951.239833	858.546875	178.658386
12480.082021	3951.239833	857.368164	-77.855087
12480.082021	3951.239833	856.190430	224.536423
12480.082021	3951.239833	855.011719	143.099167
12480.082021	3951.239833	853.833008	-89.643112
12480.082021	3951.239833	852.654297	-108.275681
12480.082021	3951.239833	851.474609	32.286690
12480.082021	3951.239833	850.294922	-93.221489
12480.082021	3951.239833	849.115234	-187.342575
12480.082021	3951.239833	847.935547	187.932800
12480.082021	3951.239833	846.754883	299.817841
12480.082021	3951.239833	845.575195	698.382996
12480.082021	3951.239833	844.393555	708.586060
12480.082021	3951.239833	843.212891	671.935059
12480.082021	3951.239833	842.032227	760.364868
12480.082021	3951.239833	840.850586	468.611053
12480.082021	3951.239833	839.668945	255.132263
12480.082021	3951.239833	838.486328	429.638855
12480.082021	3951.239833	837.304688	112.248360
12480.082021	3951.239833	836.122070	-129.502686
12480.082021	3951.239833	834.939453	-53.735104
12480.082021	3951.239833	833.756836	-89.786499
12480.082021	3951.239833	832.573242	95.256660
12480.082021	3951.239833	831.389648	106.085869
12480.082021	3951.239833	830.206055	-7.805519
12480.082021	3951.239833	829.022461	62.908833
12480.082021	3951.239833	827.838867	11.529830
12480.082021	3951.239833	826.654297	-57.958611
12480.082021	3951.239833	825.469727	134.940323
12480.082021	3951.239833	824.284180	143.454727
12480.082021	3951.239833	823.099609	305.181305
12480.082021	3951.239833	821.914063	-34.042953
12480.082021	3951.239833	820.728516	101.805809
12480.082021	3951.239833	819.542969	-32.173840
12480.082021	3951.239833	818.356445	-36.348484
12480.082021	3951.239833	817.169922	52.889538
12480.082021	3951.239833	815.983398	-101.587860
12480.082021	3951.239833	814.796875	-33.012302
12480.082021	3951.239833	813.609375	185.911774
12480.082021	3951.239833	812.422852	194.899246
12480.082021	3951.239833	811.235352	157.304153
12480.082021	3951.239833	810.046875	179.348938
12480.082021	3951.239833	808.859375	167.765778
12480.082021	3951.239833	807.670898	267.569946
12480.082021	3951.239833	806.482422	401.032532
12480.082021	3951.239833	805.293945	418.026184
12480.082021	3951.239833	804.104492	147.853394
12480.082021	3951.239833	802.915039	159.814316
12480.082021	3951.239833	801.725586	78.707298
12480.082021	3951.239833	800.536133	170.932175
12480.082021	3951.239833	799.345703	92.536598
12480.082021	3951.239833	798.155273	-104.683441
12480.082021	3951.239833	796.964844	21.255821
12480.082021	3951.239833	795.774414	-51.761505
12480.082021	3951.239833	794.583008	-217.696564
12480.082021	3951.239833	793.392578	-29.699427
12480.082021	3951.239833	792.200195	-22.479258
12480.082021	3951.239833	791.008789	-38.461212
12480.082021	3951.239833	789.816406	340.511292
12480.082021	3951.239833	788.625000	-114.150703
12480.082021	3951.239833	787.432617	-336.381348
12480.082021	3951.239833	786.239258	-89.016403
12480.082021	3951.239833	785.046875	-122.824753
12480.082021	3951.239833	783.853516	108.995834
12480.082021	3951.239833	782.660156	-208.329742
12480.082021	3951.239833	781.465820	0.289158
12480.082021	3951.239833	780.272461	159.889938
12480.082021	3951.239833	779.078125	56.683163
12480.082021	3951.239833	777.883789	23.094662
12480.082021	3951.239833	776.688477	205.869354
12480.082021	3951.239833	775.494141	-370.931244
12480.082021	3951.239833	774.298828	-167.501770
12480.082021	3951.239833	773.103516	-105.677322
12480.082021	3951.239833	771.907227	-185.367325
12480.082021	3951.239833	770.711914	365.260956
12480.082021	3951.239833	769.515625	349.850830
12480.082021	3951.239833	768.318359	169.902008
12480.082021	3951.239833	767.122070	31.176748
12480.082021	3951.239833	765.924805	-56.059582
12480.082021	3951.239833	764.727539	16.087093
12480.082021	3951.239833	763.530273	16.279436
12480.082021	3951.239833	762.333008	329.876373
12480.082021	3951.239833	761.134766	83.483986
12480.082021	3951.239833	759.936523	63.163208
12480.082021	3951.239833	758.738281	217.429123
12480.082021	3951.239833	757.540039	117.541939
12480.082021	3951.239833	756.340820	102.388924
12480.082021	3951.239833	755.141602	251.443939
12480.082021	3951.239833	753.942383	31.076492
12480.082021	3951.239833	752.742188	203.175735
12480.082021	3951.239833	751.541992	159.830704
12480.082021	3951.239833	750.341797	149.826843
12480.082021	3951.239833	749.141602	134.698578
12480.082021	3951.239833	747.941406	111.884651
12480.082021	3951.239833	746.740234	265.844391
12480.082021	3951.239833	745.539063	363.384521
12480.082021	3951.239833	744.337891	-79.445953
12480.082021	3951.239833	743.135742	437.983093
12480.082021	3951.239833	741.933594	307.583801
12480.082021	3951.239833	740.731445	466.408081
12480.082021	3951.239833	739.529297	612.354431
12480.082021	3951.239833	738.326172	607.299011
12480.082021	3951.239833	737.124023	719.866699
12480.082021	3951.239833	735.919922	886.070435
12480.082021	3951.239833	734.716797	998.491150
12480.082021	3951.239833	733.513672	965.147461
12480.082021	3951.239833	732.309570	1133.671143
12480.082021	3951.239833	731.105469	885.649231
12480.082021	3951.239833	729.900391	1054.060791
12480.082021	3951.239833	728.696289	800.982483
12480.082021	3951.239833	727.491211	1030.548584
12480.082021	3951.239833	726.286133	948.545227
12480.082021	3951.239833	725.080078	973.730957
12480.082021	3951.239833	723.874023	914.657593
12480.082021	3951.239833	722.668945	1304.560669
12480.082021	3951.239833	721.461914	1056.612061
12480.082021	3951.239833	720.255859	864.813416
12480.082021	3951.239833	719.048828	591.462769
12480.082021	3951.239833	717.841797	978.364014
12480.082021	3951.239833	716.634766	1051.587280
12480.082021	3951.239833	715.427734	1162.939087
12480.082021	3951.239833	714.219727	955.765320
12480.082021	3951.239833	713.011719	883.598450
12480.082021	3951.239833	711.803711	1035.473511
12480.082021	3951.239833	710.594727	1034.476440
12480.082021	3951.239833	709.385742	1018.138000
12480.082021	3951.239833	708.176758	976.286072
12480.082021	3951.239833	706.967773	865.686096
12480.082021	3951.239833	705.758789	844.085876
12480.082021	3951.239833	704.548828	746.125732
12480.082021	3951.239833	703.338867	660.840576
12480.082021	3951.239833	702.127930	425.529724
12480.082021	3951.239833	700.917969	629.915100
12480.082021	3951.239833	699.707031	445.358185
12480.082021	3951.239833	698.496094	606.293579
12480.082021	3951.239833	697.285156	444.496490
12480.082021	3951.239833	696.073242	653.430847
12480.082021	3951.239833	694.861328	554.978821
12480.082021	3951.239833	693.649414	730.609863
12480.082021	3951.239833	692.436523	1187.765259
12480.082021	3951.239833	691.224609	1099.109619
12480.082021	3951.239833	690.011719	1040.832397
12480.082021	3951.239833	688.798828	1081.383301
12480.082021	3951.239833	687.584961	1043.204346
12480.082021	3951.239833	686.372070	1080.981323
12480.082021	3951.239833	685.158203	1171.857910
12480.082021	3951.239833	683.943359	923.017456
12480.082021	3951.239833	682.729492	859.109070
12480.082021	3951.239833	681.514648	1012.947937
12480.082021	3951.239833	680.299805	933.611511
12480.082021	3951.239833	679.084961	920.015747
12480.082021	3951.239833	677.869141	1058.182007
12480.082021	3951.239833	676.653320	1082.274048
12480.082021	3951.239833	675.437500	1096.102295
12480.082021	3951.239833	674.221680	1036.428467
12480.082021	3951.239833	673.004883	1161.281494
12480.082021	3951.239833	671.789063	1288.472412
12480.082021	3951.239833	670.571289	1342.153931
12480.082021	3951.239833	669.354492	1347.644287
12480.082021	3951.239833	668.136719	1178.617676
12480.082021	3951.239833	666.919922	1421.351318
12480.082021	3951.239833	665.701172	1481.959229
12480.082021	3951.239833	664.483398	1923.747559
12480.082021	3951.239833	663.264648	2168.249023
12480.082021	3951.239833	662.045898	2354.429688
12480.082021	3951.239833	660.827148	2366.223389
12480.082021	3951.239833	659.608398	2100.281006
12480.082021	3951.239833	658.388672	1925.113892
12480.082021	3951.239833	657.168945	1585.909912
12480.082021	3951.239833	655.949219	1609.823608
12480.082021	3951.239833	654.728516	1469.680908
12480.082021	3951.239833	653.507813	1485.716797
12480.082021	3951.239833	652.287109	1499.056641
12480.082021	3951.239833	651.066406	1235.056030
12480.082021	3951.239833	649.844727	1535.283203
12480.082021	3951.239833	648.623047	1467.492920
12480.082021	3951.239833	647.401367	1621.146729
12480.082021	3951.239833	646.179688	1907.989136
12480.082021	3951.239833	644.957031	2013.306396
12480.082021	3951.239833	643.734375	1959.860229
12480.082021	3951.239833	642.511719	2416.994873
12480.082021	3951.239833	641.289063	2408.398438
12480.082021	3951.239833	640.065430	2034.964233
12480.082021	3951.239833	638.841797	2046.196655
12480.082021	3951.239833	637.618164	1808.369873
12480.082021	3951.239833	636.393555	1598.101563
12480.082021	3951.239833	635.168945	1480.703247
12480.082021	3951.239833	633.944336	1430.994263
12480.082021	3951.239833	632.719727	1313.299561
12480.082021	3951.239833	631.494141	1230.615479
12480.082021	3951.239833	630.269531	1411.392212
12480.082021	3951.239833	629.042969	1413.673828
12480.082021	3951.239833	627.817383	1513.635498
12480.082021	3951.239833	626.590820	1425.177368
12480.082021	3951.239833	625.365234	1527.208618
12480.082021	3951.239833	624.137695	1448.418213
12480.082021	3951.239833	622.911133	1637.760132
12480.082021	3951.239833	621.683594	1586.155640
12480.082021	3951.239833	620.456055	1328.850342
12480.082021	3951.239833	619.228516	1266.908081
12480.082021	3951.239833	618.000977	1392.687988
12480.082021	3951.239833	616.772461	1089.891846
12480.082021	3951.239833	615.543945	1160.154663
12480.082021	3951.239833	614.314453	1295.275757
12480.082021	3951.239833	613.085938	1304.982056
12480.082021	3951.239833	611.856445	771.399475
12480.082021	3951.239833	610.626953	663.199219
12480.082021	3951.239833	609.397461	835.019958
12480.082021	3951.239833	608.166992	746.447510
12480.082021	3951.239833	606.936523	437.661469
12480.082021	3951.239833	605.706055	726.300720
12480.082021	3951.239833	604.474609	577.202759
12480.082021	3951.239833	603.244141	632.880615
12480.082021	3951.239833	602.012695	898.190674
12480.082021	3951.239833	600.780273	993.322388
12480.082021	3951.239833	599.548828	1130.672729
12480.082021	3951.239833	598.316406	973.130554
12480.082021	3951.239833	597.083984	1005.168274
12480.082021	3951.239833	595.851563	807.384094
12480.082021	3951.239833	594.618164	993.736023
12480.082021	3951.239833	593.384766	925.351257
12480.082021	3951.239833	592.151367	1078.773682
12480.082021	3951.239833	590.917969	1097.277832
12480.082021	3951.239833	589.683594	1319.998657
12480.082021	3951.239833	588.449219	1123.677734
12480.082021	3951.239833	587.214844	1216.318359
12480.082021	3951.239833	585.979492	1164.207642
12480.082021	3951.239833	584.745117	1199.118164
12480.082021	3951.239833	583.509766	910.055176
12480.082021	3951.239833	582.273438	1096.484375
12480.082021	3951.239833	581.038086	924.183289
12480.082021	3951.239833	579.801758	943.398682
12480.082021	3951.239833	578.565430	790.721313
12480.082021	3951.239833	577.329102	1177.774048
12480.082021	3951.239833	576.091797	945.138489
12480.082021	3951.239833	574.854492	931.251831
12480.082021	3951.239833	573.617188	1178.239136
12480.082021	3951.239833	572.378906	962.597656
12480.082021	3951.239833	571.141602	1007.820862
12480.082021	3951.239833	569.903320	1383.288330
12480.082021	3951.239833	568.664063	1271.533203
12480.082021	3951.239833	567.425781	1154.697998
12480.082021	3951.239833	566.186523	1546.747925
12480.082021	3951.239833	564.947266	1680.283936
12480.082021	3951.239833	563.708008	1781.333740
12480.082021	3951.239833	562.467773	1780.427612
12480.082021	3951.239833	561.227539	1471.731689
12480.082021	3951.239833	559.987305	1227.498413
12480.082021	3951.239833	558.747070	1129.523560
12480.082021	3951.239833	557.505859	984.321411
12480.082021	3951.239833	556.264648	896.039246
12480.082021	3951.239833	555.023438	470.609680
12480.082021	3951.239833	553.781250	511.013641
12480.082021	3951.239833	552.539063	630.527893
12480.082021	3951.239833	551.296875	479.897705
12480.082021	3951.239833	550.054688	378.719971
12480.082021	3951.239833	548.811523	1027.539917
12480.082021	3951.239833	547.569336	577.044250
12480.082021	3951.239833	546.325195	705.625854
12480.082021	3951.239833	545.082031	720.240234
12480.082021	3951.239833	543.837891	645.669861
12480.082021	3951.239833	542.593750	484.462311
12480.082021	3951.239833	541.349609	629.791077
12480.082021	3951.239833	540.105469	582.140198
12480.082021	3951.239833	538.860352	608.533203
12480.082021	3951.239833	537.615234	862.125671
12480.082021	3951.239833	536.369141	525.101318
12480.082021	3951.239833	535.124023	677.150818
12480.082021	3951.239833	533.877930	606.799988
12480.082021	3951.239833	532.631836	758.575928
12480.082021	3951.239833	531.384766	912.658386
12480.082021	3951.239833	530.138672	856.859802
12480.082021	3951.239833	528.891602	946.555359
12480.082021	3951.239833	527.643555	648.873901
12480.082021	3951.239833	526.396484	763.099121
12480.082021	3951.239833	525.148438	887.059021
12480.082021	3951.239833	523.900391	547.486450
12480.082021	3951.239833	522.652344	725.545837
12480.082021	3951.239833	521.403320	676.780029
12480.082021	3951.239833	520.154297	366.867432
12480.082021	3951.239833	518.905273	377.220581
12480.082021	3951.239833	517.656250	522.958984
12480.082021	3951.239833	516.406250	355.938141
12480.082021	3951.239833	515.156250	230.801392
12480.082021	3951.239833	513.906250	66.320717
12480.082021	3951.239833	512.655273	17.507845
12480.082021	3951.239833	511.404297	212.209381
12480.082021	3951.239833	510.153320	-38.294880
12480.082021	3951.239833	508.902344	65.347099
12480.082021	3951.239833	507.650391	-91.634201
12480.082021	3951.239833	506.398438	-145.325714
12480.082021	3951.239833	505.146484	-277.615631
12480.082021	3951.239833	503.893555	-147.003952
12480.082021	3951.239833	502.641602	106.381752
12480.082021	3951.239833	501.388672	57.638741
12480.082021	3951.239833	500.134766	-145.736420
12480.082021	3951.239833	498.881836	100.177284
12480.082021	3951.239833	497.627930	252.754547
12480.082021	3951.239833	496.374023	115.806587
12480.082021	3951.239833	495.119141	123.659645
12480.082021	3951.239833	493.865234	-96.496140
12480.082021	3951.239833	492.610352	181.188660
12480.082021	3951.239833	491.355469	78.862846
12480.082021	3951.239833	490.099609	-33.178612
12480.082021	3951.239833	488.843750	38.652336
12480.082021	3951.239833	487.587891	32.129086
12480.082021	3951.239833	486.332031	116.294495
12480.082021	3951.239833	485.075195	-88.452965
12480.082021	3951.239833	483.818359	203.925415
12480.082021	3951.239833	482.561523	239.263260
12480.082021	3951.239833	481.304688	284.456604
12480.082021	3951.239833	480.046875	359.062073
12480.082021	3951.239833	478.789063	335.887268
12480.082021	3951.239833	477.531250	623.386475
12480.082021	3951.239833	476.272461	38.008812
12480.082021	3951.239833	475.013672	403.852325
12480.082021	3951.239833	473.754883	483.706909
12480.082021	3951.239833	472.496094	309.526398
12480.082021	3951.239833	471.236328	401.781189
12480.082021	3951.239833	469.976563	98.455193
12480.082021	3951.239833	468.716797	93.269333
12480.082021	3951.239833	467.456055	-146.173325
12480.082021	3951.239833	466.196289	239.438934
12480.082021	3951.239833	464.935547	200.399734
12480.082021	3951.239833	463.673828	473.759735
12480.082021	3951.239833	462.413086	332.483826
12480.082021	3951.239833	461.151367	405.976929
12480.082021	3951.239833	459.889648	657.541138
12480.082021	3951.239833	458.626953	675.104919
12480.082021	3951.239833	457.364258	505.135651
12480.082021	3951.239833	456.101563	483.993042
12480.082021	3951.239833	454.838867	531.190674
12480.082021	3951.239833	453.575195	466.451599
12480.082021	3951.239833	452.312500	177.864136
12480.082021	3951.239833	451.047852	-112.929924
12480.082021	3951.239833	449.784180	5.425818
12480.082021	3951.239833	448.519531	50.839832
12480.082021	3951.239833	447.254883	8.774573
12480.082021	3951.239833	445.990234	112.784744
12480.082021	3951.239833	444.725586	78.254807
12480.082021	3951.239833	443.459961	92.468658
12480.082021	3951.239833	442.194336	11.990590
12480.082021	3951.239833	440.927734	-44.052269
12480.082021	3951.239833	439.662109	-68.369614
12480.082021	3951.239833	438.395508	41.014198
12480.082021	3951.239833	437.127930	9.579390
12480.082021	3951.239833	435.861328	155.509125
12480.082021	3951.239833	434.593750	-33.549774
12480.082021	3951.239833	433.326172	27.537872
12480.082021	3951.239833	432.058594	122.646858
12480.082021	3951.239833	430.790039	300.255188
12480.082021	3951.239833	429.521484	60.670292
12480.082021	3951.239833	428.252930	-84.183609
12480.082021	3951.239833	426.984375	23.210941
12480.082021	3951.239833	425.714844	-60.900291
12480.082021	3951.239833	424.445313	-266.114380
12480.082021	3951.239833	423.174805	-199.870148
12480.082021	3951.239833	421.905273	-109.414604
12480.082021	3951.239833	420.634766	2.787272
12480.082021	3951.239833	419.364258	-95.719376
12480.082021	3951.239833	418.092773	-2.979176
12480.082021	3951.239833	416.822266	222.805435
12480.082021	3951.239833	415.550781	-166.163086
12480.082021	3951.239833	414.278320	-228.451172
12480.082021	3951.239833	413.006836	134.897171
12480.082021	3951.239833	411.734375	-0.140470
12480.082021	3951.239833	410.461914	-79.624832
12480.082021	3951.239833	409.188477	26.906174
12480.082021	3951.239833	407.916016	70.427826
12480.082021	3951.239833	406.642578	21.955214
12480.082021	3951.239833	405.368164	123.074898
12480.082021	3951.239833	404.094727	122.534012
12480.082021	3951.239833	402.820313	-102.774612
12480.082021	3951.239833	401.545898	70.068016
12480.082021	3951.239833	400.270508	112.244041
12480.082021	3951.239833	398.996094	23.832649
12480.082021	3951.239833	397.720703	-163.762573
12480.082021	3951.239833	396.444336	-110.441727
12480.082021	3951.239833	395.168945	0.382837
12480.082021	3951.239833	393.892578	260.229584
12480.082021	3951.239833	392.616211	145.965836
12480.082021	3951.239833	391.339844	149.387619
12480.082021	3951.239833	390.062500	345.061890
12480.082021	3951.239833	388.785156	164.396774
12480.082021	3951.239833	387.507813	65.155952
12480.082021	3951.239833	386.229492	232.624649
12480.082021	3951.239833	384.951172	-41.076309
12480.082021	3951.239833	383.672852	158.801743
12480.082021	3951.239833	382.394531	88.445786
12480.082021	3951.239833	381.115234	371.009521
12480.082021	3951.239833	379.835938	-107.277725
12480.082021	3951.239833	378.556641	-172.570419
12480.082021	3951.239833	377.277344	30.581177
12480.082021	3951.239833	375.997070	-79.690323
12480.082021	3951.239833	374.716797	109.536972
12480.082021	3951.239833	373.435547	86.291954
12480.082021	3951.239833	372.155273	220.596405
12480.082021	3951.239833	370.874023	-40.052570
12480.082021	3951.239833	369.591797	137.637787
12480.082021	3951.239833	368.310547	-165.941086
12480.082021	3951.239833	367.028320	138.925140
12480.082021	3951.239833	365.746094	-123.822891
12480.082021	3951.239833	364.463867	183.123627
12480.082021	3951.239833	363.180664	1.700461
12480.082021	3951.239833	361.897461	-92.358742
12480.082021	3951.239833	360.614258	11.091816
12480.082021	3951.239833	359.330078	-220.217667
12480.082021	3951.239833	358.045898	-79.252647
12480.082021	3951.239833	356.761719	117.461578
12480.082021	3951.239833	355.477539	15.349172
12480.082021	3951.239833	354.192383	-71.813278
12480.082021	3951.239833	352.907227	363.461639
12480.082021	3951.239833	351.622070	107.252754
12480.082021	3951.239833	350.336914	509.578461
12480.082021	3951.239833	349.050781	438.254425
12480.082021	3951.239833	347.764648	388.684113
12480.082021	3951.239833	346.477539	422.904297
12480.082021	3951.239833	345.191406	-102.287094
12480.082021	3951.239833	343.904297	99.321304
12480.082021	3951.239833	342.616211	121.405853
12480.082021	3951.239833	341.329102	351.169525
12480.082021	3951.239833	340.041016	226.905365
12480.082021	3951.239833	338.752930	164.369614
12480.082021	3951.239833	337.463867	63.073772
12480.082021	3951.239833	336.175781	157.017441
12480.082021	3951.239833	334.886719	159.439972
12480.082021	3951.239833	333.596680	234.939713
12480.082021	3951.239833	332.307617	70.966301
12480.082021	3951.239833	331.017578	34.750957
12480.082021	3951.239833	329.727539	-12.144786
12480.082021	3951.239833	328.436523	37.378719
12480.082021	3951.239833	327.146484	-302.962341
12480.082021	3951.239833	325.855469	-72.802727
12480.082021	3951.239833	324.563477	45.934048
12480.082021	3951.239833	323.272461	-134.811752
12480.082021	3951.239833	321.980469	-38.820396
12480.082021	3951.239833	320.688477	152.723907
12480.082021	3951.239833	319.395508	-207.962463
12480.082021	3951.239833	318.103516	126.637650
12480.082021	3951.239833	316.810547	-124.413658
12480.082021	3951.239833	315.516602	9.716810
12480.082021	3951.239833	314.223633	-44.351643
12480.082021	3951.239833	312.929688	-153.707733
12480.082021	3951.239833	311.635742	-37.828033
12480.082021	3951.239833	310.340820	-191.529572
12480.082021	3951.239833	309.045898	-293.871857
12480.082021	3951.239833	307.750977	4.192210
12480.082021	3951.239833	306.456055	110.784500
12480.082021	3951.239833	305.160156	253.692932
12480.082021	3951.239833	303.865234	254.938721
12480.082021	3951.239833	302.568359	287.265503
12480.082021	3951.239833	301.272461	203.782959
12480.082021	3951.239833	299.975586	269.805328
12480.082021	3951.239833	298.678711	447.249268
