#X		#Y		#Wave		#Intensity
29545.280851	-1505.516667	1999.980469	-34.459705
29545.280851	-1505.516667	1999.016602	45.569420
29545.280851	-1505.516667	1998.052734	68.273369
29545.280851	-1505.516667	1997.087891	-25.461510
29545.280851	-1505.516667	1996.123047	34.495953
29545.280851	-1505.516667	1995.158203	64.745872
29545.280851	-1505.516667	1994.193359	104.931595
29545.280851	-1505.516667	1993.228516	28.755924
29545.280851	-1505.516667	1992.262695	19.492479
29545.280851	-1505.516667	1991.297852	30.074049
29545.280851	-1505.516667	1990.332031	-40.985718
29545.280851	-1505.516667	1989.366211	53.804413
29545.280851	-1505.516667	1988.399414	47.158577
29545.280851	-1505.516667	1987.433594	-63.338684
29545.280851	-1505.516667	1986.466797	-27.852198
29545.280851	-1505.516667	1985.500977	99.140831
29545.280851	-1505.516667	1984.534180	72.842323
29545.280851	-1505.516667	1983.567383	63.885242
29545.280851	-1505.516667	1982.599609	17.890873
29545.280851	-1505.516667	1981.632813	-42.881966
29545.280851	-1505.516667	1980.665039	54.495018
29545.280851	-1505.516667	1979.697266	-13.618701
29545.280851	-1505.516667	1978.729492	59.075031
29545.280851	-1505.516667	1977.761719	5.850339
29545.280851	-1505.516667	1976.792969	-10.303813
29545.280851	-1505.516667	1975.825195	-26.427427
29545.280851	-1505.516667	1974.856445	-5.509648
29545.280851	-1505.516667	1973.887695	25.291222
29545.280851	-1505.516667	1972.918945	65.968620
29545.280851	-1505.516667	1971.949219	17.867643
29545.280851	-1505.516667	1970.980469	38.846333
29545.280851	-1505.516667	1970.010742	-4.261539
29545.280851	-1505.516667	1969.041016	112.879211
29545.280851	-1505.516667	1968.071289	67.346321
29545.280851	-1505.516667	1967.101563	-47.141617
29545.280851	-1505.516667	1966.130859	5.944058
29545.280851	-1505.516667	1965.161133	-27.177692
29545.280851	-1505.516667	1964.190430	20.991753
29545.280851	-1505.516667	1963.219727	24.841013
29545.280851	-1505.516667	1962.249023	109.937019
29545.280851	-1505.516667	1961.277344	-85.557648
29545.280851	-1505.516667	1960.306641	-59.501881
29545.280851	-1505.516667	1959.334961	10.841187
29545.280851	-1505.516667	1958.363281	39.354172
29545.280851	-1505.516667	1957.391602	-15.748716
29545.280851	-1505.516667	1956.419922	-29.018633
29545.280851	-1505.516667	1955.447266	-22.605734
29545.280851	-1505.516667	1954.474609	82.133942
29545.280851	-1505.516667	1953.501953	19.734468
29545.280851	-1505.516667	1952.529297	60.564041
29545.280851	-1505.516667	1951.556641	3.124048
29545.280851	-1505.516667	1950.583984	9.573714
29545.280851	-1505.516667	1949.610352	87.243477
29545.280851	-1505.516667	1948.636719	-4.517754
29545.280851	-1505.516667	1947.663086	-32.413391
29545.280851	-1505.516667	1946.689453	3.520647
29545.280851	-1505.516667	1945.715820	7.548003
29545.280851	-1505.516667	1944.741211	114.622368
29545.280851	-1505.516667	1943.767578	-40.800751
29545.280851	-1505.516667	1942.792969	58.897121
29545.280851	-1505.516667	1941.818359	-10.626259
29545.280851	-1505.516667	1940.842773	-99.731842
29545.280851	-1505.516667	1939.868164	61.214211
29545.280851	-1505.516667	1938.892578	-5.806510
29545.280851	-1505.516667	1937.916992	17.859121
29545.280851	-1505.516667	1936.941406	-34.422386
29545.280851	-1505.516667	1935.965820	-18.100924
29545.280851	-1505.516667	1934.990234	49.643032
29545.280851	-1505.516667	1934.013672	149.192871
29545.280851	-1505.516667	1933.037109	30.843836
29545.280851	-1505.516667	1932.060547	61.836124
29545.280851	-1505.516667	1931.083984	7.173736
29545.280851	-1505.516667	1930.107422	43.055874
29545.280851	-1505.516667	1929.129883	44.680431
29545.280851	-1505.516667	1928.153320	38.969101
29545.280851	-1505.516667	1927.175781	77.273743
29545.280851	-1505.516667	1926.198242	59.336288
29545.280851	-1505.516667	1925.219727	34.072674
29545.280851	-1505.516667	1924.242188	-40.056820
29545.280851	-1505.516667	1923.263672	61.762604
29545.280851	-1505.516667	1922.285156	100.028618
29545.280851	-1505.516667	1921.306641	25.927544
29545.280851	-1505.516667	1920.328125	0.693436
29545.280851	-1505.516667	1919.349609	-7.441234
29545.280851	-1505.516667	1918.370117	-25.338562
29545.280851	-1505.516667	1917.391602	17.785875
29545.280851	-1505.516667	1916.412109	9.648882
29545.280851	-1505.516667	1915.431641	11.272012
29545.280851	-1505.516667	1914.452148	151.931168
29545.280851	-1505.516667	1913.472656	114.503273
29545.280851	-1505.516667	1912.492188	-5.816586
29545.280851	-1505.516667	1911.511719	34.807091
29545.280851	-1505.516667	1910.531250	-34.271107
29545.280851	-1505.516667	1909.550781	-18.031540
29545.280851	-1505.516667	1908.569336	63.985260
29545.280851	-1505.516667	1907.588867	31.473955
29545.280851	-1505.516667	1906.607422	69.604362
29545.280851	-1505.516667	1905.625977	-70.049065
29545.280851	-1505.516667	1904.644531	7.035525
29545.280851	-1505.516667	1903.662109	-23.019302
29545.280851	-1505.516667	1902.680664	32.117268
29545.280851	-1505.516667	1901.698242	-19.837708
29545.280851	-1505.516667	1900.715820	-15.820245
29545.280851	-1505.516667	1899.733398	66.030029
29545.280851	-1505.516667	1898.750000	121.093750
29545.280851	-1505.516667	1897.767578	-15.956553
29545.280851	-1505.516667	1896.784180	-26.544455
29545.280851	-1505.516667	1895.800781	16.341206
29545.280851	-1505.516667	1894.817383	141.832184
29545.280851	-1505.516667	1893.833984	-75.316109
29545.280851	-1505.516667	1892.850586	-66.467026
29545.280851	-1505.516667	1891.866211	-11.478948
29545.280851	-1505.516667	1890.881836	-22.080919
29545.280851	-1505.516667	1889.897461	47.437080
29545.280851	-1505.516667	1888.913086	73.230751
29545.280851	-1505.516667	1887.927734	14.065479
29545.280851	-1505.516667	1886.943359	47.126381
29545.280851	-1505.516667	1885.958008	48.630692
29545.280851	-1505.516667	1884.972656	50.129932
29545.280851	-1505.516667	1883.987305	134.079376
29545.280851	-1505.516667	1883.001953	-19.628799
29545.280851	-1505.516667	1882.015625	-1.162697
29545.280851	-1505.516667	1881.029297	75.462830
29545.280851	-1505.516667	1880.042969	-0.615907
29545.280851	-1505.516667	1879.056641	-11.253184
29545.280851	-1505.516667	1878.070313	-65.495178
29545.280851	-1505.516667	1877.083984	8.643310
29545.280851	-1505.516667	1876.096680	14.945592
29545.280851	-1505.516667	1875.109375	28.503786
29545.280851	-1505.516667	1874.122070	58.996090
29545.280851	-1505.516667	1873.134766	-7.334962
29545.280851	-1505.516667	1872.146484	115.091049
29545.280851	-1505.516667	1871.159180	82.633858
29545.280851	-1505.516667	1870.170898	-17.543610
29545.280851	-1505.516667	1869.182617	-4.026072
29545.280851	-1505.516667	1868.194336	28.824522
29545.280851	-1505.516667	1867.205078	30.230177
29545.280851	-1505.516667	1866.216797	53.383568
29545.280851	-1505.516667	1865.227539	-22.555706
29545.280851	-1505.516667	1864.238281	10.252224
29545.280851	-1505.516667	1863.249023	23.717510
29545.280851	-1505.516667	1862.259766	-8.715878
29545.280851	-1505.516667	1861.269531	-14.580956
29545.280851	-1505.516667	1860.279297	-71.148918
29545.280851	-1505.516667	1859.290039	46.094841
29545.280851	-1505.516667	1858.298828	28.139498
29545.280851	-1505.516667	1857.308594	84.986603
29545.280851	-1505.516667	1856.318359	18.771723
29545.280851	-1505.516667	1855.327148	27.347923
29545.280851	-1505.516667	1854.335938	72.089073
29545.280851	-1505.516667	1853.344727	5.897398
29545.280851	-1505.516667	1852.353516	60.257904
29545.280851	-1505.516667	1851.362305	37.466499
29545.280851	-1505.516667	1850.370117	2.629048
29545.280851	-1505.516667	1849.377930	30.441097
29545.280851	-1505.516667	1848.385742	22.104935
29545.280851	-1505.516667	1847.393555	-17.542263
29545.280851	-1505.516667	1846.401367	-18.652822
29545.280851	-1505.516667	1845.408203	-7.731375
29545.280851	-1505.516667	1844.415039	-13.668400
29545.280851	-1505.516667	1843.421875	-31.641001
29545.280851	-1505.516667	1842.428711	77.912369
29545.280851	-1505.516667	1841.435547	-31.496313
29545.280851	-1505.516667	1840.441406	-6.177596
29545.280851	-1505.516667	1839.448242	33.555984
29545.280851	-1505.516667	1838.454102	-13.286347
29545.280851	-1505.516667	1837.459961	108.153992
29545.280851	-1505.516667	1836.464844	118.986351
29545.280851	-1505.516667	1835.470703	-9.560875
29545.280851	-1505.516667	1834.475586	32.512112
29545.280851	-1505.516667	1833.480469	64.956245
29545.280851	-1505.516667	1832.485352	6.122751
29545.280851	-1505.516667	1831.490234	64.962463
29545.280851	-1505.516667	1830.495117	82.963448
29545.280851	-1505.516667	1829.499023	67.348785
29545.280851	-1505.516667	1828.502930	44.535835
29545.280851	-1505.516667	1827.506836	52.918171
29545.280851	-1505.516667	1826.510742	63.691380
29545.280851	-1505.516667	1825.513672	-2.294506
29545.280851	-1505.516667	1824.517578	18.067673
29545.280851	-1505.516667	1823.520508	103.149933
29545.280851	-1505.516667	1822.523438	-17.952616
29545.280851	-1505.516667	1821.526367	62.301922
29545.280851	-1505.516667	1820.529297	10.732430
29545.280851	-1505.516667	1819.531250	4.695749
29545.280851	-1505.516667	1818.533203	-66.015366
29545.280851	-1505.516667	1817.535156	47.696278
29545.280851	-1505.516667	1816.537109	27.276522
29545.280851	-1505.516667	1815.539063	6.860042
29545.280851	-1505.516667	1814.540039	5.593699
29545.280851	-1505.516667	1813.541992	-24.391695
29545.280851	-1505.516667	1812.542969	72.434364
29545.280851	-1505.516667	1811.543945	8.948885
29545.280851	-1505.516667	1810.543945	72.239510
29545.280851	-1505.516667	1809.544922	39.855175
29545.280851	-1505.516667	1808.544922	52.902157
29545.280851	-1505.516667	1807.544922	75.501251
29545.280851	-1505.516667	1806.544922	83.748695
29545.280851	-1505.516667	1805.544922	75.263039
29545.280851	-1505.516667	1804.544922	-12.058210
29545.280851	-1505.516667	1803.543945	27.238283
29545.280851	-1505.516667	1802.542969	-69.601906
29545.280851	-1505.516667	1801.541992	-49.417976
29545.280851	-1505.516667	1800.541016	20.884220
29545.280851	-1505.516667	1799.539063	69.674881
29545.280851	-1505.516667	1798.538086	32.539886
29545.280851	-1505.516667	1797.536133	33.586658
29545.280851	-1505.516667	1796.534180	8.390744
29545.280851	-1505.516667	1795.532227	-50.187714
29545.280851	-1505.516667	1794.529297	96.311676
29545.280851	-1505.516667	1793.527344	49.651215
29545.280851	-1505.516667	1792.524414	0.620296
29545.280851	-1505.516667	1791.521484	6.414850
29545.280851	-1505.516667	1790.518555	-23.535646
29545.280851	-1505.516667	1789.514648	22.749931
29545.280851	-1505.516667	1788.511719	42.816509
29545.280851	-1505.516667	1787.507813	131.927689
29545.280851	-1505.516667	1786.503906	99.580330
29545.280851	-1505.516667	1785.500000	-18.451250
29545.280851	-1505.516667	1784.496094	65.850677
29545.280851	-1505.516667	1783.491211	14.487245
29545.280851	-1505.516667	1782.486328	-70.166153
29545.280851	-1505.516667	1781.481445	66.414688
29545.280851	-1505.516667	1780.476563	22.204773
29545.280851	-1505.516667	1779.471680	113.534340
29545.280851	-1505.516667	1778.465820	31.289505
29545.280851	-1505.516667	1777.460938	22.752804
29545.280851	-1505.516667	1776.455078	56.988564
29545.280851	-1505.516667	1775.449219	55.570446
29545.280851	-1505.516667	1774.442383	-5.236049
29545.280851	-1505.516667	1773.436523	-75.521538
29545.280851	-1505.516667	1772.429688	-27.059475
29545.280851	-1505.516667	1771.422852	0.014691
29545.280851	-1505.516667	1770.416016	-8.528378
29545.280851	-1505.516667	1769.409180	77.854561
29545.280851	-1505.516667	1768.402344	36.076260
29545.280851	-1505.516667	1767.394531	-29.412365
29545.280851	-1505.516667	1766.386719	-18.981857
29545.280851	-1505.516667	1765.378906	53.096821
29545.280851	-1505.516667	1764.371094	-33.704502
29545.280851	-1505.516667	1763.362305	-9.065899
29545.280851	-1505.516667	1762.354492	46.371155
29545.280851	-1505.516667	1761.345703	52.023335
29545.280851	-1505.516667	1760.336914	24.503386
29545.280851	-1505.516667	1759.328125	37.257874
29545.280851	-1505.516667	1758.318359	47.635643
29545.280851	-1505.516667	1757.308594	-15.392887
29545.280851	-1505.516667	1756.299805	70.739639
29545.280851	-1505.516667	1755.290039	-20.676476
29545.280851	-1505.516667	1754.279297	-17.406223
29545.280851	-1505.516667	1753.269531	49.741478
29545.280851	-1505.516667	1752.258789	105.032379
29545.280851	-1505.516667	1751.249023	34.954453
29545.280851	-1505.516667	1750.238281	-72.933716
29545.280851	-1505.516667	1749.226563	13.074325
29545.280851	-1505.516667	1748.215820	23.410511
29545.280851	-1505.516667	1747.204102	-6.435663
29545.280851	-1505.516667	1746.193359	-3.192891
29545.280851	-1505.516667	1745.181641	42.567032
29545.280851	-1505.516667	1744.168945	3.278816
29545.280851	-1505.516667	1743.157227	23.039707
29545.280851	-1505.516667	1742.144531	-35.122246
29545.280851	-1505.516667	1741.132813	-88.542290
29545.280851	-1505.516667	1740.120117	13.819703
29545.280851	-1505.516667	1739.106445	99.621956
29545.280851	-1505.516667	1738.093750	15.529835
29545.280851	-1505.516667	1737.080078	2.228119
29545.280851	-1505.516667	1736.067383	59.678818
29545.280851	-1505.516667	1735.053711	15.717813
29545.280851	-1505.516667	1734.040039	30.705946
29545.280851	-1505.516667	1733.025391	17.401928
29545.280851	-1505.516667	1732.011719	-76.017860
29545.280851	-1505.516667	1730.997070	94.469452
29545.280851	-1505.516667	1729.982422	36.399044
29545.280851	-1505.516667	1728.967773	-49.912785
29545.280851	-1505.516667	1727.952148	-27.879698
29545.280851	-1505.516667	1726.937500	36.520283
29545.280851	-1505.516667	1725.921875	136.198822
29545.280851	-1505.516667	1724.906250	64.045197
29545.280851	-1505.516667	1723.890625	-19.847164
29545.280851	-1505.516667	1722.875000	-4.907811
29545.280851	-1505.516667	1721.858398	-32.312256
29545.280851	-1505.516667	1720.841797	-71.465881
29545.280851	-1505.516667	1719.825195	70.426140
29545.280851	-1505.516667	1718.808594	-36.903622
29545.280851	-1505.516667	1717.791992	-10.234329
29545.280851	-1505.516667	1716.774414	-61.118935
29545.280851	-1505.516667	1715.756836	5.477738
29545.280851	-1505.516667	1714.739258	-5.463696
29545.280851	-1505.516667	1713.721680	98.667259
29545.280851	-1505.516667	1712.704102	7.879410
29545.280851	-1505.516667	1711.685547	-38.274490
29545.280851	-1505.516667	1710.667969	-18.694429
29545.280851	-1505.516667	1709.649414	-31.976841
29545.280851	-1505.516667	1708.630859	-0.679433
29545.280851	-1505.516667	1707.611328	14.183889
29545.280851	-1505.516667	1706.592773	-17.863516
29545.280851	-1505.516667	1705.573242	-21.764030
29545.280851	-1505.516667	1704.553711	-2.221361
29545.280851	-1505.516667	1703.534180	-3.782358
29545.280851	-1505.516667	1702.513672	-5.345332
29545.280851	-1505.516667	1701.494141	-65.482491
29545.280851	-1505.516667	1700.473633	-45.953136
29545.280851	-1505.516667	1699.453125	-24.090590
29545.280851	-1505.516667	1698.432617	16.495056
29545.280851	-1505.516667	1697.412109	54.722771
29545.280851	-1505.516667	1696.390625	15.689355
29545.280851	-1505.516667	1695.369141	-32.691452
29545.280851	-1505.516667	1694.347656	-74.035599
29545.280851	-1505.516667	1693.326172	-3.074991
29545.280851	-1505.516667	1692.304688	133.347122
29545.280851	-1505.516667	1691.282227	-43.641682
29545.280851	-1505.516667	1690.260742	17.916660
29545.280851	-1505.516667	1689.238281	44.384918
29545.280851	-1505.516667	1688.214844	-27.318426
29545.280851	-1505.516667	1687.192383	-40.577095
29545.280851	-1505.516667	1686.168945	25.598635
29545.280851	-1505.516667	1685.146484	-67.083893
29545.280851	-1505.516667	1684.123047	-75.661079
29545.280851	-1505.516667	1683.099609	-16.524605
29545.280851	-1505.516667	1682.075195	-60.127842
29545.280851	-1505.516667	1681.051758	61.998405
29545.280851	-1505.516667	1680.027344	69.732399
29545.280851	-1505.516667	1679.002930	-8.861357
29545.280851	-1505.516667	1677.978516	-47.771366
29545.280851	-1505.516667	1676.953125	6.619187
29545.280851	-1505.516667	1675.928711	35.339928
29545.280851	-1505.516667	1674.903320	8.096626
29545.280851	-1505.516667	1673.877930	39.134090
29545.280851	-1505.516667	1672.852539	79.480179
29545.280851	-1505.516667	1671.826172	-8.337904
29545.280851	-1505.516667	1670.800781	45.977055
29545.280851	-1505.516667	1669.774414	-2.208284
29545.280851	-1505.516667	1668.748047	-10.789986
29545.280851	-1505.516667	1667.721680	-72.916214
29545.280851	-1505.516667	1666.694336	79.127243
29545.280851	-1505.516667	1665.667969	-1.611411
29545.280851	-1505.516667	1664.640625	-10.190333
29545.280851	-1505.516667	1663.613281	41.718296
29545.280851	-1505.516667	1662.585938	0.570800
29545.280851	-1505.516667	1661.557617	-33.586319
29545.280851	-1505.516667	1660.530273	-35.179729
29545.280851	-1505.516667	1659.501953	-73.966789
29545.280851	-1505.516667	1658.473633	17.409849
29545.280851	-1505.516667	1657.444336	-12.079962
29545.280851	-1505.516667	1656.416016	46.724018
29545.280851	-1505.516667	1655.386719	12.593731
29545.280851	-1505.516667	1654.358398	59.757778
29545.280851	-1505.516667	1653.328125	-55.628513
29545.280851	-1505.516667	1652.298828	-54.899368
29545.280851	-1505.516667	1651.269531	40.988297
29545.280851	-1505.516667	1650.239258	46.337822
29545.280851	-1505.516667	1649.208984	9.924295
29545.280851	-1505.516667	1648.178711	-19.516663
29545.280851	-1505.516667	1647.148438	99.479332
29545.280851	-1505.516667	1646.117188	-38.948193
29545.280851	-1505.516667	1645.086914	24.367105
29545.280851	-1505.516667	1644.055664	94.610260
29545.280851	-1505.516667	1643.024414	76.766312
29545.280851	-1505.516667	1641.992188	68.195984
29545.280851	-1505.516667	1640.960938	133.756546
29545.280851	-1505.516667	1639.928711	11.693800
29545.280851	-1505.516667	1638.896484	111.972542
29545.280851	-1505.516667	1637.864258	50.154327
29545.280851	-1505.516667	1636.832031	80.946701
29545.280851	-1505.516667	1635.798828	70.070496
29545.280851	-1505.516667	1634.766602	86.964996
29545.280851	-1505.516667	1633.733398	126.985176
29545.280851	-1505.516667	1632.699219	62.909630
29545.280851	-1505.516667	1631.666016	135.293350
29545.280851	-1505.516667	1630.632813	45.811302
29545.280851	-1505.516667	1629.598633	115.858131
29545.280851	-1505.516667	1628.564453	144.278732
29545.280851	-1505.516667	1627.530273	107.991379
29545.280851	-1505.516667	1626.495117	145.642914
29545.280851	-1505.516667	1625.460938	88.582542
29545.280851	-1505.516667	1624.425781	84.657417
29545.280851	-1505.516667	1623.390625	48.410446
29545.280851	-1505.516667	1622.355469	118.363632
29545.280851	-1505.516667	1621.319336	116.743439
29545.280851	-1505.516667	1620.284180	96.665649
29545.280851	-1505.516667	1619.248047	115.814842
29545.280851	-1505.516667	1618.211914	111.891388
29545.280851	-1505.516667	1617.174805	156.397873
29545.280851	-1505.516667	1616.138672	113.273071
29545.280851	-1505.516667	1615.101563	77.080238
29545.280851	-1505.516667	1614.065430	98.523270
29545.280851	-1505.516667	1613.027344	87.695839
29545.280851	-1505.516667	1611.990234	81.482376
29545.280851	-1505.516667	1610.953125	33.810284
29545.280851	-1505.516667	1609.915039	52.943645
29545.280851	-1505.516667	1608.876953	19.112114
29545.280851	-1505.516667	1607.838867	1.409470
29545.280851	-1505.516667	1606.800781	110.305481
29545.280851	-1505.516667	1605.761719	46.569118
29545.280851	-1505.516667	1604.723633	5.867390
29545.280851	-1505.516667	1603.684570	11.187666
29545.280851	-1505.516667	1602.644531	115.399864
29545.280851	-1505.516667	1601.605469	42.519608
29545.280851	-1505.516667	1600.566406	43.235806
29545.280851	-1505.516667	1599.526367	115.205864
29545.280851	-1505.516667	1598.486328	109.015129
29545.280851	-1505.516667	1597.446289	49.982979
29545.280851	-1505.516667	1596.405273	135.696030
29545.280851	-1505.516667	1595.365234	193.817352
29545.280851	-1505.516667	1594.324219	114.140755
29545.280851	-1505.516667	1593.283203	68.934181
29545.280851	-1505.516667	1592.242188	35.223564
29545.280851	-1505.516667	1591.200195	134.632401
29545.280851	-1505.516667	1590.159180	84.864487
29545.280851	-1505.516667	1589.117188	94.761528
29545.280851	-1505.516667	1588.075195	67.959137
29545.280851	-1505.516667	1587.032227	107.668945
29545.280851	-1505.516667	1585.990234	41.902878
29545.280851	-1505.516667	1584.947266	175.587585
29545.280851	-1505.516667	1583.904297	91.502716
29545.280851	-1505.516667	1582.861328	108.271614
29545.280851	-1505.516667	1581.818359	115.872353
29545.280851	-1505.516667	1580.775391	144.086227
29545.280851	-1505.516667	1579.731445	87.560913
29545.280851	-1505.516667	1578.687500	19.612213
29545.280851	-1505.516667	1577.643555	29.521408
29545.280851	-1505.516667	1576.598633	-36.096996
29545.280851	-1505.516667	1575.554688	33.317196
29545.280851	-1505.516667	1574.509766	-4.818335
29545.280851	-1505.516667	1573.464844	11.958418
29545.280851	-1505.516667	1572.419922	168.229294
29545.280851	-1505.516667	1571.374023	125.523582
29545.280851	-1505.516667	1570.329102	32.547234
29545.280851	-1505.516667	1569.283203	74.453781
29545.280851	-1505.516667	1568.237305	34.084618
29545.280851	-1505.516667	1567.191406	43.995453
29545.280851	-1505.516667	1566.144531	126.997353
29545.280851	-1505.516667	1565.098633	111.771065
29545.280851	-1505.516667	1564.051758	66.870064
29545.280851	-1505.516667	1563.004883	28.838377
29545.280851	-1505.516667	1561.957031	-31.999989
29545.280851	-1505.516667	1560.910156	0.748093
29545.280851	-1505.516667	1559.862305	111.055565
29545.280851	-1505.516667	1558.814453	11.469115
29545.280851	-1505.516667	1557.766602	35.075703
29545.280851	-1505.516667	1556.718750	3.953497
29545.280851	-1505.516667	1555.669922	66.312531
29545.280851	-1505.516667	1554.621094	-1.265371
29545.280851	-1505.516667	1553.573242	33.732506
29545.280851	-1505.516667	1552.523438	82.388565
29545.280851	-1505.516667	1551.474609	58.137596
29545.280851	-1505.516667	1550.424805	61.227997
29545.280851	-1505.516667	1549.375000	11.950074
29545.280851	-1505.516667	1548.325195	165.307297
29545.280851	-1505.516667	1547.275391	88.722794
29545.280851	-1505.516667	1546.225586	5.345320
29545.280851	-1505.516667	1545.174805	-7.465411
29545.280851	-1505.516667	1544.124023	25.227859
29545.280851	-1505.516667	1543.073242	82.929573
29545.280851	-1505.516667	1542.022461	147.433975
29545.280851	-1505.516667	1540.970703	66.418434
29545.280851	-1505.516667	1539.919922	62.720249
29545.280851	-1505.516667	1538.868164	165.834747
29545.280851	-1505.516667	1537.815430	80.331093
29545.280851	-1505.516667	1536.763672	88.002365
29545.280851	-1505.516667	1535.710938	113.843185
29545.280851	-1505.516667	1534.659180	157.845108
29545.280851	-1505.516667	1533.606445	179.130219
29545.280851	-1505.516667	1532.552734	125.506927
29545.280851	-1505.516667	1531.500000	49.216274
29545.280851	-1505.516667	1530.446289	86.405754
29545.280851	-1505.516667	1529.393555	100.901352
29545.280851	-1505.516667	1528.338867	117.662247
29545.280851	-1505.516667	1527.285156	116.281601
29545.280851	-1505.516667	1526.231445	-5.251633
29545.280851	-1505.516667	1525.176758	2.468020
29545.280851	-1505.516667	1524.122070	103.105263
29545.280851	-1505.516667	1523.067383	24.710691
29545.280851	-1505.516667	1522.012695	18.842941
29545.280851	-1505.516667	1520.957031	60.544472
29545.280851	-1505.516667	1519.901367	-13.251722
29545.280851	-1505.516667	1518.845703	42.034004
29545.280851	-1505.516667	1517.790039	36.187344
29545.280851	-1505.516667	1516.734375	-28.492094
29545.280851	-1505.516667	1515.677734	65.244232
29545.280851	-1505.516667	1514.621094	-33.338436
29545.280851	-1505.516667	1513.564453	1.567081
29545.280851	-1505.516667	1512.507813	135.961563
29545.280851	-1505.516667	1511.450195	69.091629
29545.280851	-1505.516667	1510.393555	72.327011
29545.280851	-1505.516667	1509.335938	86.866188
29545.280851	-1505.516667	1508.278320	38.138687
29545.280851	-1505.516667	1507.219727	77.539330
29545.280851	-1505.516667	1506.162109	92.085999
29545.280851	-1505.516667	1505.103516	-4.018129
29545.280851	-1505.516667	1504.044922	159.559998
29545.280851	-1505.516667	1502.986328	11.575333
29545.280851	-1505.516667	1501.926758	35.173683
29545.280851	-1505.516667	1500.868164	58.769363
29545.280851	-1505.516667	1499.808594	120.712090
29545.280851	-1505.516667	1498.749023	130.760437
29545.280851	-1505.516667	1497.688477	127.280212
29545.280851	-1505.516667	1496.628906	105.771629
29545.280851	-1505.516667	1495.568359	27.923803
29545.280851	-1505.516667	1494.507813	38.007481
29545.280851	-1505.516667	1493.447266	27.814457
29545.280851	-1505.516667	1492.386719	123.513481
29545.280851	-1505.516667	1491.325195	63.768272
29545.280851	-1505.516667	1490.263672	-13.961490
29545.280851	-1505.516667	1489.202148	-17.355932
29545.280851	-1505.516667	1488.140625	26.529085
29545.280851	-1505.516667	1487.079102	-8.365964
29545.280851	-1505.516667	1486.016602	33.262802
29545.280851	-1505.516667	1484.954102	25.389444
29545.280851	-1505.516667	1483.891602	-67.944000
29545.280851	-1505.516667	1482.829102	-8.317082
29545.280851	-1505.516667	1481.765625	78.273087
29545.280851	-1505.516667	1480.702148	-23.981203
29545.280851	-1505.516667	1479.638672	10.900317
29545.280851	-1505.516667	1478.575195	-12.639680
29545.280851	-1505.516667	1477.511719	87.392502
29545.280851	-1505.516667	1476.447266	66.119408
29545.280851	-1505.516667	1475.382813	69.539688
29545.280851	-1505.516667	1474.318359	61.733948
29545.280851	-1505.516667	1473.253906	56.253021
29545.280851	-1505.516667	1472.189453	-88.364235
29545.280851	-1505.516667	1471.124023	-60.207642
29545.280851	-1505.516667	1470.058594	-11.875999
29545.280851	-1505.516667	1468.993164	-55.428837
29545.280851	-1505.516667	1467.927734	13.130471
29545.280851	-1505.516667	1466.861328	-39.363552
29545.280851	-1505.516667	1465.794922	51.393337
29545.280851	-1505.516667	1464.728516	21.399227
29545.280851	-1505.516667	1463.662109	-60.090714
29545.280851	-1505.516667	1462.594727	-0.722158
29545.280851	-1505.516667	1461.528320	-26.303974
29545.280851	-1505.516667	1460.460938	-31.523540
29545.280851	-1505.516667	1459.393555	16.746832
29545.280851	-1505.516667	1458.326172	53.965919
29545.280851	-1505.516667	1457.257813	-18.429392
29545.280851	-1505.516667	1456.189453	38.586750
29545.280851	-1505.516667	1455.121094	78.210182
29545.280851	-1505.516667	1454.052734	8.021999
29545.280851	-1505.516667	1452.984375	-10.478252
29545.280851	-1505.516667	1451.915039	-0.237686
29545.280851	-1505.516667	1450.845703	-18.793476
29545.280851	-1505.516667	1449.776367	22.334394
29545.280851	-1505.516667	1448.707031	-58.432655
29545.280851	-1505.516667	1447.636719	18.445353
29545.280851	-1505.516667	1446.567383	104.381493
29545.280851	-1505.516667	1445.497070	43.105602
29545.280851	-1505.516667	1444.425781	27.675591
29545.280851	-1505.516667	1443.355469	-2.207429
29545.280851	-1505.516667	1442.285156	-22.351608
29545.280851	-1505.516667	1441.213867	22.920040
29545.280851	-1505.516667	1440.142578	26.590763
29545.280851	-1505.516667	1439.070313	36.801189
29545.280851	-1505.516667	1437.999023	60.892719
29545.280851	-1505.516667	1436.926758	2.983744
29545.280851	-1505.516667	1435.854492	32.473980
29545.280851	-1505.516667	1434.782227	38.982105
29545.280851	-1505.516667	1433.709961	66.532562
29545.280851	-1505.516667	1432.636719	-53.030117
29545.280851	-1505.516667	1431.563477	25.641502
29545.280851	-1505.516667	1430.490234	-83.864662
29545.280851	-1505.516667	1429.416992	-41.911629
29545.280851	-1505.516667	1428.343750	-19.698093
29545.280851	-1505.516667	1427.269531	-24.993013
29545.280851	-1505.516667	1426.195313	-84.125755
29545.280851	-1505.516667	1425.121094	-41.307732
29545.280851	-1505.516667	1424.046875	-82.746429
29545.280851	-1505.516667	1422.971680	-56.037434
29545.280851	-1505.516667	1421.896484	-9.957415
29545.280851	-1505.516667	1420.821289	21.374994
29545.280851	-1505.516667	1419.746094	52.747169
29545.280851	-1505.516667	1418.669922	-102.485268
29545.280851	-1505.516667	1417.594727	-91.557907
29545.280851	-1505.516667	1416.518555	-9.347164
29545.280851	-1505.516667	1415.442383	-37.832645
29545.280851	-1505.516667	1414.365234	-44.391121
29545.280851	-1505.516667	1413.289063	-8.361523
29545.280851	-1505.516667	1412.211914	54.251141
29545.280851	-1505.516667	1411.134766	-41.620422
29545.280851	-1505.516667	1410.057617	28.863642
29545.280851	-1505.516667	1408.979492	15.979449
29545.280851	-1505.516667	1407.902344	-18.076881
29545.280851	-1505.516667	1406.824219	-77.464317
29545.280851	-1505.516667	1405.746094	-47.758507
29545.280851	-1505.516667	1404.666992	9.009818
29545.280851	-1505.516667	1403.588867	-51.455002
29545.280851	-1505.516667	1402.509766	6.645656
29545.280851	-1505.516667	1401.430664	112.146507
29545.280851	-1505.516667	1400.351563	88.288292
29545.280851	-1505.516667	1399.271484	51.852558
29545.280851	-1505.516667	1398.192383	54.503033
29545.280851	-1505.516667	1397.112305	26.815039
29545.280851	-1505.516667	1396.031250	-21.471889
29545.280851	-1505.516667	1394.951172	50.285656
29545.280851	-1505.516667	1393.871094	13.068706
29545.280851	-1505.516667	1392.790039	78.625664
29545.280851	-1505.516667	1391.708984	-28.621918
29545.280851	-1505.516667	1390.626953	1.457430
29545.280851	-1505.516667	1389.545898	56.843689
29545.280851	-1505.516667	1388.463867	-7.710674
29545.280851	-1505.516667	1387.381836	40.004662
29545.280851	-1505.516667	1386.299805	0.172064
29545.280851	-1505.516667	1385.217773	136.040802
29545.280851	-1505.516667	1384.134766	-22.066423
29545.280851	-1505.516667	1383.051758	-37.967663
29545.280851	-1505.516667	1381.968750	-29.423655
29545.280851	-1505.516667	1380.885742	-13.249593
29545.280851	-1505.516667	1379.802734	17.947588
29545.280851	-1505.516667	1378.718750	22.366110
29545.280851	-1505.516667	1377.634766	44.757950
29545.280851	-1505.516667	1376.550781	79.711487
29545.280851	-1505.516667	1375.465820	51.898590
29545.280851	-1505.516667	1374.381836	-25.502529
29545.280851	-1505.516667	1373.296875	12.408292
29545.280851	-1505.516667	1372.211914	66.711113
29545.280851	-1505.516667	1371.126953	68.398842
29545.280851	-1505.516667	1370.041016	118.410004
29545.280851	-1505.516667	1368.955078	68.742836
29545.280851	-1505.516667	1367.869141	33.710804
29545.280851	-1505.516667	1366.783203	61.571465
29545.280851	-1505.516667	1365.697266	110.593353
29545.280851	-1505.516667	1364.610352	73.802193
29545.280851	-1505.516667	1363.523438	13.985491
29545.280851	-1505.516667	1362.436523	-6.528412
29545.280851	-1505.516667	1361.349609	115.030495
29545.280851	-1505.516667	1360.261719	8.512176
29545.280851	-1505.516667	1359.174805	-23.001373
29545.280851	-1505.516667	1358.086914	31.418581
29545.280851	-1505.516667	1356.998047	49.526196
29545.280851	-1505.516667	1355.910156	-3.475507
29545.280851	-1505.516667	1354.821289	24.591040
29545.280851	-1505.516667	1353.732422	125.052551
29545.280851	-1505.516667	1352.643555	54.721752
29545.280851	-1505.516667	1351.554688	69.012917
29545.280851	-1505.516667	1350.464844	12.027814
29545.280851	-1505.516667	1349.375000	-23.925688
29545.280851	-1505.516667	1348.285156	40.050823
29545.280851	-1505.516667	1347.195313	40.889454
29545.280851	-1505.516667	1346.105469	81.148033
29545.280851	-1505.516667	1345.014648	85.294815
29545.280851	-1505.516667	1343.923828	101.276054
29545.280851	-1505.516667	1342.833008	34.062916
29545.280851	-1505.516667	1341.741211	33.809467
29545.280851	-1505.516667	1340.650391	51.502655
29545.280851	-1505.516667	1339.558594	78.340050
29545.280851	-1505.516667	1338.466797	63.092579
29545.280851	-1505.516667	1337.374023	-27.948462
29545.280851	-1505.516667	1336.282227	5.624219
29545.280851	-1505.516667	1335.189453	-2.841349
29545.280851	-1505.516667	1334.096680	44.825130
29545.280851	-1505.516667	1333.003906	-56.642986
29545.280851	-1505.516667	1331.910156	-33.448734
29545.280851	-1505.516667	1330.817383	-34.318466
29545.280851	-1505.516667	1329.723633	-22.501474
29545.280851	-1505.516667	1328.629883	-17.750614
29545.280851	-1505.516667	1327.535156	-88.212006
29545.280851	-1505.516667	1326.441406	-31.055191
29545.280851	-1505.516667	1325.346680	34.705223
29545.280851	-1505.516667	1324.251953	-56.392147
29545.280851	-1505.516667	1323.156250	-25.341295
29545.280851	-1505.516667	1322.061523	-9.316956
29545.280851	-1505.516667	1320.965820	-54.402283
29545.280851	-1505.516667	1319.870117	3.600487
29545.280851	-1505.516667	1318.774414	12.426414
29545.280851	-1505.516667	1317.678711	-42.599842
29545.280851	-1505.516667	1316.582031	-36.310856
29545.280851	-1505.516667	1315.485352	-93.128044
29545.280851	-1505.516667	1314.388672	1.558413
29545.280851	-1505.516667	1313.291016	15.541201
29545.280851	-1505.516667	1312.194336	-41.736881
29545.280851	-1505.516667	1311.096680	-31.453341
29545.280851	-1505.516667	1309.999023	87.323639
29545.280851	-1505.516667	1308.901367	48.579365
29545.280851	-1505.516667	1307.802734	-81.320938
29545.280851	-1505.516667	1306.705078	75.690941
29545.280851	-1505.516667	1305.606445	16.953674
29545.280851	-1505.516667	1304.506836	-17.235888
29545.280851	-1505.516667	1303.408203	26.103985
29545.280851	-1505.516667	1302.308594	32.375736
29545.280851	-1505.516667	1301.208984	-3.611927
29545.280851	-1505.516667	1300.109375	47.190495
29545.280851	-1505.516667	1299.009766	-6.130147
29545.280851	-1505.516667	1297.909180	7.053408
29545.280851	-1505.516667	1296.808594	-1.827368
29545.280851	-1505.516667	1295.708008	14.799731
29545.280851	-1505.516667	1294.607422	40.894115
29545.280851	-1505.516667	1293.506836	-24.588470
29545.280851	-1505.516667	1292.405273	-14.701888
29545.280851	-1505.516667	1291.303711	3.689399
29545.280851	-1505.516667	1290.202148	23.381714
29545.280851	-1505.516667	1289.099609	63.705482
29545.280851	-1505.516667	1287.998047	33.887356
29545.280851	-1505.516667	1286.895508	46.778690
29545.280851	-1505.516667	1285.792969	15.701512
29545.280851	-1505.516667	1284.689453	-14.652152
29545.280851	-1505.516667	1283.586914	-31.538626
29545.280851	-1505.516667	1282.483398	15.606883
29545.280851	-1505.516667	1281.379883	46.749191
29545.280851	-1505.516667	1280.276367	35.176559
29545.280851	-1505.516667	1279.171875	23.673571
29545.280851	-1505.516667	1278.067383	95.269234
29545.280851	-1505.516667	1276.962891	-15.730865
29545.280851	-1505.516667	1275.858398	-23.328747
29545.280851	-1505.516667	1274.753906	-34.248119
29545.280851	-1505.516667	1273.648438	-2.059597
29545.280851	-1505.516667	1272.542969	44.083179
29545.280851	-1505.516667	1271.437500	-29.876024
29545.280851	-1505.516667	1270.331055	-38.765369
29545.280851	-1505.516667	1269.225586	34.501923
29545.280851	-1505.516667	1268.119141	-55.861759
29545.280851	-1505.516667	1267.012695	-70.151192
29545.280851	-1505.516667	1265.906250	0.609854
29545.280851	-1505.516667	1264.798828	-35.833027
29545.280851	-1505.516667	1263.691406	2.850113
29545.280851	-1505.516667	1262.583984	33.734879
29545.280851	-1505.516667	1261.476563	6.499902
29545.280851	-1505.516667	1260.368164	-87.651939
29545.280851	-1505.516667	1259.260742	-25.158865
29545.280851	-1505.516667	1258.152344	7.684527
29545.280851	-1505.516667	1257.043945	-20.677586
29545.280851	-1505.516667	1255.934570	8.210865
29545.280851	-1505.516667	1254.825195	38.693703
29545.280851	-1505.516667	1253.716797	95.165024
29545.280851	-1505.516667	1252.606445	52.939037
29545.280851	-1505.516667	1251.497070	29.996529
29545.280851	-1505.516667	1250.387695	28.214724
29545.280851	-1505.516667	1249.277344	76.564857
29545.280851	-1505.516667	1248.166992	47.895351
29545.280851	-1505.516667	1247.055664	85.184288
29545.280851	-1505.516667	1245.945313	40.271408
29545.280851	-1505.516667	1244.833984	25.552155
29545.280851	-1505.516667	1243.722656	35.716496
29545.280851	-1505.516667	1242.611328	20.810730
29545.280851	-1505.516667	1241.499023	-5.100623
29545.280851	-1505.516667	1240.387695	52.957390
29545.280851	-1505.516667	1239.275391	30.846069
29545.280851	-1505.516667	1238.162109	-8.667567
29545.280851	-1505.516667	1237.049805	96.447556
29545.280851	-1505.516667	1235.936523	94.970497
29545.280851	-1505.516667	1234.823242	105.348755
29545.280851	-1505.516667	1233.709961	112.620804
29545.280851	-1505.516667	1232.596680	76.385437
29545.280851	-1505.516667	1231.482422	145.906677
29545.280851	-1505.516667	1230.369141	111.383995
29545.280851	-1505.516667	1229.253906	124.223885
29545.280851	-1505.516667	1228.139648	150.567535
29545.280851	-1505.516667	1227.025391	132.654785
29545.280851	-1505.516667	1225.910156	139.306549
29545.280851	-1505.516667	1224.794922	126.081367
29545.280851	-1505.516667	1223.679688	159.433014
29545.280851	-1505.516667	1222.563477	163.161163
29545.280851	-1505.516667	1221.447266	150.920563
29545.280851	-1505.516667	1220.331055	128.619537
29545.280851	-1505.516667	1219.214844	87.499229
29545.280851	-1505.516667	1218.098633	104.374229
29545.280851	-1505.516667	1216.981445	108.560349
29545.280851	-1505.516667	1215.864258	216.908585
29545.280851	-1505.516667	1214.747070	157.160309
29545.280851	-1505.516667	1213.629883	138.151855
29545.280851	-1505.516667	1212.511719	144.384064
29545.280851	-1505.516667	1211.393555	221.560013
29545.280851	-1505.516667	1210.275391	256.703278
29545.280851	-1505.516667	1209.157227	265.853333
29545.280851	-1505.516667	1208.038086	250.631882
29545.280851	-1505.516667	1206.918945	231.078644
29545.280851	-1505.516667	1205.799805	268.717682
29545.280851	-1505.516667	1204.680664	310.051849
29545.280851	-1505.516667	1203.560547	273.384766
29545.280851	-1505.516667	1202.441406	270.844238
29545.280851	-1505.516667	1201.321289	320.678253
29545.280851	-1505.516667	1200.200195	259.115173
29545.280851	-1505.516667	1199.080078	283.731628
29545.280851	-1505.516667	1197.958984	337.928894
29545.280851	-1505.516667	1196.837891	268.274200
29545.280851	-1505.516667	1195.716797	304.160309
29545.280851	-1505.516667	1194.594727	306.287354
29545.280851	-1505.516667	1193.473633	224.106339
29545.280851	-1505.516667	1192.351563	301.218536
29545.280851	-1505.516667	1191.229492	257.942230
29545.280851	-1505.516667	1190.106445	279.576813
29545.280851	-1505.516667	1188.984375	244.681580
29545.280851	-1505.516667	1187.861328	266.746643
29545.280851	-1505.516667	1186.738281	264.695526
29545.280851	-1505.516667	1185.614258	192.602539
29545.280851	-1505.516667	1184.491211	299.645142
29545.280851	-1505.516667	1183.367188	341.238464
29545.280851	-1505.516667	1182.243164	344.964233
29545.280851	-1505.516667	1181.119141	424.627502
29545.280851	-1505.516667	1179.994141	371.883240
29545.280851	-1505.516667	1178.869141	337.849518
29545.280851	-1505.516667	1177.744141	409.853851
29545.280851	-1505.516667	1176.619141	532.408569
29545.280851	-1505.516667	1175.493164	505.031006
29545.280851	-1505.516667	1174.368164	509.682922
29545.280851	-1505.516667	1173.242188	614.365173
29545.280851	-1505.516667	1172.115234	667.168030
29545.280851	-1505.516667	1170.989258	659.180054
29545.280851	-1505.516667	1169.862305	740.587097
29545.280851	-1505.516667	1168.735352	743.638672
29545.280851	-1505.516667	1167.608398	736.466248
29545.280851	-1505.516667	1166.481445	787.953064
29545.280851	-1505.516667	1165.353516	722.617188
29545.280851	-1505.516667	1164.225586	660.937012
29545.280851	-1505.516667	1163.097656	648.249939
29545.280851	-1505.516667	1161.968750	558.327148
29545.280851	-1505.516667	1160.840820	546.126343
29545.280851	-1505.516667	1159.711914	458.268799
29545.280851	-1505.516667	1158.583008	352.289001
29545.280851	-1505.516667	1157.453125	379.251129
29545.280851	-1505.516667	1156.324219	326.969788
29545.280851	-1505.516667	1155.194336	284.101624
29545.280851	-1505.516667	1154.064453	344.209503
29545.280851	-1505.516667	1152.933594	328.616333
29545.280851	-1505.516667	1151.803711	265.457825
29545.280851	-1505.516667	1150.672852	269.987274
29545.280851	-1505.516667	1149.541992	301.316620
29545.280851	-1505.516667	1148.411133	242.964172
29545.280851	-1505.516667	1147.279297	175.762970
29545.280851	-1505.516667	1146.147461	204.583847
29545.280851	-1505.516667	1145.015625	238.080063
29545.280851	-1505.516667	1143.883789	152.479279
29545.280851	-1505.516667	1142.750977	167.075806
29545.280851	-1505.516667	1141.619141	242.336975
29545.280851	-1505.516667	1140.486328	216.265228
29545.280851	-1505.516667	1139.352539	271.138794
29545.280851	-1505.516667	1138.219727	189.701675
29545.280851	-1505.516667	1137.085938	180.076401
29545.280851	-1505.516667	1135.952148	187.605743
29545.280851	-1505.516667	1134.818359	202.122391
29545.280851	-1505.516667	1133.683594	180.264343
29545.280851	-1505.516667	1132.549805	121.379379
29545.280851	-1505.516667	1131.415039	135.228439
29545.280851	-1505.516667	1130.279297	190.082428
29545.280851	-1505.516667	1129.144531	120.634605
29545.280851	-1505.516667	1128.008789	89.206200
29545.280851	-1505.516667	1126.873047	100.781624
29545.280851	-1505.516667	1125.737305	73.331497
29545.280851	-1505.516667	1124.601563	96.568642
29545.280851	-1505.516667	1123.464844	140.280914
29545.280851	-1505.516667	1122.328125	111.908089
29545.280851	-1505.516667	1121.191406	103.760376
29545.280851	-1505.516667	1120.054688	126.963196
29545.280851	-1505.516667	1118.916992	143.042191
29545.280851	-1505.516667	1117.779297	72.799454
29545.280851	-1505.516667	1116.641602	49.552280
29545.280851	-1505.516667	1115.503906	82.534737
29545.280851	-1505.516667	1114.365234	7.006825
29545.280851	-1505.516667	1113.226563	52.638081
29545.280851	-1505.516667	1112.087891	80.866425
29545.280851	-1505.516667	1110.949219	53.637581
29545.280851	-1505.516667	1109.809570	45.933708
29545.280851	-1505.516667	1108.669922	43.363575
29545.280851	-1505.516667	1107.530273	-2.471330
29545.280851	-1505.516667	1106.390625	-23.938009
29545.280851	-1505.516667	1105.250000	-11.245743
29545.280851	-1505.516667	1104.109375	-16.447233
29545.280851	-1505.516667	1102.968750	86.258842
29545.280851	-1505.516667	1101.828125	30.780024
29545.280851	-1505.516667	1100.686523	34.954979
29545.280851	-1505.516667	1099.544922	77.947220
29545.280851	-1505.516667	1098.403320	96.702477
29545.280851	-1505.516667	1097.261719	79.002686
29545.280851	-1505.516667	1096.120117	67.826782
29545.280851	-1505.516667	1094.977539	66.750603
29545.280851	-1505.516667	1093.834961	112.256531
29545.280851	-1505.516667	1092.691406	123.569328
29545.280851	-1505.516667	1091.548828	74.986130
29545.280851	-1505.516667	1090.405273	118.159622
29545.280851	-1505.516667	1089.261719	161.404739
29545.280851	-1505.516667	1088.118164	129.355682
29545.280851	-1505.516667	1086.973633	185.387115
29545.280851	-1505.516667	1085.829102	157.122559
29545.280851	-1505.516667	1084.684570	61.965778
29545.280851	-1505.516667	1083.540039	49.363495
29545.280851	-1505.516667	1082.395508	22.530998
29545.280851	-1505.516667	1081.250000	90.437607
29545.280851	-1505.516667	1080.104492	70.499626
29545.280851	-1505.516667	1078.958984	24.877420
29545.280851	-1505.516667	1077.812500	4.287600
29545.280851	-1505.516667	1076.666016	0.426649
29545.280851	-1505.516667	1075.519531	16.949919
29545.280851	-1505.516667	1074.373047	-53.359310
29545.280851	-1505.516667	1073.226563	34.065449
29545.280851	-1505.516667	1072.079102	11.392568
29545.280851	-1505.516667	1070.931641	27.581993
29545.280851	-1505.516667	1069.784180	35.248310
29545.280851	-1505.516667	1068.635742	20.240171
29545.280851	-1505.516667	1067.487305	89.025604
29545.280851	-1505.516667	1066.338867	17.906567
29545.280851	-1505.516667	1065.190430	59.377903
29545.280851	-1505.516667	1064.041992	20.075315
29545.280851	-1505.516667	1062.892578	56.576431
29545.280851	-1505.516667	1061.743164	48.527050
29545.280851	-1505.516667	1060.593750	35.622814
29545.280851	-1505.516667	1059.443359	-59.940498
29545.280851	-1505.516667	1058.292969	-73.198830
29545.280851	-1505.516667	1057.142578	-21.632559
29545.280851	-1505.516667	1055.992188	-61.445812
29545.280851	-1505.516667	1054.841797	-9.874588
29545.280851	-1505.516667	1053.690430	24.956791
29545.280851	-1505.516667	1052.539063	42.400974
29545.280851	-1505.516667	1051.387695	-74.187202
29545.280851	-1505.516667	1050.235352	4.651156
29545.280851	-1505.516667	1049.083984	31.661985
29545.280851	-1505.516667	1047.931641	38.375175
29545.280851	-1505.516667	1046.778320	-62.580299
29545.280851	-1505.516667	1045.625977	-36.757526
29545.280851	-1505.516667	1044.472656	45.429852
29545.280851	-1505.516667	1043.319336	6.983238
29545.280851	-1505.516667	1042.166016	-30.414402
29545.280851	-1505.516667	1041.012695	-74.652374
29545.280851	-1505.516667	1039.858398	49.498322
29545.280851	-1505.516667	1038.704102	0.247233
29545.280851	-1505.516667	1037.549805	-67.587532
29545.280851	-1505.516667	1036.394531	49.891205
29545.280851	-1505.516667	1035.239258	-46.035553
29545.280851	-1505.516667	1034.083984	-22.505644
29545.280851	-1505.516667	1032.928711	-37.580959
29545.280851	-1505.516667	1031.773438	-43.040447
29545.280851	-1505.516667	1030.617188	-79.254051
29545.280851	-1505.516667	1029.460938	-83.450493
29545.280851	-1505.516667	1028.304688	4.254991
29545.280851	-1505.516667	1027.147461	-46.757206
29545.280851	-1505.516667	1025.991211	27.015274
29545.280851	-1505.516667	1024.833984	-104.439964
29545.280851	-1505.516667	1023.675781	27.594225
29545.280851	-1505.516667	1022.518555	-17.083500
29545.280851	-1505.516667	1021.360352	-51.473484
29545.280851	-1505.516667	1020.202148	-21.578550
29545.280851	-1505.516667	1019.043945	15.984233
29545.280851	-1505.516667	1017.884766	11.745728
29545.280851	-1505.516667	1016.726563	67.309860
29545.280851	-1505.516667	1015.567383	-30.044500
29545.280851	-1505.516667	1014.407227	19.297014
29545.280851	-1505.516667	1013.248047	61.592911
29545.280851	-1505.516667	1012.087891	31.528158
29545.280851	-1505.516667	1010.927734	-19.951763
29545.280851	-1505.516667	1009.767578	7.407431
29545.280851	-1505.516667	1008.606445	1.967109
29545.280851	-1505.516667	1007.446289	12.500516
29545.280851	-1505.516667	1006.285156	20.420202
29545.280851	-1505.516667	1005.123047	12.236896
29545.280851	-1505.516667	1003.961914	21.106337
29545.280851	-1505.516667	1002.799805	44.220570
29545.280851	-1505.516667	1001.637695	21.115244
29545.280851	-1505.516667	1000.475586	-22.309607
29545.280851	-1505.516667	999.312500	22.515100
29545.280851	-1505.516667	998.149414	96.437782
29545.280851	-1505.516667	996.986328	33.786816
29545.280851	-1505.516667	995.823242	27.420870
29545.280851	-1505.516667	994.659180	8.370908
29545.280851	-1505.516667	993.496094	21.849577
29545.280851	-1505.516667	992.332031	55.942352
29545.280851	-1505.516667	991.166992	-17.870182
29545.280851	-1505.516667	990.002930	22.567179
29545.280851	-1505.516667	988.837891	29.354385
29545.280851	-1505.516667	987.672852	17.786587
29545.280851	-1505.516667	986.506836	-38.560009
29545.280851	-1505.516667	985.341797	24.295298
29545.280851	-1505.516667	984.175781	26.496599
29545.280851	-1505.516667	983.009766	65.588707
29545.280851	-1505.516667	981.843750	68.495720
29545.280851	-1505.516667	980.676758	-21.011850
29545.280851	-1505.516667	979.509766	-43.310555
29545.280851	-1505.516667	978.342773	-24.689302
29545.280851	-1505.516667	977.175781	-104.665764
29545.280851	-1505.516667	976.007813	-80.864838
29545.280851	-1505.516667	974.839844	26.216715
29545.280851	-1505.516667	973.671875	18.887157
29545.280851	-1505.516667	972.503906	20.614784
29545.280851	-1505.516667	971.334961	14.656140
29545.280851	-1505.516667	970.166016	-7.090239
29545.280851	-1505.516667	968.997070	-10.134447
29545.280851	-1505.516667	967.828125	11.494987
29545.280851	-1505.516667	966.658203	17.899061
29545.280851	-1505.516667	965.488281	23.810823
29545.280851	-1505.516667	964.318359	48.118004
29545.280851	-1505.516667	963.148438	-22.585367
29545.280851	-1505.516667	961.977539	82.753349
29545.280851	-1505.516667	960.806641	-35.831867
29545.280851	-1505.516667	959.635742	26.470665
29545.280851	-1505.516667	958.463867	-46.999447
29545.280851	-1505.516667	957.292969	1.955409
29545.280851	-1505.516667	956.121094	36.178585
29545.280851	-1505.516667	954.948242	59.045715
29545.280851	-1505.516667	953.776367	-20.971863
29545.280851	-1505.516667	952.603516	-53.371536
29545.280851	-1505.516667	951.430664	3.940420
29545.280851	-1505.516667	950.257813	-3.211971
29545.280851	-1505.516667	949.084961	28.786448
29545.280851	-1505.516667	947.911133	-107.173622
29545.280851	-1505.516667	946.737305	-38.495258
29545.280851	-1505.516667	945.563477	27.555971
29545.280851	-1505.516667	944.388672	1.446792
29545.280851	-1505.516667	943.213867	13.816271
29545.280851	-1505.516667	942.039063	13.359404
29545.280851	-1505.516667	940.864258	-23.509087
29545.280851	-1505.516667	939.688477	81.435684
29545.280851	-1505.516667	938.513672	-7.271657
29545.280851	-1505.516667	937.337891	26.645266
29545.280851	-1505.516667	936.161133	60.612633
29545.280851	-1505.516667	934.985352	27.913279
29545.280851	-1505.516667	933.808594	-17.725897
29545.280851	-1505.516667	932.631836	41.979988
29545.280851	-1505.516667	931.454102	32.895058
29545.280851	-1505.516667	930.277344	-29.962204
29545.280851	-1505.516667	929.099609	-26.144241
29545.280851	-1505.516667	927.921875	100.180115
29545.280851	-1505.516667	926.743164	63.124245
29545.280851	-1505.516667	925.565430	124.918701
29545.280851	-1505.516667	924.386719	-0.255958
29545.280851	-1505.516667	923.208008	-9.376164
29545.280851	-1505.516667	922.028320	-3.458444
29545.280851	-1505.516667	920.849609	51.846096
29545.280851	-1505.516667	919.669922	51.706978
29545.280851	-1505.516667	919.474609	124.277199
29545.280851	-1505.516667	918.309570	61.448761
29545.280851	-1505.516667	917.143555	-5.653522
29545.280851	-1505.516667	915.977539	8.810003
29545.280851	-1505.516667	914.810547	-19.648663
29545.280851	-1505.516667	913.644531	29.119854
29545.280851	-1505.516667	912.477539	45.692600
29545.280851	-1505.516667	911.310547	-55.677666
29545.280851	-1505.516667	910.143555	-6.950729
29545.280851	-1505.516667	908.975586	3.170302
29545.280851	-1505.516667	907.807617	6.852508
29545.280851	-1505.516667	906.639648	16.954344
29545.280851	-1505.516667	905.471680	20.619911
29545.280851	-1505.516667	904.303711	37.127342
29545.280851	-1505.516667	903.134766	-34.164364
29545.280851	-1505.516667	901.965820	-64.759727
29545.280851	-1505.516667	900.796875	18.084953
29545.280851	-1505.516667	899.626953	43.114780
29545.280851	-1505.516667	898.457031	10.365277
29545.280851	-1505.516667	897.287109	46.069660
29545.280851	-1505.516667	896.117188	36.845177
29545.280851	-1505.516667	894.947266	48.999496
29545.280851	-1505.516667	893.776367	97.482895
29545.280851	-1505.516667	892.605469	156.627182
29545.280851	-1505.516667	891.434570	177.279968
29545.280851	-1505.516667	890.262695	253.463516
29545.280851	-1505.516667	889.091797	203.592667
29545.280851	-1505.516667	887.919922	288.270752
29545.280851	-1505.516667	886.748047	340.883606
29545.280851	-1505.516667	885.575195	419.084534
29545.280851	-1505.516667	884.403320	426.821625
29545.280851	-1505.516667	883.230469	327.864471
29545.280851	-1505.516667	882.057617	320.673584
29545.280851	-1505.516667	880.883789	326.277557
29545.280851	-1505.516667	879.710938	299.888641
29545.280851	-1505.516667	878.537109	252.185287
29545.280851	-1505.516667	877.362305	274.837006
29545.280851	-1505.516667	876.188477	199.444519
29545.280851	-1505.516667	875.013672	343.536346
29545.280851	-1505.516667	873.839844	242.588470
29545.280851	-1505.516667	872.664063	248.166473
29545.280851	-1505.516667	871.489258	219.668015
29545.280851	-1505.516667	870.313477	257.172882
29545.280851	-1505.516667	869.138672	115.865814
29545.280851	-1505.516667	867.962891	66.117836
29545.280851	-1505.516667	866.786133	92.979538
29545.280851	-1505.516667	865.610352	17.721973
29545.280851	-1505.516667	864.433594	-25.608303
29545.280851	-1505.516667	863.256836	84.168999
29545.280851	-1505.516667	862.079102	-10.186616
29545.280851	-1505.516667	860.902344	44.273056
29545.280851	-1505.516667	859.724609	13.706110
29545.280851	-1505.516667	858.546875	68.130257
29545.280851	-1505.516667	857.368164	35.438522
29545.280851	-1505.516667	856.190430	-37.593342
29545.280851	-1505.516667	855.011719	-25.669334
29545.280851	-1505.516667	853.833008	-41.350586
29545.280851	-1505.516667	852.654297	-10.336628
29545.280851	-1505.516667	851.474609	31.270184
29545.280851	-1505.516667	850.294922	19.818516
29545.280851	-1505.516667	849.115234	-46.779961
29545.280851	-1505.516667	847.935547	-53.976734
29545.280851	-1505.516667	846.754883	-37.852196
29545.280851	-1505.516667	845.575195	58.814034
29545.280851	-1505.516667	844.393555	15.560211
29545.280851	-1505.516667	843.212891	-61.581146
29545.280851	-1505.516667	842.032227	-102.680298
29545.280851	-1505.516667	840.850586	-14.566442
29545.280851	-1505.516667	839.668945	-64.135506
29545.280851	-1505.516667	838.486328	-9.947043
29545.280851	-1505.516667	837.304688	37.866093
29545.280851	-1505.516667	836.122070	-9.576577
29545.280851	-1505.516667	834.939453	0.125029
29545.280851	-1505.516667	833.756836	100.782600
29545.280851	-1505.516667	832.573242	72.381508
29545.280851	-1505.516667	831.389648	98.967354
29545.280851	-1505.516667	830.206055	57.887829
29545.280851	-1505.516667	829.022461	29.504677
29545.280851	-1505.516667	827.838867	75.093445
29545.280851	-1505.516667	826.654297	10.794769
29545.280851	-1505.516667	825.469727	66.924637
29545.280851	-1505.516667	824.284180	78.677750
29545.280851	-1505.516667	823.099609	43.970982
29545.280851	-1505.516667	821.914063	38.830158
29545.280851	-1505.516667	820.728516	90.675644
29545.280851	-1505.516667	819.542969	144.607590
29545.280851	-1505.516667	818.356445	57.161003
29545.280851	-1505.516667	817.169922	96.306793
29545.280851	-1505.516667	815.983398	15.227863
29545.280851	-1505.516667	814.796875	67.012131
29545.280851	-1505.516667	813.609375	-16.140463
29545.280851	-1505.516667	812.422852	27.193798
29545.280851	-1505.516667	811.235352	72.614693
29545.280851	-1505.516667	810.046875	105.373711
29545.280851	-1505.516667	808.859375	-59.871765
29545.280851	-1505.516667	807.670898	-58.690678
29545.280851	-1505.516667	806.482422	-38.563770
29545.280851	-1505.516667	805.293945	-5.817673
29545.280851	-1505.516667	804.104492	22.703459
29545.280851	-1505.516667	802.915039	-58.202187
29545.280851	-1505.516667	801.725586	-29.686314
29545.280851	-1505.516667	800.536133	57.706059
29545.280851	-1505.516667	799.345703	37.817535
29545.280851	-1505.516667	798.155273	7.423484
29545.280851	-1505.516667	796.964844	54.811035
29545.280851	-1505.516667	795.774414	16.016102
29545.280851	-1505.516667	794.583008	54.973568
29545.280851	-1505.516667	793.392578	72.907486
29545.280851	-1505.516667	792.200195	65.629036
29545.280851	-1505.516667	791.008789	83.549011
29545.280851	-1505.516667	789.816406	48.976589
29545.280851	-1505.516667	788.625000	85.778648
29545.280851	-1505.516667	787.432617	82.693092
29545.280851	-1505.516667	786.239258	41.842232
29545.280851	-1505.516667	785.046875	-49.334278
29545.280851	-1505.516667	783.853516	90.209061
29545.280851	-1505.516667	782.660156	61.957081
29545.280851	-1505.516667	781.465820	-71.098465
29545.280851	-1505.516667	780.272461	24.344862
29545.280851	-1505.516667	779.078125	-96.078583
29545.280851	-1505.516667	777.883789	-21.623093
29545.280851	-1505.516667	776.688477	-7.941703
29545.280851	-1505.516667	775.494141	18.297327
29545.280851	-1505.516667	774.298828	-53.878227
29545.280851	-1505.516667	773.103516	-46.483273
29545.280851	-1505.516667	771.907227	17.411417
29545.280851	-1505.516667	770.711914	-6.600079
29545.280851	-1505.516667	769.515625	97.002800
29545.280851	-1505.516667	768.318359	-52.507847
29545.280851	-1505.516667	767.122070	-11.672947
29545.280851	-1505.516667	765.924805	-16.850491
29545.280851	-1505.516667	764.727539	9.325110
29545.280851	-1505.516667	763.530273	4.142188
29545.280851	-1505.516667	762.333008	-26.111900
29545.280851	-1505.516667	761.134766	52.265621
29545.280851	-1505.516667	759.936523	11.568316
29545.280851	-1505.516667	758.738281	20.998213
29545.280851	-1505.516667	757.540039	45.035538
29545.280851	-1505.516667	756.340820	6.446777
29545.280851	-1505.516667	755.141602	-19.607191
29545.280851	-1505.516667	753.942383	-93.636009
29545.280851	-1505.516667	752.742188	-46.658237
29545.280851	-1505.516667	751.541992	77.457596
29545.280851	-1505.516667	750.341797	11.789353
29545.280851	-1505.516667	749.141602	96.232185
29545.280851	-1505.516667	747.941406	38.920353
29545.280851	-1505.516667	746.740234	60.809181
29545.280851	-1505.516667	745.539063	99.352760
29545.280851	-1505.516667	744.337891	52.484436
29545.280851	-1505.516667	743.135742	95.174652
29545.280851	-1505.516667	741.933594	27.503729
29545.280851	-1505.516667	740.731445	53.526093
29545.280851	-1505.516667	739.529297	46.239056
29545.280851	-1505.516667	738.326172	66.000748
29545.280851	-1505.516667	737.124023	69.111717
29545.280851	-1505.516667	735.919922	103.414452
29545.280851	-1505.516667	734.716797	89.877716
29545.280851	-1505.516667	733.513672	95.054710
29545.280851	-1505.516667	732.309570	48.266460
29545.280851	-1505.516667	731.105469	72.147720
29545.280851	-1505.516667	729.900391	35.767315
29545.280851	-1505.516667	728.696289	30.557873
29545.280851	-1505.516667	727.491211	25.348204
29545.280851	-1505.516667	726.286133	51.282841
29545.280851	-1505.516667	725.080078	89.659111
29545.280851	-1505.516667	723.874023	30.474091
29545.280851	-1505.516667	722.668945	35.635979
29545.280851	-1505.516667	721.461914	36.643719
29545.280851	-1505.516667	720.255859	62.538620
29545.280851	-1505.516667	719.048828	36.578918
29545.280851	-1505.516667	717.841797	62.458466
29545.280851	-1505.516667	716.634766	28.214346
29545.280851	-1505.516667	715.427734	-78.549812
29545.280851	-1505.516667	714.219727	94.437538
29545.280851	-1505.516667	713.011719	16.700214
29545.280851	-1505.516667	711.803711	-3.017054
29545.280851	-1505.516667	710.594727	109.790802
29545.280851	-1505.516667	709.385742	32.092304
29545.280851	-1505.516667	708.176758	41.353737
29545.280851	-1505.516667	706.967773	34.054565
29545.280851	-1505.516667	705.758789	47.445019
29545.280851	-1505.516667	704.548828	7.047494
29545.280851	-1505.516667	703.338867	-31.267389
29545.280851	-1505.516667	702.127930	-9.609316
29545.280851	-1505.516667	700.917969	59.582569
29545.280851	-1505.516667	699.707031	103.941696
29545.280851	-1505.516667	698.496094	-8.757255
29545.280851	-1505.516667	697.285156	-121.411278
29545.280851	-1505.516667	696.073242	-4.760194
29545.280851	-1505.516667	694.861328	14.785375
29545.280851	-1505.516667	693.649414	1.287419
29545.280851	-1505.516667	692.436523	29.074472
29545.280851	-1505.516667	691.224609	32.083874
29545.280851	-1505.516667	690.011719	2.076967
29545.280851	-1505.516667	688.798828	54.592354
29545.280851	-1505.516667	687.584961	57.585514
29545.280851	-1505.516667	686.372070	140.991119
29545.280851	-1505.516667	685.158203	84.175964
29545.280851	-1505.516667	683.943359	45.931038
29545.280851	-1505.516667	682.729492	71.579926
29545.280851	-1505.516667	681.514648	93.094406
29545.280851	-1505.516667	680.299805	32.206203
29545.280851	-1505.516667	679.084961	47.536144
29545.280851	-1505.516667	677.869141	101.975731
29545.280851	-1505.516667	676.653320	74.050659
29545.280851	-1505.516667	675.437500	77.004791
29545.280851	-1505.516667	674.221680	100.531219
29545.280851	-1505.516667	673.004883	60.271690
29545.280851	-1505.516667	671.789063	20.026882
29545.280851	-1505.516667	670.571289	-28.430292
29545.280851	-1505.516667	669.354492	75.265152
29545.280851	-1505.516667	668.136719	12.422835
29545.280851	-1505.516667	666.919922	11.254583
29545.280851	-1505.516667	665.701172	-45.390785
29545.280851	-1505.516667	664.483398	52.045589
29545.280851	-1505.516667	663.264648	44.698498
29545.280851	-1505.516667	662.045898	35.297764
29545.280851	-1505.516667	660.827148	-25.422754
29545.280851	-1505.516667	659.608398	-67.649223
29545.280851	-1505.516667	658.388672	-11.367007
29545.280851	-1505.516667	657.168945	-104.873985
29545.280851	-1505.516667	655.949219	-13.745248
29545.280851	-1505.516667	654.728516	50.682400
29545.280851	-1505.516667	653.507813	37.170536
29545.280851	-1505.516667	652.287109	19.561426
29545.280851	-1505.516667	651.066406	122.869705
29545.280851	-1505.516667	649.844727	62.215111
29545.280851	-1505.516667	648.623047	163.414886
29545.280851	-1505.516667	647.401367	84.338165
29545.280851	-1505.516667	646.179688	-39.756523
29545.280851	-1505.516667	644.957031	-28.686947
29545.280851	-1505.516667	643.734375	51.964737
29545.280851	-1505.516667	642.511719	-0.433073
29545.280851	-1505.516667	641.289063	-9.848156
29545.280851	-1505.516667	640.065430	-23.353907
29545.280851	-1505.516667	638.841797	-16.407223
29545.280851	-1505.516667	637.618164	-23.779104
29545.280851	-1505.516667	636.393555	5.643327
29545.280851	-1505.516667	635.168945	-3.781142
29545.280851	-1505.516667	633.944336	-60.201317
29545.280851	-1505.516667	632.719727	-41.014542
29545.280851	-1505.516667	631.494141	-89.240501
29545.280851	-1505.516667	630.269531	-31.264145
29545.280851	-1505.516667	629.042969	-38.647835
29545.280851	-1505.516667	627.817383	-78.689308
29545.280851	-1505.516667	626.590820	66.986839
29545.280851	-1505.516667	625.365234	2.449799
29545.280851	-1505.516667	624.137695	37.887779
29545.280851	-1505.516667	622.911133	-65.372284
29545.280851	-1505.516667	621.683594	39.383629
29545.280851	-1505.516667	620.456055	-33.262035
29545.280851	-1505.516667	619.228516	93.855042
29545.280851	-1505.516667	618.000977	102.729019
29545.280851	-1505.516667	616.772461	162.526703
29545.280851	-1505.516667	615.543945	59.349854
29545.280851	-1505.516667	614.314453	125.232964
29545.280851	-1505.516667	613.085938	160.546051
29545.280851	-1505.516667	611.856445	81.851013
29545.280851	-1505.516667	610.626953	145.642197
29545.280851	-1505.516667	609.397461	103.600754
29545.280851	-1505.516667	608.166992	169.387177
29545.280851	-1505.516667	606.936523	52.101017
29545.280851	-1505.516667	605.706055	24.329235
29545.280851	-1505.516667	604.474609	8.762794
29545.280851	-1505.516667	603.244141	111.085487
29545.280851	-1505.516667	602.012695	36.571091
29545.280851	-1505.516667	600.780273	122.583389
29545.280851	-1505.516667	599.548828	27.780073
29545.280851	-1505.516667	598.316406	111.720543
29545.280851	-1505.516667	597.083984	120.500023
29545.280851	-1505.516667	595.851563	96.794075
29545.280851	-1505.516667	594.618164	136.008026
29545.280851	-1505.516667	593.384766	177.231491
29545.280851	-1505.516667	592.151367	50.059952
29545.280851	-1505.516667	590.917969	208.912399
29545.280851	-1505.516667	589.683594	274.417297
29545.280851	-1505.516667	588.449219	295.290497
29545.280851	-1505.516667	587.214844	251.291763
29545.280851	-1505.516667	585.979492	420.085510
29545.280851	-1505.516667	584.745117	325.422943
29545.280851	-1505.516667	583.509766	328.025543
29545.280851	-1505.516667	582.273438	296.195892
29545.280851	-1505.516667	581.038086	236.031631
29545.280851	-1505.516667	579.801758	218.399765
29545.280851	-1505.516667	578.565430	136.009583
29545.280851	-1505.516667	577.329102	88.050331
29545.280851	-1505.516667	576.091797	100.797928
29545.280851	-1505.516667	574.854492	50.838360
29545.280851	-1505.516667	573.617188	148.513489
29545.280851	-1505.516667	572.378906	173.362640
29545.280851	-1505.516667	571.141602	129.476227
29545.280851	-1505.516667	569.903320	243.231247
29545.280851	-1505.516667	568.664063	241.771530
29545.280851	-1505.516667	567.425781	244.351059
29545.280851	-1505.516667	566.186523	339.825592
29545.280851	-1505.516667	564.947266	332.282593
29545.280851	-1505.516667	563.708008	324.740906
29545.280851	-1505.516667	562.467773	256.652496
29545.280851	-1505.516667	561.227539	253.161224
29545.280851	-1505.516667	559.987305	189.147995
29545.280851	-1505.516667	558.747070	139.279373
29545.280851	-1505.516667	557.505859	149.925278
29545.280851	-1505.516667	556.264648	67.824554
29545.280851	-1505.516667	555.023438	34.133507
29545.280851	-1505.516667	553.781250	107.261841
29545.280851	-1505.516667	552.539063	95.735771
29545.280851	-1505.516667	551.296875	15.724529
29545.280851	-1505.516667	550.054688	-42.100185
29545.280851	-1505.516667	548.811523	-17.348450
29545.280851	-1505.516667	547.569336	-18.777718
29545.280851	-1505.516667	546.325195	-10.145831
29545.280851	-1505.516667	545.082031	26.653069
29545.280851	-1505.516667	543.837891	-45.201820
29545.280851	-1505.516667	542.593750	-98.924767
29545.280851	-1505.516667	541.349609	-9.850190
29545.280851	-1505.516667	540.105469	2.786864
29545.280851	-1505.516667	538.860352	-18.754305
29545.280851	-1505.516667	537.615234	20.001972
29545.280851	-1505.516667	536.369141	-33.682804
29545.280851	-1505.516667	535.124023	73.357002
29545.280851	-1505.516667	533.877930	75.915825
29545.280851	-1505.516667	532.631836	-46.017258
29545.280851	-1505.516667	531.384766	75.005539
29545.280851	-1505.516667	530.138672	153.828812
29545.280851	-1505.516667	528.891602	122.253052
29545.280851	-1505.516667	527.643555	223.098160
29545.280851	-1505.516667	526.396484	155.416962
29545.280851	-1505.516667	525.148438	119.848839
29545.280851	-1505.516667	523.900391	168.501526
29545.280851	-1505.516667	522.652344	92.856018
29545.280851	-1505.516667	521.403320	33.274376
29545.280851	-1505.516667	520.154297	37.833805
29545.280851	-1505.516667	518.905273	28.368570
29545.280851	-1505.516667	517.656250	4.888457
29545.280851	-1505.516667	516.406250	-42.610447
29545.280851	-1505.516667	515.156250	-16.019209
29545.280851	-1505.516667	513.906250	48.588455
29545.280851	-1505.516667	512.655273	59.139778
29545.280851	-1505.516667	511.404297	61.684113
29545.280851	-1505.516667	510.153320	-3.778300
29545.280851	-1505.516667	508.902344	-65.213028
29545.280851	-1505.516667	507.650391	-92.634026
29545.280851	-1505.516667	506.398438	3.887197
29545.280851	-1505.516667	505.146484	56.401161
29545.280851	-1505.516667	503.893555	-4.995500
29545.280851	-1505.516667	502.641602	31.517067
29545.280851	-1505.516667	501.388672	38.055481
29545.280851	-1505.516667	500.134766	-7.324872
29545.280851	-1505.516667	498.881836	37.148476
29545.280851	-1505.516667	497.627930	37.692715
29545.280851	-1505.516667	496.374023	52.204300
29545.280851	-1505.516667	495.119141	-25.061726
29545.280851	-1505.516667	493.865234	-46.445957
29545.280851	-1505.516667	492.610352	89.715546
29545.280851	-1505.516667	491.355469	116.163452
29545.280851	-1505.516667	490.099609	120.672058
29545.280851	-1505.516667	488.843750	143.113861
29545.280851	-1505.516667	487.587891	85.847862
29545.280851	-1505.516667	486.332031	114.261665
29545.280851	-1505.516667	485.075195	88.889061
29545.280851	-1505.516667	483.818359	43.614445
29545.280851	-1505.516667	482.561523	-7.614070
29545.280851	-1505.516667	481.304688	-22.996832
29545.280851	-1505.516667	480.046875	108.874176
29545.280851	-1505.516667	478.789063	107.394562
29545.280851	-1505.516667	477.531250	12.430601
29545.280851	-1505.516667	476.272461	-20.849478
29545.280851	-1505.516667	475.013672	65.170609
29545.280851	-1505.516667	473.754883	-23.767664
29545.280851	-1505.516667	472.496094	-11.318811
29545.280851	-1505.516667	471.236328	-44.577110
29545.280851	-1505.516667	469.976563	27.456249
29545.280851	-1505.516667	468.716797	111.370834
29545.280851	-1505.516667	467.456055	48.312572
29545.280851	-1505.516667	466.196289	-66.335945
29545.280851	-1505.516667	464.935547	7.607755
29545.280851	-1505.516667	463.673828	-55.401833
29545.280851	-1505.516667	462.413086	48.255173
29545.280851	-1505.516667	461.151367	11.037779
29545.280851	-1505.516667	459.889648	-32.118538
29545.280851	-1505.516667	458.626953	-15.786018
29545.280851	-1505.516667	457.364258	-13.342443
29545.280851	-1505.516667	456.101563	6.928313
29545.280851	-1505.516667	454.838867	7.369806
29545.280851	-1505.516667	453.575195	-41.719200
29545.280851	-1505.516667	452.312500	-13.557758
29545.280851	-1505.516667	451.047852	22.500557
29545.280851	-1505.516667	449.784180	88.227982
29545.280851	-1505.516667	448.519531	-38.060818
29545.280851	-1505.516667	447.254883	37.523361
29545.280851	-1505.516667	445.990234	101.193794
29545.280851	-1505.516667	444.725586	58.020191
29545.280851	-1505.516667	443.459961	80.106995
29545.280851	-1505.516667	442.194336	163.458572
29545.280851	-1505.516667	440.927734	74.796715
29545.280851	-1505.516667	439.662109	150.179916
29545.280851	-1505.516667	438.395508	162.291168
29545.280851	-1505.516667	437.127930	239.564728
29545.280851	-1505.516667	435.861328	247.668686
29545.280851	-1505.516667	434.593750	285.366943
29545.280851	-1505.516667	433.326172	257.887634
29545.280851	-1505.516667	432.058594	133.695206
29545.280851	-1505.516667	430.790039	125.951584
29545.280851	-1505.516667	429.521484	206.962738
29545.280851	-1505.516667	428.252930	90.685966
29545.280851	-1505.516667	426.984375	76.974030
29545.280851	-1505.516667	425.714844	108.585815
29545.280851	-1505.516667	424.445313	122.419266
29545.280851	-1505.516667	423.174805	130.307388
29545.280851	-1505.516667	421.905273	81.030563
29545.280851	-1505.516667	420.634766	61.291187
29545.280851	-1505.516667	419.364258	61.223461
29545.280851	-1505.516667	418.092773	53.247551
29545.280851	-1505.516667	416.822266	98.392174
29545.280851	-1505.516667	415.550781	58.856705
29545.280851	-1505.516667	414.278320	11.431209
29545.280851	-1505.516667	413.006836	21.038973
29545.280851	-1505.516667	411.734375	28.636408
29545.280851	-1505.516667	410.461914	49.954773
29545.280851	-1505.516667	409.188477	-29.039377
29545.280851	-1505.516667	407.916016	41.335117
29545.280851	-1505.516667	406.642578	48.751526
29545.280851	-1505.516667	405.368164	63.975433
29545.280851	-1505.516667	404.094727	33.969791
29545.280851	-1505.516667	402.820313	-15.711620
29545.280851	-1505.516667	401.545898	22.927252
29545.280851	-1505.516667	400.270508	4.569411
29545.280851	-1505.516667	398.996094	-13.834044
29545.280851	-1505.516667	397.720703	32.459358
29545.280851	-1505.516667	396.444336	33.553680
29545.280851	-1505.516667	395.168945	79.695518
29545.280851	-1505.516667	393.892578	29.673304
29545.280851	-1505.516667	392.616211	16.853598
29545.280851	-1505.516667	391.339844	21.610382
29545.280851	-1505.516667	390.062500	-10.937882
29545.280851	-1505.516667	388.785156	-27.872911
29545.280851	-1505.516667	387.507813	76.560684
29545.280851	-1505.516667	386.229492	75.124077
29545.280851	-1505.516667	384.951172	42.282394
29545.280851	-1505.516667	383.672852	-80.667419
29545.280851	-1505.516667	382.394531	5.743387
29545.280851	-1505.516667	381.115234	-7.757502
29545.280851	-1505.516667	379.835938	113.626312
29545.280851	-1505.516667	378.556641	72.541840
29545.280851	-1505.516667	377.277344	17.690222
29545.280851	-1505.516667	375.997070	38.997036
29545.280851	-1505.516667	374.716797	-29.712030
29545.280851	-1505.516667	373.435547	-8.618894
29545.280851	-1505.516667	372.155273	41.660316
29545.280851	-1505.516667	370.874023	101.565758
29545.280851	-1505.516667	369.591797	114.459450
29545.280851	-1505.516667	368.310547	25.711124
29545.280851	-1505.516667	367.028320	61.790920
29545.280851	-1505.516667	365.746094	113.337502
29545.280851	-1505.516667	364.463867	123.757736
29545.280851	-1505.516667	363.180664	161.340942
29545.280851	-1505.516667	361.897461	128.561508
29545.280851	-1505.516667	360.614258	265.276947
29545.280851	-1505.516667	359.330078	239.987869
29545.280851	-1505.516667	358.045898	210.658203
29545.280851	-1505.516667	356.761719	272.759888
29545.280851	-1505.516667	355.477539	348.308044
29545.280851	-1505.516667	354.192383	334.061676
29545.280851	-1505.516667	352.907227	323.543610
29545.280851	-1505.516667	351.622070	211.621826
29545.280851	-1505.516667	350.336914	146.278320
29545.280851	-1505.516667	349.050781	135.256500
29545.280851	-1505.516667	347.764648	52.064072
29545.280851	-1505.516667	346.477539	30.946131
29545.280851	-1505.516667	345.191406	-13.696104
29545.280851	-1505.516667	343.904297	11.457994
29545.280851	-1505.516667	342.616211	20.830128
29545.280851	-1505.516667	341.329102	-24.430580
29545.280851	-1505.516667	340.041016	-48.532185
29545.280851	-1505.516667	338.752930	-12.638120
29545.280851	-1505.516667	337.463867	13.284204
29545.280851	-1505.516667	336.175781	-29.001705
29545.280851	-1505.516667	334.886719	-57.939228
29545.280851	-1505.516667	333.596680	25.437269
29545.280851	-1505.516667	332.307617	-42.831627
29545.280851	-1505.516667	331.017578	5.047660
29545.280851	-1505.516667	329.727539	-67.625099
29545.280851	-1505.516667	328.436523	-31.970329
29545.280851	-1505.516667	327.146484	-93.552315
29545.280851	-1505.516667	325.855469	-17.799728
29545.280851	-1505.516667	324.563477	-60.607452
29545.280851	-1505.516667	323.272461	-10.708808
29545.280851	-1505.516667	321.980469	-38.646385
29545.280851	-1505.516667	320.688477	-8.808441
29545.280851	-1505.516667	319.395508	-2.568897
29545.280851	-1505.516667	318.103516	-12.159275
29545.280851	-1505.516667	316.810547	-72.432686
29545.280851	-1505.516667	315.516602	-75.012100
29545.280851	-1505.516667	314.223633	49.717274
29545.280851	-1505.516667	312.929688	7.666744
29545.280851	-1505.516667	311.635742	29.047768
29545.280851	-1505.516667	310.340820	50.001770
29545.280851	-1505.516667	309.045898	47.337090
29545.280851	-1505.516667	307.750977	42.314987
29545.280851	-1505.516667	306.456055	38.790798
29545.280851	-1505.516667	305.160156	63.781322
29545.280851	-1505.516667	303.865234	121.144966
29545.280851	-1505.516667	302.568359	29.327374
29545.280851	-1505.516667	301.272461	157.131454
29545.280851	-1505.516667	299.975586	108.761185
29545.280851	-1505.516667	298.678711	69.556412
