#X		#Y		#Wave		#Intensity
29547.690957	-1463.895000	1999.980469	52.451283
29547.690957	-1463.895000	1999.016602	-127.481125
29547.690957	-1463.895000	1998.052734	99.706383
29547.690957	-1463.895000	1997.087891	175.540146
29547.690957	-1463.895000	1996.123047	-65.899628
29547.690957	-1463.895000	1995.158203	-57.153805
29547.690957	-1463.895000	1994.193359	80.280647
29547.690957	-1463.895000	1993.228516	-47.396961
29547.690957	-1463.895000	1992.262695	-14.194102
29547.690957	-1463.895000	1991.297852	21.377861
29547.690957	-1463.895000	1990.332031	37.045982
29547.690957	-1463.895000	1989.366211	144.173248
29547.690957	-1463.895000	1988.399414	50.779106
29547.690957	-1463.895000	1987.433594	-40.194065
29547.690957	-1463.895000	1986.466797	12.221204
29547.690957	-1463.895000	1985.500977	-251.961105
29547.690957	-1463.895000	1984.534180	0.554227
29547.690957	-1463.895000	1983.567383	-28.876263
29547.690957	-1463.895000	1982.599609	117.083618
29547.690957	-1463.895000	1981.632813	146.787277
29547.690957	-1463.895000	1980.665039	10.893461
29547.690957	-1463.895000	1979.697266	-23.756670
29547.690957	-1463.895000	1978.729492	161.311249
29547.690957	-1463.895000	1977.761719	-9.286862
29547.690957	-1463.895000	1976.792969	111.391090
29547.690957	-1463.895000	1975.825195	96.218773
29547.690957	-1463.895000	1974.856445	248.780716
29547.690957	-1463.895000	1973.887695	154.512115
29547.690957	-1463.895000	1972.918945	10.884277
29547.690957	-1463.895000	1971.949219	-9.442387
29547.690957	-1463.895000	1970.980469	-24.885683
29547.690957	-1463.895000	1970.010742	6.457540
29547.690957	-1463.895000	1969.041016	-149.591568
29547.690957	-1463.895000	1968.071289	73.874710
29547.690957	-1463.895000	1967.101563	-52.668545
29547.690957	-1463.895000	1966.130859	57.272614
29547.690957	-1463.895000	1965.161133	61.216454
29547.690957	-1463.895000	1964.190430	-70.330139
29547.690957	-1463.895000	1963.219727	12.325273
29547.690957	-1463.895000	1962.249023	156.444778
29547.690957	-1463.895000	1961.277344	342.304230
29547.690957	-1463.895000	1960.306641	136.800156
29547.690957	-1463.895000	1959.334961	76.483841
29547.690957	-1463.895000	1958.363281	35.828125
29547.690957	-1463.895000	1957.391602	0.065691
29547.690957	-1463.895000	1956.419922	-23.427235
29547.690957	-1463.895000	1955.447266	166.932465
29547.690957	-1463.895000	1954.474609	106.473160
29547.690957	-1463.895000	1953.501953	136.928452
29547.690957	-1463.895000	1952.529297	-31.681940
29547.690957	-1463.895000	1951.556641	-197.806122
29547.690957	-1463.895000	1950.583984	-93.724243
29547.690957	-1463.895000	1949.610352	162.537140
29547.690957	-1463.895000	1948.636719	109.316269
29547.690957	-1463.895000	1947.663086	-78.924866
29547.690957	-1463.895000	1946.689453	98.567696
29547.690957	-1463.895000	1945.715820	77.206116
29547.690957	-1463.895000	1944.741211	-30.043242
29547.690957	-1463.895000	1943.767578	93.299980
29547.690957	-1463.895000	1942.792969	177.332520
29547.690957	-1463.895000	1941.818359	-13.315326
29547.690957	-1463.895000	1940.842773	207.946671
29547.690957	-1463.895000	1939.868164	-26.799444
29547.690957	-1463.895000	1938.892578	98.766441
29547.690957	-1463.895000	1937.916992	-33.004662
29547.690957	-1463.895000	1936.941406	63.081470
29547.690957	-1463.895000	1935.965820	-115.205765
29547.690957	-1463.895000	1934.990234	-65.701485
29547.690957	-1463.895000	1934.013672	223.705795
29547.690957	-1463.895000	1933.037109	60.125877
29547.690957	-1463.895000	1932.060547	-44.667999
29547.690957	-1463.895000	1931.083984	65.899139
29547.690957	-1463.895000	1930.107422	-170.997162
29547.690957	-1463.895000	1929.129883	52.046440
29547.690957	-1463.895000	1928.153320	-77.174988
29547.690957	-1463.895000	1927.175781	82.170837
29547.690957	-1463.895000	1926.198242	50.758144
29547.690957	-1463.895000	1925.219727	305.325134
29547.690957	-1463.895000	1924.242188	93.022377
29547.690957	-1463.895000	1923.263672	56.710327
29547.690957	-1463.895000	1922.285156	74.147179
29547.690957	-1463.895000	1921.306641	152.632355
29547.690957	-1463.895000	1920.328125	108.981873
29547.690957	-1463.895000	1919.349609	89.757828
29547.690957	-1463.895000	1918.370117	87.621124
29547.690957	-1463.895000	1917.391602	14.703732
29547.690957	-1463.895000	1916.412109	7.692124
29547.690957	-1463.895000	1915.431641	-60.315536
29547.690957	-1463.895000	1914.452148	113.186707
29547.690957	-1463.895000	1913.472656	-25.543631
29547.690957	-1463.895000	1912.492188	-42.310570
29547.690957	-1463.895000	1911.511719	-76.138268
29547.690957	-1463.895000	1910.531250	7.042073
29547.690957	-1463.895000	1909.550781	-70.649002
29547.690957	-1463.895000	1908.569336	41.733459
29547.690957	-1463.895000	1907.588867	27.401371
29547.690957	-1463.895000	1906.607422	71.526413
29547.690957	-1463.895000	1905.625977	3.619517
29547.690957	-1463.895000	1904.644531	25.821657
29547.690957	-1463.895000	1903.662109	50.449802
29547.690957	-1463.895000	1902.680664	38.565395
29547.690957	-1463.895000	1901.698242	-21.982182
29547.690957	-1463.895000	1900.715820	0.214397
29547.690957	-1463.895000	1899.733398	-14.081875
29547.690957	-1463.895000	1898.750000	-111.059929
29547.690957	-1463.895000	1897.767578	3.546650
29547.690957	-1463.895000	1896.784180	20.868479
29547.690957	-1463.895000	1895.800781	-105.217468
29547.690957	-1463.895000	1894.817383	19.052719
29547.690957	-1463.895000	1893.833984	-17.079515
29547.690957	-1463.895000	1892.850586	9.967097
29547.690957	-1463.895000	1891.866211	-247.163406
29547.690957	-1463.895000	1890.881836	-45.236725
29547.690957	-1463.895000	1889.897461	-95.880585
29547.690957	-1463.895000	1888.913086	149.646378
29547.690957	-1463.895000	1887.927734	89.285080
29547.690957	-1463.895000	1886.943359	-48.694424
29547.690957	-1463.895000	1885.958008	-130.819702
29547.690957	-1463.895000	1884.972656	-295.378998
29547.690957	-1463.895000	1883.987305	27.586769
29547.690957	-1463.895000	1883.001953	25.526962
29547.690957	-1463.895000	1882.015625	59.835567
29547.690957	-1463.895000	1881.029297	-63.409515
29547.690957	-1463.895000	1880.042969	-63.011917
29547.690957	-1463.895000	1879.056641	68.228638
29547.690957	-1463.895000	1878.070313	80.726273
29547.690957	-1463.895000	1877.083984	102.914642
29547.690957	-1463.895000	1876.096680	-12.928479
29547.690957	-1463.895000	1875.109375	-85.142281
29547.690957	-1463.895000	1874.122070	-29.029474
29547.690957	-1463.895000	1873.134766	-74.577339
29547.690957	-1463.895000	1872.146484	-93.487587
29547.690957	-1463.895000	1871.159180	54.547550
29547.690957	-1463.895000	1870.170898	-22.417372
29547.690957	-1463.895000	1869.182617	55.427761
29547.690957	-1463.895000	1868.194336	0.266530
29547.690957	-1463.895000	1867.205078	-212.005127
29547.690957	-1463.895000	1866.216797	59.212433
29547.690957	-1463.895000	1865.227539	4.098809
29547.690957	-1463.895000	1864.238281	6.998219
29547.690957	-1463.895000	1863.249023	50.969200
29547.690957	-1463.895000	1862.259766	-110.360374
29547.690957	-1463.895000	1861.269531	8.483558
29547.690957	-1463.895000	1860.279297	-56.195854
29547.690957	-1463.895000	1859.290039	-26.702927
29547.690957	-1463.895000	1858.298828	82.420853
29547.690957	-1463.895000	1857.308594	-42.540054
29547.690957	-1463.895000	1856.318359	88.273178
29547.690957	-1463.895000	1855.327148	-43.868500
29547.690957	-1463.895000	1854.335938	19.381920
29547.690957	-1463.895000	1853.344727	46.447163
29547.690957	-1463.895000	1852.353516	6.009724
29547.690957	-1463.895000	1851.362305	47.540173
29547.690957	-1463.895000	1850.370117	-26.610449
29547.690957	-1463.895000	1849.377930	113.698738
29547.690957	-1463.895000	1848.385742	20.303530
29547.690957	-1463.895000	1847.393555	93.127594
29547.690957	-1463.895000	1846.401367	-130.248169
29547.690957	-1463.895000	1845.408203	-9.266661
29547.690957	-1463.895000	1844.415039	140.556686
29547.690957	-1463.895000	1843.421875	90.583054
29547.690957	-1463.895000	1842.428711	40.632545
29547.690957	-1463.895000	1841.435547	12.355384
29547.690957	-1463.895000	1840.441406	63.462971
29547.690957	-1463.895000	1839.448242	-53.776646
29547.690957	-1463.895000	1838.454102	129.567322
29547.690957	-1463.895000	1837.459961	-21.290134
29547.690957	-1463.895000	1836.464844	49.023502
29547.690957	-1463.895000	1835.470703	15.988152
29547.690957	-1463.895000	1834.475586	4.587358
29547.690957	-1463.895000	1833.480469	113.296806
29547.690957	-1463.895000	1832.485352	53.854565
29547.690957	-1463.895000	1831.490234	-104.009125
29547.690957	-1463.895000	1830.495117	-64.955612
29547.690957	-1463.895000	1829.499023	34.088810
29547.690957	-1463.895000	1828.502930	-147.678543
29547.690957	-1463.895000	1827.506836	-139.828186
29547.690957	-1463.895000	1826.510742	7.154255
29547.690957	-1463.895000	1825.513672	70.134499
29547.690957	-1463.895000	1824.517578	82.736893
29547.690957	-1463.895000	1823.520508	-98.867508
29547.690957	-1463.895000	1822.523438	36.009827
29547.690957	-1463.895000	1821.526367	120.506340
29547.690957	-1463.895000	1820.529297	34.843452
29547.690957	-1463.895000	1819.531250	-24.438334
29547.690957	-1463.895000	1818.533203	-52.560680
29547.690957	-1463.895000	1817.535156	-27.986736
29547.690957	-1463.895000	1816.537109	-34.551716
29547.690957	-1463.895000	1815.539063	16.337868
29547.690957	-1463.895000	1814.540039	107.892426
29547.690957	-1463.895000	1813.541992	108.478439
29547.690957	-1463.895000	1812.542969	32.497459
29547.690957	-1463.895000	1811.543945	260.339142
29547.690957	-1463.895000	1810.543945	-38.074230
29547.690957	-1463.895000	1809.544922	22.303556
29547.690957	-1463.895000	1808.544922	137.639633
29547.690957	-1463.895000	1807.544922	-108.005440
29547.690957	-1463.895000	1806.544922	-28.545019
29547.690957	-1463.895000	1805.544922	24.598751
29547.690957	-1463.895000	1804.544922	34.715641
29547.690957	-1463.895000	1803.543945	-50.718365
29547.690957	-1463.895000	1802.542969	88.350471
29547.690957	-1463.895000	1801.541992	-11.397452
29547.690957	-1463.895000	1800.541016	34.501450
29547.690957	-1463.895000	1799.539063	70.826866
29547.690957	-1463.895000	1798.538086	128.610397
29547.690957	-1463.895000	1797.536133	-16.427174
29547.690957	-1463.895000	1796.534180	-111.325851
29547.690957	-1463.895000	1795.532227	-1.096653
29547.690957	-1463.895000	1794.529297	-7.755815
29547.690957	-1463.895000	1793.527344	-12.034368
29547.690957	-1463.895000	1792.524414	52.800117
29547.690957	-1463.895000	1791.521484	136.665680
29547.690957	-1463.895000	1790.518555	96.595261
29547.690957	-1463.895000	1789.514648	75.586250
29547.690957	-1463.895000	1788.511719	-4.965357
29547.690957	-1463.895000	1787.507813	-40.253952
29547.690957	-1463.895000	1786.503906	29.216665
29547.690957	-1463.895000	1785.500000	224.809525
29547.690957	-1463.895000	1784.496094	103.789963
29547.690957	-1463.895000	1783.491211	68.462967
29547.690957	-1463.895000	1782.486328	114.024979
29547.690957	-1463.895000	1781.481445	102.473770
29547.690957	-1463.895000	1780.476563	-49.393055
29547.690957	-1463.895000	1779.471680	-44.288651
29547.690957	-1463.895000	1778.465820	-15.429572
29547.690957	-1463.895000	1777.460938	32.423157
29547.690957	-1463.895000	1776.455078	-57.582275
29547.690957	-1463.895000	1775.449219	-88.170250
29547.690957	-1463.895000	1774.442383	-52.251701
29547.690957	-1463.895000	1773.436523	230.637054
29547.690957	-1463.895000	1772.429688	107.363853
29547.690957	-1463.895000	1771.422852	143.183853
29547.690957	-1463.895000	1770.416016	43.681782
29547.690957	-1463.895000	1769.409180	-122.245155
29547.690957	-1463.895000	1768.402344	-20.009293
29547.690957	-1463.895000	1767.394531	-3.230627
29547.690957	-1463.895000	1766.386719	108.398811
29547.690957	-1463.895000	1765.378906	200.998917
29547.690957	-1463.895000	1764.371094	25.638786
29547.690957	-1463.895000	1763.362305	75.517723
29547.690957	-1463.895000	1762.354492	56.634876
29547.690957	-1463.895000	1761.345703	-7.281837
29547.690957	-1463.895000	1760.336914	-33.284702
29547.690957	-1463.895000	1759.328125	170.463943
29547.690957	-1463.895000	1758.318359	-59.263386
29547.690957	-1463.895000	1757.308594	104.123627
29547.690957	-1463.895000	1756.299805	160.905807
29547.690957	-1463.895000	1755.290039	-40.338463
29547.690957	-1463.895000	1754.279297	-35.652424
29547.690957	-1463.895000	1753.269531	170.121567
29547.690957	-1463.895000	1752.258789	-14.508551
29547.690957	-1463.895000	1751.249023	-99.753220
29547.690957	-1463.895000	1750.238281	-2.913150
29547.690957	-1463.895000	1749.226563	-109.447556
29547.690957	-1463.895000	1748.215820	138.593369
29547.690957	-1463.895000	1747.204102	-62.494499
29547.690957	-1463.895000	1746.193359	-83.951698
29547.690957	-1463.895000	1745.181641	-81.799789
29547.690957	-1463.895000	1744.168945	-58.414963
29547.690957	-1463.895000	1743.157227	-37.417549
29547.690957	-1463.895000	1742.144531	63.822174
29547.690957	-1463.895000	1741.132813	148.481812
29547.690957	-1463.895000	1740.120117	82.040642
29547.690957	-1463.895000	1739.106445	112.346092
29547.690957	-1463.895000	1738.093750	-123.965111
29547.690957	-1463.895000	1737.080078	5.391855
29547.690957	-1463.895000	1736.067383	-174.251877
29547.690957	-1463.895000	1735.053711	-21.398661
29547.690957	-1463.895000	1734.040039	37.079422
29547.690957	-1463.895000	1733.025391	-27.049398
29547.690957	-1463.895000	1732.011719	64.353783
29547.690957	-1463.895000	1730.997070	56.745472
29547.690957	-1463.895000	1729.982422	-7.416252
29547.690957	-1463.895000	1728.967773	8.497399
29547.690957	-1463.895000	1727.952148	24.380554
29547.690957	-1463.895000	1726.937500	101.447533
29547.690957	-1463.895000	1725.921875	67.832397
29547.690957	-1463.895000	1724.906250	-50.512524
29547.690957	-1463.895000	1723.890625	0.571861
29547.690957	-1463.895000	1722.875000	-4.845208
29547.690957	-1463.895000	1721.858398	-76.141182
29547.690957	-1463.895000	1720.841797	-166.244492
29547.690957	-1463.895000	1719.825195	-30.634706
29547.690957	-1463.895000	1718.808594	156.612900
29547.690957	-1463.895000	1717.791992	-15.809361
29547.690957	-1463.895000	1716.774414	35.029568
29547.690957	-1463.895000	1715.756836	52.936737
29547.690957	-1463.895000	1714.739258	-253.325226
29547.690957	-1463.895000	1713.721680	156.760239
29547.690957	-1463.895000	1712.704102	125.255562
29547.690957	-1463.895000	1711.685547	-131.622147
29547.690957	-1463.895000	1710.667969	188.945694
29547.690957	-1463.895000	1709.649414	-13.922133
29547.690957	-1463.895000	1708.630859	-52.508228
29547.690957	-1463.895000	1707.611328	-79.378754
29547.690957	-1463.895000	1706.592773	-49.973766
29547.690957	-1463.895000	1705.573242	-114.399200
29547.690957	-1463.895000	1704.553711	-45.198318
29547.690957	-1463.895000	1703.534180	-81.522507
29547.690957	-1463.895000	1702.513672	-24.123550
29547.690957	-1463.895000	1701.494141	77.749161
29547.690957	-1463.895000	1700.473633	198.295151
29547.690957	-1463.895000	1699.453125	54.115829
29547.690957	-1463.895000	1698.432617	-12.758525
29547.690957	-1463.895000	1697.412109	112.343971
29547.690957	-1463.895000	1696.390625	-31.812948
29547.690957	-1463.895000	1695.369141	93.192528
29547.690957	-1463.895000	1694.347656	138.572327
29547.690957	-1463.895000	1693.326172	146.479828
29547.690957	-1463.895000	1692.304688	100.564438
29547.690957	-1463.895000	1691.282227	141.162109
29547.690957	-1463.895000	1690.260742	-5.318840
29547.690957	-1463.895000	1689.238281	-2.166576
29547.690957	-1463.895000	1688.214844	265.051514
29547.690957	-1463.895000	1687.192383	27.424543
29547.690957	-1463.895000	1686.168945	7.130073
29547.690957	-1463.895000	1685.146484	89.597183
29547.690957	-1463.895000	1684.123047	122.963272
29547.690957	-1463.895000	1683.099609	163.295975
29547.690957	-1463.895000	1682.075195	-18.185167
29547.690957	-1463.895000	1681.051758	89.796783
29547.690957	-1463.895000	1680.027344	232.713074
29547.690957	-1463.895000	1679.002930	191.235901
29547.690957	-1463.895000	1677.978516	63.444477
29547.690957	-1463.895000	1676.953125	206.206711
29547.690957	-1463.895000	1675.928711	94.736275
29547.690957	-1463.895000	1674.903320	-16.718426
29547.690957	-1463.895000	1673.877930	214.478821
29547.690957	-1463.895000	1672.852539	168.247070
29547.690957	-1463.895000	1671.826172	105.697319
29547.690957	-1463.895000	1670.800781	301.725098
29547.690957	-1463.895000	1669.774414	395.172424
29547.690957	-1463.895000	1668.748047	71.743919
29547.690957	-1463.895000	1667.721680	137.216141
29547.690957	-1463.895000	1666.694336	104.873802
29547.690957	-1463.895000	1665.667969	309.903687
29547.690957	-1463.895000	1664.640625	365.913239
29547.690957	-1463.895000	1663.613281	324.172668
29547.690957	-1463.895000	1662.585938	147.523956
29547.690957	-1463.895000	1661.557617	329.035919
29547.690957	-1463.895000	1660.530273	205.885788
29547.690957	-1463.895000	1659.501953	175.739426
29547.690957	-1463.895000	1658.473633	282.705078
29547.690957	-1463.895000	1657.444336	366.366150
29547.690957	-1463.895000	1656.416016	194.426437
29547.690957	-1463.895000	1655.386719	319.840698
29547.690957	-1463.895000	1654.358398	366.230743
29547.690957	-1463.895000	1653.328125	352.205750
29547.690957	-1463.895000	1652.298828	368.348328
29547.690957	-1463.895000	1651.269531	526.042664
29547.690957	-1463.895000	1650.239258	442.318420
29547.690957	-1463.895000	1649.208984	500.129730
29547.690957	-1463.895000	1648.178711	557.899597
29547.690957	-1463.895000	1647.148438	617.946655
29547.690957	-1463.895000	1646.117188	575.923584
29547.690957	-1463.895000	1645.086914	601.131104
29547.690957	-1463.895000	1644.055664	471.012024
29547.690957	-1463.895000	1643.024414	637.547974
29547.690957	-1463.895000	1641.992188	461.091675
29547.690957	-1463.895000	1640.960938	606.679504
29547.690957	-1463.895000	1639.928711	261.193512
29547.690957	-1463.895000	1638.896484	392.829254
29547.690957	-1463.895000	1637.864258	806.840942
29547.690957	-1463.895000	1636.832031	653.581238
29547.690957	-1463.895000	1635.798828	653.097351
29547.690957	-1463.895000	1634.766602	520.717651
29547.690957	-1463.895000	1633.733398	515.599609
29547.690957	-1463.895000	1632.699219	457.266754
29547.690957	-1463.895000	1631.666016	567.751892
29547.690957	-1463.895000	1630.632813	430.797302
29547.690957	-1463.895000	1629.598633	564.323059
29547.690957	-1463.895000	1628.564453	607.650940
29547.690957	-1463.895000	1627.530273	618.597473
29547.690957	-1463.895000	1626.495117	583.317200
29547.690957	-1463.895000	1625.460938	859.853638
29547.690957	-1463.895000	1624.425781	824.510437
29547.690957	-1463.895000	1623.390625	449.770508
29547.690957	-1463.895000	1622.355469	502.212250
29547.690957	-1463.895000	1621.319336	656.163879
29547.690957	-1463.895000	1620.284180	759.283325
29547.690957	-1463.895000	1619.248047	855.424011
29547.690957	-1463.895000	1618.211914	644.738770
29547.690957	-1463.895000	1617.174805	641.670044
29547.690957	-1463.895000	1616.138672	825.357361
29547.690957	-1463.895000	1615.101563	1006.651001
29547.690957	-1463.895000	1614.065430	775.310730
29547.690957	-1463.895000	1613.027344	894.298828
29547.690957	-1463.895000	1611.990234	669.955322
29547.690957	-1463.895000	1610.953125	747.439514
29547.690957	-1463.895000	1609.915039	1055.178101
29547.690957	-1463.895000	1608.876953	1001.288025
29547.690957	-1463.895000	1607.838867	767.845703
29547.690957	-1463.895000	1606.800781	902.748901
29547.690957	-1463.895000	1605.761719	1129.634399
29547.690957	-1463.895000	1604.723633	1153.961182
29547.690957	-1463.895000	1603.684570	1120.758301
29547.690957	-1463.895000	1602.644531	1117.452759
29547.690957	-1463.895000	1601.605469	1215.320923
29547.690957	-1463.895000	1600.566406	1267.164795
29547.690957	-1463.895000	1599.526367	1252.319946
29547.690957	-1463.895000	1598.486328	1363.867432
29547.690957	-1463.895000	1597.446289	1227.223633
29547.690957	-1463.895000	1596.405273	1143.457642
29547.690957	-1463.895000	1595.365234	1195.229980
29547.690957	-1463.895000	1594.324219	1219.416138
29547.690957	-1463.895000	1593.283203	1167.827271
29547.690957	-1463.895000	1592.242188	1182.819458
29547.690957	-1463.895000	1591.200195	1229.925781
29547.690957	-1463.895000	1590.159180	1283.899170
29547.690957	-1463.895000	1589.117188	1131.381104
29547.690957	-1463.895000	1588.075195	1063.782227
29547.690957	-1463.895000	1587.032227	1246.152588
29547.690957	-1463.895000	1585.990234	898.846680
29547.690957	-1463.895000	1584.947266	1154.525269
29547.690957	-1463.895000	1583.904297	976.956665
29547.690957	-1463.895000	1582.861328	907.150146
29547.690957	-1463.895000	1581.818359	1272.637207
29547.690957	-1463.895000	1580.775391	756.164429
29547.690957	-1463.895000	1579.731445	1013.903625
29547.690957	-1463.895000	1578.687500	699.159302
29547.690957	-1463.895000	1577.643555	691.276550
29547.690957	-1463.895000	1576.598633	951.163696
29547.690957	-1463.895000	1575.554688	737.301147
29547.690957	-1463.895000	1574.509766	882.694580
29547.690957	-1463.895000	1573.464844	1018.885742
29547.690957	-1463.895000	1572.419922	846.300781
29547.690957	-1463.895000	1571.374023	746.946594
29547.690957	-1463.895000	1570.329102	800.799805
29547.690957	-1463.895000	1569.283203	932.337708
29547.690957	-1463.895000	1568.237305	659.373474
29547.690957	-1463.895000	1567.191406	635.544312
29547.690957	-1463.895000	1566.144531	703.090515
29547.690957	-1463.895000	1565.098633	656.435913
29547.690957	-1463.895000	1564.051758	607.517822
29547.690957	-1463.895000	1563.004883	750.381836
29547.690957	-1463.895000	1561.957031	651.260559
29547.690957	-1463.895000	1560.910156	705.078735
29547.690957	-1463.895000	1559.862305	564.954346
29547.690957	-1463.895000	1558.814453	885.659607
29547.690957	-1463.895000	1557.766602	490.147003
29547.690957	-1463.895000	1556.718750	671.670898
29547.690957	-1463.895000	1555.669922	638.837891
29547.690957	-1463.895000	1554.621094	437.365417
29547.690957	-1463.895000	1553.573242	507.161255
29547.690957	-1463.895000	1552.523438	670.342529
29547.690957	-1463.895000	1551.474609	482.681549
29547.690957	-1463.895000	1550.424805	531.954834
29547.690957	-1463.895000	1549.375000	358.075012
29547.690957	-1463.895000	1548.325195	400.547363
29547.690957	-1463.895000	1547.275391	265.480713
29547.690957	-1463.895000	1546.225586	474.102020
29547.690957	-1463.895000	1545.174805	364.122528
29547.690957	-1463.895000	1544.124023	147.287857
29547.690957	-1463.895000	1543.073242	214.839615
29547.690957	-1463.895000	1542.022461	273.285004
29547.690957	-1463.895000	1540.970703	204.405716
29547.690957	-1463.895000	1539.919922	71.932556
29547.690957	-1463.895000	1538.868164	250.855255
29547.690957	-1463.895000	1537.815430	288.852020
29547.690957	-1463.895000	1536.763672	138.311707
29547.690957	-1463.895000	1535.710938	371.668549
29547.690957	-1463.895000	1534.659180	268.891388
29547.690957	-1463.895000	1533.606445	291.031738
29547.690957	-1463.895000	1532.552734	124.782372
29547.690957	-1463.895000	1531.500000	158.326950
29547.690957	-1463.895000	1530.446289	48.929890
29547.690957	-1463.895000	1529.393555	146.032578
29547.690957	-1463.895000	1528.338867	-94.828720
29547.690957	-1463.895000	1527.285156	11.369086
29547.690957	-1463.895000	1526.231445	-183.981781
29547.690957	-1463.895000	1525.176758	-64.170662
29547.690957	-1463.895000	1524.122070	-37.300961
29547.690957	-1463.895000	1523.067383	59.820072
29547.690957	-1463.895000	1522.012695	-35.628479
29547.690957	-1463.895000	1520.957031	-33.631168
29547.690957	-1463.895000	1519.901367	-133.511230
29547.690957	-1463.895000	1518.845703	27.030514
29547.690957	-1463.895000	1517.790039	-204.060242
29547.690957	-1463.895000	1516.734375	4.005947
29547.690957	-1463.895000	1515.677734	-120.600113
29547.690957	-1463.895000	1514.621094	-3.074820
29547.690957	-1463.895000	1513.564453	-245.190277
29547.690957	-1463.895000	1512.507813	-68.842621
29547.690957	-1463.895000	1511.450195	55.457447
29547.690957	-1463.895000	1510.393555	114.187538
29547.690957	-1463.895000	1509.335938	41.839554
29547.690957	-1463.895000	1508.278320	96.080193
29547.690957	-1463.895000	1507.219727	66.737724
29547.690957	-1463.895000	1506.162109	3.560024
29547.690957	-1463.895000	1505.103516	-113.765465
29547.690957	-1463.895000	1504.044922	98.613373
29547.690957	-1463.895000	1502.986328	89.723267
29547.690957	-1463.895000	1501.926758	195.960953
29547.690957	-1463.895000	1500.868164	171.320114
29547.690957	-1463.895000	1499.808594	259.512909
29547.690957	-1463.895000	1498.749023	169.517242
29547.690957	-1463.895000	1497.688477	124.685081
29547.690957	-1463.895000	1496.628906	183.617264
29547.690957	-1463.895000	1495.568359	244.808411
29547.690957	-1463.895000	1494.507813	-5.002949
29547.690957	-1463.895000	1493.447266	-56.396557
29547.690957	-1463.895000	1492.386719	-8.613304
29547.690957	-1463.895000	1491.325195	36.927444
29547.690957	-1463.895000	1490.263672	-54.882572
29547.690957	-1463.895000	1489.202148	96.535080
29547.690957	-1463.895000	1488.140625	-91.975533
29547.690957	-1463.895000	1487.079102	178.737259
29547.690957	-1463.895000	1486.016602	12.851907
29547.690957	-1463.895000	1484.954102	267.755096
29547.690957	-1463.895000	1483.891602	122.232246
29547.690957	-1463.895000	1482.829102	-203.097168
29547.690957	-1463.895000	1481.765625	-4.407124
29547.690957	-1463.895000	1480.702148	70.607857
29547.690957	-1463.895000	1479.638672	-36.402534
29547.690957	-1463.895000	1478.575195	-73.702652
29547.690957	-1463.895000	1477.511719	-256.883057
29547.690957	-1463.895000	1476.447266	40.606136
29547.690957	-1463.895000	1475.382813	158.357269
29547.690957	-1463.895000	1474.318359	-26.938938
29547.690957	-1463.895000	1473.253906	-50.563473
29547.690957	-1463.895000	1472.189453	-78.507278
29547.690957	-1463.895000	1471.124023	-122.135384
29547.690957	-1463.895000	1470.058594	-71.628067
29547.690957	-1463.895000	1468.993164	59.696575
29547.690957	-1463.895000	1467.927734	-46.670002
29547.690957	-1463.895000	1466.861328	95.636818
29547.690957	-1463.895000	1465.794922	67.946342
29547.690957	-1463.895000	1464.728516	-107.480431
29547.690957	-1463.895000	1463.662109	88.725876
29547.690957	-1463.895000	1462.594727	244.760086
29547.690957	-1463.895000	1461.528320	-145.315536
29547.690957	-1463.895000	1460.460938	-156.986557
29547.690957	-1463.895000	1459.393555	-76.968803
29547.690957	-1463.895000	1458.326172	-46.166363
29547.690957	-1463.895000	1457.257813	-173.524841
29547.690957	-1463.895000	1456.189453	26.253426
29547.690957	-1463.895000	1455.121094	97.309296
29547.690957	-1463.895000	1454.052734	100.423241
29547.690957	-1463.895000	1452.984375	97.799568
29547.690957	-1463.895000	1451.915039	-22.137032
29547.690957	-1463.895000	1450.845703	62.933369
29547.690957	-1463.895000	1449.776367	64.509979
29547.690957	-1463.895000	1448.707031	148.525604
29547.690957	-1463.895000	1447.636719	93.005684
29547.690957	-1463.895000	1446.567383	234.572784
29547.690957	-1463.895000	1445.497070	38.844040
29547.690957	-1463.895000	1444.425781	174.560959
29547.690957	-1463.895000	1443.355469	61.684708
29547.690957	-1463.895000	1442.285156	-45.978939
29547.690957	-1463.895000	1441.213867	-15.244150
29547.690957	-1463.895000	1440.142578	9.402868
29547.690957	-1463.895000	1439.070313	-46.653732
29547.690957	-1463.895000	1437.999023	156.082886
29547.690957	-1463.895000	1436.926758	172.997131
29547.690957	-1463.895000	1435.854492	121.599670
29547.690957	-1463.895000	1434.782227	87.665047
29547.690957	-1463.895000	1433.709961	393.709991
29547.690957	-1463.895000	1432.636719	-10.017787
29547.690957	-1463.895000	1431.563477	67.653290
29547.690957	-1463.895000	1430.490234	154.677444
29547.690957	-1463.895000	1429.416992	83.630981
29547.690957	-1463.895000	1428.343750	157.003250
29547.690957	-1463.895000	1427.269531	62.170082
29547.690957	-1463.895000	1426.195313	23.703222
29547.690957	-1463.895000	1425.121094	80.271713
29547.690957	-1463.895000	1424.046875	186.260422
29547.690957	-1463.895000	1422.971680	34.878334
29547.690957	-1463.895000	1421.896484	171.410873
29547.690957	-1463.895000	1420.821289	-86.961227
29547.690957	-1463.895000	1419.746094	-124.459557
29547.690957	-1463.895000	1418.669922	-39.526325
29547.690957	-1463.895000	1417.594727	-23.702629
29547.690957	-1463.895000	1416.518555	-75.747932
29547.690957	-1463.895000	1415.442383	-119.965004
29547.690957	-1463.895000	1414.365234	-53.494129
29547.690957	-1463.895000	1413.289063	-136.052567
29547.690957	-1463.895000	1412.211914	61.927723
29547.690957	-1463.895000	1411.134766	137.297089
29547.690957	-1463.895000	1410.057617	98.632713
29547.690957	-1463.895000	1408.979492	-98.449615
29547.690957	-1463.895000	1407.902344	125.506187
29547.690957	-1463.895000	1406.824219	17.047112
29547.690957	-1463.895000	1405.746094	103.189278
29547.690957	-1463.895000	1404.666992	35.536907
29547.690957	-1463.895000	1403.588867	117.548637
29547.690957	-1463.895000	1402.509766	-25.383459
29547.690957	-1463.895000	1401.430664	140.162781
29547.690957	-1463.895000	1400.351563	208.398285
29547.690957	-1463.895000	1399.271484	244.664795
29547.690957	-1463.895000	1398.192383	231.229065
29547.690957	-1463.895000	1397.112305	192.422089
29547.690957	-1463.895000	1396.031250	319.474457
29547.690957	-1463.895000	1394.951172	221.900635
29547.690957	-1463.895000	1393.871094	249.964340
29547.690957	-1463.895000	1392.790039	200.821045
29547.690957	-1463.895000	1391.708984	287.219574
29547.690957	-1463.895000	1390.626953	256.451294
29547.690957	-1463.895000	1389.545898	247.957870
29547.690957	-1463.895000	1388.463867	282.969482
29547.690957	-1463.895000	1387.381836	157.130295
29547.690957	-1463.895000	1386.299805	397.907013
29547.690957	-1463.895000	1385.217773	348.346497
29547.690957	-1463.895000	1384.134766	297.555695
29547.690957	-1463.895000	1383.051758	226.532074
29547.690957	-1463.895000	1381.968750	226.268738
29547.690957	-1463.895000	1380.885742	359.263672
29547.690957	-1463.895000	1379.802734	617.199402
29547.690957	-1463.895000	1378.718750	614.052246
29547.690957	-1463.895000	1377.634766	509.122162
29547.690957	-1463.895000	1376.550781	317.883698
29547.690957	-1463.895000	1375.465820	187.087692
29547.690957	-1463.895000	1374.381836	350.752655
29547.690957	-1463.895000	1373.296875	325.452728
29547.690957	-1463.895000	1372.211914	186.593109
29547.690957	-1463.895000	1371.126953	280.183411
29547.690957	-1463.895000	1370.041016	207.366364
29547.690957	-1463.895000	1368.955078	273.636780
29547.690957	-1463.895000	1367.869141	343.126404
29547.690957	-1463.895000	1366.783203	301.001099
29547.690957	-1463.895000	1365.697266	405.541992
29547.690957	-1463.895000	1364.610352	210.537460
29547.690957	-1463.895000	1363.523438	317.481171
29547.690957	-1463.895000	1362.436523	214.370010
29547.690957	-1463.895000	1361.349609	239.796631
29547.690957	-1463.895000	1360.261719	214.019302
29547.690957	-1463.895000	1359.174805	213.493683
29547.690957	-1463.895000	1358.086914	382.118378
29547.690957	-1463.895000	1356.998047	154.731247
29547.690957	-1463.895000	1355.910156	349.464417
29547.690957	-1463.895000	1354.821289	370.353455
29547.690957	-1463.895000	1353.732422	383.557587
29547.690957	-1463.895000	1352.643555	331.946747
29547.690957	-1463.895000	1351.554688	220.449432
29547.690957	-1463.895000	1350.464844	144.837997
29547.690957	-1463.895000	1349.375000	231.706985
29547.690957	-1463.895000	1348.285156	304.298401
29547.690957	-1463.895000	1347.195313	274.147186
29547.690957	-1463.895000	1346.105469	469.480682
29547.690957	-1463.895000	1345.014648	260.900513
29547.690957	-1463.895000	1343.923828	160.887695
29547.690957	-1463.895000	1342.833008	364.684235
29547.690957	-1463.895000	1341.741211	402.384979
29547.690957	-1463.895000	1340.650391	367.621857
29547.690957	-1463.895000	1339.558594	213.898300
29547.690957	-1463.895000	1338.466797	269.828003
29547.690957	-1463.895000	1337.374023	162.542130
29547.690957	-1463.895000	1336.282227	120.377251
29547.690957	-1463.895000	1335.189453	269.321594
29547.690957	-1463.895000	1334.096680	99.855789
29547.690957	-1463.895000	1333.003906	117.553810
29547.690957	-1463.895000	1331.910156	106.156387
29547.690957	-1463.895000	1330.817383	59.844429
29547.690957	-1463.895000	1329.723633	10.340882
29547.690957	-1463.895000	1328.629883	63.143761
29547.690957	-1463.895000	1327.535156	107.663857
29547.690957	-1463.895000	1326.441406	-12.642861
29547.690957	-1463.895000	1325.346680	49.018147
29547.690957	-1463.895000	1324.251953	81.401566
29547.690957	-1463.895000	1323.156250	131.321625
29547.690957	-1463.895000	1322.061523	59.317020
29547.690957	-1463.895000	1320.965820	86.548767
29547.690957	-1463.895000	1319.870117	171.886612
29547.690957	-1463.895000	1318.774414	132.223831
29547.690957	-1463.895000	1317.678711	73.053284
29547.690957	-1463.895000	1316.582031	73.419891
29547.690957	-1463.895000	1315.485352	88.225471
29547.690957	-1463.895000	1314.388672	98.642578
29547.690957	-1463.895000	1313.291016	59.030666
29547.690957	-1463.895000	1312.194336	199.356430
29547.690957	-1463.895000	1311.096680	-72.388374
29547.690957	-1463.895000	1309.999023	28.710554
29547.690957	-1463.895000	1308.901367	16.207590
29547.690957	-1463.895000	1307.802734	25.614706
29547.690957	-1463.895000	1306.705078	119.875771
29547.690957	-1463.895000	1305.606445	122.218208
29547.690957	-1463.895000	1304.506836	120.037292
29547.690957	-1463.895000	1303.408203	-4.345388
29547.690957	-1463.895000	1302.308594	344.077087
29547.690957	-1463.895000	1301.208984	160.637665
29547.690957	-1463.895000	1300.109375	216.341888
29547.690957	-1463.895000	1299.009766	27.846628
29547.690957	-1463.895000	1297.909180	48.009834
29547.690957	-1463.895000	1296.808594	-52.423550
29547.690957	-1463.895000	1295.708008	72.473854
29547.690957	-1463.895000	1294.607422	91.560089
29547.690957	-1463.895000	1293.506836	113.165863
29547.690957	-1463.895000	1292.405273	4.684415
29547.690957	-1463.895000	1291.303711	46.431808
29547.690957	-1463.895000	1290.202148	-104.059113
29547.690957	-1463.895000	1289.099609	-118.232918
29547.690957	-1463.895000	1287.998047	-61.680046
29547.690957	-1463.895000	1286.895508	-32.367378
29547.690957	-1463.895000	1285.792969	-113.200684
29547.690957	-1463.895000	1284.689453	-23.269930
29547.690957	-1463.895000	1283.586914	-134.301544
29547.690957	-1463.895000	1282.483398	-118.491669
29547.690957	-1463.895000	1281.379883	-86.260849
29547.690957	-1463.895000	1280.276367	23.089758
29547.690957	-1463.895000	1279.171875	-37.203526
29547.690957	-1463.895000	1278.067383	-124.498825
29547.690957	-1463.895000	1276.962891	122.699562
29547.690957	-1463.895000	1275.858398	165.929337
29547.690957	-1463.895000	1274.753906	-37.096981
29547.690957	-1463.895000	1273.648438	17.613873
29547.690957	-1463.895000	1272.542969	68.349144
29547.690957	-1463.895000	1271.437500	88.379921
29547.690957	-1463.895000	1270.331055	288.885101
29547.690957	-1463.895000	1269.225586	37.368061
29547.690957	-1463.895000	1268.119141	-43.867706
29547.690957	-1463.895000	1267.012695	67.513748
29547.690957	-1463.895000	1265.906250	68.780579
29547.690957	-1463.895000	1264.798828	172.643036
29547.690957	-1463.895000	1263.691406	198.451645
29547.690957	-1463.895000	1262.583984	160.403259
29547.690957	-1463.895000	1261.476563	199.595154
29547.690957	-1463.895000	1260.368164	246.269867
29547.690957	-1463.895000	1259.260742	246.463547
29547.690957	-1463.895000	1258.152344	-57.116558
29547.690957	-1463.895000	1257.043945	160.959015
29547.690957	-1463.895000	1255.934570	215.374298
29547.690957	-1463.895000	1254.825195	132.027512
29547.690957	-1463.895000	1253.716797	233.519882
29547.690957	-1463.895000	1252.606445	56.631973
29547.690957	-1463.895000	1251.497070	64.482803
29547.690957	-1463.895000	1250.387695	44.739841
29547.690957	-1463.895000	1249.277344	6.160463
29547.690957	-1463.895000	1248.166992	-102.934395
29547.690957	-1463.895000	1247.055664	37.713654
29547.690957	-1463.895000	1245.945313	-122.393852
29547.690957	-1463.895000	1244.833984	-145.852005
29547.690957	-1463.895000	1243.722656	-90.682732
29547.690957	-1463.895000	1242.611328	-89.643265
29547.690957	-1463.895000	1241.499023	26.129345
29547.690957	-1463.895000	1240.387695	-42.166245
29547.690957	-1463.895000	1239.275391	-104.069328
29547.690957	-1463.895000	1238.162109	-66.437706
29547.690957	-1463.895000	1237.049805	-81.136276
29547.690957	-1463.895000	1235.936523	-45.881008
29547.690957	-1463.895000	1234.823242	-122.751549
29547.690957	-1463.895000	1233.709961	-207.885025
29547.690957	-1463.895000	1232.596680	-192.224228
29547.690957	-1463.895000	1231.482422	-140.276199
29547.690957	-1463.895000	1230.369141	-184.728271
29547.690957	-1463.895000	1229.253906	-148.365402
29547.690957	-1463.895000	1228.139648	68.572159
29547.690957	-1463.895000	1227.025391	-42.367966
29547.690957	-1463.895000	1225.910156	-105.344139
29547.690957	-1463.895000	1224.794922	23.806095
29547.690957	-1463.895000	1223.679688	-32.678417
29547.690957	-1463.895000	1222.563477	49.441444
29547.690957	-1463.895000	1221.447266	22.841776
29547.690957	-1463.895000	1220.331055	66.951859
29547.690957	-1463.895000	1219.214844	68.166809
29547.690957	-1463.895000	1218.098633	186.203979
29547.690957	-1463.895000	1216.981445	133.663864
29547.690957	-1463.895000	1215.864258	113.871933
29547.690957	-1463.895000	1214.747070	161.486969
29547.690957	-1463.895000	1213.629883	114.513466
29547.690957	-1463.895000	1212.511719	103.324387
29547.690957	-1463.895000	1211.393555	80.938545
29547.690957	-1463.895000	1210.275391	225.112396
29547.690957	-1463.895000	1209.157227	254.416809
29547.690957	-1463.895000	1208.038086	144.064636
29547.690957	-1463.895000	1206.918945	-28.558126
29547.690957	-1463.895000	1205.799805	51.099876
29547.690957	-1463.895000	1204.680664	173.415207
29547.690957	-1463.895000	1203.560547	-104.420753
29547.690957	-1463.895000	1202.441406	6.730546
29547.690957	-1463.895000	1201.321289	7.280555
29547.690957	-1463.895000	1200.200195	38.425186
29547.690957	-1463.895000	1199.080078	95.760025
29547.690957	-1463.895000	1197.958984	80.798096
29547.690957	-1463.895000	1196.837891	57.895111
29547.690957	-1463.895000	1195.716797	117.529213
29547.690957	-1463.895000	1194.594727	230.903488
29547.690957	-1463.895000	1193.473633	100.752235
29547.690957	-1463.895000	1192.351563	194.732010
29547.690957	-1463.895000	1191.229492	163.250305
29547.690957	-1463.895000	1190.106445	120.946747
29547.690957	-1463.895000	1188.984375	133.029251
29547.690957	-1463.895000	1187.861328	201.052841
29547.690957	-1463.895000	1186.738281	103.175987
29547.690957	-1463.895000	1185.614258	-6.970479
29547.690957	-1463.895000	1184.491211	224.981552
29547.690957	-1463.895000	1183.367188	32.283363
29547.690957	-1463.895000	1182.243164	67.959663
29547.690957	-1463.895000	1181.119141	-52.028965
29547.690957	-1463.895000	1179.994141	38.707100
29547.690957	-1463.895000	1178.869141	-60.758598
29547.690957	-1463.895000	1177.744141	5.261090
29547.690957	-1463.895000	1176.619141	72.852745
29547.690957	-1463.895000	1175.493164	39.216518
29547.690957	-1463.895000	1174.368164	91.940338
29547.690957	-1463.895000	1173.242188	73.207077
29547.690957	-1463.895000	1172.115234	150.997833
29547.690957	-1463.895000	1170.989258	-74.450012
29547.690957	-1463.895000	1169.862305	-8.085442
29547.690957	-1463.895000	1168.735352	14.537223
29547.690957	-1463.895000	1167.608398	-19.609680
29547.690957	-1463.895000	1166.481445	-175.982529
29547.690957	-1463.895000	1165.353516	-60.592133
29547.690957	-1463.895000	1164.225586	-38.232033
29547.690957	-1463.895000	1163.097656	-52.773632
29547.690957	-1463.895000	1161.968750	-23.420153
29547.690957	-1463.895000	1160.840820	132.758347
29547.690957	-1463.895000	1159.711914	-36.417725
29547.690957	-1463.895000	1158.583008	-163.048477
29547.690957	-1463.895000	1157.453125	-39.889889
29547.690957	-1463.895000	1156.324219	-12.110571
29547.690957	-1463.895000	1155.194336	-253.337448
29547.690957	-1463.895000	1154.064453	-136.733063
29547.690957	-1463.895000	1152.933594	-21.583712
29547.690957	-1463.895000	1151.803711	-40.978809
29547.690957	-1463.895000	1150.672852	-177.841232
29547.690957	-1463.895000	1149.541992	-137.831543
29547.690957	-1463.895000	1148.411133	31.250189
29547.690957	-1463.895000	1147.279297	-21.093304
29547.690957	-1463.895000	1146.147461	-152.752991
29547.690957	-1463.895000	1145.015625	-75.602196
29547.690957	-1463.895000	1143.883789	-222.813034
29547.690957	-1463.895000	1142.750977	-78.459961
29547.690957	-1463.895000	1141.619141	3.615911
29547.690957	-1463.895000	1140.486328	15.567674
29547.690957	-1463.895000	1139.352539	-134.515106
29547.690957	-1463.895000	1138.219727	-114.605293
29547.690957	-1463.895000	1137.085938	-90.925835
29547.690957	-1463.895000	1135.952148	-155.221069
29547.690957	-1463.895000	1134.818359	-130.430695
29547.690957	-1463.895000	1133.683594	110.293617
29547.690957	-1463.895000	1132.549805	148.647141
29547.690957	-1463.895000	1131.415039	234.103088
29547.690957	-1463.895000	1130.279297	267.988342
29547.690957	-1463.895000	1129.144531	239.915253
29547.690957	-1463.895000	1128.008789	2.937064
29547.690957	-1463.895000	1126.873047	83.423813
29547.690957	-1463.895000	1125.737305	129.011063
29547.690957	-1463.895000	1124.601563	119.751335
29547.690957	-1463.895000	1123.464844	182.974289
29547.690957	-1463.895000	1122.328125	287.596954
29547.690957	-1463.895000	1121.191406	187.486313
29547.690957	-1463.895000	1120.054688	92.383423
29547.690957	-1463.895000	1118.916992	325.438171
29547.690957	-1463.895000	1117.779297	110.920235
29547.690957	-1463.895000	1116.641602	22.400700
29547.690957	-1463.895000	1115.503906	32.974148
29547.690957	-1463.895000	1114.365234	91.554108
29547.690957	-1463.895000	1113.226563	140.505020
29547.690957	-1463.895000	1112.087891	-2.669346
29547.690957	-1463.895000	1110.949219	-28.215233
29547.690957	-1463.895000	1109.809570	41.170483
29547.690957	-1463.895000	1108.669922	92.554482
29547.690957	-1463.895000	1107.530273	31.823353
29547.690957	-1463.895000	1106.390625	-36.444904
29547.690957	-1463.895000	1105.250000	216.074265
29547.690957	-1463.895000	1104.109375	26.663431
29547.690957	-1463.895000	1102.968750	-100.583748
29547.690957	-1463.895000	1101.828125	119.772064
29547.690957	-1463.895000	1100.686523	223.191101
29547.690957	-1463.895000	1099.544922	124.796852
29547.690957	-1463.895000	1098.403320	229.379288
29547.690957	-1463.895000	1097.261719	193.034958
29547.690957	-1463.895000	1096.120117	74.151505
29547.690957	-1463.895000	1094.977539	250.255463
29547.690957	-1463.895000	1093.834961	97.835701
29547.690957	-1463.895000	1092.691406	80.489059
29547.690957	-1463.895000	1091.548828	193.008911
29547.690957	-1463.895000	1090.405273	-4.790872
29547.690957	-1463.895000	1089.261719	-24.843218
29547.690957	-1463.895000	1088.118164	336.822510
29547.690957	-1463.895000	1086.973633	279.547241
29547.690957	-1463.895000	1085.829102	-147.706390
29547.690957	-1463.895000	1084.684570	62.479538
29547.690957	-1463.895000	1083.540039	-12.948722
29547.690957	-1463.895000	1082.395508	117.433594
29547.690957	-1463.895000	1081.250000	-150.018036
29547.690957	-1463.895000	1080.104492	-66.138687
29547.690957	-1463.895000	1078.958984	-21.433273
29547.690957	-1463.895000	1077.812500	-90.968239
29547.690957	-1463.895000	1076.666016	-34.598118
29547.690957	-1463.895000	1075.519531	192.809891
29547.690957	-1463.895000	1074.373047	66.325111
29547.690957	-1463.895000	1073.226563	-23.936255
29547.690957	-1463.895000	1072.079102	136.367477
29547.690957	-1463.895000	1070.931641	254.060593
29547.690957	-1463.895000	1069.784180	203.113815
29547.690957	-1463.895000	1068.635742	297.469360
29547.690957	-1463.895000	1067.487305	104.096107
29547.690957	-1463.895000	1066.338867	178.230423
29547.690957	-1463.895000	1065.190430	200.412369
29547.690957	-1463.895000	1064.041992	60.980846
29547.690957	-1463.895000	1062.892578	215.924850
29547.690957	-1463.895000	1061.743164	333.948761
29547.690957	-1463.895000	1060.593750	274.128784
29547.690957	-1463.895000	1059.443359	175.131622
29547.690957	-1463.895000	1058.292969	142.504501
29547.690957	-1463.895000	1057.142578	-38.246685
29547.690957	-1463.895000	1055.992188	149.592987
29547.690957	-1463.895000	1054.841797	160.915146
29547.690957	-1463.895000	1053.690430	231.791718
29547.690957	-1463.895000	1052.539063	201.141113
29547.690957	-1463.895000	1051.387695	11.604027
29547.690957	-1463.895000	1050.235352	256.799194
29547.690957	-1463.895000	1049.083984	151.168076
29547.690957	-1463.895000	1047.931641	12.724403
29547.690957	-1463.895000	1046.778320	67.601990
29547.690957	-1463.895000	1045.625977	82.103775
29547.690957	-1463.895000	1044.472656	168.985565
29547.690957	-1463.895000	1043.319336	138.799759
29547.690957	-1463.895000	1042.166016	78.964424
29547.690957	-1463.895000	1041.012695	109.432800
29547.690957	-1463.895000	1039.858398	235.716049
29547.690957	-1463.895000	1038.704102	66.106888
29547.690957	-1463.895000	1037.549805	-99.465843
29547.690957	-1463.895000	1036.394531	44.912289
29547.690957	-1463.895000	1035.239258	-21.258884
29547.690957	-1463.895000	1034.083984	66.597908
29547.690957	-1463.895000	1032.928711	170.032608
29547.690957	-1463.895000	1031.773438	-59.107983
29547.690957	-1463.895000	1030.617188	30.436207
29547.690957	-1463.895000	1029.460938	179.017654
29547.690957	-1463.895000	1028.304688	54.765415
29547.690957	-1463.895000	1027.147461	121.753960
29547.690957	-1463.895000	1025.991211	70.243942
29547.690957	-1463.895000	1024.833984	89.650757
29547.690957	-1463.895000	1023.675781	156.782120
29547.690957	-1463.895000	1022.518555	-20.419552
29547.690957	-1463.895000	1021.360352	183.797958
29547.690957	-1463.895000	1020.202148	231.481613
29547.690957	-1463.895000	1019.043945	251.767365
29547.690957	-1463.895000	1017.884766	331.891632
29547.690957	-1463.895000	1016.726563	29.039246
29547.690957	-1463.895000	1015.567383	131.573563
29547.690957	-1463.895000	1014.407227	240.682220
29547.690957	-1463.895000	1013.248047	193.573563
29547.690957	-1463.895000	1012.087891	305.491730
29547.690957	-1463.895000	1010.927734	293.890106
29547.690957	-1463.895000	1009.767578	55.210323
29547.690957	-1463.895000	1008.606445	-64.232185
29547.690957	-1463.895000	1007.446289	83.736916
29547.690957	-1463.895000	1006.285156	-11.084648
29547.690957	-1463.895000	1005.123047	-78.342239
29547.690957	-1463.895000	1003.961914	225.916901
29547.690957	-1463.895000	1002.799805	102.952309
29547.690957	-1463.895000	1001.637695	53.775146
29547.690957	-1463.895000	1000.475586	39.638557
29547.690957	-1463.895000	999.312500	50.392086
29547.690957	-1463.895000	998.149414	108.572327
29547.690957	-1463.895000	996.986328	50.011539
29547.690957	-1463.895000	995.823242	2.513645
29547.690957	-1463.895000	994.659180	4.469164
29547.690957	-1463.895000	993.496094	119.088928
29547.690957	-1463.895000	992.332031	68.382263
29547.690957	-1463.895000	991.166992	-210.186783
29547.690957	-1463.895000	990.002930	-79.219795
29547.690957	-1463.895000	988.837891	-19.896967
29547.690957	-1463.895000	987.672852	-55.718681
29547.690957	-1463.895000	986.506836	-6.076723
29547.690957	-1463.895000	985.341797	-126.089165
29547.690957	-1463.895000	984.175781	-106.550560
29547.690957	-1463.895000	983.009766	-145.721008
29547.690957	-1463.895000	981.843750	-83.963516
29547.690957	-1463.895000	980.676758	-183.366241
29547.690957	-1463.895000	979.509766	60.817631
29547.690957	-1463.895000	978.342773	-28.655800
29547.690957	-1463.895000	977.175781	222.556488
29547.690957	-1463.895000	976.007813	-35.761600
29547.690957	-1463.895000	974.839844	187.134827
29547.690957	-1463.895000	973.671875	125.008728
29547.690957	-1463.895000	972.503906	104.749008
29547.690957	-1463.895000	971.334961	132.201080
29547.690957	-1463.895000	970.166016	-18.343260
29547.690957	-1463.895000	968.997070	25.231487
29547.690957	-1463.895000	967.828125	136.031052
29547.690957	-1463.895000	966.658203	205.903702
29547.690957	-1463.895000	965.488281	63.664761
29547.690957	-1463.895000	964.318359	85.187508
29547.690957	-1463.895000	963.148438	123.341354
29547.690957	-1463.895000	961.977539	-36.924850
29547.690957	-1463.895000	960.806641	286.886841
29547.690957	-1463.895000	959.635742	164.476852
29547.690957	-1463.895000	958.463867	110.640732
29547.690957	-1463.895000	957.292969	104.442505
29547.690957	-1463.895000	956.121094	-14.944053
29547.690957	-1463.895000	954.948242	333.727386
29547.690957	-1463.895000	953.776367	323.503326
29547.690957	-1463.895000	952.603516	304.960846
29547.690957	-1463.895000	951.430664	217.798111
29547.690957	-1463.895000	950.257813	-117.397720
29547.690957	-1463.895000	949.084961	85.823837
29547.690957	-1463.895000	947.911133	35.934990
29547.690957	-1463.895000	946.737305	71.424965
29547.690957	-1463.895000	945.563477	113.453201
29547.690957	-1463.895000	944.388672	10.154994
29547.690957	-1463.895000	943.213867	63.751022
29547.690957	-1463.895000	942.039063	92.208344
29547.690957	-1463.895000	940.864258	-89.479614
29547.690957	-1463.895000	939.688477	162.900528
29547.690957	-1463.895000	938.513672	34.198154
29547.690957	-1463.895000	937.337891	-1.945379
29547.690957	-1463.895000	936.161133	40.124477
29547.690957	-1463.895000	934.985352	114.705345
29547.690957	-1463.895000	933.808594	76.131927
29547.690957	-1463.895000	932.631836	39.855419
29547.690957	-1463.895000	931.454102	-28.709644
29547.690957	-1463.895000	930.277344	114.900391
29547.690957	-1463.895000	929.099609	16.311230
29547.690957	-1463.895000	927.921875	180.689880
29547.690957	-1463.895000	926.743164	241.205750
29547.690957	-1463.895000	925.565430	142.640854
29547.690957	-1463.895000	924.386719	147.845505
29547.690957	-1463.895000	923.208008	0.951547
29547.690957	-1463.895000	922.028320	137.516068
29547.690957	-1463.895000	920.849609	177.267395
29547.690957	-1463.895000	919.669922	179.891724
29547.690957	-1463.895000	919.474609	97.670937
29547.690957	-1463.895000	918.309570	-19.203136
29547.690957	-1463.895000	917.143555	52.761139
29547.690957	-1463.895000	915.977539	51.038368
29547.690957	-1463.895000	914.810547	21.703213
29547.690957	-1463.895000	913.644531	13.087475
29547.690957	-1463.895000	912.477539	149.404694
29547.690957	-1463.895000	911.310547	-6.426180
29547.690957	-1463.895000	910.143555	51.660477
29547.690957	-1463.895000	908.975586	68.345764
29547.690957	-1463.895000	907.807617	-110.350815
29547.690957	-1463.895000	906.639648	-183.260101
29547.690957	-1463.895000	905.471680	81.612236
29547.690957	-1463.895000	904.303711	27.075962
29547.690957	-1463.895000	903.134766	-43.509117
29547.690957	-1463.895000	901.965820	-176.061020
29547.690957	-1463.895000	900.796875	-99.642044
29547.690957	-1463.895000	899.626953	-62.268375
29547.690957	-1463.895000	898.457031	-20.316046
29547.690957	-1463.895000	897.287109	78.980751
29547.690957	-1463.895000	896.117188	-131.431534
29547.690957	-1463.895000	894.947266	100.875031
29547.690957	-1463.895000	893.776367	32.717258
29547.690957	-1463.895000	892.605469	24.195658
29547.690957	-1463.895000	891.434570	27.143394
29547.690957	-1463.895000	890.262695	41.555042
29547.690957	-1463.895000	889.091797	-54.008263
29547.690957	-1463.895000	887.919922	-188.465744
29547.690957	-1463.895000	886.748047	2.336783
29547.690957	-1463.895000	885.575195	80.875328
29547.690957	-1463.895000	884.403320	-5.436477
29547.690957	-1463.895000	883.230469	-100.860603
29547.690957	-1463.895000	882.057617	39.452396
29547.690957	-1463.895000	880.883789	-21.610312
29547.690957	-1463.895000	879.710938	-66.633202
29547.690957	-1463.895000	878.537109	43.878609
29547.690957	-1463.895000	877.362305	69.757286
29547.690957	-1463.895000	876.188477	61.340202
29547.690957	-1463.895000	875.013672	-4.200016
29547.690957	-1463.895000	873.839844	3.410493
29547.690957	-1463.895000	872.664063	184.653320
29547.690957	-1463.895000	871.489258	71.182823
29547.690957	-1463.895000	870.313477	-69.634010
29547.690957	-1463.895000	869.138672	164.044006
29547.690957	-1463.895000	867.962891	48.389565
29547.690957	-1463.895000	866.786133	113.084389
29547.690957	-1463.895000	865.610352	79.644417
29547.690957	-1463.895000	864.433594	-15.365072
29547.690957	-1463.895000	863.256836	-25.939497
29547.690957	-1463.895000	862.079102	79.796600
29547.690957	-1463.895000	860.902344	23.625698
29547.690957	-1463.895000	859.724609	81.457825
29547.690957	-1463.895000	858.546875	-6.577484
29547.690957	-1463.895000	857.368164	5.686259
29547.690957	-1463.895000	856.190430	-11.663860
29547.690957	-1463.895000	855.011719	-22.163082
29547.690957	-1463.895000	853.833008	179.114960
29547.690957	-1463.895000	852.654297	68.428093
29547.690957	-1463.895000	851.474609	-87.726128
29547.690957	-1463.895000	850.294922	77.058121
29547.690957	-1463.895000	849.115234	-47.163490
29547.690957	-1463.895000	847.935547	97.088539
29547.690957	-1463.895000	846.754883	-152.151123
29547.690957	-1463.895000	845.575195	-32.931297
29547.690957	-1463.895000	844.393555	-70.605995
29547.690957	-1463.895000	843.212891	-180.989197
29547.690957	-1463.895000	842.032227	-54.992538
29547.690957	-1463.895000	840.850586	66.418640
29547.690957	-1463.895000	839.668945	44.688156
29547.690957	-1463.895000	838.486328	-269.978424
29547.690957	-1463.895000	837.304688	-223.499191
29547.690957	-1463.895000	836.122070	-179.298904
29547.690957	-1463.895000	834.939453	-73.830284
29547.690957	-1463.895000	833.756836	86.060905
29547.690957	-1463.895000	832.573242	-135.233246
29547.690957	-1463.895000	831.389648	1.941938
29547.690957	-1463.895000	830.206055	-287.259338
29547.690957	-1463.895000	829.022461	15.413856
29547.690957	-1463.895000	827.838867	-108.181168
29547.690957	-1463.895000	826.654297	-184.123001
29547.690957	-1463.895000	825.469727	88.910919
29547.690957	-1463.895000	824.284180	60.550007
29547.690957	-1463.895000	823.099609	-42.536137
29547.690957	-1463.895000	821.914063	94.459244
29547.690957	-1463.895000	820.728516	-81.022179
29547.690957	-1463.895000	819.542969	-18.756893
29547.690957	-1463.895000	818.356445	20.862040
29547.690957	-1463.895000	817.169922	-63.968861
29547.690957	-1463.895000	815.983398	-74.110077
29547.690957	-1463.895000	814.796875	19.794683
29547.690957	-1463.895000	813.609375	82.013504
29547.690957	-1463.895000	812.422852	-84.119125
29547.690957	-1463.895000	811.235352	63.995594
29547.690957	-1463.895000	810.046875	6.420012
29547.690957	-1463.895000	808.859375	-21.757517
29547.690957	-1463.895000	807.670898	-185.445023
29547.690957	-1463.895000	806.482422	-44.181435
29547.690957	-1463.895000	805.293945	137.671738
29547.690957	-1463.895000	804.104492	127.575912
29547.690957	-1463.895000	802.915039	112.974564
29547.690957	-1463.895000	801.725586	-106.956741
29547.690957	-1463.895000	800.536133	-31.252380
29547.690957	-1463.895000	799.345703	89.537338
29547.690957	-1463.895000	798.155273	-58.073837
29547.690957	-1463.895000	796.964844	-32.014847
29547.690957	-1463.895000	795.774414	3.053926
29547.690957	-1463.895000	794.583008	144.037247
29547.690957	-1463.895000	793.392578	46.120964
29547.690957	-1463.895000	792.200195	-11.196955
29547.690957	-1463.895000	791.008789	-34.706955
29547.690957	-1463.895000	789.816406	-19.920582
29547.690957	-1463.895000	788.625000	111.929047
29547.690957	-1463.895000	787.432617	-1.618831
29547.690957	-1463.895000	786.239258	-103.863312
29547.690957	-1463.895000	785.046875	-147.566849
29547.690957	-1463.895000	783.853516	96.684814
29547.690957	-1463.895000	782.660156	61.957054
29547.690957	-1463.895000	781.465820	49.732731
29547.690957	-1463.895000	780.272461	-182.801407
29547.690957	-1463.895000	779.078125	-156.760437
29547.690957	-1463.895000	777.883789	-126.237175
29547.690957	-1463.895000	776.688477	32.337116
29547.690957	-1463.895000	775.494141	85.269318
29547.690957	-1463.895000	774.298828	-57.199257
29547.690957	-1463.895000	773.103516	-2.025681
29547.690957	-1463.895000	771.907227	102.511108
29547.690957	-1463.895000	770.711914	-44.367962
29547.690957	-1463.895000	769.515625	107.251251
29547.690957	-1463.895000	768.318359	148.879135
29547.690957	-1463.895000	767.122070	-38.298542
29547.690957	-1463.895000	765.924805	10.062019
29547.690957	-1463.895000	764.727539	-13.345889
29547.690957	-1463.895000	763.530273	17.047684
29547.690957	-1463.895000	762.333008	-6.361143
29547.690957	-1463.895000	761.134766	-23.041798
29547.690957	-1463.895000	759.936523	11.802523
29547.690957	-1463.895000	758.738281	26.468317
29547.690957	-1463.895000	757.540039	-61.881706
29547.690957	-1463.895000	756.340820	75.914818
29547.690957	-1463.895000	755.141602	-88.522057
29547.690957	-1463.895000	753.942383	71.586571
29547.690957	-1463.895000	752.742188	-1.062774
29547.690957	-1463.895000	751.541992	-42.374454
29547.690957	-1463.895000	750.341797	-18.820551
29547.690957	-1463.895000	749.141602	13.658104
29547.690957	-1463.895000	747.941406	32.700748
29547.690957	-1463.895000	746.740234	53.962830
29547.690957	-1463.895000	745.539063	144.476532
29547.690957	-1463.895000	744.337891	241.644760
29547.690957	-1463.895000	743.135742	59.558475
29547.690957	-1463.895000	741.933594	71.822136
29547.690957	-1463.895000	740.731445	72.906036
29547.690957	-1463.895000	739.529297	-55.493984
29547.690957	-1463.895000	738.326172	97.351662
29547.690957	-1463.895000	737.124023	76.076271
29547.690957	-1463.895000	735.919922	90.494377
29547.690957	-1463.895000	734.716797	274.397034
29547.690957	-1463.895000	733.513672	157.170975
29547.690957	-1463.895000	732.309570	390.002777
29547.690957	-1463.895000	731.105469	252.712769
29547.690957	-1463.895000	729.900391	222.433777
29547.690957	-1463.895000	728.696289	256.761169
29547.690957	-1463.895000	727.491211	81.667953
29547.690957	-1463.895000	726.286133	140.476532
29547.690957	-1463.895000	725.080078	85.685814
29547.690957	-1463.895000	723.874023	119.946342
29547.690957	-1463.895000	722.668945	22.854975
29547.690957	-1463.895000	721.461914	110.483536
29547.690957	-1463.895000	720.255859	60.117695
29547.690957	-1463.895000	719.048828	-263.836151
29547.690957	-1463.895000	717.841797	88.374153
29547.690957	-1463.895000	716.634766	-88.748909
29547.690957	-1463.895000	715.427734	29.827393
29547.690957	-1463.895000	714.219727	23.877228
29547.690957	-1463.895000	713.011719	113.451653
29547.690957	-1463.895000	711.803711	-25.851166
29547.690957	-1463.895000	710.594727	-114.033485
29547.690957	-1463.895000	709.385742	-28.996351
29547.690957	-1463.895000	708.176758	0.476582
29547.690957	-1463.895000	706.967773	185.288177
29547.690957	-1463.895000	705.758789	192.460419
29547.690957	-1463.895000	704.548828	15.451907
29547.690957	-1463.895000	703.338867	-52.814091
29547.690957	-1463.895000	702.127930	107.355331
29547.690957	-1463.895000	700.917969	81.173569
29547.690957	-1463.895000	699.707031	97.096191
29547.690957	-1463.895000	698.496094	93.035843
29547.690957	-1463.895000	697.285156	18.037968
29547.690957	-1463.895000	696.073242	42.740673
29547.690957	-1463.895000	694.861328	191.442413
29547.690957	-1463.895000	693.649414	80.951324
29547.690957	-1463.895000	692.436523	-109.229309
29547.690957	-1463.895000	691.224609	61.454140
29547.690957	-1463.895000	690.011719	-13.623203
29547.690957	-1463.895000	688.798828	35.208344
29547.690957	-1463.895000	687.584961	19.834766
29547.690957	-1463.895000	686.372070	-95.095360
29547.690957	-1463.895000	685.158203	148.216721
29547.690957	-1463.895000	683.943359	278.643555
29547.690957	-1463.895000	682.729492	-26.460052
29547.690957	-1463.895000	681.514648	-50.813091
29547.690957	-1463.895000	680.299805	152.377380
29547.690957	-1463.895000	679.084961	222.910751
29547.690957	-1463.895000	677.869141	-9.184604
29547.690957	-1463.895000	676.653320	-13.791440
29547.690957	-1463.895000	675.437500	-106.737305
29547.690957	-1463.895000	674.221680	-27.527468
29547.690957	-1463.895000	673.004883	38.372189
29547.690957	-1463.895000	671.789063	-43.608753
29547.690957	-1463.895000	670.571289	19.984333
29547.690957	-1463.895000	669.354492	-44.392799
29547.690957	-1463.895000	668.136719	-5.157981
29547.690957	-1463.895000	666.919922	-73.990738
29547.690957	-1463.895000	665.701172	187.741913
29547.690957	-1463.895000	664.483398	79.156281
29547.690957	-1463.895000	663.264648	56.488594
29547.690957	-1463.895000	662.045898	267.248138
29547.690957	-1463.895000	660.827148	70.510727
29547.690957	-1463.895000	659.608398	98.368820
29547.690957	-1463.895000	658.388672	-85.127182
29547.690957	-1463.895000	657.168945	171.527267
29547.690957	-1463.895000	655.949219	179.415833
29547.690957	-1463.895000	654.728516	204.856430
29547.690957	-1463.895000	653.507813	87.294144
29547.690957	-1463.895000	652.287109	13.712082
29547.690957	-1463.895000	651.066406	87.399033
29547.690957	-1463.895000	649.844727	112.659088
29547.690957	-1463.895000	648.623047	14.812526
29547.690957	-1463.895000	647.401367	152.027054
29547.690957	-1463.895000	646.179688	62.906914
29547.690957	-1463.895000	644.957031	145.062729
29547.690957	-1463.895000	643.734375	-9.974120
29547.690957	-1463.895000	642.511719	124.748291
29547.690957	-1463.895000	641.289063	88.192627
29547.690957	-1463.895000	640.065430	159.115875
29547.690957	-1463.895000	638.841797	-22.304871
29547.690957	-1463.895000	637.618164	-67.721199
29547.690957	-1463.895000	636.393555	391.152130
29547.690957	-1463.895000	635.168945	86.888817
29547.690957	-1463.895000	633.944336	6.265040
29547.690957	-1463.895000	632.719727	19.852911
29547.690957	-1463.895000	631.494141	50.912148
29547.690957	-1463.895000	630.269531	40.292927
29547.690957	-1463.895000	629.042969	86.565636
29547.690957	-1463.895000	627.817383	23.297319
29547.690957	-1463.895000	626.590820	-77.205482
29547.690957	-1463.895000	625.365234	19.249569
29547.690957	-1463.895000	624.137695	242.520508
29547.690957	-1463.895000	622.911133	1.879946
29547.690957	-1463.895000	621.683594	17.183002
29547.690957	-1463.895000	620.456055	-15.676724
29547.690957	-1463.895000	619.228516	-15.779372
29547.690957	-1463.895000	618.000977	-83.690422
29547.690957	-1463.895000	616.772461	-142.882935
29547.690957	-1463.895000	615.543945	-99.415260
29547.690957	-1463.895000	614.314453	11.697499
29547.690957	-1463.895000	613.085938	131.447388
29547.690957	-1463.895000	611.856445	37.122524
29547.690957	-1463.895000	610.626953	257.129639
29547.690957	-1463.895000	609.397461	-11.882846
29547.690957	-1463.895000	608.166992	-32.082508
29547.690957	-1463.895000	606.936523	-43.597664
29547.690957	-1463.895000	605.706055	90.973106
29547.690957	-1463.895000	604.474609	151.294144
29547.690957	-1463.895000	603.244141	139.594528
29547.690957	-1463.895000	602.012695	90.792709
29547.690957	-1463.895000	600.780273	4.913082
29547.690957	-1463.895000	599.548828	-13.437082
29547.690957	-1463.895000	598.316406	-44.902035
29547.690957	-1463.895000	597.083984	86.935234
29547.690957	-1463.895000	595.851563	170.763336
29547.690957	-1463.895000	594.618164	21.573524
29547.690957	-1463.895000	593.384766	59.573006
29547.690957	-1463.895000	592.151367	14.817605
29547.690957	-1463.895000	590.917969	74.456909
29547.690957	-1463.895000	589.683594	33.967415
29547.690957	-1463.895000	588.449219	-145.729614
29547.690957	-1463.895000	587.214844	37.681454
29547.690957	-1463.895000	585.979492	-98.567108
29547.690957	-1463.895000	584.745117	-26.176546
29547.690957	-1463.895000	583.509766	-12.531170
29547.690957	-1463.895000	582.273438	-55.420895
29547.690957	-1463.895000	581.038086	1.563648
29547.690957	-1463.895000	579.801758	-67.464989
29547.690957	-1463.895000	578.565430	-106.119339
29547.690957	-1463.895000	577.329102	46.192665
29547.690957	-1463.895000	576.091797	-127.104538
29547.690957	-1463.895000	574.854492	22.880560
29547.690957	-1463.895000	573.617188	38.275211
29547.690957	-1463.895000	572.378906	-67.827278
29547.690957	-1463.895000	571.141602	-106.717094
29547.690957	-1463.895000	569.903320	125.318390
29547.690957	-1463.895000	568.664063	194.668091
29547.690957	-1463.895000	567.425781	34.270573
29547.690957	-1463.895000	566.186523	6.036522
29547.690957	-1463.895000	564.947266	92.557014
29547.690957	-1463.895000	563.708008	153.012100
29547.690957	-1463.895000	562.467773	94.326881
29547.690957	-1463.895000	561.227539	74.581825
29547.690957	-1463.895000	559.987305	74.276329
29547.690957	-1463.895000	558.747070	136.669571
29547.690957	-1463.895000	557.505859	209.806686
29547.690957	-1463.895000	556.264648	79.587593
29547.690957	-1463.895000	555.023438	42.353531
29547.690957	-1463.895000	553.781250	33.191528
29547.690957	-1463.895000	552.539063	36.959648
29547.690957	-1463.895000	551.296875	-45.744045
29547.690957	-1463.895000	550.054688	-132.772644
29547.690957	-1463.895000	548.811523	54.486164
29547.690957	-1463.895000	547.569336	159.572647
29547.690957	-1463.895000	546.325195	68.112877
29547.690957	-1463.895000	545.082031	-152.849411
29547.690957	-1463.895000	543.837891	-75.961266
29547.690957	-1463.895000	542.593750	48.320225
29547.690957	-1463.895000	541.349609	51.717155
29547.690957	-1463.895000	540.105469	48.604954
29547.690957	-1463.895000	538.860352	-142.125977
29547.690957	-1463.895000	537.615234	-65.512703
29547.690957	-1463.895000	536.369141	120.941559
29547.690957	-1463.895000	535.124023	1.313784
29547.690957	-1463.895000	533.877930	-6.279844
29547.690957	-1463.895000	532.631836	74.400055
29547.690957	-1463.895000	531.384766	15.041572
29547.690957	-1463.895000	530.138672	-104.603340
29547.690957	-1463.895000	528.891602	-161.815201
29547.690957	-1463.895000	527.643555	-98.530220
29547.690957	-1463.895000	526.396484	-117.058815
29547.690957	-1463.895000	525.148438	-32.366249
29547.690957	-1463.895000	523.900391	-83.228638
29547.690957	-1463.895000	522.652344	-99.699348
29547.690957	-1463.895000	521.403320	-25.914782
29547.690957	-1463.895000	520.154297	-162.811157
29547.690957	-1463.895000	518.905273	-41.836426
29547.690957	-1463.895000	517.656250	-170.140671
29547.690957	-1463.895000	516.406250	-4.177817
29547.690957	-1463.895000	515.156250	56.464569
29547.690957	-1463.895000	513.906250	3.266228
29547.690957	-1463.895000	512.655273	-71.407547
29547.690957	-1463.895000	511.404297	-13.030041
29547.690957	-1463.895000	510.153320	-53.399895
29547.690957	-1463.895000	508.902344	32.773102
29547.690957	-1463.895000	507.650391	-56.976974
29547.690957	-1463.895000	506.398438	134.157837
29547.690957	-1463.895000	505.146484	117.248917
29547.690957	-1463.895000	503.893555	241.763809
29547.690957	-1463.895000	502.641602	169.069397
29547.690957	-1463.895000	501.388672	62.097656
29547.690957	-1463.895000	500.134766	156.466675
29547.690957	-1463.895000	498.881836	-40.451733
29547.690957	-1463.895000	497.627930	98.798607
29547.690957	-1463.895000	496.374023	137.359573
29547.690957	-1463.895000	495.119141	36.773540
29547.690957	-1463.895000	493.865234	229.313705
29547.690957	-1463.895000	492.610352	111.578522
29547.690957	-1463.895000	491.355469	169.226410
29547.690957	-1463.895000	490.099609	164.809250
29547.690957	-1463.895000	488.843750	158.225677
29547.690957	-1463.895000	487.587891	91.771217
29547.690957	-1463.895000	486.332031	292.404449
29547.690957	-1463.895000	485.075195	174.611526
29547.690957	-1463.895000	483.818359	67.514633
29547.690957	-1463.895000	482.561523	227.348572
29547.690957	-1463.895000	481.304688	56.172279
29547.690957	-1463.895000	480.046875	213.731415
29547.690957	-1463.895000	478.789063	343.445892
29547.690957	-1463.895000	477.531250	315.188934
29547.690957	-1463.895000	476.272461	391.420776
29547.690957	-1463.895000	475.013672	469.714569
29547.690957	-1463.895000	473.754883	420.007782
29547.690957	-1463.895000	472.496094	346.832642
29547.690957	-1463.895000	471.236328	388.730011
29547.690957	-1463.895000	469.976563	392.211395
29547.690957	-1463.895000	468.716797	549.028442
29547.690957	-1463.895000	467.456055	565.160278
29547.690957	-1463.895000	466.196289	466.255951
29547.690957	-1463.895000	464.935547	537.653687
29547.690957	-1463.895000	463.673828	508.930023
29547.690957	-1463.895000	462.413086	454.636292
29547.690957	-1463.895000	461.151367	438.602448
29547.690957	-1463.895000	459.889648	509.730225
29547.690957	-1463.895000	458.626953	412.764404
29547.690957	-1463.895000	457.364258	602.810730
29547.690957	-1463.895000	456.101563	433.472534
29547.690957	-1463.895000	454.838867	383.156860
29547.690957	-1463.895000	453.575195	475.150909
29547.690957	-1463.895000	452.312500	384.351746
29547.690957	-1463.895000	451.047852	420.942657
29547.690957	-1463.895000	449.784180	559.371033
29547.690957	-1463.895000	448.519531	551.175720
29547.690957	-1463.895000	447.254883	699.968933
29547.690957	-1463.895000	445.990234	489.994659
29547.690957	-1463.895000	444.725586	632.203003
29547.690957	-1463.895000	443.459961	608.811523
29547.690957	-1463.895000	442.194336	498.391876
29547.690957	-1463.895000	440.927734	559.654358
29547.690957	-1463.895000	439.662109	798.851501
29547.690957	-1463.895000	438.395508	944.590576
29547.690957	-1463.895000	437.127930	920.648621
29547.690957	-1463.895000	435.861328	801.286987
29547.690957	-1463.895000	434.593750	789.867004
29547.690957	-1463.895000	433.326172	687.283997
29547.690957	-1463.895000	432.058594	580.386108
29547.690957	-1463.895000	430.790039	517.846619
29547.690957	-1463.895000	429.521484	554.655457
29547.690957	-1463.895000	428.252930	392.442505
29547.690957	-1463.895000	426.984375	464.936035
29547.690957	-1463.895000	425.714844	818.493713
29547.690957	-1463.895000	424.445313	638.960693
29547.690957	-1463.895000	423.174805	613.641357
29547.690957	-1463.895000	421.905273	571.267151
29547.690957	-1463.895000	420.634766	452.667755
29547.690957	-1463.895000	419.364258	743.743713
29547.690957	-1463.895000	418.092773	709.263794
29547.690957	-1463.895000	416.822266	697.837830
29547.690957	-1463.895000	415.550781	684.099060
29547.690957	-1463.895000	414.278320	651.157227
29547.690957	-1463.895000	413.006836	343.709167
29547.690957	-1463.895000	411.734375	582.561462
29547.690957	-1463.895000	410.461914	464.626953
29547.690957	-1463.895000	409.188477	519.413879
29547.690957	-1463.895000	407.916016	388.409637
29547.690957	-1463.895000	406.642578	569.154785
29547.690957	-1463.895000	405.368164	574.638123
29547.690957	-1463.895000	404.094727	567.211609
29547.690957	-1463.895000	402.820313	673.244934
29547.690957	-1463.895000	401.545898	854.754822
29547.690957	-1463.895000	400.270508	867.431091
29547.690957	-1463.895000	398.996094	545.093079
29547.690957	-1463.895000	397.720703	582.450439
29547.690957	-1463.895000	396.444336	758.319885
29547.690957	-1463.895000	395.168945	630.845703
29547.690957	-1463.895000	393.892578	553.536926
29547.690957	-1463.895000	392.616211	431.734070
29547.690957	-1463.895000	391.339844	572.394165
29547.690957	-1463.895000	390.062500	523.420044
29547.690957	-1463.895000	388.785156	400.510742
29547.690957	-1463.895000	387.507813	586.076294
29547.690957	-1463.895000	386.229492	552.664124
29547.690957	-1463.895000	384.951172	615.421204
29547.690957	-1463.895000	383.672852	341.756744
29547.690957	-1463.895000	382.394531	428.785370
29547.690957	-1463.895000	381.115234	678.968750
29547.690957	-1463.895000	379.835938	668.359131
29547.690957	-1463.895000	378.556641	436.968475
29547.690957	-1463.895000	377.277344	561.682617
29547.690957	-1463.895000	375.997070	408.989288
29547.690957	-1463.895000	374.716797	637.334229
29547.690957	-1463.895000	373.435547	667.957397
29547.690957	-1463.895000	372.155273	440.234619
29547.690957	-1463.895000	370.874023	310.435913
29547.690957	-1463.895000	369.591797	192.600311
29547.690957	-1463.895000	368.310547	168.406891
29547.690957	-1463.895000	367.028320	363.356720
29547.690957	-1463.895000	365.746094	421.463074
29547.690957	-1463.895000	364.463867	118.870987
29547.690957	-1463.895000	363.180664	165.058014
29547.690957	-1463.895000	361.897461	315.052094
29547.690957	-1463.895000	360.614258	211.137543
29547.690957	-1463.895000	359.330078	334.348145
29547.690957	-1463.895000	358.045898	143.101746
29547.690957	-1463.895000	356.761719	-17.565994
29547.690957	-1463.895000	355.477539	86.328362
29547.690957	-1463.895000	354.192383	212.227966
29547.690957	-1463.895000	352.907227	264.041229
29547.690957	-1463.895000	351.622070	114.409134
29547.690957	-1463.895000	350.336914	306.248444
29547.690957	-1463.895000	349.050781	340.421967
29547.690957	-1463.895000	347.764648	158.601303
29547.690957	-1463.895000	346.477539	121.811508
29547.690957	-1463.895000	345.191406	98.573318
29547.690957	-1463.895000	343.904297	78.363457
29547.690957	-1463.895000	342.616211	194.585709
29547.690957	-1463.895000	341.329102	-36.430370
29547.690957	-1463.895000	340.041016	8.589545
29547.690957	-1463.895000	338.752930	2.333980
29547.690957	-1463.895000	337.463867	53.093586
29547.690957	-1463.895000	336.175781	-151.541504
29547.690957	-1463.895000	334.886719	13.172289
29547.690957	-1463.895000	333.596680	32.744858
29547.690957	-1463.895000	332.307617	-30.246347
29547.690957	-1463.895000	331.017578	82.171188
29547.690957	-1463.895000	329.727539	26.608747
29547.690957	-1463.895000	328.436523	38.135464
29547.690957	-1463.895000	327.146484	39.811165
29547.690957	-1463.895000	325.855469	-18.384142
29547.690957	-1463.895000	324.563477	-246.621216
29547.690957	-1463.895000	323.272461	-42.064903
29547.690957	-1463.895000	321.980469	-90.786995
29547.690957	-1463.895000	320.688477	-137.111176
29547.690957	-1463.895000	319.395508	-112.601982
29547.690957	-1463.895000	318.103516	-4.786311
29547.690957	-1463.895000	316.810547	3.448201
29547.690957	-1463.895000	315.516602	-127.317978
29547.690957	-1463.895000	314.223633	38.822857
29547.690957	-1463.895000	312.929688	-299.264740
29547.690957	-1463.895000	311.635742	103.216171
29547.690957	-1463.895000	310.340820	-48.286552
29547.690957	-1463.895000	309.045898	84.167686
29547.690957	-1463.895000	307.750977	-148.426926
29547.690957	-1463.895000	306.456055	56.089813
29547.690957	-1463.895000	305.160156	-69.268829
29547.690957	-1463.895000	303.865234	157.278564
29547.690957	-1463.895000	302.568359	227.852936
29547.690957	-1463.895000	301.272461	78.528442
29547.690957	-1463.895000	299.975586	257.799469
29547.690957	-1463.895000	298.678711	388.801575
