#X		#Y		#Wave		#Intensity
29627.224468	-1441.860000	1999.980469	29.329290
29627.224468	-1441.860000	1999.016602	-207.628723
29627.224468	-1441.860000	1998.052734	1.404154
29627.224468	-1441.860000	1997.087891	-407.789551
29627.224468	-1441.860000	1996.123047	-25.066475
29627.224468	-1441.860000	1995.158203	145.892090
29627.224468	-1441.860000	1994.193359	-120.150368
29627.224468	-1441.860000	1993.228516	93.301506
29627.224468	-1441.860000	1992.262695	-6.237424
29627.224468	-1441.860000	1991.297852	-62.149902
29627.224468	-1441.860000	1990.332031	-17.475241
29627.224468	-1441.860000	1989.366211	-122.183571
29627.224468	-1441.860000	1988.399414	-96.586029
29627.224468	-1441.860000	1987.433594	326.377533
29627.224468	-1441.860000	1986.466797	53.439888
29627.224468	-1441.860000	1985.500977	22.110819
29627.224468	-1441.860000	1984.534180	-163.244492
29627.224468	-1441.860000	1983.567383	-30.433630
29627.224468	-1441.860000	1982.599609	-143.046860
29627.224468	-1441.860000	1981.632813	47.572548
29627.224468	-1441.860000	1980.665039	99.104179
29627.224468	-1441.860000	1979.697266	174.651840
29627.224468	-1441.860000	1978.729492	207.545380
29627.224468	-1441.860000	1977.761719	252.149368
29627.224468	-1441.860000	1976.792969	36.945080
29627.224468	-1441.860000	1975.825195	-75.110527
29627.224468	-1441.860000	1974.856445	-2.615772
29627.224468	-1441.860000	1973.887695	348.087219
29627.224468	-1441.860000	1972.918945	328.134308
29627.224468	-1441.860000	1971.949219	189.304764
29627.224468	-1441.860000	1970.980469	400.164459
29627.224468	-1441.860000	1970.010742	368.875336
29627.224468	-1441.860000	1969.041016	199.109619
29627.224468	-1441.860000	1968.071289	174.360657
29627.224468	-1441.860000	1967.101563	171.371353
29627.224468	-1441.860000	1966.130859	419.244080
29627.224468	-1441.860000	1965.161133	-25.473553
29627.224468	-1441.860000	1964.190430	413.646271
29627.224468	-1441.860000	1963.219727	130.846558
29627.224468	-1441.860000	1962.249023	61.962231
29627.224468	-1441.860000	1961.277344	201.963135
29627.224468	-1441.860000	1960.306641	132.430038
29627.224468	-1441.860000	1959.334961	328.316803
29627.224468	-1441.860000	1958.363281	479.555939
29627.224468	-1441.860000	1957.391602	239.422134
29627.224468	-1441.860000	1956.419922	429.406403
29627.224468	-1441.860000	1955.447266	301.922241
29627.224468	-1441.860000	1954.474609	16.925577
29627.224468	-1441.860000	1953.501953	434.642883
29627.224468	-1441.860000	1952.529297	230.347214
29627.224468	-1441.860000	1951.556641	367.377716
29627.224468	-1441.860000	1950.583984	283.100616
29627.224468	-1441.860000	1949.610352	97.973152
29627.224468	-1441.860000	1948.636719	91.960632
29627.224468	-1441.860000	1947.663086	12.133506
29627.224468	-1441.860000	1946.689453	290.499420
29627.224468	-1441.860000	1945.715820	131.821655
29627.224468	-1441.860000	1944.741211	9.850142
29627.224468	-1441.860000	1943.767578	-48.433201
29627.224468	-1441.860000	1942.792969	62.393536
29627.224468	-1441.860000	1941.818359	383.929749
29627.224468	-1441.860000	1940.842773	-101.339752
29627.224468	-1441.860000	1939.868164	97.332542
29627.224468	-1441.860000	1938.892578	381.599060
29627.224468	-1441.860000	1937.916992	124.173904
29627.224468	-1441.860000	1936.941406	62.739975
29627.224468	-1441.860000	1935.965820	-6.096272
29627.224468	-1441.860000	1934.990234	62.158108
29627.224468	-1441.860000	1934.013672	-75.348244
29627.224468	-1441.860000	1933.037109	-58.644081
29627.224468	-1441.860000	1932.060547	73.032425
29627.224468	-1441.860000	1931.083984	253.554214
29627.224468	-1441.860000	1930.107422	8.266685
29627.224468	-1441.860000	1929.129883	-185.602707
29627.224468	-1441.860000	1928.153320	173.288162
29627.224468	-1441.860000	1927.175781	64.984161
29627.224468	-1441.860000	1926.198242	-38.411770
29627.224468	-1441.860000	1925.219727	-39.131996
29627.224468	-1441.860000	1924.242188	206.967728
29627.224468	-1441.860000	1923.263672	179.302505
29627.224468	-1441.860000	1922.285156	146.759750
29627.224468	-1441.860000	1921.306641	-83.609802
29627.224468	-1441.860000	1920.328125	20.664301
29627.224468	-1441.860000	1919.349609	-180.287491
29627.224468	-1441.860000	1918.370117	341.398926
29627.224468	-1441.860000	1917.391602	-40.119823
29627.224468	-1441.860000	1916.412109	-189.669952
29627.224468	-1441.860000	1915.431641	-78.102058
29627.224468	-1441.860000	1914.452148	126.144218
29627.224468	-1441.860000	1913.472656	-103.768944
29627.224468	-1441.860000	1912.492188	171.164337
29627.224468	-1441.860000	1911.511719	-58.621571
29627.224468	-1441.860000	1910.531250	-168.855011
29627.224468	-1441.860000	1909.550781	-91.366051
29627.224468	-1441.860000	1908.569336	5.616405
29627.224468	-1441.860000	1907.588867	-340.760803
29627.224468	-1441.860000	1906.607422	-51.279854
29627.224468	-1441.860000	1905.625977	-32.171406
29627.224468	-1441.860000	1904.644531	-34.938053
29627.224468	-1441.860000	1903.662109	115.688919
29627.224468	-1441.860000	1902.680664	259.007629
29627.224468	-1441.860000	1901.698242	-113.557175
29627.224468	-1441.860000	1900.715820	56.598907
29627.224468	-1441.860000	1899.733398	251.060608
29627.224468	-1441.860000	1898.750000	-48.200539
29627.224468	-1441.860000	1897.767578	-143.047623
29627.224468	-1441.860000	1896.784180	-118.694641
29627.224468	-1441.860000	1895.800781	44.241364
29627.224468	-1441.860000	1894.817383	24.905142
29627.224468	-1441.860000	1893.833984	-84.275444
29627.224468	-1441.860000	1892.850586	-6.314032
29627.224468	-1441.860000	1891.866211	-171.217941
29627.224468	-1441.860000	1890.881836	-129.601044
29627.224468	-1441.860000	1889.897461	-100.090523
29627.224468	-1441.860000	1888.913086	-182.206238
29627.224468	-1441.860000	1887.927734	111.935005
29627.224468	-1441.860000	1886.943359	46.891788
29627.224468	-1441.860000	1885.958008	-250.987213
29627.224468	-1441.860000	1884.972656	-129.076447
29627.224468	-1441.860000	1883.987305	14.660510
29627.224468	-1441.860000	1883.001953	-71.958771
29627.224468	-1441.860000	1882.015625	62.103027
29627.224468	-1441.860000	1881.029297	-53.495808
29627.224468	-1441.860000	1880.042969	-21.183985
29627.224468	-1441.860000	1879.056641	-231.132477
29627.224468	-1441.860000	1878.070313	7.188889
29627.224468	-1441.860000	1877.083984	-74.242554
29627.224468	-1441.860000	1876.096680	-114.442329
29627.224468	-1441.860000	1875.109375	-183.643417
29627.224468	-1441.860000	1874.122070	-90.602982
29627.224468	-1441.860000	1873.134766	-367.847809
29627.224468	-1441.860000	1872.146484	-134.401291
29627.224468	-1441.860000	1871.159180	-230.025604
29627.224468	-1441.860000	1870.170898	-144.178299
29627.224468	-1441.860000	1869.182617	246.377823
29627.224468	-1441.860000	1868.194336	-35.362732
29627.224468	-1441.860000	1867.205078	-89.735970
29627.224468	-1441.860000	1866.216797	-86.053368
29627.224468	-1441.860000	1865.227539	-75.106422
29627.224468	-1441.860000	1864.238281	83.238243
29627.224468	-1441.860000	1863.249023	132.838211
29627.224468	-1441.860000	1862.259766	-85.650169
29627.224468	-1441.860000	1861.269531	227.194870
29627.224468	-1441.860000	1860.279297	-181.932999
29627.224468	-1441.860000	1859.290039	304.634430
29627.224468	-1441.860000	1858.298828	359.027405
29627.224468	-1441.860000	1857.308594	-4.022974
29627.224468	-1441.860000	1856.318359	86.608017
29627.224468	-1441.860000	1855.327148	-68.818130
29627.224468	-1441.860000	1854.335938	-57.789597
29627.224468	-1441.860000	1853.344727	71.377113
29627.224468	-1441.860000	1852.353516	106.476799
29627.224468	-1441.860000	1851.362305	134.327682
29627.224468	-1441.860000	1850.370117	106.732162
29627.224468	-1441.860000	1849.377930	216.465637
29627.224468	-1441.860000	1848.385742	109.352135
29627.224468	-1441.860000	1847.393555	247.918808
29627.224468	-1441.860000	1846.401367	396.050232
29627.224468	-1441.860000	1845.408203	-45.728664
29627.224468	-1441.860000	1844.415039	121.613358
29627.224468	-1441.860000	1843.421875	445.298737
29627.224468	-1441.860000	1842.428711	237.083054
29627.224468	-1441.860000	1841.435547	117.929024
29627.224468	-1441.860000	1840.441406	-32.480392
29627.224468	-1441.860000	1839.448242	-16.933809
29627.224468	-1441.860000	1838.454102	392.876373
29627.224468	-1441.860000	1837.459961	489.995209
29627.224468	-1441.860000	1836.464844	89.529366
29627.224468	-1441.860000	1835.470703	369.213928
29627.224468	-1441.860000	1834.475586	-72.005119
29627.224468	-1441.860000	1833.480469	97.018974
29627.224468	-1441.860000	1832.485352	347.584808
29627.224468	-1441.860000	1831.490234	67.354240
29627.224468	-1441.860000	1830.495117	255.313400
29627.224468	-1441.860000	1829.499023	111.908531
29627.224468	-1441.860000	1828.502930	71.694817
29627.224468	-1441.860000	1827.506836	-38.144352
29627.224468	-1441.860000	1826.510742	-64.040802
29627.224468	-1441.860000	1825.513672	183.424179
29627.224468	-1441.860000	1824.517578	231.705566
29627.224468	-1441.860000	1823.520508	116.863564
29627.224468	-1441.860000	1822.523438	-43.546238
29627.224468	-1441.860000	1821.526367	186.681107
29627.224468	-1441.860000	1820.529297	622.816956
29627.224468	-1441.860000	1819.531250	-48.110878
29627.224468	-1441.860000	1818.533203	59.597992
29627.224468	-1441.860000	1817.535156	320.453278
29627.224468	-1441.860000	1816.537109	241.128769
29627.224468	-1441.860000	1815.539063	118.661522
29627.224468	-1441.860000	1814.540039	-54.114330
29627.224468	-1441.860000	1813.541992	-80.933517
29627.224468	-1441.860000	1812.542969	-9.743073
29627.224468	-1441.860000	1811.543945	39.798702
29627.224468	-1441.860000	1810.543945	105.965111
29627.224468	-1441.860000	1809.544922	176.797577
29627.224468	-1441.860000	1808.544922	-182.833176
29627.224468	-1441.860000	1807.544922	169.879822
29627.224468	-1441.860000	1806.544922	-58.373825
29627.224468	-1441.860000	1805.544922	353.712708
29627.224468	-1441.860000	1804.544922	34.524426
29627.224468	-1441.860000	1803.543945	200.203232
29627.224468	-1441.860000	1802.542969	-11.595629
29627.224468	-1441.860000	1801.541992	234.989456
29627.224468	-1441.860000	1800.541016	123.300583
29627.224468	-1441.860000	1799.539063	207.241089
29627.224468	-1441.860000	1798.538086	-126.549431
29627.224468	-1441.860000	1797.536133	272.096619
29627.224468	-1441.860000	1796.534180	152.856705
29627.224468	-1441.860000	1795.532227	81.239120
29627.224468	-1441.860000	1794.529297	200.273743
29627.224468	-1441.860000	1793.527344	-31.297073
29627.224468	-1441.860000	1792.524414	46.945271
29627.224468	-1441.860000	1791.521484	489.641876
29627.224468	-1441.860000	1790.518555	21.881186
29627.224468	-1441.860000	1789.514648	352.186798
29627.224468	-1441.860000	1788.511719	179.704773
29627.224468	-1441.860000	1787.507813	19.051846
29627.224468	-1441.860000	1786.503906	110.694084
29627.224468	-1441.860000	1785.500000	47.442783
29627.224468	-1441.860000	1784.496094	157.812393
29627.224468	-1441.860000	1783.491211	153.780975
29627.224468	-1441.860000	1782.486328	377.994904
29627.224468	-1441.860000	1781.481445	211.904297
29627.224468	-1441.860000	1780.476563	-187.320038
29627.224468	-1441.860000	1779.471680	119.629471
29627.224468	-1441.860000	1778.465820	34.070259
29627.224468	-1441.860000	1777.460938	171.825378
29627.224468	-1441.860000	1776.455078	252.341125
29627.224468	-1441.860000	1775.449219	-104.475212
29627.224468	-1441.860000	1774.442383	194.294922
29627.224468	-1441.860000	1773.436523	100.948486
29627.224468	-1441.860000	1772.429688	-2.018432
29627.224468	-1441.860000	1771.422852	165.544327
29627.224468	-1441.860000	1770.416016	154.874344
29627.224468	-1441.860000	1769.409180	-43.421635
29627.224468	-1441.860000	1768.402344	147.327606
29627.224468	-1441.860000	1767.394531	-63.069496
29627.224468	-1441.860000	1766.386719	34.793961
29627.224468	-1441.860000	1765.378906	108.751411
29627.224468	-1441.860000	1764.371094	-83.012100
29627.224468	-1441.860000	1763.362305	90.176659
29627.224468	-1441.860000	1762.354492	-30.721716
29627.224468	-1441.860000	1761.345703	134.969711
29627.224468	-1441.860000	1760.336914	-52.550068
29627.224468	-1441.860000	1759.328125	-12.767738
29627.224468	-1441.860000	1758.318359	26.829229
29627.224468	-1441.860000	1757.308594	236.729401
29627.224468	-1441.860000	1756.299805	27.394646
29627.224468	-1441.860000	1755.290039	232.164398
29627.224468	-1441.860000	1754.279297	-36.592789
29627.224468	-1441.860000	1753.269531	9.274116
29627.224468	-1441.860000	1752.258789	85.703400
29627.224468	-1441.860000	1751.249023	462.315521
29627.224468	-1441.860000	1750.238281	-74.115852
29627.224468	-1441.860000	1749.226563	-17.122368
29627.224468	-1441.860000	1748.215820	120.069740
29627.224468	-1441.860000	1747.204102	75.067375
29627.224468	-1441.860000	1746.193359	119.721153
29627.224468	-1441.860000	1745.181641	192.531967
29627.224468	-1441.860000	1744.168945	0.608941
29627.224468	-1441.860000	1743.157227	-139.434616
29627.224468	-1441.860000	1742.144531	-8.084895
29627.224468	-1441.860000	1741.132813	-127.147858
29627.224468	-1441.860000	1740.120117	-62.252804
29627.224468	-1441.860000	1739.106445	-65.987724
29627.224468	-1441.860000	1738.093750	10.348282
29627.224468	-1441.860000	1737.080078	284.613403
29627.224468	-1441.860000	1736.067383	75.184959
29627.224468	-1441.860000	1735.053711	-278.163361
29627.224468	-1441.860000	1734.040039	-124.700516
29627.224468	-1441.860000	1733.025391	-277.869965
29627.224468	-1441.860000	1732.011719	-4.597803
29627.224468	-1441.860000	1730.997070	-11.970710
29627.224468	-1441.860000	1729.982422	-363.409332
29627.224468	-1441.860000	1728.967773	111.778435
29627.224468	-1441.860000	1727.952148	-140.982285
29627.224468	-1441.860000	1726.937500	-118.336700
29627.224468	-1441.860000	1725.921875	193.642868
29627.224468	-1441.860000	1724.906250	11.151877
29627.224468	-1441.860000	1723.890625	-133.773697
29627.224468	-1441.860000	1722.875000	5.847478
29627.224468	-1441.860000	1721.858398	44.111767
29627.224468	-1441.860000	1720.841797	-33.013191
29627.224468	-1441.860000	1719.825195	-16.213963
29627.224468	-1441.860000	1718.808594	82.701828
29627.224468	-1441.860000	1717.791992	-112.339035
29627.224468	-1441.860000	1716.774414	-131.238754
29627.224468	-1441.860000	1715.756836	96.394958
29627.224468	-1441.860000	1714.739258	-19.130167
29627.224468	-1441.860000	1713.721680	-268.611847
29627.224468	-1441.860000	1712.704102	-128.384918
29627.224468	-1441.860000	1711.685547	-133.914536
29627.224468	-1441.860000	1710.667969	-24.559900
29627.224468	-1441.860000	1709.649414	-53.852245
29627.224468	-1441.860000	1708.630859	-43.386475
29627.224468	-1441.860000	1707.611328	-237.155502
29627.224468	-1441.860000	1706.592773	-290.253754
29627.224468	-1441.860000	1705.573242	-116.041473
29627.224468	-1441.860000	1704.553711	-131.919586
29627.224468	-1441.860000	1703.534180	-40.105480
29627.224468	-1441.860000	1702.513672	196.815674
29627.224468	-1441.860000	1701.494141	-156.893784
29627.224468	-1441.860000	1700.473633	227.281830
29627.224468	-1441.860000	1699.453125	-46.940521
29627.224468	-1441.860000	1698.432617	-133.854279
29627.224468	-1441.860000	1697.412109	1.555753
29627.224468	-1441.860000	1696.390625	-207.317612
29627.224468	-1441.860000	1695.369141	-25.403357
29627.224468	-1441.860000	1694.347656	81.446579
29627.224468	-1441.860000	1693.326172	96.901779
29627.224468	-1441.860000	1692.304688	-175.454102
29627.224468	-1441.860000	1691.282227	-361.316528
29627.224468	-1441.860000	1690.260742	147.194672
29627.224468	-1441.860000	1689.238281	131.761093
29627.224468	-1441.860000	1688.214844	249.417343
29627.224468	-1441.860000	1687.192383	189.354813
29627.224468	-1441.860000	1686.168945	49.754574
29627.224468	-1441.860000	1685.146484	75.966599
29627.224468	-1441.860000	1684.123047	-61.429935
29627.224468	-1441.860000	1683.099609	102.324928
29627.224468	-1441.860000	1682.075195	100.150307
29627.224468	-1441.860000	1681.051758	310.293457
29627.224468	-1441.860000	1680.027344	163.205978
29627.224468	-1441.860000	1679.002930	429.038879
29627.224468	-1441.860000	1677.978516	358.776459
29627.224468	-1441.860000	1676.953125	307.085632
29627.224468	-1441.860000	1675.928711	502.511322
29627.224468	-1441.860000	1674.903320	282.783813
29627.224468	-1441.860000	1673.877930	247.193222
29627.224468	-1441.860000	1672.852539	563.421204
29627.224468	-1441.860000	1671.826172	275.970337
29627.224468	-1441.860000	1670.800781	391.575775
29627.224468	-1441.860000	1669.774414	572.248474
29627.224468	-1441.860000	1668.748047	415.132416
29627.224468	-1441.860000	1667.721680	476.846924
29627.224468	-1441.860000	1666.694336	349.902069
29627.224468	-1441.860000	1665.667969	430.084534
29627.224468	-1441.860000	1664.640625	486.877350
29627.224468	-1441.860000	1663.613281	718.057739
29627.224468	-1441.860000	1662.585938	386.221588
29627.224468	-1441.860000	1661.557617	528.820190
29627.224468	-1441.860000	1660.530273	403.953400
29627.224468	-1441.860000	1659.501953	548.701355
29627.224468	-1441.860000	1658.473633	835.109192
29627.224468	-1441.860000	1657.444336	986.557800
29627.224468	-1441.860000	1656.416016	875.401306
29627.224468	-1441.860000	1655.386719	1133.532104
29627.224468	-1441.860000	1654.358398	848.124695
29627.224468	-1441.860000	1653.328125	936.551575
29627.224468	-1441.860000	1652.298828	841.536438
29627.224468	-1441.860000	1651.269531	1020.391907
29627.224468	-1441.860000	1650.239258	1078.451660
29627.224468	-1441.860000	1649.208984	1449.659912
29627.224468	-1441.860000	1648.178711	1015.788269
29627.224468	-1441.860000	1647.148438	1243.014893
29627.224468	-1441.860000	1646.117188	1282.284790
29627.224468	-1441.860000	1645.086914	1087.394165
29627.224468	-1441.860000	1644.055664	1715.352173
29627.224468	-1441.860000	1643.024414	1652.474121
29627.224468	-1441.860000	1641.992188	1728.589844
29627.224468	-1441.860000	1640.960938	1756.038452
29627.224468	-1441.860000	1639.928711	1808.913208
29627.224468	-1441.860000	1638.896484	1697.349609
29627.224468	-1441.860000	1637.864258	1815.016113
29627.224468	-1441.860000	1636.832031	1573.854248
29627.224468	-1441.860000	1635.798828	2006.196167
29627.224468	-1441.860000	1634.766602	2065.873047
29627.224468	-1441.860000	1633.733398	1891.856934
29627.224468	-1441.860000	1632.699219	2356.236328
29627.224468	-1441.860000	1631.666016	1997.242798
29627.224468	-1441.860000	1630.632813	2112.346924
29627.224468	-1441.860000	1629.598633	2051.716797
29627.224468	-1441.860000	1628.564453	2409.425293
29627.224468	-1441.860000	1627.530273	2515.148926
29627.224468	-1441.860000	1626.495117	2611.582520
29627.224468	-1441.860000	1625.460938	2980.567139
29627.224468	-1441.860000	1624.425781	2688.950195
29627.224468	-1441.860000	1623.390625	3353.324463
29627.224468	-1441.860000	1622.355469	3544.248535
29627.224468	-1441.860000	1621.319336	3601.240234
29627.224468	-1441.860000	1620.284180	3960.542480
29627.224468	-1441.860000	1619.248047	3925.209961
29627.224468	-1441.860000	1618.211914	4049.079590
29627.224468	-1441.860000	1617.174805	3953.830811
29627.224468	-1441.860000	1616.138672	3817.178955
29627.224468	-1441.860000	1615.101563	3650.628662
29627.224468	-1441.860000	1614.065430	3832.232666
29627.224468	-1441.860000	1613.027344	3760.286377
29627.224468	-1441.860000	1611.990234	3642.362549
29627.224468	-1441.860000	1610.953125	3471.556641
29627.224468	-1441.860000	1609.915039	3533.446289
29627.224468	-1441.860000	1608.876953	3335.181152
29627.224468	-1441.860000	1607.838867	3408.695801
29627.224468	-1441.860000	1606.800781	3316.523193
29627.224468	-1441.860000	1605.761719	3148.485107
29627.224468	-1441.860000	1604.723633	3100.238281
29627.224468	-1441.860000	1603.684570	2987.645996
29627.224468	-1441.860000	1602.644531	3017.734375
29627.224468	-1441.860000	1601.605469	3036.405762
29627.224468	-1441.860000	1600.566406	2889.618408
29627.224468	-1441.860000	1599.526367	3161.270264
29627.224468	-1441.860000	1598.486328	3129.550293
29627.224468	-1441.860000	1597.446289	3084.134033
29627.224468	-1441.860000	1596.405273	3047.986328
29627.224468	-1441.860000	1595.365234	3230.147461
29627.224468	-1441.860000	1594.324219	3079.341553
29627.224468	-1441.860000	1593.283203	3211.068848
29627.224468	-1441.860000	1592.242188	3127.072021
29627.224468	-1441.860000	1591.200195	3364.466553
29627.224468	-1441.860000	1590.159180	3071.863770
29627.224468	-1441.860000	1589.117188	3116.672363
29627.224468	-1441.860000	1588.075195	3131.745850
29627.224468	-1441.860000	1587.032227	3000.133789
29627.224468	-1441.860000	1585.990234	3233.235596
29627.224468	-1441.860000	1584.947266	3069.773438
29627.224468	-1441.860000	1583.904297	2711.684326
29627.224468	-1441.860000	1582.861328	3073.321777
29627.224468	-1441.860000	1581.818359	3004.244629
29627.224468	-1441.860000	1580.775391	2708.556152
29627.224468	-1441.860000	1579.731445	2614.599854
29627.224468	-1441.860000	1578.687500	3198.501221
29627.224468	-1441.860000	1577.643555	2710.999023
29627.224468	-1441.860000	1576.598633	2983.622070
29627.224468	-1441.860000	1575.554688	2684.232178
29627.224468	-1441.860000	1574.509766	2943.278564
29627.224468	-1441.860000	1573.464844	2344.616455
29627.224468	-1441.860000	1572.419922	2247.138672
29627.224468	-1441.860000	1571.374023	2065.216553
29627.224468	-1441.860000	1570.329102	2226.412109
29627.224468	-1441.860000	1569.283203	1953.415039
29627.224468	-1441.860000	1568.237305	1730.938232
29627.224468	-1441.860000	1567.191406	2011.301636
29627.224468	-1441.860000	1566.144531	1905.656616
29627.224468	-1441.860000	1565.098633	1797.931030
29627.224468	-1441.860000	1564.051758	1736.042480
29627.224468	-1441.860000	1563.004883	1612.691162
29627.224468	-1441.860000	1561.957031	1936.862671
29627.224468	-1441.860000	1560.910156	1722.546265
29627.224468	-1441.860000	1559.862305	1570.047485
29627.224468	-1441.860000	1558.814453	1684.645752
29627.224468	-1441.860000	1557.766602	1924.788208
29627.224468	-1441.860000	1556.718750	2224.279297
29627.224468	-1441.860000	1555.669922	2184.122803
29627.224468	-1441.860000	1554.621094	1991.437622
29627.224468	-1441.860000	1553.573242	2138.548584
29627.224468	-1441.860000	1552.523438	2010.055786
29627.224468	-1441.860000	1551.474609	2111.866211
29627.224468	-1441.860000	1550.424805	1917.721802
29627.224468	-1441.860000	1549.375000	1489.295166
29627.224468	-1441.860000	1548.325195	1593.919800
29627.224468	-1441.860000	1547.275391	1539.353027
29627.224468	-1441.860000	1546.225586	1309.760376
29627.224468	-1441.860000	1545.174805	1385.293945
29627.224468	-1441.860000	1544.124023	1128.867432
29627.224468	-1441.860000	1543.073242	1414.003662
29627.224468	-1441.860000	1542.022461	1137.569458
29627.224468	-1441.860000	1540.970703	1256.986816
29627.224468	-1441.860000	1539.919922	1076.526978
29627.224468	-1441.860000	1538.868164	957.667969
29627.224468	-1441.860000	1537.815430	1179.839355
29627.224468	-1441.860000	1536.763672	886.473267
29627.224468	-1441.860000	1535.710938	1024.919800
29627.224468	-1441.860000	1534.659180	850.159302
29627.224468	-1441.860000	1533.606445	816.405640
29627.224468	-1441.860000	1532.552734	953.084473
29627.224468	-1441.860000	1531.500000	1005.954224
29627.224468	-1441.860000	1530.446289	913.774841
29627.224468	-1441.860000	1529.393555	794.624207
29627.224468	-1441.860000	1528.338867	653.016174
29627.224468	-1441.860000	1527.285156	384.695068
29627.224468	-1441.860000	1526.231445	334.326935
29627.224468	-1441.860000	1525.176758	254.705658
29627.224468	-1441.860000	1524.122070	417.807495
29627.224468	-1441.860000	1523.067383	177.742828
29627.224468	-1441.860000	1522.012695	171.311493
29627.224468	-1441.860000	1520.957031	253.411575
29627.224468	-1441.860000	1519.901367	93.395393
29627.224468	-1441.860000	1518.845703	60.437695
29627.224468	-1441.860000	1517.790039	-89.997704
29627.224468	-1441.860000	1516.734375	312.035400
29627.224468	-1441.860000	1515.677734	5.902826
29627.224468	-1441.860000	1514.621094	-132.487625
29627.224468	-1441.860000	1513.564453	5.327777
29627.224468	-1441.860000	1512.507813	154.613510
29627.224468	-1441.860000	1511.450195	150.312286
29627.224468	-1441.860000	1510.393555	162.062683
29627.224468	-1441.860000	1509.335938	142.382370
29627.224468	-1441.860000	1508.278320	100.334000
29627.224468	-1441.860000	1507.219727	178.249741
29627.224468	-1441.860000	1506.162109	166.020294
29627.224468	-1441.860000	1505.103516	-157.616348
29627.224468	-1441.860000	1504.044922	-22.580847
29627.224468	-1441.860000	1502.986328	-304.968292
29627.224468	-1441.860000	1501.926758	13.290708
29627.224468	-1441.860000	1500.868164	157.918655
29627.224468	-1441.860000	1499.808594	41.018814
29627.224468	-1441.860000	1498.749023	-41.770100
29627.224468	-1441.860000	1497.688477	24.526400
29627.224468	-1441.860000	1496.628906	-226.861267
29627.224468	-1441.860000	1495.568359	-200.666077
29627.224468	-1441.860000	1494.507813	-86.357681
29627.224468	-1441.860000	1493.447266	50.671726
29627.224468	-1441.860000	1492.386719	-39.653641
29627.224468	-1441.860000	1491.325195	-57.639366
29627.224468	-1441.860000	1490.263672	-278.056854
29627.224468	-1441.860000	1489.202148	-297.773010
29627.224468	-1441.860000	1488.140625	-355.512115
29627.224468	-1441.860000	1487.079102	-246.453598
29627.224468	-1441.860000	1486.016602	-101.204803
29627.224468	-1441.860000	1484.954102	-227.987564
29627.224468	-1441.860000	1483.891602	158.338943
29627.224468	-1441.860000	1482.829102	205.183090
29627.224468	-1441.860000	1481.765625	79.123901
29627.224468	-1441.860000	1480.702148	-69.114174
29627.224468	-1441.860000	1479.638672	194.222870
29627.224468	-1441.860000	1478.575195	37.527706
29627.224468	-1441.860000	1477.511719	4.632431
29627.224468	-1441.860000	1476.447266	284.158051
29627.224468	-1441.860000	1475.382813	-129.799118
29627.224468	-1441.860000	1474.318359	-87.868011
29627.224468	-1441.860000	1473.253906	-186.976395
29627.224468	-1441.860000	1472.189453	-3.182880
29627.224468	-1441.860000	1471.124023	-207.217041
29627.224468	-1441.860000	1470.058594	8.438087
29627.224468	-1441.860000	1468.993164	186.046051
29627.224468	-1441.860000	1467.927734	249.540298
29627.224468	-1441.860000	1466.861328	-27.108685
29627.224468	-1441.860000	1465.794922	303.251770
29627.224468	-1441.860000	1464.728516	91.744553
29627.224468	-1441.860000	1463.662109	55.324471
29627.224468	-1441.860000	1462.594727	-22.988358
29627.224468	-1441.860000	1461.528320	132.837601
29627.224468	-1441.860000	1460.460938	329.604706
29627.224468	-1441.860000	1459.393555	157.678986
29627.224468	-1441.860000	1458.326172	309.987885
29627.224468	-1441.860000	1457.257813	107.273163
29627.224468	-1441.860000	1456.189453	42.017380
29627.224468	-1441.860000	1455.121094	175.229904
29627.224468	-1441.860000	1454.052734	80.254066
29627.224468	-1441.860000	1452.984375	242.567947
29627.224468	-1441.860000	1451.915039	484.832306
29627.224468	-1441.860000	1450.845703	424.071442
29627.224468	-1441.860000	1449.776367	515.318054
29627.224468	-1441.860000	1448.707031	337.112701
29627.224468	-1441.860000	1447.636719	385.025024
29627.224468	-1441.860000	1446.567383	531.334106
29627.224468	-1441.860000	1445.497070	413.422333
29627.224468	-1441.860000	1444.425781	358.170593
29627.224468	-1441.860000	1443.355469	680.389771
29627.224468	-1441.860000	1442.285156	646.679199
29627.224468	-1441.860000	1441.213867	561.635254
29627.224468	-1441.860000	1440.142578	657.561096
29627.224468	-1441.860000	1439.070313	961.867859
29627.224468	-1441.860000	1437.999023	699.467651
29627.224468	-1441.860000	1436.926758	663.275452
29627.224468	-1441.860000	1435.854492	798.585693
29627.224468	-1441.860000	1434.782227	852.671082
29627.224468	-1441.860000	1433.709961	651.456604
29627.224468	-1441.860000	1432.636719	1068.231445
29627.224468	-1441.860000	1431.563477	776.554810
29627.224468	-1441.860000	1430.490234	807.828125
29627.224468	-1441.860000	1429.416992	856.870972
29627.224468	-1441.860000	1428.343750	723.647156
29627.224468	-1441.860000	1427.269531	355.556305
29627.224468	-1441.860000	1426.195313	659.336121
29627.224468	-1441.860000	1425.121094	435.862610
29627.224468	-1441.860000	1424.046875	443.476654
29627.224468	-1441.860000	1422.971680	318.101929
29627.224468	-1441.860000	1421.896484	255.303436
29627.224468	-1441.860000	1420.821289	313.777374
29627.224468	-1441.860000	1419.746094	126.651688
29627.224468	-1441.860000	1418.669922	158.132034
29627.224468	-1441.860000	1417.594727	241.522842
29627.224468	-1441.860000	1416.518555	159.207428
29627.224468	-1441.860000	1415.442383	259.208405
29627.224468	-1441.860000	1414.365234	63.374786
29627.224468	-1441.860000	1413.289063	510.220276
29627.224468	-1441.860000	1412.211914	359.473450
29627.224468	-1441.860000	1411.134766	326.314270
29627.224468	-1441.860000	1410.057617	284.483795
29627.224468	-1441.860000	1408.979492	-54.461132
29627.224468	-1441.860000	1407.902344	212.256897
29627.224468	-1441.860000	1406.824219	490.002991
29627.224468	-1441.860000	1405.746094	304.438568
29627.224468	-1441.860000	1404.666992	450.574310
29627.224468	-1441.860000	1403.588867	697.637207
29627.224468	-1441.860000	1402.509766	397.284790
29627.224468	-1441.860000	1401.430664	548.806641
29627.224468	-1441.860000	1400.351563	837.691650
29627.224468	-1441.860000	1399.271484	706.214966
29627.224468	-1441.860000	1398.192383	530.717041
29627.224468	-1441.860000	1397.112305	916.829773
29627.224468	-1441.860000	1396.031250	881.358948
29627.224468	-1441.860000	1394.951172	798.421143
29627.224468	-1441.860000	1393.871094	725.026306
29627.224468	-1441.860000	1392.790039	812.606812
29627.224468	-1441.860000	1391.708984	603.592957
29627.224468	-1441.860000	1390.626953	837.148071
29627.224468	-1441.860000	1389.545898	998.388794
29627.224468	-1441.860000	1388.463867	711.088501
29627.224468	-1441.860000	1387.381836	840.729431
29627.224468	-1441.860000	1386.299805	1000.993835
29627.224468	-1441.860000	1385.217773	855.444641
29627.224468	-1441.860000	1384.134766	1046.947144
29627.224468	-1441.860000	1383.051758	1014.492676
29627.224468	-1441.860000	1381.968750	1313.081787
29627.224468	-1441.860000	1380.885742	1123.515625
29627.224468	-1441.860000	1379.802734	1223.755615
29627.224468	-1441.860000	1378.718750	1306.677490
29627.224468	-1441.860000	1377.634766	1071.670288
29627.224468	-1441.860000	1376.550781	977.119080
29627.224468	-1441.860000	1375.465820	988.823975
29627.224468	-1441.860000	1374.381836	1011.180359
29627.224468	-1441.860000	1373.296875	889.235229
29627.224468	-1441.860000	1372.211914	1001.806458
29627.224468	-1441.860000	1371.126953	1185.322266
29627.224468	-1441.860000	1370.041016	1192.594971
29627.224468	-1441.860000	1368.955078	1326.217285
29627.224468	-1441.860000	1367.869141	1264.760132
29627.224468	-1441.860000	1366.783203	1428.946167
29627.224468	-1441.860000	1365.697266	1029.891113
29627.224468	-1441.860000	1364.610352	739.181396
29627.224468	-1441.860000	1363.523438	894.077087
29627.224468	-1441.860000	1362.436523	843.166382
29627.224468	-1441.860000	1361.349609	566.189697
29627.224468	-1441.860000	1360.261719	698.622864
29627.224468	-1441.860000	1359.174805	802.359009
29627.224468	-1441.860000	1358.086914	635.829956
29627.224468	-1441.860000	1356.998047	439.796021
29627.224468	-1441.860000	1355.910156	500.581360
29627.224468	-1441.860000	1354.821289	510.831299
29627.224468	-1441.860000	1353.732422	711.693359
29627.224468	-1441.860000	1352.643555	583.542664
29627.224468	-1441.860000	1351.554688	565.500549
29627.224468	-1441.860000	1350.464844	751.119995
29627.224468	-1441.860000	1349.375000	515.211975
29627.224468	-1441.860000	1348.285156	764.034424
29627.224468	-1441.860000	1347.195313	719.267334
29627.224468	-1441.860000	1346.105469	919.932312
29627.224468	-1441.860000	1345.014648	827.299683
29627.224468	-1441.860000	1343.923828	977.644653
29627.224468	-1441.860000	1342.833008	1030.652954
29627.224468	-1441.860000	1341.741211	967.997437
29627.224468	-1441.860000	1340.650391	923.280273
29627.224468	-1441.860000	1339.558594	792.536560
29627.224468	-1441.860000	1338.466797	957.919983
29627.224468	-1441.860000	1337.374023	622.814758
29627.224468	-1441.860000	1336.282227	509.796753
29627.224468	-1441.860000	1335.189453	595.774902
29627.224468	-1441.860000	1334.096680	584.236511
29627.224468	-1441.860000	1333.003906	798.794983
29627.224468	-1441.860000	1331.910156	616.403259
29627.224468	-1441.860000	1330.817383	183.550446
29627.224468	-1441.860000	1329.723633	360.337830
29627.224468	-1441.860000	1328.629883	475.640808
29627.224468	-1441.860000	1327.535156	325.537720
29627.224468	-1441.860000	1326.441406	193.114578
29627.224468	-1441.860000	1325.346680	630.996765
29627.224468	-1441.860000	1324.251953	748.092590
29627.224468	-1441.860000	1323.156250	330.640839
29627.224468	-1441.860000	1322.061523	734.463196
29627.224468	-1441.860000	1320.965820	376.718872
29627.224468	-1441.860000	1319.870117	748.575623
29627.224468	-1441.860000	1318.774414	318.185913
29627.224468	-1441.860000	1317.678711	684.229553
29627.224468	-1441.860000	1316.582031	512.873596
29627.224468	-1441.860000	1315.485352	557.084290
29627.224468	-1441.860000	1314.388672	534.453491
29627.224468	-1441.860000	1313.291016	655.011780
29627.224468	-1441.860000	1312.194336	427.866669
29627.224468	-1441.860000	1311.096680	522.289917
29627.224468	-1441.860000	1309.999023	400.917419
29627.224468	-1441.860000	1308.901367	305.645813
29627.224468	-1441.860000	1307.802734	557.378906
29627.224468	-1441.860000	1306.705078	675.311523
29627.224468	-1441.860000	1305.606445	600.309875
29627.224468	-1441.860000	1304.506836	831.614502
29627.224468	-1441.860000	1303.408203	672.388611
29627.224468	-1441.860000	1302.308594	609.192139
29627.224468	-1441.860000	1301.208984	538.666321
29627.224468	-1441.860000	1300.109375	848.239075
29627.224468	-1441.860000	1299.009766	1114.945679
29627.224468	-1441.860000	1297.909180	1071.346802
29627.224468	-1441.860000	1296.808594	1343.458496
29627.224468	-1441.860000	1295.708008	1325.206665
29627.224468	-1441.860000	1294.607422	1263.503784
29627.224468	-1441.860000	1293.506836	1145.703369
29627.224468	-1441.860000	1292.405273	824.887878
29627.224468	-1441.860000	1291.303711	1065.938354
29627.224468	-1441.860000	1290.202148	755.140198
29627.224468	-1441.860000	1289.099609	667.206604
29627.224468	-1441.860000	1287.998047	466.858429
29627.224468	-1441.860000	1286.895508	793.166382
29627.224468	-1441.860000	1285.792969	701.413818
29627.224468	-1441.860000	1284.689453	508.165649
29627.224468	-1441.860000	1283.586914	414.613220
29627.224468	-1441.860000	1282.483398	688.243530
29627.224468	-1441.860000	1281.379883	688.492126
29627.224468	-1441.860000	1280.276367	509.957062
29627.224468	-1441.860000	1279.171875	570.324402
29627.224468	-1441.860000	1278.067383	401.746521
29627.224468	-1441.860000	1276.962891	173.755005
29627.224468	-1441.860000	1275.858398	397.996643
29627.224468	-1441.860000	1274.753906	176.573364
29627.224468	-1441.860000	1273.648438	206.786514
29627.224468	-1441.860000	1272.542969	93.003372
29627.224468	-1441.860000	1271.437500	231.997711
29627.224468	-1441.860000	1270.331055	80.649094
29627.224468	-1441.860000	1269.225586	89.593994
29627.224468	-1441.860000	1268.119141	8.456455
29627.224468	-1441.860000	1267.012695	58.724819
29627.224468	-1441.860000	1265.906250	-379.877869
29627.224468	-1441.860000	1264.798828	19.459642
29627.224468	-1441.860000	1263.691406	89.997208
29627.224468	-1441.860000	1262.583984	-194.745209
29627.224468	-1441.860000	1261.476563	-86.189087
29627.224468	-1441.860000	1260.368164	-7.775101
29627.224468	-1441.860000	1259.260742	38.990768
29627.224468	-1441.860000	1258.152344	185.820450
29627.224468	-1441.860000	1257.043945	163.964142
29627.224468	-1441.860000	1255.934570	141.063171
29627.224468	-1441.860000	1254.825195	361.328674
29627.224468	-1441.860000	1253.716797	34.091076
29627.224468	-1441.860000	1252.606445	114.872910
29627.224468	-1441.860000	1251.497070	98.166313
29627.224468	-1441.860000	1250.387695	53.054031
29627.224468	-1441.860000	1249.277344	-22.271872
29627.224468	-1441.860000	1248.166992	58.585476
29627.224468	-1441.860000	1247.055664	-28.351812
29627.224468	-1441.860000	1245.945313	202.037766
29627.224468	-1441.860000	1244.833984	201.297882
29627.224468	-1441.860000	1243.722656	60.263023
29627.224468	-1441.860000	1242.611328	101.170135
29627.224468	-1441.860000	1241.499023	-110.267349
29627.224468	-1441.860000	1240.387695	58.093895
29627.224468	-1441.860000	1239.275391	-143.269119
29627.224468	-1441.860000	1238.162109	-71.656609
29627.224468	-1441.860000	1237.049805	-229.700409
29627.224468	-1441.860000	1235.936523	-47.187351
29627.224468	-1441.860000	1234.823242	-107.608749
29627.224468	-1441.860000	1233.709961	-142.446335
29627.224468	-1441.860000	1232.596680	-249.677902
29627.224468	-1441.860000	1231.482422	-50.810947
29627.224468	-1441.860000	1230.369141	-172.638885
29627.224468	-1441.860000	1229.253906	-108.349792
29627.224468	-1441.860000	1228.139648	162.324036
29627.224468	-1441.860000	1227.025391	50.152481
29627.224468	-1441.860000	1225.910156	-53.264687
29627.224468	-1441.860000	1224.794922	-48.512074
29627.224468	-1441.860000	1223.679688	-115.706055
29627.224468	-1441.860000	1222.563477	-298.721558
29627.224468	-1441.860000	1221.447266	-320.492615
29627.224468	-1441.860000	1220.331055	-319.311371
29627.224468	-1441.860000	1219.214844	-382.497253
29627.224468	-1441.860000	1218.098633	-89.295464
29627.224468	-1441.860000	1216.981445	-443.696381
29627.224468	-1441.860000	1215.864258	-98.819260
29627.224468	-1441.860000	1214.747070	-52.544044
29627.224468	-1441.860000	1213.629883	-106.772141
29627.224468	-1441.860000	1212.511719	-51.068302
29627.224468	-1441.860000	1211.393555	-148.072998
29627.224468	-1441.860000	1210.275391	-57.990356
29627.224468	-1441.860000	1209.157227	-204.510773
29627.224468	-1441.860000	1208.038086	-274.025330
29627.224468	-1441.860000	1206.918945	-2.615683
29627.224468	-1441.860000	1205.799805	-144.571777
29627.224468	-1441.860000	1204.680664	-183.140610
29627.224468	-1441.860000	1203.560547	195.768921
29627.224468	-1441.860000	1202.441406	100.069511
29627.224468	-1441.860000	1201.321289	50.330994
29627.224468	-1441.860000	1200.200195	-230.393005
29627.224468	-1441.860000	1199.080078	-135.035065
29627.224468	-1441.860000	1197.958984	-143.506180
29627.224468	-1441.860000	1196.837891	42.450615
29627.224468	-1441.860000	1195.716797	197.299393
29627.224468	-1441.860000	1194.594727	41.527325
29627.224468	-1441.860000	1193.473633	288.472107
29627.224468	-1441.860000	1192.351563	201.550278
29627.224468	-1441.860000	1191.229492	-7.371423
29627.224468	-1441.860000	1190.106445	26.494761
29627.224468	-1441.860000	1188.984375	53.672691
29627.224468	-1441.860000	1187.861328	232.088135
29627.224468	-1441.860000	1186.738281	413.098450
29627.224468	-1441.860000	1185.614258	522.496948
29627.224468	-1441.860000	1184.491211	515.806274
29627.224468	-1441.860000	1183.367188	477.555115
29627.224468	-1441.860000	1182.243164	671.620728
29627.224468	-1441.860000	1181.119141	626.143127
29627.224468	-1441.860000	1179.994141	845.983704
29627.224468	-1441.860000	1178.869141	692.199707
29627.224468	-1441.860000	1177.744141	562.511230
29627.224468	-1441.860000	1176.619141	679.452942
29627.224468	-1441.860000	1175.493164	426.278473
29627.224468	-1441.860000	1174.368164	333.992462
29627.224468	-1441.860000	1173.242188	288.202423
29627.224468	-1441.860000	1172.115234	304.327606
29627.224468	-1441.860000	1170.989258	183.982376
29627.224468	-1441.860000	1169.862305	351.844238
29627.224468	-1441.860000	1168.735352	272.920410
29627.224468	-1441.860000	1167.608398	342.694824
29627.224468	-1441.860000	1166.481445	260.979584
29627.224468	-1441.860000	1165.353516	-127.116692
29627.224468	-1441.860000	1164.225586	-19.330532
29627.224468	-1441.860000	1163.097656	-96.767769
29627.224468	-1441.860000	1161.968750	143.138977
29627.224468	-1441.860000	1160.840820	226.824112
29627.224468	-1441.860000	1159.711914	188.424667
29627.224468	-1441.860000	1158.583008	193.974136
29627.224468	-1441.860000	1157.453125	259.416595
29627.224468	-1441.860000	1156.324219	322.245728
29627.224468	-1441.860000	1155.194336	267.078461
29627.224468	-1441.860000	1154.064453	113.610794
29627.224468	-1441.860000	1152.933594	182.786469
29627.224468	-1441.860000	1151.803711	304.500366
29627.224468	-1441.860000	1150.672852	182.202728
29627.224468	-1441.860000	1149.541992	436.875092
29627.224468	-1441.860000	1148.411133	434.327820
29627.224468	-1441.860000	1147.279297	328.533600
29627.224468	-1441.860000	1146.147461	343.204834
29627.224468	-1441.860000	1145.015625	420.925293
29627.224468	-1441.860000	1143.883789	412.278839
29627.224468	-1441.860000	1142.750977	620.517212
29627.224468	-1441.860000	1141.619141	504.542755
29627.224468	-1441.860000	1140.486328	511.487915
29627.224468	-1441.860000	1139.352539	545.182373
29627.224468	-1441.860000	1138.219727	470.648285
29627.224468	-1441.860000	1137.085938	402.621033
29627.224468	-1441.860000	1135.952148	572.800171
29627.224468	-1441.860000	1134.818359	473.119293
29627.224468	-1441.860000	1133.683594	521.663452
29627.224468	-1441.860000	1132.549805	680.959656
29627.224468	-1441.860000	1131.415039	913.844055
29627.224468	-1441.860000	1130.279297	1045.998047
29627.224468	-1441.860000	1129.144531	1385.644409
29627.224468	-1441.860000	1128.008789	1244.626709
29627.224468	-1441.860000	1126.873047	1249.598389
29627.224468	-1441.860000	1125.737305	1102.524414
29627.224468	-1441.860000	1124.601563	902.975098
29627.224468	-1441.860000	1123.464844	1033.392334
29627.224468	-1441.860000	1122.328125	821.848022
29627.224468	-1441.860000	1121.191406	794.898865
29627.224468	-1441.860000	1120.054688	794.675903
29627.224468	-1441.860000	1118.916992	702.612793
29627.224468	-1441.860000	1117.779297	721.174438
29627.224468	-1441.860000	1116.641602	748.790710
29627.224468	-1441.860000	1115.503906	682.020325
29627.224468	-1441.860000	1114.365234	494.560394
29627.224468	-1441.860000	1113.226563	770.331238
29627.224468	-1441.860000	1112.087891	299.756897
29627.224468	-1441.860000	1110.949219	205.734100
29627.224468	-1441.860000	1109.809570	329.090485
29627.224468	-1441.860000	1108.669922	402.992828
29627.224468	-1441.860000	1107.530273	392.988281
29627.224468	-1441.860000	1106.390625	367.438446
29627.224468	-1441.860000	1105.250000	-54.938717
29627.224468	-1441.860000	1104.109375	126.410713
29627.224468	-1441.860000	1102.968750	376.701874
29627.224468	-1441.860000	1101.828125	514.548340
29627.224468	-1441.860000	1100.686523	377.710815
29627.224468	-1441.860000	1099.544922	344.718109
29627.224468	-1441.860000	1098.403320	214.027649
29627.224468	-1441.860000	1097.261719	465.381958
29627.224468	-1441.860000	1096.120117	416.841949
29627.224468	-1441.860000	1094.977539	548.972534
29627.224468	-1441.860000	1093.834961	149.461349
29627.224468	-1441.860000	1092.691406	355.927856
29627.224468	-1441.860000	1091.548828	286.038452
29627.224468	-1441.860000	1090.405273	208.822678
29627.224468	-1441.860000	1089.261719	239.331772
29627.224468	-1441.860000	1088.118164	151.284897
29627.224468	-1441.860000	1086.973633	69.021904
29627.224468	-1441.860000	1085.829102	-181.575653
29627.224468	-1441.860000	1084.684570	92.781738
29627.224468	-1441.860000	1083.540039	-135.975784
29627.224468	-1441.860000	1082.395508	-112.728607
29627.224468	-1441.860000	1081.250000	36.171326
29627.224468	-1441.860000	1080.104492	64.680244
29627.224468	-1441.860000	1078.958984	26.318176
29627.224468	-1441.860000	1077.812500	-78.692810
29627.224468	-1441.860000	1076.666016	145.142838
29627.224468	-1441.860000	1075.519531	175.681091
29627.224468	-1441.860000	1074.373047	233.803314
29627.224468	-1441.860000	1073.226563	361.799103
29627.224468	-1441.860000	1072.079102	308.823792
29627.224468	-1441.860000	1070.931641	104.535416
29627.224468	-1441.860000	1069.784180	240.120102
29627.224468	-1441.860000	1068.635742	204.803253
29627.224468	-1441.860000	1067.487305	315.612366
29627.224468	-1441.860000	1066.338867	122.153419
29627.224468	-1441.860000	1065.190430	395.798096
29627.224468	-1441.860000	1064.041992	425.894623
29627.224468	-1441.860000	1062.892578	341.945435
29627.224468	-1441.860000	1061.743164	176.240097
29627.224468	-1441.860000	1060.593750	206.042862
29627.224468	-1441.860000	1059.443359	-17.960417
29627.224468	-1441.860000	1058.292969	348.725128
29627.224468	-1441.860000	1057.142578	-34.931129
29627.224468	-1441.860000	1055.992188	-226.137604
29627.224468	-1441.860000	1054.841797	-133.831177
29627.224468	-1441.860000	1053.690430	-299.070465
29627.224468	-1441.860000	1052.539063	9.598730
29627.224468	-1441.860000	1051.387695	-20.473328
29627.224468	-1441.860000	1050.235352	-152.562271
29627.224468	-1441.860000	1049.083984	-327.679504
29627.224468	-1441.860000	1047.931641	-117.365265
29627.224468	-1441.860000	1046.778320	-193.238220
29627.224468	-1441.860000	1045.625977	-298.666840
29627.224468	-1441.860000	1044.472656	-244.367462
29627.224468	-1441.860000	1043.319336	-116.549370
29627.224468	-1441.860000	1042.166016	47.444351
29627.224468	-1441.860000	1041.012695	-420.655212
29627.224468	-1441.860000	1039.858398	1.203922
29627.224468	-1441.860000	1038.704102	-40.825935
29627.224468	-1441.860000	1037.549805	-26.791006
29627.224468	-1441.860000	1036.394531	69.520645
29627.224468	-1441.860000	1035.239258	-14.215015
29627.224468	-1441.860000	1034.083984	148.127655
29627.224468	-1441.860000	1032.928711	-83.681160
29627.224468	-1441.860000	1031.773438	-55.160328
29627.224468	-1441.860000	1030.617188	223.409592
29627.224468	-1441.860000	1029.460938	226.870911
29627.224468	-1441.860000	1028.304688	279.388306
29627.224468	-1441.860000	1027.147461	377.079529
29627.224468	-1441.860000	1025.991211	212.068451
29627.224468	-1441.860000	1024.833984	-67.626976
29627.224468	-1441.860000	1023.675781	166.860916
29627.224468	-1441.860000	1022.518555	139.445404
29627.224468	-1441.860000	1021.360352	361.509338
29627.224468	-1441.860000	1020.202148	362.623962
29627.224468	-1441.860000	1019.043945	-104.428802
29627.224468	-1441.860000	1017.884766	92.202690
29627.224468	-1441.860000	1016.726563	56.422466
29627.224468	-1441.860000	1015.567383	-23.682053
29627.224468	-1441.860000	1014.407227	211.692352
29627.224468	-1441.860000	1013.248047	-116.245300
29627.224468	-1441.860000	1012.087891	44.353806
29627.224468	-1441.860000	1010.927734	53.998814
29627.224468	-1441.860000	1009.767578	26.487242
29627.224468	-1441.860000	1008.606445	-58.058155
29627.224468	-1441.860000	1007.446289	120.042801
29627.224468	-1441.860000	1006.285156	297.892334
29627.224468	-1441.860000	1005.123047	110.660904
29627.224468	-1441.860000	1003.961914	-188.400772
29627.224468	-1441.860000	1002.799805	-17.391878
29627.224468	-1441.860000	1001.637695	84.628708
29627.224468	-1441.860000	1000.475586	168.987778
29627.224468	-1441.860000	999.312500	470.434662
29627.224468	-1441.860000	998.149414	202.480957
29627.224468	-1441.860000	996.986328	392.078400
29627.224468	-1441.860000	995.823242	391.991272
29627.224468	-1441.860000	994.659180	497.705078
29627.224468	-1441.860000	993.496094	425.836517
29627.224468	-1441.860000	992.332031	365.547333
29627.224468	-1441.860000	991.166992	243.017654
29627.224468	-1441.860000	990.002930	382.850769
29627.224468	-1441.860000	988.837891	168.878067
29627.224468	-1441.860000	987.672852	365.035278
29627.224468	-1441.860000	986.506836	310.959900
29627.224468	-1441.860000	985.341797	268.089539
29627.224468	-1441.860000	984.175781	270.022766
29627.224468	-1441.860000	983.009766	391.422058
29627.224468	-1441.860000	981.843750	230.868011
29627.224468	-1441.860000	980.676758	-180.091904
29627.224468	-1441.860000	979.509766	70.890381
29627.224468	-1441.860000	978.342773	127.623978
29627.224468	-1441.860000	977.175781	218.601593
29627.224468	-1441.860000	976.007813	115.694748
29627.224468	-1441.860000	974.839844	-4.252287
29627.224468	-1441.860000	973.671875	-68.752678
29627.224468	-1441.860000	972.503906	152.153046
29627.224468	-1441.860000	971.334961	186.804993
29627.224468	-1441.860000	970.166016	207.074905
29627.224468	-1441.860000	968.997070	200.631195
29627.224468	-1441.860000	967.828125	111.165764
29627.224468	-1441.860000	966.658203	285.069305
29627.224468	-1441.860000	965.488281	173.446136
29627.224468	-1441.860000	964.318359	182.665771
29627.224468	-1441.860000	963.148438	483.716949
29627.224468	-1441.860000	961.977539	433.769562
29627.224468	-1441.860000	960.806641	387.683807
29627.224468	-1441.860000	959.635742	541.317505
29627.224468	-1441.860000	958.463867	233.459610
29627.224468	-1441.860000	957.292969	647.240417
29627.224468	-1441.860000	956.121094	408.350677
29627.224468	-1441.860000	954.948242	519.040588
29627.224468	-1441.860000	953.776367	298.350922
29627.224468	-1441.860000	952.603516	357.212341
29627.224468	-1441.860000	951.430664	395.860168
29627.224468	-1441.860000	950.257813	147.029190
29627.224468	-1441.860000	949.084961	296.860321
29627.224468	-1441.860000	947.911133	385.087463
29627.224468	-1441.860000	946.737305	190.014420
29627.224468	-1441.860000	945.563477	4.004786
29627.224468	-1441.860000	944.388672	97.300171
29627.224468	-1441.860000	943.213867	46.616528
29627.224468	-1441.860000	942.039063	-24.495085
29627.224468	-1441.860000	940.864258	-46.417213
29627.224468	-1441.860000	939.688477	302.587708
29627.224468	-1441.860000	938.513672	-165.243759
29627.224468	-1441.860000	937.337891	48.129620
29627.224468	-1441.860000	936.161133	-24.543959
29627.224468	-1441.860000	934.985352	358.071777
29627.224468	-1441.860000	933.808594	186.215164
29627.224468	-1441.860000	932.631836	173.326889
29627.224468	-1441.860000	931.454102	476.318146
29627.224468	-1441.860000	930.277344	525.982300
29627.224468	-1441.860000	929.099609	527.510742
29627.224468	-1441.860000	927.921875	627.773743
29627.224468	-1441.860000	926.743164	778.526184
29627.224468	-1441.860000	925.565430	568.061584
29627.224468	-1441.860000	924.386719	884.865906
29627.224468	-1441.860000	923.208008	553.983521
29627.224468	-1441.860000	922.028320	345.969788
29627.224468	-1441.860000	920.849609	292.020813
29627.224468	-1441.860000	919.669922	299.833252
29627.224468	-1441.860000	919.474609	405.378693
29627.224468	-1441.860000	918.309570	110.759300
29627.224468	-1441.860000	917.143555	292.419586
29627.224468	-1441.860000	915.977539	187.853165
29627.224468	-1441.860000	914.810547	205.914093
29627.224468	-1441.860000	913.644531	98.956841
29627.224468	-1441.860000	912.477539	44.890625
29627.224468	-1441.860000	911.310547	53.289165
29627.224468	-1441.860000	910.143555	25.629030
29627.224468	-1441.860000	908.975586	-266.206573
29627.224468	-1441.860000	907.807617	-120.958351
29627.224468	-1441.860000	906.639648	-134.227890
29627.224468	-1441.860000	905.471680	10.887111
29627.224468	-1441.860000	904.303711	107.927628
29627.224468	-1441.860000	903.134766	-200.535797
29627.224468	-1441.860000	901.965820	-161.101242
29627.224468	-1441.860000	900.796875	-227.221878
29627.224468	-1441.860000	899.626953	-147.081192
29627.224468	-1441.860000	898.457031	-148.499863
29627.224468	-1441.860000	897.287109	82.531784
29627.224468	-1441.860000	896.117188	-189.748108
29627.224468	-1441.860000	894.947266	-97.800613
29627.224468	-1441.860000	893.776367	30.016840
29627.224468	-1441.860000	892.605469	126.625801
29627.224468	-1441.860000	891.434570	-83.286377
29627.224468	-1441.860000	890.262695	73.102440
29627.224468	-1441.860000	889.091797	59.479443
29627.224468	-1441.860000	887.919922	26.698044
29627.224468	-1441.860000	886.748047	319.250183
29627.224468	-1441.860000	885.575195	28.073090
29627.224468	-1441.860000	884.403320	-162.585327
29627.224468	-1441.860000	883.230469	117.796059
29627.224468	-1441.860000	882.057617	-333.392303
29627.224468	-1441.860000	880.883789	-177.408646
29627.224468	-1441.860000	879.710938	-90.813492
29627.224468	-1441.860000	878.537109	-68.773438
29627.224468	-1441.860000	877.362305	-123.191185
29627.224468	-1441.860000	876.188477	63.548622
29627.224468	-1441.860000	875.013672	-298.902435
29627.224468	-1441.860000	873.839844	-296.048035
29627.224468	-1441.860000	872.664063	-37.873779
29627.224468	-1441.860000	871.489258	93.708786
29627.224468	-1441.860000	870.313477	5.755317
29627.224468	-1441.860000	869.138672	-117.972115
29627.224468	-1441.860000	867.962891	-27.078131
29627.224468	-1441.860000	866.786133	73.290344
29627.224468	-1441.860000	865.610352	54.407238
29627.224468	-1441.860000	864.433594	54.568134
29627.224468	-1441.860000	863.256836	-12.014025
29627.224468	-1441.860000	862.079102	259.646149
29627.224468	-1441.860000	860.902344	190.600082
29627.224468	-1441.860000	859.724609	512.039612
29627.224468	-1441.860000	858.546875	478.615295
29627.224468	-1441.860000	857.368164	33.429466
29627.224468	-1441.860000	856.190430	-40.405609
29627.224468	-1441.860000	855.011719	71.325027
29627.224468	-1441.860000	853.833008	49.771988
29627.224468	-1441.860000	852.654297	204.171143
29627.224468	-1441.860000	851.474609	96.937202
29627.224468	-1441.860000	850.294922	-74.470551
29627.224468	-1441.860000	849.115234	-310.017426
29627.224468	-1441.860000	847.935547	-79.784035
29627.224468	-1441.860000	846.754883	-222.656570
29627.224468	-1441.860000	845.575195	-94.746918
29627.224468	-1441.860000	844.393555	-16.789070
29627.224468	-1441.860000	843.212891	-273.667267
29627.224468	-1441.860000	842.032227	-295.488464
29627.224468	-1441.860000	840.850586	-18.312973
29627.224468	-1441.860000	839.668945	-111.439064
29627.224468	-1441.860000	838.486328	-126.280602
29627.224468	-1441.860000	837.304688	-233.663879
29627.224468	-1441.860000	836.122070	-255.677841
29627.224468	-1441.860000	834.939453	63.660587
29627.224468	-1441.860000	833.756836	8.319584
29627.224468	-1441.860000	832.573242	71.449524
29627.224468	-1441.860000	831.389648	70.533569
29627.224468	-1441.860000	830.206055	-271.536255
29627.224468	-1441.860000	829.022461	125.401535
29627.224468	-1441.860000	827.838867	-91.141907
29627.224468	-1441.860000	826.654297	61.665203
29627.224468	-1441.860000	825.469727	-90.967232
29627.224468	-1441.860000	824.284180	217.860840
29627.224468	-1441.860000	823.099609	-17.648624
29627.224468	-1441.860000	821.914063	149.008148
29627.224468	-1441.860000	820.728516	-171.626770
29627.224468	-1441.860000	819.542969	-26.391851
29627.224468	-1441.860000	818.356445	149.462296
29627.224468	-1441.860000	817.169922	-50.596321
29627.224468	-1441.860000	815.983398	-127.755836
29627.224468	-1441.860000	814.796875	26.582739
29627.224468	-1441.860000	813.609375	192.613922
29627.224468	-1441.860000	812.422852	-57.106007
29627.224468	-1441.860000	811.235352	181.949295
29627.224468	-1441.860000	810.046875	95.099358
29627.224468	-1441.860000	808.859375	241.865570
29627.224468	-1441.860000	807.670898	-5.528734
29627.224468	-1441.860000	806.482422	-80.671806
29627.224468	-1441.860000	805.293945	197.939621
29627.224468	-1441.860000	804.104492	-37.683926
29627.224468	-1441.860000	802.915039	-42.228195
29627.224468	-1441.860000	801.725586	141.731949
29627.224468	-1441.860000	800.536133	21.549374
29627.224468	-1441.860000	799.345703	103.980484
29627.224468	-1441.860000	798.155273	120.355370
29627.224468	-1441.860000	796.964844	-263.719208
29627.224468	-1441.860000	795.774414	223.521744
29627.224468	-1441.860000	794.583008	-52.255428
29627.224468	-1441.860000	793.392578	-38.486969
29627.224468	-1441.860000	792.200195	-74.205933
29627.224468	-1441.860000	791.008789	42.945621
29627.224468	-1441.860000	789.816406	47.072235
29627.224468	-1441.860000	788.625000	105.212738
29627.224468	-1441.860000	787.432617	-252.909424
29627.224468	-1441.860000	786.239258	261.175659
29627.224468	-1441.860000	785.046875	76.942696
29627.224468	-1441.860000	783.853516	104.194893
29627.224468	-1441.860000	782.660156	-152.902939
29627.224468	-1441.860000	781.465820	-196.228043
29627.224468	-1441.860000	780.272461	-47.049320
29627.224468	-1441.860000	779.078125	-153.923447
29627.224468	-1441.860000	777.883789	-152.851364
29627.224468	-1441.860000	776.688477	-86.144142
29627.224468	-1441.860000	775.494141	17.998198
29627.224468	-1441.860000	774.298828	-42.194405
29627.224468	-1441.860000	773.103516	-172.804642
29627.224468	-1441.860000	771.907227	-106.466095
29627.224468	-1441.860000	770.711914	-112.915367
29627.224468	-1441.860000	769.515625	-46.780430
29627.224468	-1441.860000	768.318359	-128.392136
29627.224468	-1441.860000	767.122070	-34.332348
29627.224468	-1441.860000	765.924805	139.249069
29627.224468	-1441.860000	764.727539	-129.960526
29627.224468	-1441.860000	763.530273	240.085175
29627.224468	-1441.860000	762.333008	188.508713
29627.224468	-1441.860000	761.134766	436.455200
29627.224468	-1441.860000	759.936523	438.506866
29627.224468	-1441.860000	758.738281	566.807678
29627.224468	-1441.860000	757.540039	196.743881
29627.224468	-1441.860000	756.340820	294.462311
29627.224468	-1441.860000	755.141602	53.029835
29627.224468	-1441.860000	753.942383	234.711594
29627.224468	-1441.860000	752.742188	112.402313
29627.224468	-1441.860000	751.541992	200.350723
29627.224468	-1441.860000	750.341797	-15.527617
29627.224468	-1441.860000	749.141602	-18.862045
29627.224468	-1441.860000	747.941406	101.473961
29627.224468	-1441.860000	746.740234	188.982193
29627.224468	-1441.860000	745.539063	271.693085
29627.224468	-1441.860000	744.337891	186.246857
29627.224468	-1441.860000	743.135742	-76.581451
29627.224468	-1441.860000	741.933594	-66.466248
29627.224468	-1441.860000	740.731445	137.125305
29627.224468	-1441.860000	739.529297	244.935043
29627.224468	-1441.860000	738.326172	427.202606
29627.224468	-1441.860000	737.124023	401.857758
29627.224468	-1441.860000	735.919922	322.830841
29627.224468	-1441.860000	734.716797	-12.541500
29627.224468	-1441.860000	733.513672	390.525238
29627.224468	-1441.860000	732.309570	367.147308
29627.224468	-1441.860000	731.105469	373.947998
29627.224468	-1441.860000	729.900391	282.877411
29627.224468	-1441.860000	728.696289	505.942688
29627.224468	-1441.860000	727.491211	577.565735
29627.224468	-1441.860000	726.286133	404.786224
29627.224468	-1441.860000	725.080078	357.577423
29627.224468	-1441.860000	723.874023	142.856155
29627.224468	-1441.860000	722.668945	97.848099
29627.224468	-1441.860000	721.461914	-214.560104
29627.224468	-1441.860000	720.255859	98.213379
29627.224468	-1441.860000	719.048828	92.435135
29627.224468	-1441.860000	717.841797	-8.684591
29627.224468	-1441.860000	716.634766	-40.188873
29627.224468	-1441.860000	715.427734	21.097990
29627.224468	-1441.860000	714.219727	-68.642319
29627.224468	-1441.860000	713.011719	-51.681599
29627.224468	-1441.860000	711.803711	76.560188
29627.224468	-1441.860000	710.594727	564.252808
29627.224468	-1441.860000	709.385742	149.320084
29627.224468	-1441.860000	708.176758	165.810837
29627.224468	-1441.860000	706.967773	43.074715
29627.224468	-1441.860000	705.758789	-133.030807
29627.224468	-1441.860000	704.548828	-75.082390
29627.224468	-1441.860000	703.338867	-100.679169
29627.224468	-1441.860000	702.127930	47.379433
29627.224468	-1441.860000	700.917969	-50.241100
29627.224468	-1441.860000	699.707031	9.543836
29627.224468	-1441.860000	698.496094	131.709702
29627.224468	-1441.860000	697.285156	228.262512
29627.224468	-1441.860000	696.073242	331.611542
29627.224468	-1441.860000	694.861328	161.791092
29627.224468	-1441.860000	693.649414	-105.218102
29627.224468	-1441.860000	692.436523	39.455898
29627.224468	-1441.860000	691.224609	153.911652
29627.224468	-1441.860000	690.011719	25.472845
29627.224468	-1441.860000	688.798828	-239.380356
29627.224468	-1441.860000	687.584961	-226.926651
29627.224468	-1441.860000	686.372070	30.321901
29627.224468	-1441.860000	685.158203	49.442356
29627.224468	-1441.860000	683.943359	3.788354
29627.224468	-1441.860000	682.729492	66.574928
29627.224468	-1441.860000	681.514648	323.138458
29627.224468	-1441.860000	680.299805	194.071136
29627.224468	-1441.860000	679.084961	311.855804
29627.224468	-1441.860000	677.869141	464.092194
29627.224468	-1441.860000	676.653320	371.679443
29627.224468	-1441.860000	675.437500	417.569214
29627.224468	-1441.860000	674.221680	152.097916
29627.224468	-1441.860000	673.004883	241.611206
29627.224468	-1441.860000	671.789063	250.335419
29627.224468	-1441.860000	670.571289	67.714348
29627.224468	-1441.860000	669.354492	149.988953
29627.224468	-1441.860000	668.136719	107.765656
29627.224468	-1441.860000	666.919922	169.083954
29627.224468	-1441.860000	665.701172	216.463028
29627.224468	-1441.860000	664.483398	180.875244
29627.224468	-1441.860000	663.264648	39.352303
29627.224468	-1441.860000	662.045898	330.317841
29627.224468	-1441.860000	660.827148	48.331177
29627.224468	-1441.860000	659.608398	286.098114
29627.224468	-1441.860000	658.388672	514.473450
29627.224468	-1441.860000	657.168945	158.793182
29627.224468	-1441.860000	655.949219	425.989838
29627.224468	-1441.860000	654.728516	323.046875
29627.224468	-1441.860000	653.507813	403.839691
29627.224468	-1441.860000	652.287109	422.500061
29627.224468	-1441.860000	651.066406	514.548279
29627.224468	-1441.860000	649.844727	418.211914
29627.224468	-1441.860000	648.623047	450.368561
29627.224468	-1441.860000	647.401367	275.896118
29627.224468	-1441.860000	646.179688	268.902924
29627.224468	-1441.860000	644.957031	220.534225
29627.224468	-1441.860000	643.734375	227.146561
29627.224468	-1441.860000	642.511719	423.986969
29627.224468	-1441.860000	641.289063	114.046684
29627.224468	-1441.860000	640.065430	129.603577
29627.224468	-1441.860000	638.841797	257.356262
29627.224468	-1441.860000	637.618164	403.307739
29627.224468	-1441.860000	636.393555	301.747467
29627.224468	-1441.860000	635.168945	520.751221
29627.224468	-1441.860000	633.944336	469.431427
29627.224468	-1441.860000	632.719727	253.253967
29627.224468	-1441.860000	631.494141	300.269897
29627.224468	-1441.860000	630.269531	207.632324
29627.224468	-1441.860000	629.042969	162.992020
29627.224468	-1441.860000	627.817383	61.132095
29627.224468	-1441.860000	626.590820	357.106415
29627.224468	-1441.860000	625.365234	291.693573
29627.224468	-1441.860000	624.137695	107.381676
29627.224468	-1441.860000	622.911133	165.311859
29627.224468	-1441.860000	621.683594	170.604065
29627.224468	-1441.860000	620.456055	84.465706
29627.224468	-1441.860000	619.228516	315.733887
29627.224468	-1441.860000	618.000977	167.837524
29627.224468	-1441.860000	616.772461	61.028370
29627.224468	-1441.860000	615.543945	198.404663
29627.224468	-1441.860000	614.314453	89.231735
29627.224468	-1441.860000	613.085938	64.466843
29627.224468	-1441.860000	611.856445	-1.401555
29627.224468	-1441.860000	610.626953	106.006187
29627.224468	-1441.860000	609.397461	181.402222
29627.224468	-1441.860000	608.166992	-105.700203
29627.224468	-1441.860000	606.936523	92.658737
29627.224468	-1441.860000	605.706055	161.023239
29627.224468	-1441.860000	604.474609	-39.482235
29627.224468	-1441.860000	603.244141	138.104050
29627.224468	-1441.860000	602.012695	-69.230003
29627.224468	-1441.860000	600.780273	158.266739
29627.224468	-1441.860000	599.548828	-133.273895
29627.224468	-1441.860000	598.316406	-229.051697
29627.224468	-1441.860000	597.083984	-149.657364
29627.224468	-1441.860000	595.851563	-170.410004
29627.224468	-1441.860000	594.618164	-293.525238
29627.224468	-1441.860000	593.384766	-316.591797
29627.224468	-1441.860000	592.151367	-371.503021
29627.224468	-1441.860000	590.917969	-210.535110
29627.224468	-1441.860000	589.683594	-308.686981
29627.224468	-1441.860000	588.449219	-427.271912
29627.224468	-1441.860000	587.214844	-207.446991
29627.224468	-1441.860000	585.979492	-180.750305
29627.224468	-1441.860000	584.745117	261.342957
29627.224468	-1441.860000	583.509766	115.382362
29627.224468	-1441.860000	582.273438	-69.123245
29627.224468	-1441.860000	581.038086	64.042412
29627.224468	-1441.860000	579.801758	-285.997009
29627.224468	-1441.860000	578.565430	87.480370
29627.224468	-1441.860000	577.329102	70.819298
29627.224468	-1441.860000	576.091797	40.536098
29627.224468	-1441.860000	574.854492	-225.442291
29627.224468	-1441.860000	573.617188	-396.163757
29627.224468	-1441.860000	572.378906	94.620277
29627.224468	-1441.860000	571.141602	-175.782074
29627.224468	-1441.860000	569.903320	-77.011223
29627.224468	-1441.860000	568.664063	-48.484371
29627.224468	-1441.860000	567.425781	7.184629
29627.224468	-1441.860000	566.186523	62.806408
29627.224468	-1441.860000	564.947266	-73.909042
29627.224468	-1441.860000	563.708008	78.943230
29627.224468	-1441.860000	562.467773	186.482620
29627.224468	-1441.860000	561.227539	-119.784081
29627.224468	-1441.860000	559.987305	112.051842
29627.224468	-1441.860000	558.747070	45.467445
29627.224468	-1441.860000	557.505859	-158.937576
29627.224468	-1441.860000	556.264648	-272.902710
29627.224468	-1441.860000	555.023438	-133.876801
29627.224468	-1441.860000	553.781250	-410.400970
29627.224468	-1441.860000	552.539063	-203.705048
29627.224468	-1441.860000	551.296875	-295.034943
29627.224468	-1441.860000	550.054688	-95.238152
29627.224468	-1441.860000	548.811523	131.530716
29627.224468	-1441.860000	547.569336	317.602509
29627.224468	-1441.860000	546.325195	314.138214
29627.224468	-1441.860000	545.082031	445.955200
29627.224468	-1441.860000	543.837891	327.486206
29627.224468	-1441.860000	542.593750	78.348541
29627.224468	-1441.860000	541.349609	119.967690
29627.224468	-1441.860000	540.105469	181.835480
29627.224468	-1441.860000	538.860352	92.759682
29627.224468	-1441.860000	537.615234	-381.336029
29627.224468	-1441.860000	536.369141	171.326706
29627.224468	-1441.860000	535.124023	197.066330
29627.224468	-1441.860000	533.877930	-0.003449
29627.224468	-1441.860000	532.631836	72.976295
29627.224468	-1441.860000	531.384766	159.396820
29627.224468	-1441.860000	530.138672	355.966919
29627.224468	-1441.860000	528.891602	19.567503
29627.224468	-1441.860000	527.643555	252.000061
29627.224468	-1441.860000	526.396484	318.014221
29627.224468	-1441.860000	525.148438	280.613525
29627.224468	-1441.860000	523.900391	294.877075
29627.224468	-1441.860000	522.652344	178.844254
29627.224468	-1441.860000	521.403320	-53.936306
29627.224468	-1441.860000	520.154297	34.391495
29627.224468	-1441.860000	518.905273	37.360916
29627.224468	-1441.860000	517.656250	35.809795
29627.224468	-1441.860000	516.406250	139.665100
29627.224468	-1441.860000	515.156250	66.239609
29627.224468	-1441.860000	513.906250	91.482109
29627.224468	-1441.860000	512.655273	428.315247
29627.224468	-1441.860000	511.404297	61.094437
29627.224468	-1441.860000	510.153320	166.865768
29627.224468	-1441.860000	508.902344	129.142014
29627.224468	-1441.860000	507.650391	443.081451
29627.224468	-1441.860000	506.398438	600.052795
29627.224468	-1441.860000	505.146484	436.691437
29627.224468	-1441.860000	503.893555	396.461731
29627.224468	-1441.860000	502.641602	295.760406
29627.224468	-1441.860000	501.388672	454.605225
29627.224468	-1441.860000	500.134766	414.181702
29627.224468	-1441.860000	498.881836	378.181183
29627.224468	-1441.860000	497.627930	449.450836
29627.224468	-1441.860000	496.374023	290.313538
29627.224468	-1441.860000	495.119141	260.794708
29627.224468	-1441.860000	493.865234	260.257477
29627.224468	-1441.860000	492.610352	534.442322
29627.224468	-1441.860000	491.355469	614.054565
29627.224468	-1441.860000	490.099609	588.540405
29627.224468	-1441.860000	488.843750	393.218231
29627.224468	-1441.860000	487.587891	697.932068
29627.224468	-1441.860000	486.332031	549.293335
29627.224468	-1441.860000	485.075195	753.155396
29627.224468	-1441.860000	483.818359	735.918152
29627.224468	-1441.860000	482.561523	1231.569458
29627.224468	-1441.860000	481.304688	745.622253
29627.224468	-1441.860000	480.046875	768.061462
29627.224468	-1441.860000	478.789063	763.575623
29627.224468	-1441.860000	477.531250	785.663452
29627.224468	-1441.860000	476.272461	709.508057
29627.224468	-1441.860000	475.013672	613.149231
29627.224468	-1441.860000	473.754883	926.436523
29627.224468	-1441.860000	472.496094	682.705627
29627.224468	-1441.860000	471.236328	768.337341
29627.224468	-1441.860000	469.976563	648.939453
29627.224468	-1441.860000	468.716797	958.837097
29627.224468	-1441.860000	467.456055	961.329773
29627.224468	-1441.860000	466.196289	1014.740112
29627.224468	-1441.860000	464.935547	1027.825806
29627.224468	-1441.860000	463.673828	1229.609619
29627.224468	-1441.860000	462.413086	921.998596
29627.224468	-1441.860000	461.151367	1052.029541
29627.224468	-1441.860000	459.889648	1181.698486
29627.224468	-1441.860000	458.626953	1062.187988
29627.224468	-1441.860000	457.364258	1182.263550
29627.224468	-1441.860000	456.101563	1264.204590
29627.224468	-1441.860000	454.838867	1199.239380
29627.224468	-1441.860000	453.575195	1042.929688
29627.224468	-1441.860000	452.312500	1177.019775
29627.224468	-1441.860000	451.047852	1201.925659
29627.224468	-1441.860000	449.784180	1213.127686
29627.224468	-1441.860000	448.519531	1319.250000
29627.224468	-1441.860000	447.254883	1449.288208
29627.224468	-1441.860000	445.990234	1244.114990
29627.224468	-1441.860000	444.725586	1730.012939
29627.224468	-1441.860000	443.459961	2060.114258
29627.224468	-1441.860000	442.194336	2141.483154
29627.224468	-1441.860000	440.927734	2220.082031
29627.224468	-1441.860000	439.662109	2287.073242
29627.224468	-1441.860000	438.395508	2475.236816
29627.224468	-1441.860000	437.127930	2492.326416
29627.224468	-1441.860000	435.861328	2128.255371
29627.224468	-1441.860000	434.593750	2011.515015
29627.224468	-1441.860000	433.326172	1973.843018
29627.224468	-1441.860000	432.058594	1924.506714
29627.224468	-1441.860000	430.790039	1691.024902
29627.224468	-1441.860000	429.521484	1631.602417
29627.224468	-1441.860000	428.252930	1874.280396
29627.224468	-1441.860000	426.984375	1767.061035
29627.224468	-1441.860000	425.714844	1977.230835
29627.224468	-1441.860000	424.445313	2069.516357
29627.224468	-1441.860000	423.174805	1993.163330
29627.224468	-1441.860000	421.905273	2198.642334
29627.224468	-1441.860000	420.634766	1955.166992
29627.224468	-1441.860000	419.364258	2163.310059
29627.224468	-1441.860000	418.092773	2169.726807
29627.224468	-1441.860000	416.822266	1921.641357
29627.224468	-1441.860000	415.550781	1787.398804
29627.224468	-1441.860000	414.278320	1810.990967
29627.224468	-1441.860000	413.006836	1483.185059
29627.224468	-1441.860000	411.734375	1685.600464
29627.224468	-1441.860000	410.461914	1739.305054
29627.224468	-1441.860000	409.188477	1432.875488
29627.224468	-1441.860000	407.916016	1482.317749
29627.224468	-1441.860000	406.642578	1513.000610
29627.224468	-1441.860000	405.368164	1183.706543
29627.224468	-1441.860000	404.094727	1434.462402
29627.224468	-1441.860000	402.820313	1219.624390
29627.224468	-1441.860000	401.545898	1166.465576
29627.224468	-1441.860000	400.270508	1314.398682
29627.224468	-1441.860000	398.996094	1067.430054
29627.224468	-1441.860000	397.720703	1379.834229
29627.224468	-1441.860000	396.444336	1244.543579
29627.224468	-1441.860000	395.168945	1406.844116
29627.224468	-1441.860000	393.892578	1637.940063
29627.224468	-1441.860000	392.616211	1500.679565
29627.224468	-1441.860000	391.339844	1379.579590
29627.224468	-1441.860000	390.062500	1456.779907
29627.224468	-1441.860000	388.785156	1455.579346
29627.224468	-1441.860000	387.507813	1345.266357
29627.224468	-1441.860000	386.229492	1661.196045
29627.224468	-1441.860000	384.951172	1692.352051
29627.224468	-1441.860000	383.672852	1381.857178
29627.224468	-1441.860000	382.394531	1370.169556
29627.224468	-1441.860000	381.115234	1527.657837
29627.224468	-1441.860000	379.835938	1413.677246
29627.224468	-1441.860000	378.556641	1061.236450
29627.224468	-1441.860000	377.277344	1272.281128
29627.224468	-1441.860000	375.997070	1319.150269
29627.224468	-1441.860000	374.716797	1247.955444
29627.224468	-1441.860000	373.435547	1183.458984
29627.224468	-1441.860000	372.155273	849.935547
29627.224468	-1441.860000	370.874023	1002.392517
29627.224468	-1441.860000	369.591797	695.268372
29627.224468	-1441.860000	368.310547	904.563843
29627.224468	-1441.860000	367.028320	571.249084
29627.224468	-1441.860000	365.746094	614.035217
29627.224468	-1441.860000	364.463867	394.303925
29627.224468	-1441.860000	363.180664	502.204132
29627.224468	-1441.860000	361.897461	404.377563
29627.224468	-1441.860000	360.614258	487.586304
29627.224468	-1441.860000	359.330078	402.113770
29627.224468	-1441.860000	358.045898	226.708221
29627.224468	-1441.860000	356.761719	262.652802
29627.224468	-1441.860000	355.477539	520.667297
29627.224468	-1441.860000	354.192383	762.596008
29627.224468	-1441.860000	352.907227	279.406464
29627.224468	-1441.860000	351.622070	310.483978
29627.224468	-1441.860000	350.336914	268.798859
29627.224468	-1441.860000	349.050781	182.579559
29627.224468	-1441.860000	347.764648	27.912046
29627.224468	-1441.860000	346.477539	194.787750
29627.224468	-1441.860000	345.191406	177.629395
29627.224468	-1441.860000	343.904297	181.057343
29627.224468	-1441.860000	342.616211	19.859192
29627.224468	-1441.860000	341.329102	-31.337105
29627.224468	-1441.860000	340.041016	-162.298096
29627.224468	-1441.860000	338.752930	-0.740184
29627.224468	-1441.860000	337.463867	-132.405365
29627.224468	-1441.860000	336.175781	60.939304
29627.224468	-1441.860000	334.886719	-30.271307
29627.224468	-1441.860000	333.596680	-140.624557
29627.224468	-1441.860000	332.307617	14.893818
29627.224468	-1441.860000	331.017578	-179.379517
29627.224468	-1441.860000	329.727539	-214.631317
29627.224468	-1441.860000	328.436523	-99.875206
29627.224468	-1441.860000	327.146484	154.135742
29627.224468	-1441.860000	325.855469	125.617966
29627.224468	-1441.860000	324.563477	190.303864
29627.224468	-1441.860000	323.272461	187.710114
29627.224468	-1441.860000	321.980469	104.471916
29627.224468	-1441.860000	320.688477	-139.577408
29627.224468	-1441.860000	319.395508	-71.648293
29627.224468	-1441.860000	318.103516	69.718597
29627.224468	-1441.860000	316.810547	136.591309
29627.224468	-1441.860000	315.516602	-326.355621
29627.224468	-1441.860000	314.223633	-679.091919
29627.224468	-1441.860000	312.929688	-276.360229
29627.224468	-1441.860000	311.635742	58.132820
29627.224468	-1441.860000	310.340820	-117.738503
29627.224468	-1441.860000	309.045898	-220.992157
29627.224468	-1441.860000	307.750977	-165.166611
29627.224468	-1441.860000	306.456055	84.175110
29627.224468	-1441.860000	305.160156	-57.737137
29627.224468	-1441.860000	303.865234	331.419220
29627.224468	-1441.860000	302.568359	-45.240761
29627.224468	-1441.860000	301.272461	649.535034
29627.224468	-1441.860000	299.975586	1080.353027
29627.224468	-1441.860000	298.678711	964.298401
