#X		#Y		#Wave		#Intensity
29721.218617	-1456.550000	1999.980469	144.321960
29721.218617	-1456.550000	1999.016602	-160.837021
29721.218617	-1456.550000	1998.052734	-241.787659
29721.218617	-1456.550000	1997.087891	60.917179
29721.218617	-1456.550000	1996.123047	167.300247
29721.218617	-1456.550000	1995.158203	-73.623177
29721.218617	-1456.550000	1994.193359	-57.318604
29721.218617	-1456.550000	1993.228516	112.080193
29721.218617	-1456.550000	1992.262695	-16.096651
29721.218617	-1456.550000	1991.297852	199.447037
29721.218617	-1456.550000	1990.332031	-18.585180
29721.218617	-1456.550000	1989.366211	111.984909
29721.218617	-1456.550000	1988.399414	-74.524956
29721.218617	-1456.550000	1987.433594	-23.855673
29721.218617	-1456.550000	1986.466797	-186.225723
29721.218617	-1456.550000	1985.500977	64.066216
29721.218617	-1456.550000	1984.534180	301.592773
29721.218617	-1456.550000	1983.567383	-126.158684
29721.218617	-1456.550000	1982.599609	58.825356
29721.218617	-1456.550000	1981.632813	77.923439
29721.218617	-1456.550000	1980.665039	-120.644806
29721.218617	-1456.550000	1979.697266	-32.891769
29721.218617	-1456.550000	1978.729492	-9.621234
29721.218617	-1456.550000	1977.761719	75.128395
29721.218617	-1456.550000	1976.792969	-27.987808
29721.218617	-1456.550000	1975.825195	258.670044
29721.218617	-1456.550000	1974.856445	103.317261
29721.218617	-1456.550000	1973.887695	-29.972553
29721.218617	-1456.550000	1972.918945	122.733711
29721.218617	-1456.550000	1971.949219	-65.137543
29721.218617	-1456.550000	1970.980469	198.124756
29721.218617	-1456.550000	1970.010742	-14.675282
29721.218617	-1456.550000	1969.041016	218.584656
29721.218617	-1456.550000	1968.071289	-14.155569
29721.218617	-1456.550000	1967.101563	-74.471962
29721.218617	-1456.550000	1966.130859	473.571503
29721.218617	-1456.550000	1965.161133	75.504738
29721.218617	-1456.550000	1964.190430	140.421951
29721.218617	-1456.550000	1963.219727	82.103302
29721.218617	-1456.550000	1962.249023	213.251114
29721.218617	-1456.550000	1961.277344	142.432724
29721.218617	-1456.550000	1960.306641	243.811005
29721.218617	-1456.550000	1959.334961	32.610996
29721.218617	-1456.550000	1958.363281	153.485504
29721.218617	-1456.550000	1957.391602	6.178921
29721.218617	-1456.550000	1956.419922	-62.451286
29721.218617	-1456.550000	1955.447266	70.471291
29721.218617	-1456.550000	1954.474609	-49.877510
29721.218617	-1456.550000	1953.501953	-108.791107
29721.218617	-1456.550000	1952.529297	215.575607
29721.218617	-1456.550000	1951.556641	48.465977
29721.218617	-1456.550000	1950.583984	63.142754
29721.218617	-1456.550000	1949.610352	-47.460255
29721.218617	-1456.550000	1948.636719	217.605530
29721.218617	-1456.550000	1947.663086	23.514473
29721.218617	-1456.550000	1946.689453	168.177155
29721.218617	-1456.550000	1945.715820	3.589916
29721.218617	-1456.550000	1944.741211	153.088135
29721.218617	-1456.550000	1943.767578	91.583275
29721.218617	-1456.550000	1942.792969	113.482033
29721.218617	-1456.550000	1941.818359	71.624619
29721.218617	-1456.550000	1940.842773	73.914253
29721.218617	-1456.550000	1939.868164	-161.533127
29721.218617	-1456.550000	1938.892578	139.807861
29721.218617	-1456.550000	1937.916992	-61.232899
29721.218617	-1456.550000	1936.941406	-110.295036
29721.218617	-1456.550000	1935.965820	24.384024
29721.218617	-1456.550000	1934.990234	73.332375
29721.218617	-1456.550000	1934.013672	4.763072
29721.218617	-1456.550000	1933.037109	56.200581
29721.218617	-1456.550000	1932.060547	-75.905495
29721.218617	-1456.550000	1931.083984	-31.740417
29721.218617	-1456.550000	1930.107422	95.629562
29721.218617	-1456.550000	1929.129883	-19.174656
29721.218617	-1456.550000	1928.153320	-182.801025
29721.218617	-1456.550000	1927.175781	86.472496
29721.218617	-1456.550000	1926.198242	116.106842
29721.218617	-1456.550000	1925.219727	-76.652306
29721.218617	-1456.550000	1924.242188	-235.072861
29721.218617	-1456.550000	1923.263672	-43.987438
29721.218617	-1456.550000	1922.285156	-136.297043
29721.218617	-1456.550000	1921.306641	-3.812998
29721.218617	-1456.550000	1920.328125	-203.432602
29721.218617	-1456.550000	1919.349609	31.671301
29721.218617	-1456.550000	1918.370117	56.806667
29721.218617	-1456.550000	1917.391602	143.010773
29721.218617	-1456.550000	1916.412109	29.142574
29721.218617	-1456.550000	1915.431641	195.939270
29721.218617	-1456.550000	1914.452148	82.224632
29721.218617	-1456.550000	1913.472656	-85.041359
29721.218617	-1456.550000	1912.492188	-59.556747
29721.218617	-1456.550000	1911.511719	109.812973
29721.218617	-1456.550000	1910.531250	-232.678009
29721.218617	-1456.550000	1909.550781	9.896313
29721.218617	-1456.550000	1908.569336	67.261665
29721.218617	-1456.550000	1907.588867	-140.859192
29721.218617	-1456.550000	1906.607422	-46.827499
29721.218617	-1456.550000	1905.625977	-20.952898
29721.218617	-1456.550000	1904.644531	-328.579285
29721.218617	-1456.550000	1903.662109	194.046463
29721.218617	-1456.550000	1902.680664	147.036682
29721.218617	-1456.550000	1901.698242	-92.133545
29721.218617	-1456.550000	1900.715820	-192.477646
29721.218617	-1456.550000	1899.733398	-8.128860
29721.218617	-1456.550000	1898.750000	-37.806747
29721.218617	-1456.550000	1897.767578	-152.511169
29721.218617	-1456.550000	1896.784180	70.801643
29721.218617	-1456.550000	1895.800781	80.195801
29721.218617	-1456.550000	1894.817383	4.588574
29721.218617	-1456.550000	1893.833984	-148.682907
29721.218617	-1456.550000	1892.850586	-207.097931
29721.218617	-1456.550000	1891.866211	-161.001007
29721.218617	-1456.550000	1890.881836	195.962463
29721.218617	-1456.550000	1889.897461	-182.804153
29721.218617	-1456.550000	1888.913086	-199.686600
29721.218617	-1456.550000	1887.927734	60.160133
29721.218617	-1456.550000	1886.943359	-60.998028
29721.218617	-1456.550000	1885.958008	150.307281
29721.218617	-1456.550000	1884.972656	63.232811
29721.218617	-1456.550000	1883.987305	-111.068321
29721.218617	-1456.550000	1883.001953	-57.333649
29721.218617	-1456.550000	1882.015625	-27.817667
29721.218617	-1456.550000	1881.029297	125.344994
29721.218617	-1456.550000	1880.042969	89.471390
29721.218617	-1456.550000	1879.056641	-387.310883
29721.218617	-1456.550000	1878.070313	131.748718
29721.218617	-1456.550000	1877.083984	64.531670
29721.218617	-1456.550000	1876.096680	-24.419605
29721.218617	-1456.550000	1875.109375	-168.984314
29721.218617	-1456.550000	1874.122070	-238.419769
29721.218617	-1456.550000	1873.134766	103.631905
29721.218617	-1456.550000	1872.146484	-69.814140
29721.218617	-1456.550000	1871.159180	134.244370
29721.218617	-1456.550000	1870.170898	-22.150978
29721.218617	-1456.550000	1869.182617	97.233513
29721.218617	-1456.550000	1868.194336	11.075948
29721.218617	-1456.550000	1867.205078	24.090733
29721.218617	-1456.550000	1866.216797	97.549301
29721.218617	-1456.550000	1865.227539	-2.992924
29721.218617	-1456.550000	1864.238281	-47.905968
29721.218617	-1456.550000	1863.249023	1.425683
29721.218617	-1456.550000	1862.259766	29.015968
29721.218617	-1456.550000	1861.269531	160.444565
29721.218617	-1456.550000	1860.279297	-108.936035
29721.218617	-1456.550000	1859.290039	-25.781216
29721.218617	-1456.550000	1858.298828	98.372192
29721.218617	-1456.550000	1857.308594	277.987244
29721.218617	-1456.550000	1856.318359	155.983414
29721.218617	-1456.550000	1855.327148	-55.217793
29721.218617	-1456.550000	1854.335938	-13.123404
29721.218617	-1456.550000	1853.344727	-65.076981
29721.218617	-1456.550000	1852.353516	42.091587
29721.218617	-1456.550000	1851.362305	40.757473
29721.218617	-1456.550000	1850.370117	-42.515289
29721.218617	-1456.550000	1849.377930	52.524059
29721.218617	-1456.550000	1848.385742	195.697952
29721.218617	-1456.550000	1847.393555	138.910873
29721.218617	-1456.550000	1846.401367	-43.077271
29721.218617	-1456.550000	1845.408203	179.440094
29721.218617	-1456.550000	1844.415039	115.424698
29721.218617	-1456.550000	1843.421875	152.491943
29721.218617	-1456.550000	1842.428711	240.056046
29721.218617	-1456.550000	1841.435547	171.195328
29721.218617	-1456.550000	1840.441406	249.055710
29721.218617	-1456.550000	1839.448242	108.031410
29721.218617	-1456.550000	1838.454102	70.416046
29721.218617	-1456.550000	1837.459961	83.269127
29721.218617	-1456.550000	1836.464844	153.765823
29721.218617	-1456.550000	1835.470703	-80.967049
29721.218617	-1456.550000	1834.475586	193.682327
29721.218617	-1456.550000	1833.480469	184.750153
29721.218617	-1456.550000	1832.485352	146.967117
29721.218617	-1456.550000	1831.490234	217.210434
29721.218617	-1456.550000	1830.495117	205.765472
29721.218617	-1456.550000	1829.499023	-74.548248
29721.218617	-1456.550000	1828.502930	48.364281
29721.218617	-1456.550000	1827.506836	51.218170
29721.218617	-1456.550000	1826.510742	250.734421
29721.218617	-1456.550000	1825.513672	392.558563
29721.218617	-1456.550000	1824.517578	153.005844
29721.218617	-1456.550000	1823.520508	148.443207
29721.218617	-1456.550000	1822.523438	177.389816
29721.218617	-1456.550000	1821.526367	525.019836
29721.218617	-1456.550000	1820.529297	297.380493
29721.218617	-1456.550000	1819.531250	93.722595
29721.218617	-1456.550000	1818.533203	124.817490
29721.218617	-1456.550000	1817.535156	136.681213
29721.218617	-1456.550000	1816.537109	498.052460
29721.218617	-1456.550000	1815.539063	409.168030
29721.218617	-1456.550000	1814.540039	157.491348
29721.218617	-1456.550000	1813.541992	8.745271
29721.218617	-1456.550000	1812.542969	233.219498
29721.218617	-1456.550000	1811.543945	110.683960
29721.218617	-1456.550000	1810.543945	224.892929
29721.218617	-1456.550000	1809.544922	348.550323
29721.218617	-1456.550000	1808.544922	261.697327
29721.218617	-1456.550000	1807.544922	256.071014
29721.218617	-1456.550000	1806.544922	302.945404
29721.218617	-1456.550000	1805.544922	215.914871
29721.218617	-1456.550000	1804.544922	116.892166
29721.218617	-1456.550000	1803.543945	-259.243835
29721.218617	-1456.550000	1802.542969	226.758041
29721.218617	-1456.550000	1801.541992	297.052826
29721.218617	-1456.550000	1800.541016	-24.255251
29721.218617	-1456.550000	1799.539063	212.948746
29721.218617	-1456.550000	1798.538086	139.769104
29721.218617	-1456.550000	1797.536133	245.454468
29721.218617	-1456.550000	1796.534180	45.688313
29721.218617	-1456.550000	1795.532227	41.463634
29721.218617	-1456.550000	1794.529297	204.051315
29721.218617	-1456.550000	1793.527344	113.787064
29721.218617	-1456.550000	1792.524414	297.561340
29721.218617	-1456.550000	1791.521484	6.937090
29721.218617	-1456.550000	1790.518555	304.831238
29721.218617	-1456.550000	1789.514648	204.686157
29721.218617	-1456.550000	1788.511719	-16.983629
29721.218617	-1456.550000	1787.507813	-2.931063
29721.218617	-1456.550000	1786.503906	-60.411018
29721.218617	-1456.550000	1785.500000	51.032631
29721.218617	-1456.550000	1784.496094	86.174393
29721.218617	-1456.550000	1783.491211	292.510925
29721.218617	-1456.550000	1782.486328	-0.928993
29721.218617	-1456.550000	1781.481445	145.668304
29721.218617	-1456.550000	1780.476563	-31.319073
29721.218617	-1456.550000	1779.471680	36.547565
29721.218617	-1456.550000	1778.465820	254.037918
29721.218617	-1456.550000	1777.460938	-196.524475
29721.218617	-1456.550000	1776.455078	132.390717
29721.218617	-1456.550000	1775.449219	-6.972008
29721.218617	-1456.550000	1774.442383	-96.519043
29721.218617	-1456.550000	1773.436523	155.855347
29721.218617	-1456.550000	1772.429688	-71.637650
29721.218617	-1456.550000	1771.422852	121.047806
29721.218617	-1456.550000	1770.416016	-165.920868
29721.218617	-1456.550000	1769.409180	45.463619
29721.218617	-1456.550000	1768.402344	12.263286
29721.218617	-1456.550000	1767.394531	-47.143707
29721.218617	-1456.550000	1766.386719	170.853577
29721.218617	-1456.550000	1765.378906	54.291821
29721.218617	-1456.550000	1764.371094	108.358139
29721.218617	-1456.550000	1763.362305	-55.802063
29721.218617	-1456.550000	1762.354492	52.536785
29721.218617	-1456.550000	1761.345703	-296.615448
29721.218617	-1456.550000	1760.336914	36.542427
29721.218617	-1456.550000	1759.328125	130.221085
29721.218617	-1456.550000	1758.318359	24.805731
29721.218617	-1456.550000	1757.308594	-248.798523
29721.218617	-1456.550000	1756.299805	-153.115738
29721.218617	-1456.550000	1755.290039	1.569742
29721.218617	-1456.550000	1754.279297	47.212536
29721.218617	-1456.550000	1753.269531	-117.844299
29721.218617	-1456.550000	1752.258789	-107.924744
29721.218617	-1456.550000	1751.249023	-109.946953
29721.218617	-1456.550000	1750.238281	-232.692322
29721.218617	-1456.550000	1749.226563	-34.004990
29721.218617	-1456.550000	1748.215820	181.039459
29721.218617	-1456.550000	1747.204102	-8.241385
29721.218617	-1456.550000	1746.193359	36.350811
29721.218617	-1456.550000	1745.181641	5.197683
29721.218617	-1456.550000	1744.168945	-177.236160
29721.218617	-1456.550000	1743.157227	-38.560230
29721.218617	-1456.550000	1742.144531	-20.479429
29721.218617	-1456.550000	1741.132813	47.051540
29721.218617	-1456.550000	1740.120117	277.268768
29721.218617	-1456.550000	1739.106445	25.902601
29721.218617	-1456.550000	1738.093750	246.354553
29721.218617	-1456.550000	1737.080078	72.680435
29721.218617	-1456.550000	1736.067383	45.176781
29721.218617	-1456.550000	1735.053711	-154.571716
29721.218617	-1456.550000	1734.040039	138.323685
29721.218617	-1456.550000	1733.025391	23.228407
29721.218617	-1456.550000	1732.011719	-278.093231
29721.218617	-1456.550000	1730.997070	40.198509
29721.218617	-1456.550000	1729.982422	-30.419170
29721.218617	-1456.550000	1728.967773	148.513153
29721.218617	-1456.550000	1727.952148	103.549904
29721.218617	-1456.550000	1726.937500	-386.451599
29721.218617	-1456.550000	1725.921875	74.527138
29721.218617	-1456.550000	1724.906250	-102.538025
29721.218617	-1456.550000	1723.890625	2.689413
29721.218617	-1456.550000	1722.875000	-73.375900
29721.218617	-1456.550000	1721.858398	-60.168339
29721.218617	-1456.550000	1720.841797	312.700623
29721.218617	-1456.550000	1719.825195	43.467930
29721.218617	-1456.550000	1718.808594	-11.869625
29721.218617	-1456.550000	1717.791992	-109.604332
29721.218617	-1456.550000	1716.774414	-296.717865
29721.218617	-1456.550000	1715.756836	-65.703880
29721.218617	-1456.550000	1714.739258	80.549706
29721.218617	-1456.550000	1713.721680	-8.200486
29721.218617	-1456.550000	1712.704102	-40.678272
29721.218617	-1456.550000	1711.685547	34.716312
29721.218617	-1456.550000	1710.667969	140.496628
29721.218617	-1456.550000	1709.649414	-258.399994
29721.218617	-1456.550000	1708.630859	-176.296417
29721.218617	-1456.550000	1707.611328	-77.928970
29721.218617	-1456.550000	1706.592773	-103.986534
29721.218617	-1456.550000	1705.573242	59.772224
29721.218617	-1456.550000	1704.553711	-186.893097
29721.218617	-1456.550000	1703.534180	39.893452
29721.218617	-1456.550000	1702.513672	39.162807
29721.218617	-1456.550000	1701.494141	-123.319786
29721.218617	-1456.550000	1700.473633	103.000618
29721.218617	-1456.550000	1699.453125	361.925201
29721.218617	-1456.550000	1698.432617	-20.955166
29721.218617	-1456.550000	1697.412109	300.905548
29721.218617	-1456.550000	1696.390625	168.430359
29721.218617	-1456.550000	1695.369141	-81.104462
29721.218617	-1456.550000	1694.347656	-274.484924
29721.218617	-1456.550000	1693.326172	35.083046
29721.218617	-1456.550000	1692.304688	180.711975
29721.218617	-1456.550000	1691.282227	-47.978161
29721.218617	-1456.550000	1690.260742	-3.106738
29721.218617	-1456.550000	1689.238281	95.406845
29721.218617	-1456.550000	1688.214844	48.874104
29721.218617	-1456.550000	1687.192383	72.389069
29721.218617	-1456.550000	1686.168945	18.695974
29721.218617	-1456.550000	1685.146484	23.350113
29721.218617	-1456.550000	1684.123047	210.056396
29721.218617	-1456.550000	1683.099609	2.014054
29721.218617	-1456.550000	1682.075195	55.410927
29721.218617	-1456.550000	1681.051758	274.435730
29721.218617	-1456.550000	1680.027344	12.572196
29721.218617	-1456.550000	1679.002930	-11.294580
29721.218617	-1456.550000	1677.978516	163.045746
29721.218617	-1456.550000	1676.953125	267.261230
29721.218617	-1456.550000	1675.928711	142.871384
29721.218617	-1456.550000	1674.903320	-9.537145
29721.218617	-1456.550000	1673.877930	313.532471
29721.218617	-1456.550000	1672.852539	256.554352
29721.218617	-1456.550000	1671.826172	48.069279
29721.218617	-1456.550000	1670.800781	105.173668
29721.218617	-1456.550000	1669.774414	-56.755383
29721.218617	-1456.550000	1668.748047	65.400421
29721.218617	-1456.550000	1667.721680	-22.084000
29721.218617	-1456.550000	1666.694336	78.927689
29721.218617	-1456.550000	1665.667969	242.694565
29721.218617	-1456.550000	1664.640625	94.530754
29721.218617	-1456.550000	1663.613281	262.752136
29721.218617	-1456.550000	1662.585938	214.543854
29721.218617	-1456.550000	1661.557617	347.665100
29721.218617	-1456.550000	1660.530273	138.928177
29721.218617	-1456.550000	1659.501953	534.584351
29721.218617	-1456.550000	1658.473633	309.504425
29721.218617	-1456.550000	1657.444336	439.965088
29721.218617	-1456.550000	1656.416016	430.952850
29721.218617	-1456.550000	1655.386719	240.708893
29721.218617	-1456.550000	1654.358398	412.790161
29721.218617	-1456.550000	1653.328125	515.072144
29721.218617	-1456.550000	1652.298828	491.936462
29721.218617	-1456.550000	1651.269531	784.421509
29721.218617	-1456.550000	1650.239258	791.317383
29721.218617	-1456.550000	1649.208984	747.132080
29721.218617	-1456.550000	1648.178711	932.572266
29721.218617	-1456.550000	1647.148438	1059.928711
29721.218617	-1456.550000	1646.117188	1191.823486
29721.218617	-1456.550000	1645.086914	1017.648132
29721.218617	-1456.550000	1644.055664	1246.793701
29721.218617	-1456.550000	1643.024414	1142.123779
29721.218617	-1456.550000	1641.992188	1005.016357
29721.218617	-1456.550000	1640.960938	1405.376709
29721.218617	-1456.550000	1639.928711	1342.339844
29721.218617	-1456.550000	1638.896484	1253.838013
29721.218617	-1456.550000	1637.864258	1526.511475
29721.218617	-1456.550000	1636.832031	1542.133301
29721.218617	-1456.550000	1635.798828	1351.753418
29721.218617	-1456.550000	1634.766602	1587.185425
29721.218617	-1456.550000	1633.733398	1440.800659
29721.218617	-1456.550000	1632.699219	1800.964233
29721.218617	-1456.550000	1631.666016	1488.083374
29721.218617	-1456.550000	1630.632813	1966.012695
29721.218617	-1456.550000	1629.598633	1882.034546
29721.218617	-1456.550000	1628.564453	1855.864014
29721.218617	-1456.550000	1627.530273	2049.211914
29721.218617	-1456.550000	1626.495117	2348.735596
29721.218617	-1456.550000	1625.460938	2396.404785
29721.218617	-1456.550000	1624.425781	2337.813721
29721.218617	-1456.550000	1623.390625	2964.974365
29721.218617	-1456.550000	1622.355469	2968.636963
29721.218617	-1456.550000	1621.319336	3380.794189
29721.218617	-1456.550000	1620.284180	3158.261719
29721.218617	-1456.550000	1619.248047	3505.649658
29721.218617	-1456.550000	1618.211914	3631.483398
29721.218617	-1456.550000	1617.174805	3528.959717
29721.218617	-1456.550000	1616.138672	3401.149658
29721.218617	-1456.550000	1615.101563	3095.887939
29721.218617	-1456.550000	1614.065430	2965.948730
29721.218617	-1456.550000	1613.027344	2720.830322
29721.218617	-1456.550000	1611.990234	2828.348389
29721.218617	-1456.550000	1610.953125	2740.056885
29721.218617	-1456.550000	1609.915039	2458.357422
29721.218617	-1456.550000	1608.876953	2568.232910
29721.218617	-1456.550000	1607.838867	2648.171143
29721.218617	-1456.550000	1606.800781	2599.218506
29721.218617	-1456.550000	1605.761719	2646.953369
29721.218617	-1456.550000	1604.723633	2280.589844
29721.218617	-1456.550000	1603.684570	2767.803711
29721.218617	-1456.550000	1602.644531	2884.573242
29721.218617	-1456.550000	1601.605469	2608.157959
29721.218617	-1456.550000	1600.566406	2821.572998
29721.218617	-1456.550000	1599.526367	2841.857666
29721.218617	-1456.550000	1598.486328	2830.011230
29721.218617	-1456.550000	1597.446289	2471.277832
29721.218617	-1456.550000	1596.405273	2689.305664
29721.218617	-1456.550000	1595.365234	2631.713135
29721.218617	-1456.550000	1594.324219	2723.437988
29721.218617	-1456.550000	1593.283203	2957.522705
29721.218617	-1456.550000	1592.242188	2909.242188
29721.218617	-1456.550000	1591.200195	3019.374512
29721.218617	-1456.550000	1590.159180	2945.983887
29721.218617	-1456.550000	1589.117188	2679.968262
29721.218617	-1456.550000	1588.075195	3049.441895
29721.218617	-1456.550000	1587.032227	2393.791748
29721.218617	-1456.550000	1585.990234	2671.603760
29721.218617	-1456.550000	1584.947266	2825.578857
29721.218617	-1456.550000	1583.904297	2816.848389
29721.218617	-1456.550000	1582.861328	2769.239990
29721.218617	-1456.550000	1581.818359	2882.087402
29721.218617	-1456.550000	1580.775391	2541.458496
29721.218617	-1456.550000	1579.731445	2620.092529
29721.218617	-1456.550000	1578.687500	2751.435303
29721.218617	-1456.550000	1577.643555	2363.181641
29721.218617	-1456.550000	1576.598633	2220.031982
29721.218617	-1456.550000	1575.554688	2470.607422
29721.218617	-1456.550000	1574.509766	2439.760986
29721.218617	-1456.550000	1573.464844	1965.277100
29721.218617	-1456.550000	1572.419922	2058.208496
29721.218617	-1456.550000	1571.374023	2249.490234
29721.218617	-1456.550000	1570.329102	1899.035522
29721.218617	-1456.550000	1569.283203	1779.631592
29721.218617	-1456.550000	1568.237305	1717.494507
29721.218617	-1456.550000	1567.191406	1625.778076
29721.218617	-1456.550000	1566.144531	1796.859375
29721.218617	-1456.550000	1565.098633	1748.750244
29721.218617	-1456.550000	1564.051758	1958.754272
29721.218617	-1456.550000	1563.004883	1413.167358
29721.218617	-1456.550000	1561.957031	2146.007324
29721.218617	-1456.550000	1560.910156	1701.211060
29721.218617	-1456.550000	1559.862305	1562.397461
29721.218617	-1456.550000	1558.814453	1672.377441
29721.218617	-1456.550000	1557.766602	1752.777222
29721.218617	-1456.550000	1556.718750	1783.092163
29721.218617	-1456.550000	1555.669922	1720.026733
29721.218617	-1456.550000	1554.621094	1593.281860
29721.218617	-1456.550000	1553.573242	1790.302002
29721.218617	-1456.550000	1552.523438	1629.635498
29721.218617	-1456.550000	1551.474609	1635.447632
29721.218617	-1456.550000	1550.424805	1372.626709
29721.218617	-1456.550000	1549.375000	1135.078247
29721.218617	-1456.550000	1548.325195	1218.734985
29721.218617	-1456.550000	1547.275391	1429.943848
29721.218617	-1456.550000	1546.225586	1331.704224
29721.218617	-1456.550000	1545.174805	1784.215454
29721.218617	-1456.550000	1544.124023	1617.942993
29721.218617	-1456.550000	1543.073242	1661.100586
29721.218617	-1456.550000	1542.022461	1693.002197
29721.218617	-1456.550000	1540.970703	1681.812378
29721.218617	-1456.550000	1539.919922	1773.056885
29721.218617	-1456.550000	1538.868164	1721.216431
29721.218617	-1456.550000	1537.815430	1689.968262
29721.218617	-1456.550000	1536.763672	1990.534546
29721.218617	-1456.550000	1535.710938	2463.715088
29721.218617	-1456.550000	1534.659180	2237.479492
29721.218617	-1456.550000	1533.606445	2544.971680
29721.218617	-1456.550000	1532.552734	2654.998291
29721.218617	-1456.550000	1531.500000	2955.761963
29721.218617	-1456.550000	1530.446289	3233.847168
29721.218617	-1456.550000	1529.393555	3269.251465
29721.218617	-1456.550000	1528.338867	3327.445557
29721.218617	-1456.550000	1527.285156	3159.013428
29721.218617	-1456.550000	1526.231445	3271.919678
29721.218617	-1456.550000	1525.176758	2893.047852
29721.218617	-1456.550000	1524.122070	2820.416992
29721.218617	-1456.550000	1523.067383	2392.237305
29721.218617	-1456.550000	1522.012695	2036.866699
29721.218617	-1456.550000	1520.957031	1921.857300
29721.218617	-1456.550000	1519.901367	1392.655273
29721.218617	-1456.550000	1518.845703	1221.525024
29721.218617	-1456.550000	1517.790039	898.961731
29721.218617	-1456.550000	1516.734375	1251.083252
29721.218617	-1456.550000	1515.677734	829.387512
29721.218617	-1456.550000	1514.621094	772.231995
29721.218617	-1456.550000	1513.564453	945.955383
29721.218617	-1456.550000	1512.507813	823.538879
29721.218617	-1456.550000	1511.450195	638.018066
29721.218617	-1456.550000	1510.393555	378.146454
29721.218617	-1456.550000	1509.335938	439.447601
29721.218617	-1456.550000	1508.278320	415.024139
29721.218617	-1456.550000	1507.219727	639.265625
29721.218617	-1456.550000	1506.162109	737.106018
29721.218617	-1456.550000	1505.103516	338.267334
29721.218617	-1456.550000	1504.044922	698.347534
29721.218617	-1456.550000	1502.986328	532.507446
29721.218617	-1456.550000	1501.926758	924.330688
29721.218617	-1456.550000	1500.868164	808.485901
29721.218617	-1456.550000	1499.808594	778.575378
29721.218617	-1456.550000	1498.749023	645.094849
29721.218617	-1456.550000	1497.688477	802.730042
29721.218617	-1456.550000	1496.628906	1019.099365
29721.218617	-1456.550000	1495.568359	800.497864
29721.218617	-1456.550000	1494.507813	755.690002
29721.218617	-1456.550000	1493.447266	774.164429
29721.218617	-1456.550000	1492.386719	592.304504
29721.218617	-1456.550000	1491.325195	680.968750
29721.218617	-1456.550000	1490.263672	483.778290
29721.218617	-1456.550000	1489.202148	442.194458
29721.218617	-1456.550000	1488.140625	238.727417
29721.218617	-1456.550000	1487.079102	73.777901
29721.218617	-1456.550000	1486.016602	167.828278
29721.218617	-1456.550000	1484.954102	-156.419220
29721.218617	-1456.550000	1483.891602	104.436150
29721.218617	-1456.550000	1482.829102	82.023560
29721.218617	-1456.550000	1481.765625	124.997864
29721.218617	-1456.550000	1480.702148	-166.792953
29721.218617	-1456.550000	1479.638672	146.256851
29721.218617	-1456.550000	1478.575195	113.346725
29721.218617	-1456.550000	1477.511719	-114.761406
29721.218617	-1456.550000	1476.447266	-84.355316
29721.218617	-1456.550000	1475.382813	-188.388687
29721.218617	-1456.550000	1474.318359	282.355438
29721.218617	-1456.550000	1473.253906	-41.241909
29721.218617	-1456.550000	1472.189453	122.225632
29721.218617	-1456.550000	1471.124023	34.639030
29721.218617	-1456.550000	1470.058594	173.953827
29721.218617	-1456.550000	1468.993164	69.015800
29721.218617	-1456.550000	1467.927734	102.971519
29721.218617	-1456.550000	1466.861328	285.259186
29721.218617	-1456.550000	1465.794922	420.286713
29721.218617	-1456.550000	1464.728516	415.194794
29721.218617	-1456.550000	1463.662109	427.739227
29721.218617	-1456.550000	1462.594727	450.968262
29721.218617	-1456.550000	1461.528320	606.920349
29721.218617	-1456.550000	1460.460938	416.158875
29721.218617	-1456.550000	1459.393555	561.666809
29721.218617	-1456.550000	1458.326172	534.014343
29721.218617	-1456.550000	1457.257813	371.693848
29721.218617	-1456.550000	1456.189453	318.701385
29721.218617	-1456.550000	1455.121094	963.120850
29721.218617	-1456.550000	1454.052734	1146.665039
29721.218617	-1456.550000	1452.984375	1220.124634
29721.218617	-1456.550000	1451.915039	1107.426514
29721.218617	-1456.550000	1450.845703	1475.085327
29721.218617	-1456.550000	1449.776367	1189.300049
29721.218617	-1456.550000	1448.707031	1536.322510
29721.218617	-1456.550000	1447.636719	1342.517334
29721.218617	-1456.550000	1446.567383	1376.074341
29721.218617	-1456.550000	1445.497070	1286.526367
29721.218617	-1456.550000	1444.425781	1681.057251
29721.218617	-1456.550000	1443.355469	1509.582031
29721.218617	-1456.550000	1442.285156	1843.374146
29721.218617	-1456.550000	1441.213867	1515.666504
29721.218617	-1456.550000	1440.142578	1475.712158
29721.218617	-1456.550000	1439.070313	1407.978638
29721.218617	-1456.550000	1437.999023	1511.074829
29721.218617	-1456.550000	1436.926758	1233.608276
29721.218617	-1456.550000	1435.854492	1342.618530
29721.218617	-1456.550000	1434.782227	1415.722168
29721.218617	-1456.550000	1433.709961	1254.969727
29721.218617	-1456.550000	1432.636719	1493.714355
29721.218617	-1456.550000	1431.563477	1437.541626
29721.218617	-1456.550000	1430.490234	1525.972656
29721.218617	-1456.550000	1429.416992	1670.864380
29721.218617	-1456.550000	1428.343750	1538.007202
29721.218617	-1456.550000	1427.269531	1530.733765
29721.218617	-1456.550000	1426.195313	1522.519287
29721.218617	-1456.550000	1425.121094	1031.644531
29721.218617	-1456.550000	1424.046875	959.030884
29721.218617	-1456.550000	1422.971680	748.792603
29721.218617	-1456.550000	1421.896484	879.234436
29721.218617	-1456.550000	1420.821289	606.781555
29721.218617	-1456.550000	1419.746094	669.443176
29721.218617	-1456.550000	1418.669922	445.511841
29721.218617	-1456.550000	1417.594727	601.455261
29721.218617	-1456.550000	1416.518555	403.265717
29721.218617	-1456.550000	1415.442383	232.262573
29721.218617	-1456.550000	1414.365234	409.617920
29721.218617	-1456.550000	1413.289063	333.970001
29721.218617	-1456.550000	1412.211914	916.384521
29721.218617	-1456.550000	1411.134766	887.078674
29721.218617	-1456.550000	1410.057617	795.032043
29721.218617	-1456.550000	1408.979492	766.997681
29721.218617	-1456.550000	1407.902344	659.325012
29721.218617	-1456.550000	1406.824219	796.370361
29721.218617	-1456.550000	1405.746094	812.400757
29721.218617	-1456.550000	1404.666992	834.831787
29721.218617	-1456.550000	1403.588867	1177.921753
29721.218617	-1456.550000	1402.509766	981.997070
29721.218617	-1456.550000	1401.430664	727.446899
29721.218617	-1456.550000	1400.351563	964.967834
29721.218617	-1456.550000	1399.271484	840.108948
29721.218617	-1456.550000	1398.192383	697.333984
29721.218617	-1456.550000	1397.112305	904.187500
29721.218617	-1456.550000	1396.031250	844.856445
29721.218617	-1456.550000	1394.951172	923.762817
29721.218617	-1456.550000	1393.871094	830.662964
29721.218617	-1456.550000	1392.790039	940.501221
29721.218617	-1456.550000	1391.708984	988.776978
29721.218617	-1456.550000	1390.626953	945.540283
29721.218617	-1456.550000	1389.545898	1241.381592
29721.218617	-1456.550000	1388.463867	1393.038940
29721.218617	-1456.550000	1387.381836	1565.024658
29721.218617	-1456.550000	1386.299805	1264.017456
29721.218617	-1456.550000	1385.217773	1440.457886
29721.218617	-1456.550000	1384.134766	1511.609497
29721.218617	-1456.550000	1383.051758	1410.187256
29721.218617	-1456.550000	1381.968750	1217.045654
29721.218617	-1456.550000	1380.885742	1118.865356
29721.218617	-1456.550000	1379.802734	1011.707703
29721.218617	-1456.550000	1378.718750	1183.717896
29721.218617	-1456.550000	1377.634766	1430.829102
29721.218617	-1456.550000	1376.550781	1358.977539
29721.218617	-1456.550000	1375.465820	1361.275635
29721.218617	-1456.550000	1374.381836	1487.495483
29721.218617	-1456.550000	1373.296875	1285.042725
29721.218617	-1456.550000	1372.211914	1719.566406
29721.218617	-1456.550000	1371.126953	1477.026367
29721.218617	-1456.550000	1370.041016	1635.332520
29721.218617	-1456.550000	1368.955078	1363.250732
29721.218617	-1456.550000	1367.869141	1282.939819
29721.218617	-1456.550000	1366.783203	1781.513916
29721.218617	-1456.550000	1365.697266	1577.962280
29721.218617	-1456.550000	1364.610352	1385.687256
29721.218617	-1456.550000	1363.523438	1702.126099
29721.218617	-1456.550000	1362.436523	1715.707153
29721.218617	-1456.550000	1361.349609	1577.265259
29721.218617	-1456.550000	1360.261719	1505.172241
29721.218617	-1456.550000	1359.174805	1506.960083
29721.218617	-1456.550000	1358.086914	1507.510742
29721.218617	-1456.550000	1356.998047	1659.813110
29721.218617	-1456.550000	1355.910156	1803.414795
29721.218617	-1456.550000	1354.821289	1738.762085
29721.218617	-1456.550000	1353.732422	1885.099854
29721.218617	-1456.550000	1352.643555	1798.239136
29721.218617	-1456.550000	1351.554688	1986.635864
29721.218617	-1456.550000	1350.464844	1943.738647
29721.218617	-1456.550000	1349.375000	2064.061523
29721.218617	-1456.550000	1348.285156	2529.364502
29721.218617	-1456.550000	1347.195313	2443.584229
29721.218617	-1456.550000	1346.105469	2739.734619
29721.218617	-1456.550000	1345.014648	3459.527100
29721.218617	-1456.550000	1343.923828	4000.781006
29721.218617	-1456.550000	1342.833008	4735.085449
29721.218617	-1456.550000	1341.741211	5151.357910
29721.218617	-1456.550000	1340.650391	5477.129883
29721.218617	-1456.550000	1339.558594	5507.208008
29721.218617	-1456.550000	1338.466797	5212.313477
29721.218617	-1456.550000	1337.374023	4698.542480
29721.218617	-1456.550000	1336.282227	4170.505859
29721.218617	-1456.550000	1335.189453	3615.623779
29721.218617	-1456.550000	1334.096680	3059.773926
29721.218617	-1456.550000	1333.003906	2880.113037
29721.218617	-1456.550000	1331.910156	2553.474121
29721.218617	-1456.550000	1330.817383	2328.736084
29721.218617	-1456.550000	1329.723633	2209.107666
29721.218617	-1456.550000	1328.629883	1854.193970
29721.218617	-1456.550000	1327.535156	1720.676514
29721.218617	-1456.550000	1326.441406	1682.210449
29721.218617	-1456.550000	1325.346680	1593.108643
29721.218617	-1456.550000	1324.251953	1314.154053
29721.218617	-1456.550000	1323.156250	1279.160767
29721.218617	-1456.550000	1322.061523	1046.566772
29721.218617	-1456.550000	1320.965820	1181.660156
29721.218617	-1456.550000	1319.870117	1149.469604
29721.218617	-1456.550000	1318.774414	1268.189087
29721.218617	-1456.550000	1317.678711	1568.500732
29721.218617	-1456.550000	1316.582031	1421.254395
29721.218617	-1456.550000	1315.485352	1590.640503
29721.218617	-1456.550000	1314.388672	1409.398071
29721.218617	-1456.550000	1313.291016	1938.918091
29721.218617	-1456.550000	1312.194336	1822.135010
29721.218617	-1456.550000	1311.096680	1897.717163
29721.218617	-1456.550000	1309.999023	1757.667236
29721.218617	-1456.550000	1308.901367	1941.989624
29721.218617	-1456.550000	1307.802734	1852.105103
29721.218617	-1456.550000	1306.705078	1886.109619
29721.218617	-1456.550000	1305.606445	1894.839966
29721.218617	-1456.550000	1304.506836	1902.976563
29721.218617	-1456.550000	1303.408203	1834.091675
29721.218617	-1456.550000	1302.308594	1749.452271
29721.218617	-1456.550000	1301.208984	1416.812500
29721.218617	-1456.550000	1300.109375	1542.569214
29721.218617	-1456.550000	1299.009766	1264.151001
29721.218617	-1456.550000	1297.909180	1643.800903
29721.218617	-1456.550000	1296.808594	1392.538696
29721.218617	-1456.550000	1295.708008	1244.450928
29721.218617	-1456.550000	1294.607422	1168.409180
29721.218617	-1456.550000	1293.506836	958.359314
29721.218617	-1456.550000	1292.405273	972.669861
29721.218617	-1456.550000	1291.303711	1056.092773
29721.218617	-1456.550000	1290.202148	907.071838
29721.218617	-1456.550000	1289.099609	990.622253
29721.218617	-1456.550000	1287.998047	1039.549561
29721.218617	-1456.550000	1286.895508	1045.389282
29721.218617	-1456.550000	1285.792969	965.869568
29721.218617	-1456.550000	1284.689453	666.835938
29721.218617	-1456.550000	1283.586914	761.206787
29721.218617	-1456.550000	1282.483398	753.648865
29721.218617	-1456.550000	1281.379883	889.360901
29721.218617	-1456.550000	1280.276367	742.679565
29721.218617	-1456.550000	1279.171875	785.840881
29721.218617	-1456.550000	1278.067383	854.654907
29721.218617	-1456.550000	1276.962891	970.427002
29721.218617	-1456.550000	1275.858398	952.228027
29721.218617	-1456.550000	1274.753906	1114.603516
29721.218617	-1456.550000	1273.648438	1188.072998
29721.218617	-1456.550000	1272.542969	1207.106567
29721.218617	-1456.550000	1271.437500	1439.400024
29721.218617	-1456.550000	1270.331055	1693.875366
29721.218617	-1456.550000	1269.225586	1531.347046
29721.218617	-1456.550000	1268.119141	1518.884766
29721.218617	-1456.550000	1267.012695	1408.143921
29721.218617	-1456.550000	1265.906250	1172.965210
29721.218617	-1456.550000	1264.798828	1427.049683
29721.218617	-1456.550000	1263.691406	1097.849976
29721.218617	-1456.550000	1262.583984	1060.433105
29721.218617	-1456.550000	1261.476563	850.551636
29721.218617	-1456.550000	1260.368164	860.363892
29721.218617	-1456.550000	1259.260742	502.709595
29721.218617	-1456.550000	1258.152344	337.625397
29721.218617	-1456.550000	1257.043945	37.434879
29721.218617	-1456.550000	1255.934570	24.397898
29721.218617	-1456.550000	1254.825195	4.496195
29721.218617	-1456.550000	1253.716797	-170.296295
29721.218617	-1456.550000	1252.606445	-114.718834
29721.218617	-1456.550000	1251.497070	-108.669395
29721.218617	-1456.550000	1250.387695	-73.231796
29721.218617	-1456.550000	1249.277344	-132.007446
29721.218617	-1456.550000	1248.166992	-33.188393
29721.218617	-1456.550000	1247.055664	-280.536194
29721.218617	-1456.550000	1245.945313	-269.275482
29721.218617	-1456.550000	1244.833984	-102.244591
29721.218617	-1456.550000	1243.722656	-73.895264
29721.218617	-1456.550000	1242.611328	-86.158379
29721.218617	-1456.550000	1241.499023	-55.238876
29721.218617	-1456.550000	1240.387695	-234.134674
29721.218617	-1456.550000	1239.275391	-60.576771
29721.218617	-1456.550000	1238.162109	-165.691345
29721.218617	-1456.550000	1237.049805	-7.312141
29721.218617	-1456.550000	1235.936523	-103.693665
29721.218617	-1456.550000	1234.823242	-84.734779
29721.218617	-1456.550000	1233.709961	57.250893
29721.218617	-1456.550000	1232.596680	3.836471
29721.218617	-1456.550000	1231.482422	-21.724098
29721.218617	-1456.550000	1230.369141	5.581409
29721.218617	-1456.550000	1229.253906	137.325592
29721.218617	-1456.550000	1228.139648	-54.781158
29721.218617	-1456.550000	1227.025391	-38.865726
29721.218617	-1456.550000	1225.910156	47.940987
29721.218617	-1456.550000	1224.794922	49.845840
29721.218617	-1456.550000	1223.679688	4.511859
29721.218617	-1456.550000	1222.563477	196.770981
29721.218617	-1456.550000	1221.447266	159.320404
29721.218617	-1456.550000	1220.331055	191.422775
29721.218617	-1456.550000	1219.214844	273.670868
29721.218617	-1456.550000	1218.098633	400.997253
29721.218617	-1456.550000	1216.981445	335.331421
29721.218617	-1456.550000	1215.864258	312.819977
29721.218617	-1456.550000	1214.747070	404.942413
29721.218617	-1456.550000	1213.629883	424.000549
29721.218617	-1456.550000	1212.511719	584.495972
29721.218617	-1456.550000	1211.393555	657.028625
29721.218617	-1456.550000	1210.275391	541.136658
29721.218617	-1456.550000	1209.157227	519.500793
29721.218617	-1456.550000	1208.038086	582.245483
29721.218617	-1456.550000	1206.918945	538.400696
29721.218617	-1456.550000	1205.799805	572.945862
29721.218617	-1456.550000	1204.680664	565.169312
29721.218617	-1456.550000	1203.560547	670.417969
29721.218617	-1456.550000	1202.441406	525.041992
29721.218617	-1456.550000	1201.321289	418.375031
29721.218617	-1456.550000	1200.200195	647.142700
29721.218617	-1456.550000	1199.080078	628.158264
29721.218617	-1456.550000	1197.958984	765.257080
29721.218617	-1456.550000	1196.837891	732.645203
29721.218617	-1456.550000	1195.716797	894.282776
29721.218617	-1456.550000	1194.594727	698.547913
29721.218617	-1456.550000	1193.473633	733.994507
29721.218617	-1456.550000	1192.351563	834.055298
29721.218617	-1456.550000	1191.229492	574.184570
29721.218617	-1456.550000	1190.106445	563.565002
29721.218617	-1456.550000	1188.984375	693.079102
29721.218617	-1456.550000	1187.861328	600.764648
29721.218617	-1456.550000	1186.738281	778.818359
29721.218617	-1456.550000	1185.614258	663.381775
29721.218617	-1456.550000	1184.491211	823.781250
29721.218617	-1456.550000	1183.367188	830.321655
29721.218617	-1456.550000	1182.243164	1022.145386
29721.218617	-1456.550000	1181.119141	910.535034
29721.218617	-1456.550000	1179.994141	903.424744
29721.218617	-1456.550000	1178.869141	954.982483
29721.218617	-1456.550000	1177.744141	683.272034
29721.218617	-1456.550000	1176.619141	987.851440
29721.218617	-1456.550000	1175.493164	859.588196
29721.218617	-1456.550000	1174.368164	787.919128
29721.218617	-1456.550000	1173.242188	700.121033
29721.218617	-1456.550000	1172.115234	519.261475
29721.218617	-1456.550000	1170.989258	693.125366
29721.218617	-1456.550000	1169.862305	716.682373
29721.218617	-1456.550000	1168.735352	592.780823
29721.218617	-1456.550000	1167.608398	657.209229
29721.218617	-1456.550000	1166.481445	550.476929
29721.218617	-1456.550000	1165.353516	680.812195
29721.218617	-1456.550000	1164.225586	488.300079
29721.218617	-1456.550000	1163.097656	675.277893
29721.218617	-1456.550000	1161.968750	496.018860
29721.218617	-1456.550000	1160.840820	424.361877
29721.218617	-1456.550000	1159.711914	385.088074
29721.218617	-1456.550000	1158.583008	233.894119
29721.218617	-1456.550000	1157.453125	135.703323
29721.218617	-1456.550000	1156.324219	-33.142883
29721.218617	-1456.550000	1155.194336	102.507271
29721.218617	-1456.550000	1154.064453	62.157360
29721.218617	-1456.550000	1152.933594	95.021515
29721.218617	-1456.550000	1151.803711	96.207375
29721.218617	-1456.550000	1150.672852	153.836914
29721.218617	-1456.550000	1149.541992	171.691360
29721.218617	-1456.550000	1148.411133	259.821136
29721.218617	-1456.550000	1147.279297	145.059280
29721.218617	-1456.550000	1146.147461	526.839539
29721.218617	-1456.550000	1145.015625	524.017151
29721.218617	-1456.550000	1143.883789	596.414063
29721.218617	-1456.550000	1142.750977	773.171631
29721.218617	-1456.550000	1141.619141	724.498474
29721.218617	-1456.550000	1140.486328	360.489899
29721.218617	-1456.550000	1139.352539	319.946381
29721.218617	-1456.550000	1138.219727	206.807343
29721.218617	-1456.550000	1137.085938	281.589722
29721.218617	-1456.550000	1135.952148	178.462479
29721.218617	-1456.550000	1134.818359	383.149963
29721.218617	-1456.550000	1133.683594	183.679779
29721.218617	-1456.550000	1132.549805	142.177780
29721.218617	-1456.550000	1131.415039	360.332062
29721.218617	-1456.550000	1130.279297	478.818054
29721.218617	-1456.550000	1129.144531	425.539398
29721.218617	-1456.550000	1128.008789	545.947510
29721.218617	-1456.550000	1126.873047	564.071289
29721.218617	-1456.550000	1125.737305	126.037605
29721.218617	-1456.550000	1124.601563	169.330734
29721.218617	-1456.550000	1123.464844	265.579254
29721.218617	-1456.550000	1122.328125	-27.496113
29721.218617	-1456.550000	1121.191406	276.270538
29721.218617	-1456.550000	1120.054688	223.293259
29721.218617	-1456.550000	1118.916992	224.319473
29721.218617	-1456.550000	1117.779297	332.007751
29721.218617	-1456.550000	1116.641602	454.908813
29721.218617	-1456.550000	1115.503906	370.214050
29721.218617	-1456.550000	1114.365234	488.848450
29721.218617	-1456.550000	1113.226563	256.861481
29721.218617	-1456.550000	1112.087891	426.868408
29721.218617	-1456.550000	1110.949219	331.128998
29721.218617	-1456.550000	1109.809570	263.579651
29721.218617	-1456.550000	1108.669922	261.738983
29721.218617	-1456.550000	1107.530273	27.054314
29721.218617	-1456.550000	1106.390625	117.957321
29721.218617	-1456.550000	1105.250000	143.458389
29721.218617	-1456.550000	1104.109375	-1.157942
29721.218617	-1456.550000	1102.968750	93.569366
29721.218617	-1456.550000	1101.828125	64.968529
29721.218617	-1456.550000	1100.686523	-25.727678
29721.218617	-1456.550000	1099.544922	197.312500
29721.218617	-1456.550000	1098.403320	65.417320
29721.218617	-1456.550000	1097.261719	286.991211
29721.218617	-1456.550000	1096.120117	457.975708
29721.218617	-1456.550000	1094.977539	544.126770
29721.218617	-1456.550000	1093.834961	592.731506
29721.218617	-1456.550000	1092.691406	696.715759
29721.218617	-1456.550000	1091.548828	617.453125
29721.218617	-1456.550000	1090.405273	439.216614
29721.218617	-1456.550000	1089.261719	464.653229
29721.218617	-1456.550000	1088.118164	694.321716
29721.218617	-1456.550000	1086.973633	817.374084
29721.218617	-1456.550000	1085.829102	795.473083
29721.218617	-1456.550000	1084.684570	820.458801
29721.218617	-1456.550000	1083.540039	924.511169
29721.218617	-1456.550000	1082.395508	1008.956604
29721.218617	-1456.550000	1081.250000	882.347107
29721.218617	-1456.550000	1080.104492	962.615417
29721.218617	-1456.550000	1078.958984	824.431763
29721.218617	-1456.550000	1077.812500	695.754150
29721.218617	-1456.550000	1076.666016	526.128906
29721.218617	-1456.550000	1075.519531	839.882507
29721.218617	-1456.550000	1074.373047	558.444824
29721.218617	-1456.550000	1073.226563	609.273376
29721.218617	-1456.550000	1072.079102	48.702705
29721.218617	-1456.550000	1070.931641	171.304947
29721.218617	-1456.550000	1069.784180	281.387054
29721.218617	-1456.550000	1068.635742	161.627274
29721.218617	-1456.550000	1067.487305	121.185806
29721.218617	-1456.550000	1066.338867	345.051270
29721.218617	-1456.550000	1065.190430	-24.772104
29721.218617	-1456.550000	1064.041992	-104.227272
29721.218617	-1456.550000	1062.892578	106.924278
29721.218617	-1456.550000	1061.743164	232.436813
29721.218617	-1456.550000	1060.593750	-40.431461
29721.218617	-1456.550000	1059.443359	191.378098
29721.218617	-1456.550000	1058.292969	382.453979
29721.218617	-1456.550000	1057.142578	119.642288
29721.218617	-1456.550000	1055.992188	391.523499
29721.218617	-1456.550000	1054.841797	187.051178
29721.218617	-1456.550000	1053.690430	34.016060
29721.218617	-1456.550000	1052.539063	70.024590
29721.218617	-1456.550000	1051.387695	365.819366
29721.218617	-1456.550000	1050.235352	341.360931
29721.218617	-1456.550000	1049.083984	321.672821
29721.218617	-1456.550000	1047.931641	267.122864
29721.218617	-1456.550000	1046.778320	124.932022
29721.218617	-1456.550000	1045.625977	454.641815
29721.218617	-1456.550000	1044.472656	360.207611
29721.218617	-1456.550000	1043.319336	77.339890
29721.218617	-1456.550000	1042.166016	151.314499
29721.218617	-1456.550000	1041.012695	119.305725
29721.218617	-1456.550000	1039.858398	271.941559
29721.218617	-1456.550000	1038.704102	43.930801
29721.218617	-1456.550000	1037.549805	17.025864
29721.218617	-1456.550000	1036.394531	257.657288
29721.218617	-1456.550000	1035.239258	19.043858
29721.218617	-1456.550000	1034.083984	252.842270
29721.218617	-1456.550000	1032.928711	168.281555
29721.218617	-1456.550000	1031.773438	459.870026
29721.218617	-1456.550000	1030.617188	311.748901
29721.218617	-1456.550000	1029.460938	355.287567
29721.218617	-1456.550000	1028.304688	373.222931
29721.218617	-1456.550000	1027.147461	307.490936
29721.218617	-1456.550000	1025.991211	412.357819
29721.218617	-1456.550000	1024.833984	94.081711
29721.218617	-1456.550000	1023.675781	-14.735498
29721.218617	-1456.550000	1022.518555	68.733315
29721.218617	-1456.550000	1021.360352	89.720558
29721.218617	-1456.550000	1020.202148	-54.968311
29721.218617	-1456.550000	1019.043945	-262.532013
29721.218617	-1456.550000	1017.884766	-77.824005
29721.218617	-1456.550000	1016.726563	-316.096741
29721.218617	-1456.550000	1015.567383	-268.321472
29721.218617	-1456.550000	1014.407227	-64.138397
29721.218617	-1456.550000	1013.248047	-251.235229
29721.218617	-1456.550000	1012.087891	-8.444805
29721.218617	-1456.550000	1010.927734	-10.713214
29721.218617	-1456.550000	1009.767578	-93.596565
29721.218617	-1456.550000	1008.606445	84.480942
29721.218617	-1456.550000	1007.446289	130.152466
29721.218617	-1456.550000	1006.285156	-101.472015
29721.218617	-1456.550000	1005.123047	280.674316
29721.218617	-1456.550000	1003.961914	-22.675505
29721.218617	-1456.550000	1002.799805	222.209335
29721.218617	-1456.550000	1001.637695	-43.390278
29721.218617	-1456.550000	1000.475586	140.010544
29721.218617	-1456.550000	999.312500	-129.489319
29721.218617	-1456.550000	998.149414	155.125504
29721.218617	-1456.550000	996.986328	86.679756
29721.218617	-1456.550000	995.823242	128.220856
29721.218617	-1456.550000	994.659180	91.992004
29721.218617	-1456.550000	993.496094	449.424316
29721.218617	-1456.550000	992.332031	362.132568
29721.218617	-1456.550000	991.166992	447.132782
29721.218617	-1456.550000	990.002930	581.809448
29721.218617	-1456.550000	988.837891	841.976257
29721.218617	-1456.550000	987.672852	1130.721313
29721.218617	-1456.550000	986.506836	903.336243
29721.218617	-1456.550000	985.341797	1006.229370
29721.218617	-1456.550000	984.175781	1233.714111
29721.218617	-1456.550000	983.009766	772.212585
29721.218617	-1456.550000	981.843750	367.248779
29721.218617	-1456.550000	980.676758	284.055573
29721.218617	-1456.550000	979.509766	182.871674
29721.218617	-1456.550000	978.342773	-44.575844
29721.218617	-1456.550000	977.175781	-113.790413
29721.218617	-1456.550000	976.007813	-12.121281
29721.218617	-1456.550000	974.839844	-183.628464
29721.218617	-1456.550000	973.671875	70.118225
29721.218617	-1456.550000	972.503906	-78.585831
29721.218617	-1456.550000	971.334961	-263.836121
29721.218617	-1456.550000	970.166016	-14.268732
29721.218617	-1456.550000	968.997070	-176.211288
29721.218617	-1456.550000	967.828125	-156.221924
29721.218617	-1456.550000	966.658203	-282.921692
29721.218617	-1456.550000	965.488281	-243.407486
29721.218617	-1456.550000	964.318359	-82.219833
29721.218617	-1456.550000	963.148438	-58.106358
29721.218617	-1456.550000	961.977539	135.382065
29721.218617	-1456.550000	960.806641	164.736557
29721.218617	-1456.550000	959.635742	-51.610798
29721.218617	-1456.550000	958.463867	-162.539124
29721.218617	-1456.550000	957.292969	-35.234268
29721.218617	-1456.550000	956.121094	-96.228371
29721.218617	-1456.550000	954.948242	-122.845337
29721.218617	-1456.550000	953.776367	-79.016937
29721.218617	-1456.550000	952.603516	328.281128
29721.218617	-1456.550000	951.430664	119.206230
29721.218617	-1456.550000	950.257813	-1.301809
29721.218617	-1456.550000	949.084961	28.157782
29721.218617	-1456.550000	947.911133	29.986813
29721.218617	-1456.550000	946.737305	-159.170929
29721.218617	-1456.550000	945.563477	-170.233063
29721.218617	-1456.550000	944.388672	-58.311539
29721.218617	-1456.550000	943.213867	402.784363
29721.218617	-1456.550000	942.039063	185.363556
29721.218617	-1456.550000	940.864258	373.035767
29721.218617	-1456.550000	939.688477	493.975983
29721.218617	-1456.550000	938.513672	415.456207
29721.218617	-1456.550000	937.337891	292.193329
29721.218617	-1456.550000	936.161133	348.076202
29721.218617	-1456.550000	934.985352	135.609406
29721.218617	-1456.550000	933.808594	173.273254
29721.218617	-1456.550000	932.631836	162.014542
29721.218617	-1456.550000	931.454102	230.912323
29721.218617	-1456.550000	930.277344	92.180328
29721.218617	-1456.550000	929.099609	103.167793
29721.218617	-1456.550000	927.921875	344.110626
29721.218617	-1456.550000	926.743164	-69.455215
29721.218617	-1456.550000	925.565430	57.541588
29721.218617	-1456.550000	924.386719	197.909042
29721.218617	-1456.550000	923.208008	21.148716
29721.218617	-1456.550000	922.028320	103.390228
29721.218617	-1456.550000	920.849609	341.824158
29721.218617	-1456.550000	919.669922	347.102081
29721.218617	-1456.550000	919.474609	257.444275
29721.218617	-1456.550000	918.309570	210.062698
29721.218617	-1456.550000	917.143555	379.051453
29721.218617	-1456.550000	915.977539	229.027405
29721.218617	-1456.550000	914.810547	281.950073
29721.218617	-1456.550000	913.644531	522.082458
29721.218617	-1456.550000	912.477539	267.294647
29721.218617	-1456.550000	911.310547	246.564789
29721.218617	-1456.550000	910.143555	392.912598
29721.218617	-1456.550000	908.975586	271.883331
29721.218617	-1456.550000	907.807617	255.547104
29721.218617	-1456.550000	906.639648	185.755569
29721.218617	-1456.550000	905.471680	147.133789
29721.218617	-1456.550000	904.303711	188.627151
29721.218617	-1456.550000	903.134766	94.345230
29721.218617	-1456.550000	901.965820	242.573044
29721.218617	-1456.550000	900.796875	-65.263580
29721.218617	-1456.550000	899.626953	82.892105
29721.218617	-1456.550000	898.457031	-24.727577
29721.218617	-1456.550000	897.287109	167.768005
29721.218617	-1456.550000	896.117188	171.249954
29721.218617	-1456.550000	894.947266	-45.273922
29721.218617	-1456.550000	893.776367	98.163132
29721.218617	-1456.550000	892.605469	-89.431122
29721.218617	-1456.550000	891.434570	2.831962
29721.218617	-1456.550000	890.262695	-71.479393
29721.218617	-1456.550000	889.091797	-150.230316
29721.218617	-1456.550000	887.919922	-89.153488
29721.218617	-1456.550000	886.748047	122.756966
29721.218617	-1456.550000	885.575195	119.371880
29721.218617	-1456.550000	884.403320	-285.488190
29721.218617	-1456.550000	883.230469	-87.046387
29721.218617	-1456.550000	882.057617	-97.113182
29721.218617	-1456.550000	880.883789	-186.995590
29721.218617	-1456.550000	879.710938	22.308704
29721.218617	-1456.550000	878.537109	58.679878
29721.218617	-1456.550000	877.362305	-115.433067
29721.218617	-1456.550000	876.188477	-247.422226
29721.218617	-1456.550000	875.013672	25.838499
29721.218617	-1456.550000	873.839844	-115.035103
29721.218617	-1456.550000	872.664063	-260.300262
29721.218617	-1456.550000	871.489258	28.208052
29721.218617	-1456.550000	870.313477	4.607938
29721.218617	-1456.550000	869.138672	20.802425
29721.218617	-1456.550000	867.962891	70.139946
29721.218617	-1456.550000	866.786133	-174.649338
29721.218617	-1456.550000	865.610352	108.986145
29721.218617	-1456.550000	864.433594	-53.990082
29721.218617	-1456.550000	863.256836	68.135124
29721.218617	-1456.550000	862.079102	-77.146942
29721.218617	-1456.550000	860.902344	-63.360722
29721.218617	-1456.550000	859.724609	-80.527321
29721.218617	-1456.550000	858.546875	-27.060474
29721.218617	-1456.550000	857.368164	15.320031
29721.218617	-1456.550000	856.190430	-63.742104
29721.218617	-1456.550000	855.011719	-129.559250
29721.218617	-1456.550000	853.833008	-124.783356
29721.218617	-1456.550000	852.654297	65.239540
29721.218617	-1456.550000	851.474609	195.611725
29721.218617	-1456.550000	850.294922	277.392242
29721.218617	-1456.550000	849.115234	151.895157
29721.218617	-1456.550000	847.935547	218.157227
29721.218617	-1456.550000	846.754883	462.841125
29721.218617	-1456.550000	845.575195	372.528473
29721.218617	-1456.550000	844.393555	564.151367
29721.218617	-1456.550000	843.212891	352.673370
29721.218617	-1456.550000	842.032227	304.167267
29721.218617	-1456.550000	840.850586	737.709595
29721.218617	-1456.550000	839.668945	713.283447
29721.218617	-1456.550000	838.486328	640.426270
29721.218617	-1456.550000	837.304688	1236.307861
29721.218617	-1456.550000	836.122070	1466.810059
29721.218617	-1456.550000	834.939453	1369.539185
29721.218617	-1456.550000	833.756836	1610.834473
29721.218617	-1456.550000	832.573242	1462.942139
29721.218617	-1456.550000	831.389648	921.706909
29721.218617	-1456.550000	830.206055	514.674927
29721.218617	-1456.550000	829.022461	446.058685
29721.218617	-1456.550000	827.838867	298.363495
29721.218617	-1456.550000	826.654297	523.968140
29721.218617	-1456.550000	825.469727	415.750519
29721.218617	-1456.550000	824.284180	540.190918
29721.218617	-1456.550000	823.099609	458.258728
29721.218617	-1456.550000	821.914063	439.942352
29721.218617	-1456.550000	820.728516	103.531914
29721.218617	-1456.550000	819.542969	394.425262
29721.218617	-1456.550000	818.356445	560.174683
29721.218617	-1456.550000	817.169922	118.586060
29721.218617	-1456.550000	815.983398	444.223206
29721.218617	-1456.550000	814.796875	245.972275
29721.218617	-1456.550000	813.609375	341.320923
29721.218617	-1456.550000	812.422852	476.002899
29721.218617	-1456.550000	811.235352	551.455078
29721.218617	-1456.550000	810.046875	473.567261
29721.218617	-1456.550000	808.859375	505.106659
29721.218617	-1456.550000	807.670898	932.703247
29721.218617	-1456.550000	806.482422	644.573242
29721.218617	-1456.550000	805.293945	555.579285
29721.218617	-1456.550000	804.104492	674.351318
29721.218617	-1456.550000	802.915039	624.642822
29721.218617	-1456.550000	801.725586	452.466797
29721.218617	-1456.550000	800.536133	409.267914
29721.218617	-1456.550000	799.345703	444.705139
29721.218617	-1456.550000	798.155273	344.604401
29721.218617	-1456.550000	796.964844	150.556808
29721.218617	-1456.550000	795.774414	312.520721
29721.218617	-1456.550000	794.583008	524.578674
29721.218617	-1456.550000	793.392578	369.729492
29721.218617	-1456.550000	792.200195	251.987717
29721.218617	-1456.550000	791.008789	158.237778
29721.218617	-1456.550000	789.816406	88.461685
29721.218617	-1456.550000	788.625000	132.076538
29721.218617	-1456.550000	787.432617	101.462570
29721.218617	-1456.550000	786.239258	123.124809
29721.218617	-1456.550000	785.046875	183.949387
29721.218617	-1456.550000	783.853516	-16.853687
29721.218617	-1456.550000	782.660156	372.874146
29721.218617	-1456.550000	781.465820	261.302795
29721.218617	-1456.550000	780.272461	110.500450
29721.218617	-1456.550000	779.078125	162.213791
29721.218617	-1456.550000	777.883789	361.884796
29721.218617	-1456.550000	776.688477	197.884308
29721.218617	-1456.550000	775.494141	223.218475
29721.218617	-1456.550000	774.298828	135.322983
29721.218617	-1456.550000	773.103516	232.302124
29721.218617	-1456.550000	771.907227	366.139771
29721.218617	-1456.550000	770.711914	336.758606
29721.218617	-1456.550000	769.515625	422.537170
29721.218617	-1456.550000	768.318359	438.650299
29721.218617	-1456.550000	767.122070	404.694946
29721.218617	-1456.550000	765.924805	577.082397
29721.218617	-1456.550000	764.727539	386.554169
29721.218617	-1456.550000	763.530273	463.154480
29721.218617	-1456.550000	762.333008	465.818176
29721.218617	-1456.550000	761.134766	381.561768
29721.218617	-1456.550000	759.936523	455.701202
29721.218617	-1456.550000	758.738281	282.349091
29721.218617	-1456.550000	757.540039	427.907104
29721.218617	-1456.550000	756.340820	588.502808
29721.218617	-1456.550000	755.141602	427.987549
29721.218617	-1456.550000	753.942383	486.440796
29721.218617	-1456.550000	752.742188	393.040680
29721.218617	-1456.550000	751.541992	624.683777
29721.218617	-1456.550000	750.341797	554.953308
29721.218617	-1456.550000	749.141602	560.985413
29721.218617	-1456.550000	747.941406	984.949402
29721.218617	-1456.550000	746.740234	555.448792
29721.218617	-1456.550000	745.539063	400.995758
29721.218617	-1456.550000	744.337891	497.603363
29721.218617	-1456.550000	743.135742	172.074203
29721.218617	-1456.550000	741.933594	357.213654
29721.218617	-1456.550000	740.731445	587.607056
29721.218617	-1456.550000	739.529297	538.816223
29721.218617	-1456.550000	738.326172	383.993164
29721.218617	-1456.550000	737.124023	564.230469
29721.218617	-1456.550000	735.919922	567.057434
29721.218617	-1456.550000	734.716797	692.959167
29721.218617	-1456.550000	733.513672	600.503784
29721.218617	-1456.550000	732.309570	911.913086
29721.218617	-1456.550000	731.105469	750.141663
29721.218617	-1456.550000	729.900391	627.200378
29721.218617	-1456.550000	728.696289	504.212250
29721.218617	-1456.550000	727.491211	240.887024
29721.218617	-1456.550000	726.286133	499.755737
29721.218617	-1456.550000	725.080078	542.676636
29721.218617	-1456.550000	723.874023	609.204346
29721.218617	-1456.550000	722.668945	298.225922
29721.218617	-1456.550000	721.461914	422.777557
29721.218617	-1456.550000	720.255859	407.064331
29721.218617	-1456.550000	719.048828	322.289001
29721.218617	-1456.550000	717.841797	312.854370
29721.218617	-1456.550000	716.634766	376.560760
29721.218617	-1456.550000	715.427734	500.439056
29721.218617	-1456.550000	714.219727	466.963989
29721.218617	-1456.550000	713.011719	407.562195
29721.218617	-1456.550000	711.803711	337.315338
29721.218617	-1456.550000	710.594727	411.166687
29721.218617	-1456.550000	709.385742	758.113525
29721.218617	-1456.550000	708.176758	960.688599
29721.218617	-1456.550000	706.967773	1259.842896
29721.218617	-1456.550000	705.758789	1229.794800
29721.218617	-1456.550000	704.548828	1141.602539
29721.218617	-1456.550000	703.338867	1033.994141
29721.218617	-1456.550000	702.127930	992.926331
29721.218617	-1456.550000	700.917969	717.602295
29721.218617	-1456.550000	699.707031	856.816101
29721.218617	-1456.550000	698.496094	791.854980
29721.218617	-1456.550000	697.285156	821.275330
29721.218617	-1456.550000	696.073242	1015.847778
29721.218617	-1456.550000	694.861328	1259.584351
29721.218617	-1456.550000	693.649414	1005.322876
29721.218617	-1456.550000	692.436523	718.872742
29721.218617	-1456.550000	691.224609	964.323608
29721.218617	-1456.550000	690.011719	399.020966
29721.218617	-1456.550000	688.798828	451.260712
29721.218617	-1456.550000	687.584961	535.508179
29721.218617	-1456.550000	686.372070	506.037445
29721.218617	-1456.550000	685.158203	579.296875
29721.218617	-1456.550000	683.943359	365.376038
29721.218617	-1456.550000	682.729492	663.268372
29721.218617	-1456.550000	681.514648	864.566223
29721.218617	-1456.550000	680.299805	658.941223
29721.218617	-1456.550000	679.084961	581.698120
29721.218617	-1456.550000	677.869141	664.850647
29721.218617	-1456.550000	676.653320	647.305054
29721.218617	-1456.550000	675.437500	120.604469
29721.218617	-1456.550000	674.221680	361.698242
29721.218617	-1456.550000	673.004883	696.640808
29721.218617	-1456.550000	671.789063	608.108948
29721.218617	-1456.550000	670.571289	634.886414
29721.218617	-1456.550000	669.354492	576.082581
29721.218617	-1456.550000	668.136719	933.731445
29721.218617	-1456.550000	666.919922	812.725464
29721.218617	-1456.550000	665.701172	883.816162
29721.218617	-1456.550000	664.483398	1067.914795
29721.218617	-1456.550000	663.264648	1309.443481
29721.218617	-1456.550000	662.045898	1928.458374
29721.218617	-1456.550000	660.827148	1774.789795
29721.218617	-1456.550000	659.608398	2167.123779
29721.218617	-1456.550000	658.388672	2533.580322
29721.218617	-1456.550000	657.168945	2884.846924
29721.218617	-1456.550000	655.949219	2852.156250
29721.218617	-1456.550000	654.728516	2638.212402
29721.218617	-1456.550000	653.507813	2339.017578
29721.218617	-1456.550000	652.287109	2416.902100
29721.218617	-1456.550000	651.066406	2075.065918
29721.218617	-1456.550000	649.844727	1790.751709
29721.218617	-1456.550000	648.623047	1793.854736
29721.218617	-1456.550000	647.401367	1826.650879
29721.218617	-1456.550000	646.179688	2436.023682
29721.218617	-1456.550000	644.957031	2359.940430
29721.218617	-1456.550000	643.734375	1981.728027
29721.218617	-1456.550000	642.511719	1939.590454
29721.218617	-1456.550000	641.289063	1227.598877
29721.218617	-1456.550000	640.065430	1123.774780
29721.218617	-1456.550000	638.841797	1138.908691
29721.218617	-1456.550000	637.618164	762.956604
29721.218617	-1456.550000	636.393555	739.711243
29721.218617	-1456.550000	635.168945	612.297546
29721.218617	-1456.550000	633.944336	656.847290
29721.218617	-1456.550000	632.719727	822.296936
29721.218617	-1456.550000	631.494141	679.784912
29721.218617	-1456.550000	630.269531	666.701416
29721.218617	-1456.550000	629.042969	430.725098
29721.218617	-1456.550000	627.817383	602.052429
29721.218617	-1456.550000	626.590820	815.619202
29721.218617	-1456.550000	625.365234	736.400146
29721.218617	-1456.550000	624.137695	504.467804
29721.218617	-1456.550000	622.911133	414.558624
29721.218617	-1456.550000	621.683594	559.803162
29721.218617	-1456.550000	620.456055	478.208282
29721.218617	-1456.550000	619.228516	474.933411
29721.218617	-1456.550000	618.000977	408.042267
29721.218617	-1456.550000	616.772461	343.202087
29721.218617	-1456.550000	615.543945	157.648514
29721.218617	-1456.550000	614.314453	160.437363
29721.218617	-1456.550000	613.085938	260.486420
29721.218617	-1456.550000	611.856445	-37.303082
29721.218617	-1456.550000	610.626953	310.033417
29721.218617	-1456.550000	609.397461	416.085205
29721.218617	-1456.550000	608.166992	59.019253
29721.218617	-1456.550000	606.936523	-2.059036
29721.218617	-1456.550000	605.706055	38.252232
29721.218617	-1456.550000	604.474609	-69.428917
29721.218617	-1456.550000	603.244141	-187.685562
29721.218617	-1456.550000	602.012695	-198.265594
29721.218617	-1456.550000	600.780273	-181.468353
29721.218617	-1456.550000	599.548828	-238.616791
29721.218617	-1456.550000	598.316406	1.765587
29721.218617	-1456.550000	597.083984	142.814072
29721.218617	-1456.550000	595.851563	-64.344681
29721.218617	-1456.550000	594.618164	215.731415
29721.218617	-1456.550000	593.384766	116.062592
29721.218617	-1456.550000	592.151367	180.828308
29721.218617	-1456.550000	590.917969	216.001022
29721.218617	-1456.550000	589.683594	-185.127670
29721.218617	-1456.550000	588.449219	81.757645
29721.218617	-1456.550000	587.214844	-108.622505
29721.218617	-1456.550000	585.979492	-33.619125
29721.218617	-1456.550000	584.745117	-215.563812
29721.218617	-1456.550000	583.509766	13.017340
29721.218617	-1456.550000	582.273438	5.723749
29721.218617	-1456.550000	581.038086	-18.428289
29721.218617	-1456.550000	579.801758	-114.146652
29721.218617	-1456.550000	578.565430	63.573891
29721.218617	-1456.550000	577.329102	-93.172958
29721.218617	-1456.550000	576.091797	-3.912109
29721.218617	-1456.550000	574.854492	202.992615
29721.218617	-1456.550000	573.617188	52.521694
29721.218617	-1456.550000	572.378906	36.546669
29721.218617	-1456.550000	571.141602	89.886986
29721.218617	-1456.550000	569.903320	493.902924
29721.218617	-1456.550000	568.664063	263.594452
29721.218617	-1456.550000	567.425781	87.958900
29721.218617	-1456.550000	566.186523	321.645538
29721.218617	-1456.550000	564.947266	653.843445
29721.218617	-1456.550000	563.708008	916.656250
29721.218617	-1456.550000	562.467773	1011.533569
29721.218617	-1456.550000	561.227539	1544.647095
29721.218617	-1456.550000	559.987305	1542.895142
29721.218617	-1456.550000	558.747070	1268.637207
29721.218617	-1456.550000	557.505859	671.746887
29721.218617	-1456.550000	556.264648	621.971863
29721.218617	-1456.550000	555.023438	452.818115
29721.218617	-1456.550000	553.781250	109.897392
29721.218617	-1456.550000	552.539063	47.715252
29721.218617	-1456.550000	551.296875	-75.142319
29721.218617	-1456.550000	550.054688	-177.009262
29721.218617	-1456.550000	548.811523	5.761455
29721.218617	-1456.550000	547.569336	201.030228
29721.218617	-1456.550000	546.325195	-484.385010
29721.218617	-1456.550000	545.082031	-31.849031
29721.218617	-1456.550000	543.837891	60.887291
29721.218617	-1456.550000	542.593750	-44.973461
29721.218617	-1456.550000	541.349609	43.594082
29721.218617	-1456.550000	540.105469	21.408226
29721.218617	-1456.550000	538.860352	116.233261
29721.218617	-1456.550000	537.615234	29.345831
29721.218617	-1456.550000	536.369141	-19.897963
29721.218617	-1456.550000	535.124023	300.435852
29721.218617	-1456.550000	533.877930	75.899445
29721.218617	-1456.550000	532.631836	277.195007
29721.218617	-1456.550000	531.384766	77.860329
29721.218617	-1456.550000	530.138672	114.366127
29721.218617	-1456.550000	528.891602	405.307678
29721.218617	-1456.550000	527.643555	466.813721
29721.218617	-1456.550000	526.396484	540.856567
29721.218617	-1456.550000	525.148438	627.408691
29721.218617	-1456.550000	523.900391	751.478333
29721.218617	-1456.550000	522.652344	700.559265
29721.218617	-1456.550000	521.403320	1049.585815
29721.218617	-1456.550000	520.154297	605.169678
29721.218617	-1456.550000	518.905273	887.560181
29721.218617	-1456.550000	517.656250	911.791931
29721.218617	-1456.550000	516.406250	1333.521973
29721.218617	-1456.550000	515.156250	1601.173950
29721.218617	-1456.550000	513.906250	1750.208130
29721.218617	-1456.550000	512.655273	1248.316772
29721.218617	-1456.550000	511.404297	1008.675049
29721.218617	-1456.550000	510.153320	397.114136
29721.218617	-1456.550000	508.902344	461.314758
29721.218617	-1456.550000	507.650391	357.240479
29721.218617	-1456.550000	506.398438	-33.398617
29721.218617	-1456.550000	505.146484	130.736130
29721.218617	-1456.550000	503.893555	35.299740
29721.218617	-1456.550000	502.641602	-41.332191
29721.218617	-1456.550000	501.388672	85.534363
29721.218617	-1456.550000	500.134766	154.304337
29721.218617	-1456.550000	498.881836	5.284385
29721.218617	-1456.550000	497.627930	88.703804
29721.218617	-1456.550000	496.374023	259.257904
29721.218617	-1456.550000	495.119141	462.974579
29721.218617	-1456.550000	493.865234	343.312042
29721.218617	-1456.550000	492.610352	190.603180
29721.218617	-1456.550000	491.355469	145.777084
29721.218617	-1456.550000	490.099609	-157.911942
29721.218617	-1456.550000	488.843750	106.084023
29721.218617	-1456.550000	487.587891	194.032059
29721.218617	-1456.550000	486.332031	180.572189
29721.218617	-1456.550000	485.075195	258.247650
29721.218617	-1456.550000	483.818359	493.226685
29721.218617	-1456.550000	482.561523	215.090439
29721.218617	-1456.550000	481.304688	226.722580
29721.218617	-1456.550000	480.046875	-111.085884
29721.218617	-1456.550000	478.789063	-4.159585
29721.218617	-1456.550000	477.531250	-70.853493
29721.218617	-1456.550000	476.272461	-199.464752
29721.218617	-1456.550000	475.013672	-7.699407
29721.218617	-1456.550000	473.754883	-183.664810
29721.218617	-1456.550000	472.496094	-130.245804
29721.218617	-1456.550000	471.236328	-78.870750
29721.218617	-1456.550000	469.976563	141.817917
29721.218617	-1456.550000	468.716797	3.327497
29721.218617	-1456.550000	467.456055	-46.331310
29721.218617	-1456.550000	466.196289	36.118660
29721.218617	-1456.550000	464.935547	-194.955078
29721.218617	-1456.550000	463.673828	223.694427
29721.218617	-1456.550000	462.413086	-110.334137
29721.218617	-1456.550000	461.151367	205.115463
29721.218617	-1456.550000	459.889648	102.102242
29721.218617	-1456.550000	458.626953	77.444450
29721.218617	-1456.550000	457.364258	221.733841
29721.218617	-1456.550000	456.101563	157.966141
29721.218617	-1456.550000	454.838867	151.888763
29721.218617	-1456.550000	453.575195	254.920807
29721.218617	-1456.550000	452.312500	135.631668
29721.218617	-1456.550000	451.047852	339.441803
29721.218617	-1456.550000	449.784180	374.463226
29721.218617	-1456.550000	448.519531	608.961731
29721.218617	-1456.550000	447.254883	456.732208
29721.218617	-1456.550000	445.990234	645.833130
29721.218617	-1456.550000	444.725586	544.988647
29721.218617	-1456.550000	443.459961	836.660767
29721.218617	-1456.550000	442.194336	719.286133
29721.218617	-1456.550000	440.927734	848.406250
29721.218617	-1456.550000	439.662109	1166.359863
29721.218617	-1456.550000	438.395508	919.441711
29721.218617	-1456.550000	437.127930	1159.071289
29721.218617	-1456.550000	435.861328	815.635864
29721.218617	-1456.550000	434.593750	564.584961
29721.218617	-1456.550000	433.326172	455.095856
29721.218617	-1456.550000	432.058594	448.096893
29721.218617	-1456.550000	430.790039	551.704956
29721.218617	-1456.550000	429.521484	616.184326
29721.218617	-1456.550000	428.252930	797.329834
29721.218617	-1456.550000	426.984375	920.865356
29721.218617	-1456.550000	425.714844	1181.449097
29721.218617	-1456.550000	424.445313	1306.553467
29721.218617	-1456.550000	423.174805	1331.056152
29721.218617	-1456.550000	421.905273	1695.251099
29721.218617	-1456.550000	420.634766	2028.363403
29721.218617	-1456.550000	419.364258	1777.817749
29721.218617	-1456.550000	418.092773	2038.685059
29721.218617	-1456.550000	416.822266	2166.227783
29721.218617	-1456.550000	415.550781	2039.826416
29721.218617	-1456.550000	414.278320	1988.851196
29721.218617	-1456.550000	413.006836	1571.668213
29721.218617	-1456.550000	411.734375	1460.948120
29721.218617	-1456.550000	410.461914	1027.075195
29721.218617	-1456.550000	409.188477	987.360291
29721.218617	-1456.550000	407.916016	769.609009
29721.218617	-1456.550000	406.642578	702.697571
29721.218617	-1456.550000	405.368164	339.358307
29721.218617	-1456.550000	404.094727	418.752686
29721.218617	-1456.550000	402.820313	462.982330
29721.218617	-1456.550000	401.545898	384.324615
29721.218617	-1456.550000	400.270508	419.467834
29721.218617	-1456.550000	398.996094	399.062408
29721.218617	-1456.550000	397.720703	227.258163
29721.218617	-1456.550000	396.444336	238.473190
29721.218617	-1456.550000	395.168945	114.634071
29721.218617	-1456.550000	393.892578	55.478523
29721.218617	-1456.550000	392.616211	258.581696
29721.218617	-1456.550000	391.339844	395.806061
29721.218617	-1456.550000	390.062500	145.396896
29721.218617	-1456.550000	388.785156	216.132095
29721.218617	-1456.550000	387.507813	255.620560
29721.218617	-1456.550000	386.229492	-98.407455
29721.218617	-1456.550000	384.951172	-70.494598
29721.218617	-1456.550000	383.672852	78.704529
29721.218617	-1456.550000	382.394531	80.620682
29721.218617	-1456.550000	381.115234	234.205978
29721.218617	-1456.550000	379.835938	8.763221
29721.218617	-1456.550000	378.556641	79.289673
29721.218617	-1456.550000	377.277344	193.592514
29721.218617	-1456.550000	375.997070	166.714310
29721.218617	-1456.550000	374.716797	-31.725748
29721.218617	-1456.550000	373.435547	53.202694
29721.218617	-1456.550000	372.155273	82.277641
29721.218617	-1456.550000	370.874023	205.659882
29721.218617	-1456.550000	369.591797	-2.916306
29721.218617	-1456.550000	368.310547	-180.035522
29721.218617	-1456.550000	367.028320	17.004776
29721.218617	-1456.550000	365.746094	109.333923
29721.218617	-1456.550000	364.463867	113.201317
29721.218617	-1456.550000	363.180664	-9.916812
29721.218617	-1456.550000	361.897461	15.687347
29721.218617	-1456.550000	360.614258	189.876099
29721.218617	-1456.550000	359.330078	113.389778
29721.218617	-1456.550000	358.045898	82.090988
29721.218617	-1456.550000	356.761719	0.736081
29721.218617	-1456.550000	355.477539	4.957561
29721.218617	-1456.550000	354.192383	-223.160492
29721.218617	-1456.550000	352.907227	-68.291656
29721.218617	-1456.550000	351.622070	-216.593109
29721.218617	-1456.550000	350.336914	-224.926010
29721.218617	-1456.550000	349.050781	-20.675797
29721.218617	-1456.550000	347.764648	-58.903439
29721.218617	-1456.550000	346.477539	-28.248978
29721.218617	-1456.550000	345.191406	97.561501
29721.218617	-1456.550000	343.904297	-27.196184
29721.218617	-1456.550000	342.616211	-52.936172
29721.218617	-1456.550000	341.329102	-82.675636
29721.218617	-1456.550000	340.041016	103.523201
29721.218617	-1456.550000	338.752930	-45.610531
29721.218617	-1456.550000	337.463867	144.154144
29721.218617	-1456.550000	336.175781	263.019623
29721.218617	-1456.550000	334.886719	-68.425407
29721.218617	-1456.550000	333.596680	67.793350
29721.218617	-1456.550000	332.307617	-137.214066
29721.218617	-1456.550000	331.017578	-36.232342
29721.218617	-1456.550000	329.727539	150.825439
29721.218617	-1456.550000	328.436523	-27.648607
29721.218617	-1456.550000	327.146484	244.661545
29721.218617	-1456.550000	325.855469	-64.109337
29721.218617	-1456.550000	324.563477	-83.636398
29721.218617	-1456.550000	323.272461	-55.639721
29721.218617	-1456.550000	321.980469	9.553908
29721.218617	-1456.550000	320.688477	-93.361343
29721.218617	-1456.550000	319.395508	23.920523
29721.218617	-1456.550000	318.103516	81.717834
29721.218617	-1456.550000	316.810547	186.418777
29721.218617	-1456.550000	315.516602	-56.220142
29721.218617	-1456.550000	314.223633	57.784359
29721.218617	-1456.550000	312.929688	-44.915169
29721.218617	-1456.550000	311.635742	-28.570269
29721.218617	-1456.550000	310.340820	-287.228271
29721.218617	-1456.550000	309.045898	-99.583649
29721.218617	-1456.550000	307.750977	76.109520
29721.218617	-1456.550000	306.456055	93.209099
29721.218617	-1456.550000	305.160156	98.146629
29721.218617	-1456.550000	303.865234	-33.354542
29721.218617	-1456.550000	302.568359	91.612953
29721.218617	-1456.550000	301.272461	-122.642975
29721.218617	-1456.550000	299.975586	111.954430
29721.218617	-1456.550000	298.678711	253.747726
