#X		#Y		#Wave		#Intensity
29413.534574	-1274.553333	1999.980469	-41.664131
29413.534574	-1274.553333	1999.016602	37.596764
29413.534574	-1274.553333	1998.052734	-0.327001
29413.534574	-1274.553333	1997.087891	50.974678
29413.534574	-1274.553333	1996.123047	-9.239312
29413.534574	-1274.553333	1995.158203	121.312553
29413.534574	-1274.553333	1994.193359	115.592720
29413.534574	-1274.553333	1993.228516	45.489670
29413.534574	-1274.553333	1992.262695	7.595899
29413.534574	-1274.553333	1991.297852	-45.138412
29413.534574	-1274.553333	1990.332031	35.789570
29413.534574	-1274.553333	1989.366211	35.027462
29413.534574	-1274.553333	1988.399414	-42.430843
29413.534574	-1274.553333	1987.433594	-87.707634
29413.534574	-1274.553333	1986.466797	-78.563507
29413.534574	-1274.553333	1985.500977	9.698134
29413.534574	-1274.553333	1984.534180	41.063519
29413.534574	-1274.553333	1983.567383	92.187149
29413.534574	-1274.553333	1982.599609	-12.400434
29413.534574	-1274.553333	1981.632813	-5.767503
29413.534574	-1274.553333	1980.665039	-70.780853
29413.534574	-1274.553333	1979.697266	-34.509563
29413.534574	-1274.553333	1978.729492	85.703964
29413.534574	-1274.553333	1977.761719	15.759293
29413.534574	-1274.553333	1976.792969	79.134468
29413.534574	-1274.553333	1975.825195	48.696358
29413.534574	-1274.553333	1974.856445	40.473167
29413.534574	-1274.553333	1973.887695	0.175650
29413.534574	-1274.553333	1972.918945	85.688004
29413.534574	-1274.553333	1971.949219	-16.267843
29413.534574	-1274.553333	1970.980469	101.260513
29413.534574	-1274.553333	1970.010742	110.267303
29413.534574	-1274.553333	1969.041016	69.969429
29413.534574	-1274.553333	1968.071289	66.646858
29413.534574	-1274.553333	1967.101563	43.608860
29413.534574	-1274.553333	1966.130859	30.427950
29413.534574	-1274.553333	1965.161133	135.470428
29413.534574	-1274.553333	1964.190430	28.690189
29413.534574	-1274.553333	1963.219727	74.593018
29413.534574	-1274.553333	1962.249023	41.701572
29413.534574	-1274.553333	1961.277344	-45.329128
29413.534574	-1274.553333	1960.306641	-38.825840
29413.534574	-1274.553333	1959.334961	2.112586
29413.534574	-1274.553333	1958.363281	-57.821041
29413.534574	-1274.553333	1957.391602	93.764610
29413.534574	-1274.553333	1956.419922	85.461067
29413.534574	-1274.553333	1955.447266	86.988525
29413.534574	-1274.553333	1954.474609	-27.014616
29413.534574	-1274.553333	1953.501953	60.534386
29413.534574	-1274.553333	1952.529297	125.931656
29413.534574	-1274.553333	1951.556641	137.253845
29413.534574	-1274.553333	1950.583984	50.320518
29413.534574	-1274.553333	1949.610352	-14.485314
29413.534574	-1274.553333	1948.636719	-62.086487
29413.534574	-1274.553333	1947.663086	32.700592
29413.534574	-1274.553333	1946.689453	-81.169502
29413.534574	-1274.553333	1945.715820	35.658943
29413.534574	-1274.553333	1944.741211	-9.486505
29413.534574	-1274.553333	1943.767578	-37.449963
29413.534574	-1274.553333	1942.792969	91.549446
29413.534574	-1274.553333	1941.818359	61.113583
29413.534574	-1274.553333	1940.842773	-60.025208
29413.534574	-1274.553333	1939.868164	73.790955
29413.534574	-1274.553333	1938.892578	-76.724724
29413.534574	-1274.553333	1937.916992	-26.274059
29413.534574	-1274.553333	1936.941406	-37.091667
29413.534574	-1274.553333	1935.965820	-67.505173
29413.534574	-1274.553333	1934.990234	2.488347
29413.534574	-1274.553333	1934.013672	57.759636
29413.534574	-1274.553333	1933.037109	-31.422638
29413.534574	-1274.553333	1932.060547	-39.811394
29413.534574	-1274.553333	1931.083984	30.101191
29413.534574	-1274.553333	1930.107422	24.138849
29413.534574	-1274.553333	1929.129883	81.770676
29413.534574	-1274.553333	1928.153320	88.017494
29413.534574	-1274.553333	1927.175781	-84.242584
29413.534574	-1274.553333	1926.198242	78.483032
29413.534574	-1274.553333	1925.219727	8.936126
29413.534574	-1274.553333	1924.242188	37.162457
29413.534574	-1274.553333	1923.263672	-86.116402
29413.534574	-1274.553333	1922.285156	8.063125
29413.534574	-1274.553333	1921.306641	33.813343
29413.534574	-1274.553333	1920.328125	47.338120
29413.534574	-1274.553333	1919.349609	19.345961
29413.534574	-1274.553333	1918.370117	130.499496
29413.534574	-1274.553333	1917.391602	51.237408
29413.534574	-1274.553333	1916.412109	-8.479807
29413.534574	-1274.553333	1915.431641	5.010200
29413.534574	-1274.553333	1914.452148	-52.248409
29413.534574	-1274.553333	1913.472656	-72.909653
29413.534574	-1274.553333	1912.492188	-69.185944
29413.534574	-1274.553333	1911.511719	-4.521845
29413.534574	-1274.553333	1910.531250	-10.573614
29413.534574	-1274.553333	1909.550781	-77.553398
29413.534574	-1274.553333	1908.569336	8.986780
29413.534574	-1274.553333	1907.588867	-14.133941
29413.534574	-1274.553333	1906.607422	69.914711
29413.534574	-1274.553333	1905.625977	0.511190
29413.534574	-1274.553333	1904.644531	26.081268
29413.534574	-1274.553333	1903.662109	107.623199
29413.534574	-1274.553333	1902.680664	52.836773
29413.534574	-1274.553333	1901.698242	24.831272
29413.534574	-1274.553333	1900.715820	69.817192
29413.534574	-1274.553333	1899.733398	-19.003321
29413.534574	-1274.553333	1898.750000	-0.790254
29413.534574	-1274.553333	1897.767578	-130.911865
29413.534574	-1274.553333	1896.784180	21.012529
29413.534574	-1274.553333	1895.800781	175.305038
29413.534574	-1274.553333	1894.817383	-0.967944
29413.534574	-1274.553333	1893.833984	7.477030
29413.534574	-1274.553333	1892.850586	110.653625
29413.534574	-1274.553333	1891.866211	38.911816
29413.534574	-1274.553333	1890.881836	37.612782
29413.534574	-1274.553333	1889.897461	21.741137
29413.534574	-1274.553333	1888.913086	122.386230
29413.534574	-1274.553333	1887.927734	11.840142
29413.534574	-1274.553333	1886.943359	51.774525
29413.534574	-1274.553333	1885.958008	-12.633669
29413.534574	-1274.553333	1884.972656	97.620567
29413.534574	-1274.553333	1883.987305	98.695183
29413.534574	-1274.553333	1883.001953	27.022289
29413.534574	-1274.553333	1882.015625	79.006485
29413.534574	-1274.553333	1881.029297	48.555878
29413.534574	-1274.553333	1880.042969	83.541054
29413.534574	-1274.553333	1879.056641	-55.941334
29413.534574	-1274.553333	1878.070313	22.641914
29413.534574	-1274.553333	1877.083984	-46.551517
29413.534574	-1274.553333	1876.096680	-125.411987
29413.534574	-1274.553333	1875.109375	23.332169
29413.534574	-1274.553333	1874.122070	2.570809
29413.534574	-1274.553333	1873.134766	-6.088418
29413.534574	-1274.553333	1872.146484	-29.269541
29413.534574	-1274.553333	1871.159180	90.289093
29413.534574	-1274.553333	1870.170898	-39.341721
29413.534574	-1274.553333	1869.182617	-60.104153
29413.534574	-1274.553333	1868.194336	-5.910342
29413.534574	-1274.553333	1867.205078	28.916426
29413.534574	-1274.553333	1866.216797	22.635416
29413.534574	-1274.553333	1865.227539	-181.806656
29413.534574	-1274.553333	1864.238281	-115.576790
29413.534574	-1274.553333	1863.249023	-30.053442
29413.534574	-1274.553333	1862.259766	130.301926
29413.534574	-1274.553333	1861.269531	44.287334
29413.534574	-1274.553333	1860.279297	21.069527
29413.534574	-1274.553333	1859.290039	41.303314
29413.534574	-1274.553333	1858.298828	97.721642
29413.534574	-1274.553333	1857.308594	67.247986
29413.534574	-1274.553333	1856.318359	-40.419991
29413.534574	-1274.553333	1855.327148	25.609430
29413.534574	-1274.553333	1854.335938	9.614117
29413.534574	-1274.553333	1853.344727	0.851107
29413.534574	-1274.553333	1852.353516	-17.558056
29413.534574	-1274.553333	1851.362305	41.158802
29413.534574	-1274.553333	1850.370117	58.879948
29413.534574	-1274.553333	1849.377930	-39.058628
29413.534574	-1274.553333	1848.385742	7.562515
29413.534574	-1274.553333	1847.393555	-8.458813
29413.534574	-1274.553333	1846.401367	-29.297705
29413.534574	-1274.553333	1845.408203	34.124992
29413.534574	-1274.553333	1844.415039	18.084511
29413.534574	-1274.553333	1843.421875	50.174068
29413.534574	-1274.553333	1842.428711	120.741760
29413.534574	-1274.553333	1841.435547	25.284618
29413.534574	-1274.553333	1840.441406	98.219635
29413.534574	-1274.553333	1839.448242	7.596696
29413.534574	-1274.553333	1838.454102	140.599945
29413.534574	-1274.553333	1837.459961	134.121582
29413.534574	-1274.553333	1836.464844	106.006111
29413.534574	-1274.553333	1835.470703	29.835417
29413.534574	-1274.553333	1834.475586	20.954483
29413.534574	-1274.553333	1833.480469	-40.776424
29413.534574	-1274.553333	1832.485352	41.603825
29413.534574	-1274.553333	1831.490234	109.537804
29413.534574	-1274.553333	1830.495117	59.804279
29413.534574	-1274.553333	1829.499023	-11.521885
29413.534574	-1274.553333	1828.502930	41.959415
29413.534574	-1274.553333	1827.506836	155.395340
29413.534574	-1274.553333	1826.510742	40.886681
29413.534574	-1274.553333	1825.513672	99.098351
29413.534574	-1274.553333	1824.517578	97.330940
29413.534574	-1274.553333	1823.520508	81.169731
29413.534574	-1274.553333	1822.523438	48.226040
29413.534574	-1274.553333	1821.526367	44.045719
29413.534574	-1274.553333	1820.529297	-39.215286
29413.534574	-1274.553333	1819.531250	4.518070
29413.534574	-1274.553333	1818.533203	96.131065
29413.534574	-1274.553333	1817.535156	53.591171
29413.534574	-1274.553333	1816.537109	18.241354
29413.534574	-1274.553333	1815.539063	85.833755
29413.534574	-1274.553333	1814.540039	45.684822
29413.534574	-1274.553333	1813.541992	134.765228
29413.534574	-1274.553333	1812.542969	8.471865
29413.534574	-1274.553333	1811.543945	28.134874
29413.534574	-1274.553333	1810.543945	52.563358
29413.534574	-1274.553333	1809.544922	81.756378
29413.534574	-1274.553333	1808.544922	84.629539
29413.534574	-1274.553333	1807.544922	82.711517
29413.534574	-1274.553333	1806.544922	49.716381
29413.534574	-1274.553333	1805.544922	-43.010479
29413.534574	-1274.553333	1804.544922	-61.655148
29413.534574	-1274.553333	1803.543945	65.393654
29413.534574	-1274.553333	1802.542969	3.729836
29413.534574	-1274.553333	1801.541992	-5.393723
29413.534574	-1274.553333	1800.541016	6.960176
29413.534574	-1274.553333	1799.539063	83.738228
29413.534574	-1274.553333	1798.538086	74.574211
29413.534574	-1274.553333	1797.536133	48.701900
29413.534574	-1274.553333	1796.534180	-39.189529
29413.534574	-1274.553333	1795.532227	73.271210
29413.534574	-1274.553333	1794.529297	109.376228
29413.534574	-1274.553333	1793.527344	85.859245
29413.534574	-1274.553333	1792.524414	55.188568
29413.534574	-1274.553333	1791.521484	3.071244
29413.534574	-1274.553333	1790.518555	43.885151
29413.534574	-1274.553333	1789.514648	103.728745
29413.534574	-1274.553333	1788.511719	-34.141922
29413.534574	-1274.553333	1787.507813	-24.334337
29413.534574	-1274.553333	1786.503906	49.740437
29413.534574	-1274.553333	1785.500000	54.745926
29413.534574	-1274.553333	1784.496094	-59.257126
29413.534574	-1274.553333	1783.491211	-61.394928
29413.534574	-1274.553333	1782.486328	-42.131966
29413.534574	-1274.553333	1781.481445	46.090553
29413.534574	-1274.553333	1780.476563	53.412964
29413.534574	-1274.553333	1779.471680	-93.826164
29413.534574	-1274.553333	1778.465820	108.426369
29413.534574	-1274.553333	1777.460938	-0.762133
29413.534574	-1274.553333	1776.455078	-5.365098
29413.534574	-1274.553333	1775.449219	-14.729255
29413.534574	-1274.553333	1774.442383	-40.730900
29413.534574	-1274.553333	1773.436523	63.889256
29413.534574	-1274.553333	1772.429688	66.353264
29413.534574	-1274.553333	1771.422852	30.820057
29413.534574	-1274.553333	1770.416016	-116.270470
29413.534574	-1274.553333	1769.409180	28.579697
29413.534574	-1274.553333	1768.402344	23.883211
29413.534574	-1274.553333	1767.394531	-14.036093
29413.534574	-1274.553333	1766.386719	57.149223
29413.534574	-1274.553333	1765.378906	2.614666
29413.534574	-1274.553333	1764.371094	28.698820
29413.534574	-1274.553333	1763.362305	-25.835310
29413.534574	-1274.553333	1762.354492	-11.629807
29413.534574	-1274.553333	1761.345703	42.838917
29413.534574	-1274.553333	1760.336914	-25.918032
29413.534574	-1274.553333	1759.328125	68.774849
29413.534574	-1274.553333	1758.318359	78.163185
29413.534574	-1274.553333	1757.308594	-16.644474
29413.534574	-1274.553333	1756.299805	37.711685
29413.534574	-1274.553333	1755.290039	-120.981438
29413.534574	-1274.553333	1754.279297	-16.960001
29413.534574	-1274.553333	1753.269531	-14.724017
29413.534574	-1274.553333	1752.258789	-64.543549
29413.534574	-1274.553333	1751.249023	27.546749
29413.534574	-1274.553333	1750.238281	-41.203686
29413.534574	-1274.553333	1749.226563	-15.376944
29413.534574	-1274.553333	1748.215820	60.066132
29413.534574	-1274.553333	1747.204102	33.847565
29413.534574	-1274.553333	1746.193359	-141.227097
29413.534574	-1274.553333	1745.181641	23.925718
29413.534574	-1274.553333	1744.168945	-49.548550
29413.534574	-1274.553333	1743.157227	-106.475609
29413.534574	-1274.553333	1742.144531	27.843504
29413.534574	-1274.553333	1741.132813	51.155872
29413.534574	-1274.553333	1740.120117	-27.038555
29413.534574	-1274.553333	1739.106445	-91.060135
29413.534574	-1274.553333	1738.093750	-122.039635
29413.534574	-1274.553333	1737.080078	-46.879513
29413.534574	-1274.553333	1736.067383	21.166203
29413.534574	-1274.553333	1735.053711	44.372509
29413.534574	-1274.553333	1734.040039	-50.311432
29413.534574	-1274.553333	1733.025391	-1.201768
29413.534574	-1274.553333	1732.011719	-18.102962
29413.534574	-1274.553333	1730.997070	5.039674
29413.534574	-1274.553333	1729.982422	-42.506279
29413.534574	-1274.553333	1728.967773	-90.047211
29413.534574	-1274.553333	1727.952148	-48.107090
29413.534574	-1274.553333	1726.937500	-95.654320
29413.534574	-1274.553333	1725.921875	-1.971960
29413.534574	-1274.553333	1724.906250	16.355577
29413.534574	-1274.553333	1723.890625	48.780216
29413.534574	-1274.553333	1722.875000	50.598354
29413.534574	-1274.553333	1721.858398	47.696609
29413.534574	-1274.553333	1720.841797	101.219879
29413.534574	-1274.553333	1719.825195	70.071495
29413.534574	-1274.553333	1718.808594	27.168718
29413.534574	-1274.553333	1717.791992	-67.433983
29413.534574	-1274.553333	1716.774414	30.661684
29413.534574	-1274.553333	1715.756836	34.736408
29413.534574	-1274.553333	1714.739258	41.145443
29413.534574	-1274.553333	1713.721680	-72.227631
29413.534574	-1274.553333	1712.704102	30.438747
29413.534574	-1274.553333	1711.685547	-38.314365
29413.534574	-1274.553333	1710.667969	-10.823632
29413.534574	-1274.553333	1709.649414	-13.863913
29413.534574	-1274.553333	1708.630859	6.545778
29413.534574	-1274.553333	1707.611328	69.154953
29413.534574	-1274.553333	1706.592773	-51.197659
29413.534574	-1274.553333	1705.573242	-58.969616
29413.534574	-1274.553333	1704.553711	-47.996784
29413.534574	-1274.553333	1703.534180	80.153259
29413.534574	-1274.553333	1702.513672	-40.163330
29413.534574	-1274.553333	1701.494141	-106.555458
29413.534574	-1274.553333	1700.473633	-62.838219
29413.534574	-1274.553333	1699.453125	58.138687
29413.534574	-1274.553333	1698.432617	54.950504
29413.534574	-1274.553333	1697.412109	-18.483767
29413.534574	-1274.553333	1696.390625	18.109949
29413.534574	-1274.553333	1695.369141	80.420319
29413.534574	-1274.553333	1694.347656	-65.549675
29413.534574	-1274.553333	1693.326172	62.231281
29413.534574	-1274.553333	1692.304688	56.632645
29413.534574	-1274.553333	1691.282227	39.329315
29413.534574	-1274.553333	1690.260742	-66.821793
29413.534574	-1274.553333	1689.238281	-2.302971
29413.534574	-1274.553333	1688.214844	73.862396
29413.534574	-1274.553333	1687.192383	19.135273
29413.534574	-1274.553333	1686.168945	-9.886105
29413.534574	-1274.553333	1685.146484	82.554939
29413.534574	-1274.553333	1684.123047	-56.251026
29413.534574	-1274.553333	1683.099609	82.835983
29413.534574	-1274.553333	1682.075195	44.438797
29413.534574	-1274.553333	1681.051758	-47.634064
29413.534574	-1274.553333	1680.027344	-25.341848
29413.534574	-1274.553333	1679.002930	-45.064800
29413.534574	-1274.553333	1677.978516	51.840229
29413.534574	-1274.553333	1676.953125	13.428174
29413.534574	-1274.553333	1675.928711	16.993729
29413.534574	-1274.553333	1674.903320	71.832687
29413.534574	-1274.553333	1673.877930	114.986008
29413.534574	-1274.553333	1672.852539	95.191330
29413.534574	-1274.553333	1671.826172	196.548233
29413.534574	-1274.553333	1670.800781	190.701584
29413.534574	-1274.553333	1669.774414	-13.123919
29413.534574	-1274.553333	1668.748047	34.606369
29413.534574	-1274.553333	1667.721680	26.433084
29413.534574	-1274.553333	1666.694336	125.323921
29413.534574	-1274.553333	1665.667969	124.097687
29413.534574	-1274.553333	1664.640625	-7.440447
29413.534574	-1274.553333	1663.613281	79.738365
29413.534574	-1274.553333	1662.585938	162.221878
29413.534574	-1274.553333	1661.557617	267.915985
29413.534574	-1274.553333	1660.530273	301.488007
29413.534574	-1274.553333	1659.501953	304.815491
29413.534574	-1274.553333	1658.473633	201.224014
29413.534574	-1274.553333	1657.444336	218.490753
29413.534574	-1274.553333	1656.416016	242.714005
29413.534574	-1274.553333	1655.386719	190.265427
29413.534574	-1274.553333	1654.358398	318.970367
29413.534574	-1274.553333	1653.328125	275.794952
29413.534574	-1274.553333	1652.298828	309.236237
29413.534574	-1274.553333	1651.269531	217.324768
29413.534574	-1274.553333	1650.239258	359.808960
29413.534574	-1274.553333	1649.208984	142.620865
29413.534574	-1274.553333	1648.178711	234.016953
29413.534574	-1274.553333	1647.148438	190.858185
29413.534574	-1274.553333	1646.117188	252.047211
29413.534574	-1274.553333	1645.086914	324.799652
29413.534574	-1274.553333	1644.055664	202.817139
29413.534574	-1274.553333	1643.024414	224.550827
29413.534574	-1274.553333	1641.992188	329.674805
29413.534574	-1274.553333	1640.960938	249.436493
29413.534574	-1274.553333	1639.928711	435.561401
29413.534574	-1274.553333	1638.896484	302.059326
29413.534574	-1274.553333	1637.864258	356.126648
29413.534574	-1274.553333	1636.832031	250.454468
29413.534574	-1274.553333	1635.798828	285.981018
29413.534574	-1274.553333	1634.766602	302.980164
29413.534574	-1274.553333	1633.733398	201.984482
29413.534574	-1274.553333	1632.699219	239.791473
29413.534574	-1274.553333	1631.666016	340.016327
29413.534574	-1274.553333	1630.632813	338.469360
29413.534574	-1274.553333	1629.598633	256.011627
29413.534574	-1274.553333	1628.564453	383.887878
29413.534574	-1274.553333	1627.530273	287.578674
29413.534574	-1274.553333	1626.495117	242.122864
29413.534574	-1274.553333	1625.460938	369.912506
29413.534574	-1274.553333	1624.425781	208.984589
29413.534574	-1274.553333	1623.390625	382.894806
29413.534574	-1274.553333	1622.355469	309.736115
29413.534574	-1274.553333	1621.319336	400.462341
29413.534574	-1274.553333	1620.284180	548.838684
29413.534574	-1274.553333	1619.248047	461.833160
29413.534574	-1274.553333	1618.211914	462.507477
29413.534574	-1274.553333	1617.174805	495.461395
29413.534574	-1274.553333	1616.138672	348.557770
29413.534574	-1274.553333	1615.101563	469.113342
29413.534574	-1274.553333	1614.065430	412.152527
29413.534574	-1274.553333	1613.027344	378.248413
29413.534574	-1274.553333	1611.990234	376.612000
29413.534574	-1274.553333	1610.953125	411.828949
29413.534574	-1274.553333	1609.915039	414.784698
29413.534574	-1274.553333	1608.876953	392.409088
29413.534574	-1274.553333	1607.838867	496.655426
29413.534574	-1274.553333	1606.800781	352.280701
29413.534574	-1274.553333	1605.761719	350.632355
29413.534574	-1274.553333	1604.723633	445.617645
29413.534574	-1274.553333	1603.684570	372.639221
29413.534574	-1274.553333	1602.644531	343.382813
29413.534574	-1274.553333	1601.605469	383.121429
29413.534574	-1274.553333	1600.566406	461.925629
29413.534574	-1274.553333	1599.526367	536.098877
29413.534574	-1274.553333	1598.486328	401.119324
29413.534574	-1274.553333	1597.446289	431.619507
29413.534574	-1274.553333	1596.405273	494.265625
29413.534574	-1274.553333	1595.365234	444.351288
29413.534574	-1274.553333	1594.324219	488.600372
29413.534574	-1274.553333	1593.283203	463.957825
29413.534574	-1274.553333	1592.242188	574.752991
29413.534574	-1274.553333	1591.200195	543.217041
29413.534574	-1274.553333	1590.159180	474.985779
29413.534574	-1274.553333	1589.117188	415.956024
29413.534574	-1274.553333	1588.075195	370.711914
29413.534574	-1274.553333	1587.032227	628.177002
29413.534574	-1274.553333	1585.990234	509.546661
29413.534574	-1274.553333	1584.947266	556.002441
29413.534574	-1274.553333	1583.904297	412.224060
29413.534574	-1274.553333	1582.861328	486.181000
29413.534574	-1274.553333	1581.818359	523.457947
29413.534574	-1274.553333	1580.775391	430.167358
29413.534574	-1274.553333	1579.731445	430.803192
29413.534574	-1274.553333	1578.687500	458.916840
29413.534574	-1274.553333	1577.643555	324.496765
29413.534574	-1274.553333	1576.598633	535.715149
29413.534574	-1274.553333	1575.554688	401.340027
29413.534574	-1274.553333	1574.509766	369.967560
29413.534574	-1274.553333	1573.464844	398.080688
29413.534574	-1274.553333	1572.419922	503.940399
29413.534574	-1274.553333	1571.374023	495.440582
29413.534574	-1274.553333	1570.329102	537.241821
29413.534574	-1274.553333	1569.283203	544.746826
29413.534574	-1274.553333	1568.237305	533.973389
29413.534574	-1274.553333	1567.191406	370.140900
29413.534574	-1274.553333	1566.144531	464.485016
29413.534574	-1274.553333	1565.098633	371.536896
29413.534574	-1274.553333	1564.051758	486.405029
29413.534574	-1274.553333	1563.004883	521.335938
29413.534574	-1274.553333	1561.957031	458.114807
29413.534574	-1274.553333	1560.910156	479.358521
29413.534574	-1274.553333	1559.862305	423.028198
29413.534574	-1274.553333	1558.814453	307.420685
29413.534574	-1274.553333	1557.766602	381.152893
29413.534574	-1274.553333	1556.718750	484.505768
29413.534574	-1274.553333	1555.669922	389.490540
29413.534574	-1274.553333	1554.621094	440.390808
29413.534574	-1274.553333	1553.573242	384.179688
29413.534574	-1274.553333	1552.523438	428.240021
29413.534574	-1274.553333	1551.474609	347.010132
29413.534574	-1274.553333	1550.424805	258.985931
29413.534574	-1274.553333	1549.375000	289.409027
29413.534574	-1274.553333	1548.325195	269.744934
29413.534574	-1274.553333	1547.275391	313.828339
29413.534574	-1274.553333	1546.225586	260.051056
29413.534574	-1274.553333	1545.174805	279.108429
29413.534574	-1274.553333	1544.124023	239.024750
29413.534574	-1274.553333	1543.073242	342.247498
29413.534574	-1274.553333	1542.022461	295.365692
29413.534574	-1274.553333	1540.970703	337.173401
29413.534574	-1274.553333	1539.919922	444.893219
29413.534574	-1274.553333	1538.868164	393.503632
29413.534574	-1274.553333	1537.815430	330.782227
29413.534574	-1274.553333	1536.763672	379.408539
29413.534574	-1274.553333	1535.710938	514.328491
29413.534574	-1274.553333	1534.659180	596.983154
29413.534574	-1274.553333	1533.606445	482.101318
29413.534574	-1274.553333	1532.552734	519.352600
29413.534574	-1274.553333	1531.500000	542.987122
29413.534574	-1274.553333	1530.446289	616.538879
29413.534574	-1274.553333	1529.393555	565.310730
29413.534574	-1274.553333	1528.338867	534.523193
29413.534574	-1274.553333	1527.285156	612.607056
29413.534574	-1274.553333	1526.231445	450.357330
29413.534574	-1274.553333	1525.176758	460.450684
29413.534574	-1274.553333	1524.122070	271.125000
29413.534574	-1274.553333	1523.067383	333.390228
29413.534574	-1274.553333	1522.012695	314.093201
29413.534574	-1274.553333	1520.957031	365.026794
29413.534574	-1274.553333	1519.901367	264.237427
29413.534574	-1274.553333	1518.845703	340.093933
29413.534574	-1274.553333	1517.790039	148.837234
29413.534574	-1274.553333	1516.734375	159.086624
29413.534574	-1274.553333	1515.677734	250.800537
29413.534574	-1274.553333	1514.621094	21.260693
29413.534574	-1274.553333	1513.564453	122.043930
29413.534574	-1274.553333	1512.507813	55.465851
29413.534574	-1274.553333	1511.450195	101.971260
29413.534574	-1274.553333	1510.393555	15.112515
29413.534574	-1274.553333	1509.335938	181.418198
29413.534574	-1274.553333	1508.278320	175.951202
29413.534574	-1274.553333	1507.219727	186.314590
29413.534574	-1274.553333	1506.162109	158.296402
29413.534574	-1274.553333	1505.103516	146.111404
29413.534574	-1274.553333	1504.044922	48.155430
29413.534574	-1274.553333	1502.986328	103.750404
29413.534574	-1274.553333	1501.926758	127.743614
29413.534574	-1274.553333	1500.868164	63.748150
29413.534574	-1274.553333	1499.808594	200.571701
29413.534574	-1274.553333	1498.749023	206.541626
29413.534574	-1274.553333	1497.688477	162.914948
29413.534574	-1274.553333	1496.628906	85.506760
29413.534574	-1274.553333	1495.568359	152.411499
29413.534574	-1274.553333	1494.507813	48.027760
29413.534574	-1274.553333	1493.447266	117.204811
29413.534574	-1274.553333	1492.386719	105.272400
29413.534574	-1274.553333	1491.325195	-66.553848
29413.534574	-1274.553333	1490.263672	117.507851
29413.534574	-1274.553333	1489.202148	33.593410
29413.534574	-1274.553333	1488.140625	-18.753572
29413.534574	-1274.553333	1487.079102	32.465591
29413.534574	-1274.553333	1486.016602	-103.075874
29413.534574	-1274.553333	1484.954102	-49.571369
29413.534574	-1274.553333	1483.891602	28.674078
29413.534574	-1274.553333	1482.829102	3.465788
29413.534574	-1274.553333	1481.765625	99.695808
29413.534574	-1274.553333	1480.702148	4.844000
29413.534574	-1274.553333	1479.638672	96.586281
29413.534574	-1274.553333	1478.575195	10.809994
29413.534574	-1274.553333	1477.511719	19.440083
29413.534574	-1274.553333	1476.447266	160.570847
29413.534574	-1274.553333	1475.382813	45.717175
29413.534574	-1274.553333	1474.318359	94.806458
29413.534574	-1274.553333	1473.253906	20.484818
29413.534574	-1274.553333	1472.189453	35.926212
29413.534574	-1274.553333	1471.124023	-15.870673
29413.534574	-1274.553333	1470.058594	17.579659
29413.534574	-1274.553333	1468.993164	84.684555
29413.534574	-1274.553333	1467.927734	62.129688
29413.534574	-1274.553333	1466.861328	191.899673
29413.534574	-1274.553333	1465.794922	-27.688566
29413.534574	-1274.553333	1464.728516	66.342644
29413.534574	-1274.553333	1463.662109	182.690186
29413.534574	-1274.553333	1462.594727	205.151749
29413.534574	-1274.553333	1461.528320	224.998047
29413.534574	-1274.553333	1460.460938	117.665169
29413.534574	-1274.553333	1459.393555	214.002625
29413.534574	-1274.553333	1458.326172	432.970001
29413.534574	-1274.553333	1457.257813	327.774261
29413.534574	-1274.553333	1456.189453	319.330780
29413.534574	-1274.553333	1455.121094	352.813446
29413.534574	-1274.553333	1454.052734	524.518799
29413.534574	-1274.553333	1452.984375	406.822845
29413.534574	-1274.553333	1451.915039	447.202728
29413.534574	-1274.553333	1450.845703	498.951111
29413.534574	-1274.553333	1449.776367	478.597839
29413.534574	-1274.553333	1448.707031	479.062500
29413.534574	-1274.553333	1447.636719	383.493591
29413.534574	-1274.553333	1446.567383	367.491760
29413.534574	-1274.553333	1445.497070	401.463959
29413.534574	-1274.553333	1444.425781	443.635376
29413.534574	-1274.553333	1443.355469	341.520111
29413.534574	-1274.553333	1442.285156	270.641724
29413.534574	-1274.553333	1441.213867	329.109863
29413.534574	-1274.553333	1440.142578	389.697906
29413.534574	-1274.553333	1439.070313	397.108307
29413.534574	-1274.553333	1437.999023	207.133682
29413.534574	-1274.553333	1436.926758	182.825333
29413.534574	-1274.553333	1435.854492	238.306168
29413.534574	-1274.553333	1434.782227	184.204147
29413.534574	-1274.553333	1433.709961	207.536957
29413.534574	-1274.553333	1432.636719	151.203430
29413.534574	-1274.553333	1431.563477	209.403519
29413.534574	-1274.553333	1430.490234	241.929260
29413.534574	-1274.553333	1429.416992	257.987244
29413.534574	-1274.553333	1428.343750	282.553589
29413.534574	-1274.553333	1427.269531	220.690399
29413.534574	-1274.553333	1426.195313	115.540794
29413.534574	-1274.553333	1425.121094	177.383148
29413.534574	-1274.553333	1424.046875	241.479233
29413.534574	-1274.553333	1422.971680	216.044525
29413.534574	-1274.553333	1421.896484	288.916412
29413.534574	-1274.553333	1420.821289	271.529449
29413.534574	-1274.553333	1419.746094	349.618134
29413.534574	-1274.553333	1418.669922	311.850616
29413.534574	-1274.553333	1417.594727	288.568817
29413.534574	-1274.553333	1416.518555	349.645782
29413.534574	-1274.553333	1415.442383	236.702911
29413.534574	-1274.553333	1414.365234	119.211731
29413.534574	-1274.553333	1413.289063	255.337173
29413.534574	-1274.553333	1412.211914	337.223969
29413.534574	-1274.553333	1411.134766	392.411865
29413.534574	-1274.553333	1410.057617	477.070282
29413.534574	-1274.553333	1408.979492	364.206024
29413.534574	-1274.553333	1407.902344	366.162994
29413.534574	-1274.553333	1406.824219	475.990906
29413.534574	-1274.553333	1405.746094	426.507721
29413.534574	-1274.553333	1404.666992	355.305756
29413.534574	-1274.553333	1403.588867	323.898132
29413.534574	-1274.553333	1402.509766	202.368927
29413.534574	-1274.553333	1401.430664	341.546722
29413.534574	-1274.553333	1400.351563	248.891968
29413.534574	-1274.553333	1399.271484	282.229065
29413.534574	-1274.553333	1398.192383	388.797852
29413.534574	-1274.553333	1397.112305	155.938080
29413.534574	-1274.553333	1396.031250	128.489212
29413.534574	-1274.553333	1394.951172	318.977051
29413.534574	-1274.553333	1393.871094	289.355438
29413.534574	-1274.553333	1392.790039	299.302917
29413.534574	-1274.553333	1391.708984	355.926605
29413.534574	-1274.553333	1390.626953	322.321594
29413.534574	-1274.553333	1389.545898	307.389404
29413.534574	-1274.553333	1388.463867	354.901855
29413.534574	-1274.553333	1387.381836	413.003540
29413.534574	-1274.553333	1386.299805	382.137268
29413.534574	-1274.553333	1385.217773	450.036926
29413.534574	-1274.553333	1384.134766	505.853363
29413.534574	-1274.553333	1383.051758	433.561646
29413.534574	-1274.553333	1381.968750	507.136841
29413.534574	-1274.553333	1380.885742	443.400177
29413.534574	-1274.553333	1379.802734	492.766144
29413.534574	-1274.553333	1378.718750	489.793518
29413.534574	-1274.553333	1377.634766	559.766235
29413.534574	-1274.553333	1376.550781	600.684326
29413.534574	-1274.553333	1375.465820	570.507813
29413.534574	-1274.553333	1374.381836	512.901794
29413.534574	-1274.553333	1373.296875	593.156250
29413.534574	-1274.553333	1372.211914	633.871460
29413.534574	-1274.553333	1371.126953	531.971619
29413.534574	-1274.553333	1370.041016	452.630493
29413.534574	-1274.553333	1368.955078	449.462311
29413.534574	-1274.553333	1367.869141	648.578430
29413.534574	-1274.553333	1366.783203	516.898071
29413.534574	-1274.553333	1365.697266	539.019958
29413.534574	-1274.553333	1364.610352	512.271057
29413.534574	-1274.553333	1363.523438	519.721130
29413.534574	-1274.553333	1362.436523	382.106537
29413.534574	-1274.553333	1361.349609	362.283051
29413.534574	-1274.553333	1360.261719	342.518341
29413.534574	-1274.553333	1359.174805	370.854034
29413.534574	-1274.553333	1358.086914	351.332336
29413.534574	-1274.553333	1356.998047	449.789612
29413.534574	-1274.553333	1355.910156	281.859741
29413.534574	-1274.553333	1354.821289	214.143097
29413.534574	-1274.553333	1353.732422	454.956757
29413.534574	-1274.553333	1352.643555	338.583344
29413.534574	-1274.553333	1351.554688	332.851379
29413.534574	-1274.553333	1350.464844	331.854828
29413.534574	-1274.553333	1349.375000	319.571320
29413.534574	-1274.553333	1348.285156	352.173615
29413.534574	-1274.553333	1347.195313	445.319794
29413.534574	-1274.553333	1346.105469	413.689880
29413.534574	-1274.553333	1345.014648	649.773499
29413.534574	-1274.553333	1343.923828	625.126282
29413.534574	-1274.553333	1342.833008	723.908264
29413.534574	-1274.553333	1341.741211	918.742920
29413.534574	-1274.553333	1340.650391	955.394653
29413.534574	-1274.553333	1339.558594	942.547058
29413.534574	-1274.553333	1338.466797	797.912903
29413.534574	-1274.553333	1337.374023	669.053162
29413.534574	-1274.553333	1336.282227	626.362976
29413.534574	-1274.553333	1335.189453	523.932373
29413.534574	-1274.553333	1334.096680	485.742523
29413.534574	-1274.553333	1333.003906	350.413391
29413.534574	-1274.553333	1331.910156	456.918701
29413.534574	-1274.553333	1330.817383	302.879456
29413.534574	-1274.553333	1329.723633	300.526459
29413.534574	-1274.553333	1328.629883	269.893066
29413.534574	-1274.553333	1327.535156	304.157104
29413.534574	-1274.553333	1326.441406	201.178238
29413.534574	-1274.553333	1325.346680	246.883682
29413.534574	-1274.553333	1324.251953	135.664581
29413.534574	-1274.553333	1323.156250	192.922546
29413.534574	-1274.553333	1322.061523	178.723541
29413.534574	-1274.553333	1320.965820	103.680542
29413.534574	-1274.553333	1319.870117	161.081543
29413.534574	-1274.553333	1318.774414	223.425415
29413.534574	-1274.553333	1317.678711	238.730072
29413.534574	-1274.553333	1316.582031	115.000244
29413.534574	-1274.553333	1315.485352	357.615662
29413.534574	-1274.553333	1314.388672	208.842758
29413.534574	-1274.553333	1313.291016	362.210754
29413.534574	-1274.553333	1312.194336	277.583588
29413.534574	-1274.553333	1311.096680	266.385101
29413.534574	-1274.553333	1309.999023	312.302521
29413.534574	-1274.553333	1308.901367	239.271210
29413.534574	-1274.553333	1307.802734	239.666702
29413.534574	-1274.553333	1306.705078	266.525055
29413.534574	-1274.553333	1305.606445	268.336243
29413.534574	-1274.553333	1304.506836	194.944839
29413.534574	-1274.553333	1303.408203	208.419556
29413.534574	-1274.553333	1302.308594	230.479935
29413.534574	-1274.553333	1301.208984	203.706131
29413.534574	-1274.553333	1300.109375	245.886520
29413.534574	-1274.553333	1299.009766	232.744537
29413.534574	-1274.553333	1297.909180	195.667068
29413.534574	-1274.553333	1296.808594	154.743454
29413.534574	-1274.553333	1295.708008	208.049652
29413.534574	-1274.553333	1294.607422	202.699768
29413.534574	-1274.553333	1293.506836	185.637909
29413.534574	-1274.553333	1292.405273	93.600143
29413.534574	-1274.553333	1291.303711	157.271927
29413.534574	-1274.553333	1290.202148	173.331772
29413.534574	-1274.553333	1289.099609	97.836090
29413.534574	-1274.553333	1287.998047	235.076248
29413.534574	-1274.553333	1286.895508	171.188736
29413.534574	-1274.553333	1285.792969	208.202179
29413.534574	-1274.553333	1284.689453	204.251663
29413.534574	-1274.553333	1283.586914	178.523926
29413.534574	-1274.553333	1282.483398	148.936325
29413.534574	-1274.553333	1281.379883	159.954956
29413.534574	-1274.553333	1280.276367	178.396957
29413.534574	-1274.553333	1279.171875	66.157265
29413.534574	-1274.553333	1278.067383	117.380104
29413.534574	-1274.553333	1276.962891	157.074554
29413.534574	-1274.553333	1275.858398	140.946457
29413.534574	-1274.553333	1274.753906	186.938461
29413.534574	-1274.553333	1273.648438	99.212143
29413.534574	-1274.553333	1272.542969	59.360897
29413.534574	-1274.553333	1271.437500	37.199444
29413.534574	-1274.553333	1270.331055	55.303467
29413.534574	-1274.553333	1269.225586	-6.539584
29413.534574	-1274.553333	1268.119141	114.087990
29413.534574	-1274.553333	1267.012695	40.189667
29413.534574	-1274.553333	1265.906250	-4.739664
29413.534574	-1274.553333	1264.798828	-37.793209
29413.534574	-1274.553333	1263.691406	-22.880617
29413.534574	-1274.553333	1262.583984	-23.216475
29413.534574	-1274.553333	1261.476563	-31.174534
29413.534574	-1274.553333	1260.368164	-60.771305
29413.534574	-1274.553333	1259.260742	-77.806953
29413.534574	-1274.553333	1258.152344	-10.007623
29413.534574	-1274.553333	1257.043945	-31.712233
29413.534574	-1274.553333	1255.934570	-115.217041
29413.534574	-1274.553333	1254.825195	-81.267723
29413.534574	-1274.553333	1253.716797	-53.719879
29413.534574	-1274.553333	1252.606445	-90.257652
29413.534574	-1274.553333	1251.497070	14.038008
29413.534574	-1274.553333	1250.387695	-53.816154
29413.534574	-1274.553333	1249.277344	-62.413208
29413.534574	-1274.553333	1248.166992	-31.087772
29413.534574	-1274.553333	1247.055664	3.463583
29413.534574	-1274.553333	1245.945313	8.142603
29413.534574	-1274.553333	1244.833984	-87.243919
29413.534574	-1274.553333	1243.722656	54.473766
29413.534574	-1274.553333	1242.611328	-165.354721
29413.534574	-1274.553333	1241.499023	-48.339245
29413.534574	-1274.553333	1240.387695	-103.555435
29413.534574	-1274.553333	1239.275391	-66.311417
29413.534574	-1274.553333	1238.162109	-73.330544
29413.534574	-1274.553333	1237.049805	-22.456306
29413.534574	-1274.553333	1235.936523	76.210495
29413.534574	-1274.553333	1234.823242	-49.556950
29413.534574	-1274.553333	1233.709961	-44.986404
29413.534574	-1274.553333	1232.596680	-60.114723
29413.534574	-1274.553333	1231.482422	-106.093948
29413.534574	-1274.553333	1230.369141	-26.526934
29413.534574	-1274.553333	1229.253906	26.078907
29413.534574	-1274.553333	1228.139648	-32.122013
29413.534574	-1274.553333	1227.025391	54.538582
29413.534574	-1274.553333	1225.910156	36.769505
29413.534574	-1274.553333	1224.794922	32.403477
29413.534574	-1274.553333	1223.679688	26.451014
29413.534574	-1274.553333	1222.563477	-42.496246
29413.534574	-1274.553333	1221.447266	55.897827
29413.534574	-1274.553333	1220.331055	104.616890
29413.534574	-1274.553333	1219.214844	132.257874
29413.534574	-1274.553333	1218.098633	81.093987
29413.534574	-1274.553333	1216.981445	66.992775
29413.534574	-1274.553333	1215.864258	22.497866
29413.534574	-1274.553333	1214.747070	-79.747414
29413.534574	-1274.553333	1213.629883	39.023788
29413.534574	-1274.553333	1212.511719	58.433430
29413.534574	-1274.553333	1211.393555	15.394753
29413.534574	-1274.553333	1210.275391	7.614074
29413.534574	-1274.553333	1209.157227	-50.378559
29413.534574	-1274.553333	1208.038086	-2.173596
29413.534574	-1274.553333	1206.918945	24.899044
29413.534574	-1274.553333	1205.799805	91.848412
29413.534574	-1274.553333	1204.680664	-18.373085
29413.534574	-1274.553333	1203.560547	52.663162
29413.534574	-1274.553333	1202.441406	88.246254
29413.534574	-1274.553333	1201.321289	81.413788
29413.534574	-1274.553333	1200.200195	108.380394
29413.534574	-1274.553333	1199.080078	65.568954
29413.534574	-1274.553333	1197.958984	60.312981
29413.534574	-1274.553333	1196.837891	39.054031
29413.534574	-1274.553333	1195.716797	109.560928
29413.534574	-1274.553333	1194.594727	135.155838
29413.534574	-1274.553333	1193.473633	74.350517
29413.534574	-1274.553333	1192.351563	-2.520056
29413.534574	-1274.553333	1191.229492	-7.294107
29413.534574	-1274.553333	1190.106445	115.872498
29413.534574	-1274.553333	1188.984375	-6.267500
29413.534574	-1274.553333	1187.861328	110.324234
29413.534574	-1274.553333	1186.738281	164.908371
29413.534574	-1274.553333	1185.614258	96.007004
29413.534574	-1274.553333	1184.491211	173.342392
29413.534574	-1274.553333	1183.367188	82.430634
29413.534574	-1274.553333	1182.243164	137.661560
29413.534574	-1274.553333	1181.119141	190.266403
29413.534574	-1274.553333	1179.994141	141.089279
29413.534574	-1274.553333	1178.869141	207.609894
29413.534574	-1274.553333	1177.744141	93.160538
29413.534574	-1274.553333	1176.619141	163.870422
29413.534574	-1274.553333	1175.493164	188.072418
29413.534574	-1274.553333	1174.368164	169.885818
29413.534574	-1274.553333	1173.242188	203.902847
29413.534574	-1274.553333	1172.115234	213.602280
29413.534574	-1274.553333	1170.989258	229.371521
29413.534574	-1274.553333	1169.862305	269.473175
29413.534574	-1274.553333	1168.735352	201.723373
29413.534574	-1274.553333	1167.608398	208.122940
29413.534574	-1274.553333	1166.481445	194.120895
29413.534574	-1274.553333	1165.353516	234.513458
29413.534574	-1274.553333	1164.225586	219.984467
29413.534574	-1274.553333	1163.097656	172.763260
29413.534574	-1274.553333	1161.968750	129.680222
29413.534574	-1274.553333	1160.840820	114.190208
29413.534574	-1274.553333	1159.711914	236.427826
29413.534574	-1274.553333	1158.583008	172.213211
29413.534574	-1274.553333	1157.453125	107.331795
29413.534574	-1274.553333	1156.324219	139.175522
29413.534574	-1274.553333	1155.194336	115.088905
29413.534574	-1274.553333	1154.064453	194.573746
29413.534574	-1274.553333	1152.933594	36.293892
29413.534574	-1274.553333	1151.803711	93.488747
29413.534574	-1274.553333	1150.672852	142.331635
29413.534574	-1274.553333	1149.541992	74.146416
29413.534574	-1274.553333	1148.411133	181.869202
29413.534574	-1274.553333	1147.279297	244.236557
29413.534574	-1274.553333	1146.147461	184.689301
29413.534574	-1274.553333	1145.015625	281.292694
29413.534574	-1274.553333	1143.883789	239.399170
29413.534574	-1274.553333	1142.750977	309.620209
29413.534574	-1274.553333	1141.619141	212.181030
29413.534574	-1274.553333	1140.486328	135.781143
29413.534574	-1274.553333	1139.352539	71.784660
29413.534574	-1274.553333	1138.219727	71.672173
29413.534574	-1274.553333	1137.085938	81.964966
29413.534574	-1274.553333	1135.952148	32.082706
29413.534574	-1274.553333	1134.818359	54.758907
29413.534574	-1274.553333	1133.683594	-23.213804
29413.534574	-1274.553333	1132.549805	-7.757554
29413.534574	-1274.553333	1131.415039	40.226982
29413.534574	-1274.553333	1130.279297	149.242325
29413.534574	-1274.553333	1129.144531	122.136177
29413.534574	-1274.553333	1128.008789	66.375488
29413.534574	-1274.553333	1126.873047	39.231106
29413.534574	-1274.553333	1125.737305	8.077412
29413.534574	-1274.553333	1124.601563	43.045872
29413.534574	-1274.553333	1123.464844	66.742279
29413.534574	-1274.553333	1122.328125	110.511986
29413.534574	-1274.553333	1121.191406	-9.990333
29413.534574	-1274.553333	1120.054688	35.038906
29413.534574	-1274.553333	1118.916992	-10.467628
29413.534574	-1274.553333	1117.779297	20.736593
29413.534574	-1274.553333	1116.641602	75.909019
29413.534574	-1274.553333	1115.503906	37.079582
29413.534574	-1274.553333	1114.365234	-40.365730
29413.534574	-1274.553333	1113.226563	108.118004
29413.534574	-1274.553333	1112.087891	95.479416
29413.534574	-1274.553333	1110.949219	21.464985
29413.534574	-1274.553333	1109.809570	120.304413
29413.534574	-1274.553333	1108.669922	58.662315
29413.534574	-1274.553333	1107.530273	144.681900
29413.534574	-1274.553333	1106.390625	87.953896
29413.534574	-1274.553333	1105.250000	-3.188021
29413.534574	-1274.553333	1104.109375	112.642242
29413.534574	-1274.553333	1102.968750	37.814960
29413.534574	-1274.553333	1101.828125	81.028542
29413.534574	-1274.553333	1100.686523	38.682770
29413.534574	-1274.553333	1099.544922	-7.925793
29413.534574	-1274.553333	1098.403320	79.127090
29413.534574	-1274.553333	1097.261719	90.350136
29413.534574	-1274.553333	1096.120117	-53.701073
29413.534574	-1274.553333	1094.977539	23.318039
29413.534574	-1274.553333	1093.834961	107.040276
29413.534574	-1274.553333	1092.691406	81.424202
29413.534574	-1274.553333	1091.548828	133.593994
29413.534574	-1274.553333	1090.405273	89.320816
29413.534574	-1274.553333	1089.261719	73.439949
29413.534574	-1274.553333	1088.118164	89.735016
29413.534574	-1274.553333	1086.973633	66.075653
29413.534574	-1274.553333	1085.829102	-35.969666
29413.534574	-1274.553333	1084.684570	-86.019409
29413.534574	-1274.553333	1083.540039	-62.538960
29413.534574	-1274.553333	1082.395508	30.981407
29413.534574	-1274.553333	1081.250000	-80.982521
29413.534574	-1274.553333	1080.104492	35.982021
29413.534574	-1274.553333	1078.958984	-17.725582
29413.534574	-1274.553333	1077.812500	-65.416206
29413.534574	-1274.553333	1076.666016	-12.709985
29413.534574	-1274.553333	1075.519531	63.916973
29413.534574	-1274.553333	1074.373047	42.029827
29413.534574	-1274.553333	1073.226563	-3.198118
29413.534574	-1274.553333	1072.079102	36.681496
29413.534574	-1274.553333	1070.931641	52.064228
29413.534574	-1274.553333	1069.784180	143.160263
29413.534574	-1274.553333	1068.635742	200.154007
29413.534574	-1274.553333	1067.487305	69.619789
29413.534574	-1274.553333	1066.338867	24.926970
29413.534574	-1274.553333	1065.190430	120.087990
29413.534574	-1274.553333	1064.041992	-25.043161
29413.534574	-1274.553333	1062.892578	61.883396
29413.534574	-1274.553333	1061.743164	68.496994
29413.534574	-1274.553333	1060.593750	37.135757
29413.534574	-1274.553333	1059.443359	25.214964
29413.534574	-1274.553333	1058.292969	157.895721
29413.534574	-1274.553333	1057.142578	17.467112
29413.534574	-1274.553333	1055.992188	82.872734
29413.534574	-1274.553333	1054.841797	46.251747
29413.534574	-1274.553333	1053.690430	57.367027
29413.534574	-1274.553333	1052.539063	110.014053
29413.534574	-1274.553333	1051.387695	67.108841
29413.534574	-1274.553333	1050.235352	157.943054
29413.534574	-1274.553333	1049.083984	164.382385
29413.534574	-1274.553333	1047.931641	57.639278
29413.534574	-1274.553333	1046.778320	103.068672
29413.534574	-1274.553333	1045.625977	193.154312
29413.534574	-1274.553333	1044.472656	170.032104
29413.534574	-1274.553333	1043.319336	69.091423
29413.534574	-1274.553333	1042.166016	-9.633307
29413.534574	-1274.553333	1041.012695	30.802298
29413.534574	-1274.553333	1039.858398	91.796707
29413.534574	-1274.553333	1038.704102	121.649727
29413.534574	-1274.553333	1037.549805	95.243973
29413.534574	-1274.553333	1036.394531	40.628273
29413.534574	-1274.553333	1035.239258	72.098091
29413.534574	-1274.553333	1034.083984	16.945944
29413.534574	-1274.553333	1032.928711	211.387222
29413.534574	-1274.553333	1031.773438	98.275963
29413.534574	-1274.553333	1030.617188	91.932434
29413.534574	-1274.553333	1029.460938	85.025955
29413.534574	-1274.553333	1028.304688	107.892998
29413.534574	-1274.553333	1027.147461	37.802273
29413.534574	-1274.553333	1025.991211	-17.277620
29413.534574	-1274.553333	1024.833984	131.779785
29413.534574	-1274.553333	1023.675781	67.314583
29413.534574	-1274.553333	1022.518555	-54.041439
29413.534574	-1274.553333	1021.360352	73.154015
29413.534574	-1274.553333	1020.202148	-21.757736
29413.534574	-1274.553333	1019.043945	8.526351
29413.534574	-1274.553333	1017.884766	-56.045902
29413.534574	-1274.553333	1016.726563	-44.052799
29413.534574	-1274.553333	1015.567383	13.937350
29413.534574	-1274.553333	1014.407227	-93.026344
29413.534574	-1274.553333	1013.248047	-97.411263
29413.534574	-1274.553333	1012.087891	24.210068
29413.534574	-1274.553333	1010.927734	-33.477913
29413.534574	-1274.553333	1009.767578	25.656477
29413.534574	-1274.553333	1008.606445	123.219894
29413.534574	-1274.553333	1007.446289	4.740708
29413.534574	-1274.553333	1006.285156	-25.331034
29413.534574	-1274.553333	1005.123047	-2.395668
29413.534574	-1274.553333	1003.961914	19.273239
29413.534574	-1274.553333	1002.799805	-4.226373
29413.534574	-1274.553333	1001.637695	2.003919
29413.534574	-1274.553333	1000.475586	23.925879
29413.534574	-1274.553333	999.312500	-16.894926
29413.534574	-1274.553333	998.149414	-110.549530
29413.534574	-1274.553333	996.986328	-10.466070
29413.534574	-1274.553333	995.823242	30.531832
29413.534574	-1274.553333	994.659180	49.611992
29413.534574	-1274.553333	993.496094	6.206388
29413.534574	-1274.553333	992.332031	-101.432938
29413.534574	-1274.553333	991.166992	-56.104996
29413.534574	-1274.553333	990.002930	-82.326950
29413.534574	-1274.553333	988.837891	-24.627594
29413.534574	-1274.553333	987.672852	2.455865
29413.534574	-1274.553333	986.506836	-48.511604
29413.534574	-1274.553333	985.341797	-89.619102
29413.534574	-1274.553333	984.175781	-56.331783
29413.534574	-1274.553333	983.009766	-72.418251
29413.534574	-1274.553333	981.843750	45.372097
29413.534574	-1274.553333	980.676758	-13.482011
29413.534574	-1274.553333	979.509766	-67.738159
29413.534574	-1274.553333	978.342773	27.227304
29413.534574	-1274.553333	977.175781	69.317078
29413.534574	-1274.553333	976.007813	-26.418608
29413.534574	-1274.553333	974.839844	5.167496
29413.534574	-1274.553333	973.671875	-41.632996
29413.534574	-1274.553333	972.503906	-24.616598
29413.534574	-1274.553333	971.334961	-22.123001
29413.534574	-1274.553333	970.166016	101.990685
29413.534574	-1274.553333	968.997070	111.483604
29413.534574	-1274.553333	967.828125	-7.345047
29413.534574	-1274.553333	966.658203	42.545132
29413.534574	-1274.553333	965.488281	73.847603
29413.534574	-1274.553333	964.318359	-133.677994
29413.534574	-1274.553333	963.148438	16.490442
29413.534574	-1274.553333	961.977539	-30.019081
29413.534574	-1274.553333	960.806641	39.655151
29413.534574	-1274.553333	959.635742	23.830400
29413.534574	-1274.553333	958.463867	89.080948
29413.534574	-1274.553333	957.292969	-44.697468
29413.534574	-1274.553333	956.121094	27.544466
29413.534574	-1274.553333	954.948242	79.607140
29413.534574	-1274.553333	953.776367	199.075562
29413.534574	-1274.553333	952.603516	165.250687
29413.534574	-1274.553333	951.430664	70.701111
29413.534574	-1274.553333	950.257813	-83.900215
29413.534574	-1274.553333	949.084961	-9.870303
29413.534574	-1274.553333	947.911133	8.309155
29413.534574	-1274.553333	946.737305	-99.038116
29413.534574	-1274.553333	945.563477	-33.616581
29413.534574	-1274.553333	944.388672	24.948481
29413.534574	-1274.553333	943.213867	-12.896132
29413.534574	-1274.553333	942.039063	63.629490
29413.534574	-1274.553333	940.864258	-54.902267
29413.534574	-1274.553333	939.688477	-16.502203
29413.534574	-1274.553333	938.513672	46.414387
29413.534574	-1274.553333	937.337891	4.037932
29413.534574	-1274.553333	936.161133	69.149048
29413.534574	-1274.553333	934.985352	22.323450
29413.534574	-1274.553333	933.808594	-55.857609
29413.534574	-1274.553333	932.631836	-8.686290
29413.534574	-1274.553333	931.454102	-60.013039
29413.534574	-1274.553333	930.277344	67.747185
29413.534574	-1274.553333	929.099609	-21.619099
29413.534574	-1274.553333	927.921875	-16.975800
29413.534574	-1274.553333	926.743164	23.442329
29413.534574	-1274.553333	925.565430	43.716465
29413.534574	-1274.553333	924.386719	-36.664280
29413.534574	-1274.553333	923.208008	46.217205
29413.534574	-1274.553333	922.028320	-69.939774
29413.534574	-1274.553333	920.849609	39.740437
29413.534574	-1274.553333	919.669922	40.582840
29413.534574	-1274.553333	919.474609	-22.597334
29413.534574	-1274.553333	918.309570	-62.718445
29413.534574	-1274.553333	917.143555	4.416754
29413.534574	-1274.553333	915.977539	-66.977974
29413.534574	-1274.553333	914.810547	17.987314
29413.534574	-1274.553333	913.644531	-89.118813
29413.534574	-1274.553333	912.477539	9.200217
29413.534574	-1274.553333	911.310547	24.889626
29413.534574	-1274.553333	910.143555	-12.989697
29413.534574	-1274.553333	908.975586	91.932144
29413.534574	-1274.553333	907.807617	9.432419
29413.534574	-1274.553333	906.639648	0.557365
29413.534574	-1274.553333	905.471680	9.518991
29413.534574	-1274.553333	904.303711	-17.196280
29413.534574	-1274.553333	903.134766	-21.616285
29413.534574	-1274.553333	901.965820	22.984985
29413.534574	-1274.553333	900.796875	-59.427776
29413.534574	-1274.553333	899.626953	-10.390238
29413.534574	-1274.553333	898.457031	51.985001
29413.534574	-1274.553333	897.287109	69.799583
29413.534574	-1274.553333	896.117188	-25.928822
29413.534574	-1274.553333	894.947266	-12.565127
29413.534574	-1274.553333	893.776367	-108.244873
29413.534574	-1274.553333	892.605469	-63.731049
29413.534574	-1274.553333	891.434570	23.022570
29413.534574	-1274.553333	890.262695	-45.930855
29413.534574	-1274.553333	889.091797	-57.052647
29413.534574	-1274.553333	887.919922	18.521246
29413.534574	-1274.553333	886.748047	-8.173080
29413.534574	-1274.553333	885.575195	20.690956
29413.534574	-1274.553333	884.403320	-50.430962
29413.534574	-1274.553333	883.230469	9.518796
29413.534574	-1274.553333	882.057617	76.102692
29413.534574	-1274.553333	880.883789	7.224443
29413.534574	-1274.553333	879.710938	36.039452
29413.534574	-1274.553333	878.537109	-119.361237
29413.534574	-1274.553333	877.362305	-137.132843
29413.534574	-1274.553333	876.188477	60.282864
29413.534574	-1274.553333	875.013672	-101.690071
29413.534574	-1274.553333	873.839844	-48.504379
29413.534574	-1274.553333	872.664063	-41.900047
29413.534574	-1274.553333	871.489258	-17.568880
29413.534574	-1274.553333	870.313477	-15.411345
29413.534574	-1274.553333	869.138672	-48.708775
29413.534574	-1274.553333	867.962891	37.626884
29413.534574	-1274.553333	866.786133	44.193806
29413.534574	-1274.553333	865.610352	41.897423
29413.534574	-1274.553333	864.433594	17.461517
29413.534574	-1274.553333	863.256836	-24.674244
29413.534574	-1274.553333	862.079102	-60.155781
29413.534574	-1274.553333	860.902344	1.723378
29413.534574	-1274.553333	859.724609	45.879120
29413.534574	-1274.553333	858.546875	-22.776476
29413.534574	-1274.553333	857.368164	116.440002
29413.534574	-1274.553333	856.190430	100.849281
29413.534574	-1274.553333	855.011719	47.689255
29413.534574	-1274.553333	853.833008	-56.275951
29413.534574	-1274.553333	852.654297	67.358215
29413.534574	-1274.553333	851.474609	51.781479
29413.534574	-1274.553333	850.294922	34.000164
29413.534574	-1274.553333	849.115234	44.927353
29413.534574	-1274.553333	847.935547	-36.867619
29413.534574	-1274.553333	846.754883	115.315948
29413.534574	-1274.553333	845.575195	88.700172
29413.534574	-1274.553333	844.393555	112.834900
29413.534574	-1274.553333	843.212891	42.112400
29413.534574	-1274.553333	842.032227	26.547077
29413.534574	-1274.553333	840.850586	-33.109364
29413.534574	-1274.553333	839.668945	39.515598
29413.534574	-1274.553333	838.486328	21.749826
29413.534574	-1274.553333	837.304688	8.395041
29413.534574	-1274.553333	836.122070	85.365280
29413.534574	-1274.553333	834.939453	52.175648
29413.534574	-1274.553333	833.756836	170.938660
29413.534574	-1274.553333	832.573242	106.917686
29413.534574	-1274.553333	831.389648	18.707436
29413.534574	-1274.553333	830.206055	49.368153
29413.534574	-1274.553333	829.022461	88.814598
29413.534574	-1274.553333	827.838867	0.653889
29413.534574	-1274.553333	826.654297	15.895731
29413.534574	-1274.553333	825.469727	99.293739
29413.534574	-1274.553333	824.284180	-8.608703
29413.534574	-1274.553333	823.099609	24.200346
29413.534574	-1274.553333	821.914063	-33.105640
29413.534574	-1274.553333	820.728516	-42.055756
29413.534574	-1274.553333	819.542969	47.842361
29413.534574	-1274.553333	818.356445	30.088360
29413.534574	-1274.553333	817.169922	-9.619075
29413.534574	-1274.553333	815.983398	16.544203
29413.534574	-1274.553333	814.796875	-3.398209
29413.534574	-1274.553333	813.609375	9.579928
29413.534574	-1274.553333	812.422852	103.722275
29413.534574	-1274.553333	811.235352	6.992751
29413.534574	-1274.553333	810.046875	30.913963
29413.534574	-1274.553333	808.859375	-21.918121
29413.534574	-1274.553333	807.670898	-19.929991
29413.534574	-1274.553333	806.482422	34.651993
29413.534574	-1274.553333	805.293945	-94.851952
29413.534574	-1274.553333	804.104492	45.152706
29413.534574	-1274.553333	802.915039	18.633957
29413.534574	-1274.553333	801.725586	-34.156120
29413.534574	-1274.553333	800.536133	-91.308212
29413.534574	-1274.553333	799.345703	24.482893
29413.534574	-1274.553333	798.155273	11.101677
29413.534574	-1274.553333	796.964844	-35.099442
29413.534574	-1274.553333	795.774414	-50.660870
29413.534574	-1274.553333	794.583008	-2.795249
29413.534574	-1274.553333	793.392578	115.017281
29413.534574	-1274.553333	792.200195	18.528931
29413.534574	-1274.553333	791.008789	22.618080
29413.534574	-1274.553333	789.816406	72.591232
29413.534574	-1274.553333	788.625000	13.294930
29413.534574	-1274.553333	787.432617	28.286388
29413.534574	-1274.553333	786.239258	41.081314
29413.534574	-1274.553333	785.046875	90.983063
29413.534574	-1274.553333	783.853516	3.327125
29413.534574	-1274.553333	782.660156	88.123749
29413.534574	-1274.553333	781.465820	9.219279
29413.534574	-1274.553333	780.272461	-41.298458
29413.534574	-1274.553333	779.078125	67.426231
29413.534574	-1274.553333	777.883789	3.817913
29413.534574	-1274.553333	776.688477	23.080082
29413.534574	-1274.553333	775.494141	22.707335
29413.534574	-1274.553333	774.298828	4.891487
29413.534574	-1274.553333	773.103516	-34.714607
29413.534574	-1274.553333	771.907227	89.074448
29413.534574	-1274.553333	770.711914	160.530136
29413.534574	-1274.553333	769.515625	-18.475845
29413.534574	-1274.553333	768.318359	24.651999
29413.534574	-1274.553333	767.122070	-8.431502
29413.534574	-1274.553333	765.924805	-6.691137
29413.534574	-1274.553333	764.727539	-7.136866
29413.534574	-1274.553333	763.530273	44.615643
29413.534574	-1274.553333	762.333008	20.215607
29413.534574	-1274.553333	761.134766	-19.405085
29413.534574	-1274.553333	759.936523	10.546855
29413.534574	-1274.553333	758.738281	79.599304
29413.534574	-1274.553333	757.540039	31.266214
29413.534574	-1274.553333	756.340820	-45.301571
29413.534574	-1274.553333	755.141602	-2.380316
29413.534574	-1274.553333	753.942383	-74.588638
29413.534574	-1274.553333	752.742188	139.826797
29413.534574	-1274.553333	751.541992	115.352707
29413.534574	-1274.553333	750.341797	27.936125
29413.534574	-1274.553333	749.141602	98.946228
29413.534574	-1274.553333	747.941406	130.863998
29413.534574	-1274.553333	746.740234	60.812843
29413.534574	-1274.553333	745.539063	60.171097
29413.534574	-1274.553333	744.337891	-72.737236
29413.534574	-1274.553333	743.135742	37.171410
29413.534574	-1274.553333	741.933594	51.664562
29413.534574	-1274.553333	740.731445	-3.198188
29413.534574	-1274.553333	739.529297	-38.555740
29413.534574	-1274.553333	738.326172	-50.088974
29413.534574	-1274.553333	737.124023	35.809521
29413.534574	-1274.553333	735.919922	45.884865
29413.534574	-1274.553333	734.716797	161.999634
29413.534574	-1274.553333	733.513672	35.680450
29413.534574	-1274.553333	732.309570	32.721462
29413.534574	-1274.553333	731.105469	44.889557
29413.534574	-1274.553333	729.900391	59.198586
29413.534574	-1274.553333	728.696289	112.405052
29413.534574	-1274.553333	727.491211	59.646488
29413.534574	-1274.553333	726.286133	34.989635
29413.534574	-1274.553333	725.080078	94.599159
29413.534574	-1274.553333	723.874023	85.033295
29413.534574	-1274.553333	722.668945	-8.784217
29413.534574	-1274.553333	721.461914	35.627110
29413.534574	-1274.553333	720.255859	-14.996388
29413.534574	-1274.553333	719.048828	3.457719
29413.534574	-1274.553333	717.841797	19.726925
29413.534574	-1274.553333	716.634766	-106.436813
29413.534574	-1274.553333	715.427734	-83.717804
29413.534574	-1274.553333	714.219727	-61.028179
29413.534574	-1274.553333	713.011719	-131.090103
29413.534574	-1274.553333	711.803711	-15.736804
29413.534574	-1274.553333	710.594727	-75.042336
29413.534574	-1274.553333	709.385742	25.124954
29413.534574	-1274.553333	708.176758	43.357357
29413.534574	-1274.553333	706.967773	-3.060930
29413.534574	-1274.553333	705.758789	-4.255141
29413.534574	-1274.553333	704.548828	82.809258
29413.534574	-1274.553333	703.338867	1.903386
29413.534574	-1274.553333	702.127930	-3.661638
29413.534574	-1274.553333	700.917969	-20.005314
29413.534574	-1274.553333	699.707031	41.084141
29413.534574	-1274.553333	698.496094	-18.325926
29413.534574	-1274.553333	697.285156	-8.919333
29413.534574	-1274.553333	696.073242	6.909623
29413.534574	-1274.553333	694.861328	48.503006
29413.534574	-1274.553333	693.649414	128.739258
29413.534574	-1274.553333	692.436523	41.322414
29413.534574	-1274.553333	691.224609	-31.043953
29413.534574	-1274.553333	690.011719	55.528404
29413.534574	-1274.553333	688.798828	127.008858
29413.534574	-1274.553333	687.584961	-9.810251
29413.534574	-1274.553333	686.372070	156.045074
29413.534574	-1274.553333	685.158203	126.523964
29413.534574	-1274.553333	683.943359	51.933788
29413.534574	-1274.553333	682.729492	142.517944
29413.534574	-1274.553333	681.514648	164.410538
29413.534574	-1274.553333	680.299805	224.862061
29413.534574	-1274.553333	679.084961	231.669724
29413.534574	-1274.553333	677.869141	139.858124
29413.534574	-1274.553333	676.653320	86.628540
29413.534574	-1274.553333	675.437500	164.076508
29413.534574	-1274.553333	674.221680	95.816841
29413.534574	-1274.553333	673.004883	66.103333
29413.534574	-1274.553333	671.789063	139.142441
29413.534574	-1274.553333	670.571289	92.251755
29413.534574	-1274.553333	669.354492	169.478104
29413.534574	-1274.553333	668.136719	17.702936
29413.534574	-1274.553333	666.919922	120.525963
29413.534574	-1274.553333	665.701172	56.454735
29413.534574	-1274.553333	664.483398	43.701363
29413.534574	-1274.553333	663.264648	60.852970
29413.534574	-1274.553333	662.045898	90.792534
29413.534574	-1274.553333	660.827148	189.071655
29413.534574	-1274.553333	659.608398	99.270798
29413.534574	-1274.553333	658.388672	30.837130
29413.534574	-1274.553333	657.168945	141.790451
29413.534574	-1274.553333	655.949219	34.885292
29413.534574	-1274.553333	654.728516	75.285812
29413.534574	-1274.553333	653.507813	104.968445
29413.534574	-1274.553333	652.287109	91.932846
29413.534574	-1274.553333	651.066406	226.070755
29413.534574	-1274.553333	649.844727	29.526981
29413.534574	-1274.553333	648.623047	137.970215
29413.534574	-1274.553333	647.401367	193.038055
29413.534574	-1274.553333	646.179688	145.739471
29413.534574	-1274.553333	644.957031	70.724792
29413.534574	-1274.553333	643.734375	-40.509525
29413.534574	-1274.553333	642.511719	12.294264
29413.534574	-1274.553333	641.289063	11.801872
29413.534574	-1274.553333	640.065430	68.766853
29413.534574	-1274.553333	638.841797	25.622768
29413.534574	-1274.553333	637.618164	105.910110
29413.534574	-1274.553333	636.393555	41.432911
29413.534574	-1274.553333	635.168945	32.265450
29413.534574	-1274.553333	633.944336	86.880371
29413.534574	-1274.553333	632.719727	122.301575
29413.534574	-1274.553333	631.494141	104.522003
29413.534574	-1274.553333	630.269531	107.976662
29413.534574	-1274.553333	629.042969	83.767082
29413.534574	-1274.553333	627.817383	-99.818108
29413.534574	-1274.553333	626.590820	92.641914
29413.534574	-1274.553333	625.365234	23.757191
29413.534574	-1274.553333	624.137695	24.938555
29413.534574	-1274.553333	622.911133	-1.508687
29413.534574	-1274.553333	621.683594	-40.713192
29413.534574	-1274.553333	620.456055	-39.613739
29413.534574	-1274.553333	619.228516	-93.707573
29413.534574	-1274.553333	618.000977	-94.781487
29413.534574	-1274.553333	616.772461	-15.301749
29413.534574	-1274.553333	615.543945	-1.614471
29413.534574	-1274.553333	614.314453	-7.044836
29413.534574	-1274.553333	613.085938	84.988205
29413.534574	-1274.553333	611.856445	-24.346228
29413.534574	-1274.553333	610.626953	56.994785
29413.534574	-1274.553333	609.397461	59.904438
29413.534574	-1274.553333	608.166992	62.780125
29413.534574	-1274.553333	606.936523	-129.149094
29413.534574	-1274.553333	605.706055	-56.446556
29413.534574	-1274.553333	604.474609	52.167915
29413.534574	-1274.553333	603.244141	21.068771
29413.534574	-1274.553333	602.012695	-58.701401
29413.534574	-1274.553333	600.780273	30.717867
29413.534574	-1274.553333	599.548828	18.580585
29413.534574	-1274.553333	598.316406	95.202187
29413.534574	-1274.553333	597.083984	110.470406
29413.534574	-1274.553333	595.851563	60.198467
29413.534574	-1274.553333	594.618164	100.758209
29413.534574	-1274.553333	593.384766	122.262321
29413.534574	-1274.553333	592.151367	109.941284
29413.534574	-1274.553333	590.917969	156.712341
29413.534574	-1274.553333	589.683594	15.571786
29413.534574	-1274.553333	588.449219	3.194460
29413.534574	-1274.553333	587.214844	89.960030
29413.534574	-1274.553333	585.979492	12.121852
29413.534574	-1274.553333	584.745117	-15.092056
29413.534574	-1274.553333	583.509766	-120.340065
29413.534574	-1274.553333	582.273438	-35.843124
29413.534574	-1274.553333	581.038086	97.070053
29413.534574	-1274.553333	579.801758	-25.073690
29413.534574	-1274.553333	578.565430	48.737118
29413.534574	-1274.553333	577.329102	21.388573
29413.534574	-1274.553333	576.091797	-14.399265
29413.534574	-1274.553333	574.854492	10.860027
29413.534574	-1274.553333	573.617188	38.189281
29413.534574	-1274.553333	572.378906	61.270935
29413.534574	-1274.553333	571.141602	0.159932
29413.534574	-1274.553333	569.903320	-52.536793
29413.534574	-1274.553333	568.664063	-48.451210
29413.534574	-1274.553333	567.425781	104.905342
29413.534574	-1274.553333	566.186523	39.536446
29413.534574	-1274.553333	564.947266	68.755150
29413.534574	-1274.553333	563.708008	-30.242805
29413.534574	-1274.553333	562.467773	116.584824
29413.534574	-1274.553333	561.227539	36.479134
29413.534574	-1274.553333	559.987305	-64.612404
29413.534574	-1274.553333	558.747070	31.679081
29413.534574	-1274.553333	557.505859	60.735653
29413.534574	-1274.553333	556.264648	-120.105812
29413.534574	-1274.553333	555.023438	-19.726416
29413.534574	-1274.553333	553.781250	116.251732
29413.534574	-1274.553333	552.539063	61.298141
29413.534574	-1274.553333	551.296875	14.738759
29413.534574	-1274.553333	550.054688	-8.755980
29413.534574	-1274.553333	548.811523	-23.875586
29413.534574	-1274.553333	547.569336	-62.051498
29413.534574	-1274.553333	546.325195	-28.998814
29413.534574	-1274.553333	545.082031	-119.554832
29413.534574	-1274.553333	543.837891	152.205322
29413.534574	-1274.553333	542.593750	34.400951
29413.534574	-1274.553333	541.349609	52.698635
29413.534574	-1274.553333	540.105469	96.090378
29413.534574	-1274.553333	538.860352	59.938408
29413.534574	-1274.553333	537.615234	-97.541725
29413.534574	-1274.553333	536.369141	31.567375
29413.534574	-1274.553333	535.124023	12.149914
29413.534574	-1274.553333	533.877930	-11.452319
29413.534574	-1274.553333	532.631836	13.020219
29413.534574	-1274.553333	531.384766	54.189014
29413.534574	-1274.553333	530.138672	3.408551
29413.534574	-1274.553333	528.891602	-116.290451
29413.534574	-1274.553333	527.643555	-10.404715
29413.534574	-1274.553333	526.396484	36.971531
29413.534574	-1274.553333	525.148438	-38.840961
29413.534574	-1274.553333	523.900391	56.509930
29413.534574	-1274.553333	522.652344	-63.100201
29413.534574	-1274.553333	521.403320	-70.014954
29413.534574	-1274.553333	520.154297	-14.359252
29413.534574	-1274.553333	518.905273	53.781807
29413.534574	-1274.553333	517.656250	9.314589
29413.534574	-1274.553333	516.406250	-8.041525
29413.534574	-1274.553333	515.156250	-4.551352
29413.534574	-1274.553333	513.906250	-55.231628
29413.534574	-1274.553333	512.655273	-103.809265
29413.534574	-1274.553333	511.404297	-8.669441
29413.534574	-1274.553333	510.153320	-57.232475
29413.534574	-1274.553333	508.902344	-7.934798
29413.534574	-1274.553333	507.650391	-110.585335
29413.534574	-1274.553333	506.398438	-28.001200
29413.534574	-1274.553333	505.146484	-47.382744
29413.534574	-1274.553333	503.893555	-56.354820
29413.534574	-1274.553333	502.641602	-158.887482
29413.534574	-1274.553333	501.388672	-9.819360
29413.534574	-1274.553333	500.134766	-20.856701
29413.534574	-1274.553333	498.881836	84.492310
29413.534574	-1274.553333	497.627930	60.988644
29413.534574	-1274.553333	496.374023	43.735020
29413.534574	-1274.553333	495.119141	43.108288
29413.534574	-1274.553333	493.865234	32.112602
29413.534574	-1274.553333	492.610352	68.872734
29413.534574	-1274.553333	491.355469	3.933463
29413.534574	-1274.553333	490.099609	-54.745121
29413.534574	-1274.553333	488.843750	21.454468
29413.534574	-1274.553333	487.587891	-41.327934
29413.534574	-1274.553333	486.332031	49.374641
29413.534574	-1274.553333	485.075195	137.974670
29413.534574	-1274.553333	483.818359	-42.901695
29413.534574	-1274.553333	482.561523	-122.146408
29413.534574	-1274.553333	481.304688	-62.532314
29413.534574	-1274.553333	480.046875	-31.931889
29413.534574	-1274.553333	478.789063	-55.174400
29413.534574	-1274.553333	477.531250	-51.475868
29413.534574	-1274.553333	476.272461	49.523876
29413.534574	-1274.553333	475.013672	1.485697
29413.534574	-1274.553333	473.754883	36.248920
29413.534574	-1274.553333	472.496094	35.844742
29413.534574	-1274.553333	471.236328	6.498774
29413.534574	-1274.553333	469.976563	39.214737
29413.534574	-1274.553333	468.716797	-16.963316
29413.534574	-1274.553333	467.456055	11.639161
29413.534574	-1274.553333	466.196289	65.045616
29413.534574	-1274.553333	464.935547	21.340124
29413.534574	-1274.553333	463.673828	0.388183
29413.534574	-1274.553333	462.413086	20.766287
29413.534574	-1274.553333	461.151367	74.183487
29413.534574	-1274.553333	459.889648	30.575512
29413.534574	-1274.553333	458.626953	-52.212097
29413.534574	-1274.553333	457.364258	-0.832089
29413.534574	-1274.553333	456.101563	56.729458
29413.534574	-1274.553333	454.838867	15.284769
29413.534574	-1274.553333	453.575195	126.457603
29413.534574	-1274.553333	452.312500	146.891296
29413.534574	-1274.553333	451.047852	35.414745
29413.534574	-1274.553333	449.784180	60.006062
29413.534574	-1274.553333	448.519531	22.790878
29413.534574	-1274.553333	447.254883	6.201918
29413.534574	-1274.553333	445.990234	-115.393013
29413.534574	-1274.553333	444.725586	-31.036573
29413.534574	-1274.553333	443.459961	77.992599
29413.534574	-1274.553333	442.194336	73.795914
29413.534574	-1274.553333	440.927734	73.722305
29413.534574	-1274.553333	439.662109	77.774010
29413.534574	-1274.553333	438.395508	98.281448
29413.534574	-1274.553333	437.127930	149.627426
29413.534574	-1274.553333	435.861328	46.776829
29413.534574	-1274.553333	434.593750	79.622925
29413.534574	-1274.553333	433.326172	26.153824
29413.534574	-1274.553333	432.058594	46.668060
29413.534574	-1274.553333	430.790039	40.469898
29413.534574	-1274.553333	429.521484	128.735703
29413.534574	-1274.553333	428.252930	26.023548
29413.534574	-1274.553333	426.984375	155.300110
29413.534574	-1274.553333	425.714844	118.284889
29413.534574	-1274.553333	424.445313	73.070419
29413.534574	-1274.553333	423.174805	167.353058
29413.534574	-1274.553333	421.905273	35.990891
29413.534574	-1274.553333	420.634766	19.493006
29413.534574	-1274.553333	419.364258	78.836395
29413.534574	-1274.553333	418.092773	238.560272
29413.534574	-1274.553333	416.822266	94.933075
29413.534574	-1274.553333	415.550781	104.991264
29413.534574	-1274.553333	414.278320	149.837296
29413.534574	-1274.553333	413.006836	170.066071
29413.534574	-1274.553333	411.734375	141.117935
29413.534574	-1274.553333	410.461914	148.992691
29413.534574	-1274.553333	409.188477	36.087097
29413.534574	-1274.553333	407.916016	19.355183
29413.534574	-1274.553333	406.642578	25.086737
29413.534574	-1274.553333	405.368164	20.542093
29413.534574	-1274.553333	404.094727	177.480286
29413.534574	-1274.553333	402.820313	-39.792843
29413.534574	-1274.553333	401.545898	112.892288
29413.534574	-1274.553333	400.270508	-20.615543
29413.534574	-1274.553333	398.996094	9.303842
29413.534574	-1274.553333	397.720703	18.715172
29413.534574	-1274.553333	396.444336	89.307022
29413.534574	-1274.553333	395.168945	59.759518
29413.534574	-1274.553333	393.892578	85.250908
29413.534574	-1274.553333	392.616211	67.792427
29413.534574	-1274.553333	391.339844	48.210903
29413.534574	-1274.553333	390.062500	132.567841
29413.534574	-1274.553333	388.785156	88.310257
29413.534574	-1274.553333	387.507813	160.182938
29413.534574	-1274.553333	386.229492	168.718369
29413.534574	-1274.553333	384.951172	16.132313
29413.534574	-1274.553333	383.672852	2.043103
29413.534574	-1274.553333	382.394531	-36.612740
29413.534574	-1274.553333	381.115234	-83.537216
29413.534574	-1274.553333	379.835938	62.858624
29413.534574	-1274.553333	378.556641	33.966816
29413.534574	-1274.553333	377.277344	120.948250
29413.534574	-1274.553333	375.997070	81.562607
29413.534574	-1274.553333	374.716797	-16.972107
29413.534574	-1274.553333	373.435547	-5.808491
29413.534574	-1274.553333	372.155273	121.085808
29413.534574	-1274.553333	370.874023	164.371185
29413.534574	-1274.553333	369.591797	61.080898
29413.534574	-1274.553333	368.310547	26.730431
29413.534574	-1274.553333	367.028320	69.381950
29413.534574	-1274.553333	365.746094	40.694340
29413.534574	-1274.553333	364.463867	28.033403
29413.534574	-1274.553333	363.180664	80.104828
29413.534574	-1274.553333	361.897461	12.131231
29413.534574	-1274.553333	360.614258	6.843440
29413.534574	-1274.553333	359.330078	19.542480
29413.534574	-1274.553333	358.045898	36.012314
29413.534574	-1274.553333	356.761719	60.296467
29413.534574	-1274.553333	355.477539	-55.651134
29413.534574	-1274.553333	354.192383	-50.225742
29413.534574	-1274.553333	352.907227	-55.262257
29413.534574	-1274.553333	351.622070	-82.923798
29413.534574	-1274.553333	350.336914	20.772253
29413.534574	-1274.553333	349.050781	-82.556374
29413.534574	-1274.553333	347.764648	-163.935669
29413.534574	-1274.553333	346.477539	70.182556
29413.534574	-1274.553333	345.191406	-30.195286
29413.534574	-1274.553333	343.904297	-70.235245
29413.534574	-1274.553333	342.616211	-39.874458
29413.534574	-1274.553333	341.329102	-44.345856
29413.534574	-1274.553333	340.041016	-47.256836
29413.534574	-1274.553333	338.752930	-97.142334
29413.534574	-1274.553333	337.463867	72.856697
29413.534574	-1274.553333	336.175781	209.955505
29413.534574	-1274.553333	334.886719	-17.266088
29413.534574	-1274.553333	333.596680	-0.474882
29413.534574	-1274.553333	332.307617	-20.583284
29413.534574	-1274.553333	331.017578	57.692066
29413.534574	-1274.553333	329.727539	-44.337986
29413.534574	-1274.553333	328.436523	10.509245
29413.534574	-1274.553333	327.146484	0.150903
29413.534574	-1274.553333	325.855469	-18.924267
29413.534574	-1274.553333	324.563477	102.543686
29413.534574	-1274.553333	323.272461	-81.233505
29413.534574	-1274.553333	321.980469	-39.810307
29413.534574	-1274.553333	320.688477	-107.978065
29413.534574	-1274.553333	319.395508	-140.590317
29413.534574	-1274.553333	318.103516	59.815727
29413.534574	-1274.553333	316.810547	23.633131
29413.534574	-1274.553333	315.516602	-3.282847
29413.534574	-1274.553333	314.223633	-8.838420
29413.534574	-1274.553333	312.929688	87.418983
29413.534574	-1274.553333	311.635742	57.970234
29413.534574	-1274.553333	310.340820	164.461548
29413.534574	-1274.553333	309.045898	62.758339
29413.534574	-1274.553333	307.750977	82.858757
29413.534574	-1274.553333	306.456055	146.225311
29413.534574	-1274.553333	305.160156	59.759098
29413.534574	-1274.553333	303.865234	157.272171
29413.534574	-1274.553333	302.568359	191.339737
29413.534574	-1274.553333	301.272461	346.910461
29413.534574	-1274.553333	299.975586	101.518112
29413.534574	-1274.553333	298.678711	168.412476
