#X		#Y		#Wave		#Intensity
29741.309043	-1404.315000	1999.980469	56.665073
29741.309043	-1404.315000	1999.016602	-87.623138
29741.309043	-1404.315000	1998.052734	-55.262440
29741.309043	-1404.315000	1997.087891	-42.879719
29741.309043	-1404.315000	1996.123047	53.602509
29741.309043	-1404.315000	1995.158203	8.713771
29741.309043	-1404.315000	1994.193359	-16.473515
29741.309043	-1404.315000	1993.228516	94.418663
29741.309043	-1404.315000	1992.262695	-67.191719
29741.309043	-1404.315000	1991.297852	-6.078314
29741.309043	-1404.315000	1990.332031	59.849472
29741.309043	-1404.315000	1989.366211	-126.753311
29741.309043	-1404.315000	1988.399414	-110.525078
29741.309043	-1404.315000	1987.433594	2.060946
29741.309043	-1404.315000	1986.466797	-125.384315
29741.309043	-1404.315000	1985.500977	33.945480
29741.309043	-1404.315000	1984.534180	160.983948
29741.309043	-1404.315000	1983.567383	92.620766
29741.309043	-1404.315000	1982.599609	113.159889
29741.309043	-1404.315000	1981.632813	111.370064
29741.309043	-1404.315000	1980.665039	50.212250
29741.309043	-1404.315000	1979.697266	-40.640579
29741.309043	-1404.315000	1978.729492	-22.879803
29741.309043	-1404.315000	1977.761719	-59.516193
29741.309043	-1404.315000	1976.792969	-152.982941
29741.309043	-1404.315000	1975.825195	71.893524
29741.309043	-1404.315000	1974.856445	37.526035
29741.309043	-1404.315000	1973.887695	64.787834
29741.309043	-1404.315000	1972.918945	-9.152461
29741.309043	-1404.315000	1971.949219	-92.987442
29741.309043	-1404.315000	1970.980469	-23.968985
29741.309043	-1404.315000	1970.010742	-41.314053
29741.309043	-1404.315000	1969.041016	22.636742
29741.309043	-1404.315000	1968.071289	98.838837
29741.309043	-1404.315000	1967.101563	-41.856895
29741.309043	-1404.315000	1966.130859	83.508698
29741.309043	-1404.315000	1965.161133	-17.807234
29741.309043	-1404.315000	1964.190430	-18.162186
29741.309043	-1404.315000	1963.219727	107.012367
29741.309043	-1404.315000	1962.249023	94.255524
29741.309043	-1404.315000	1961.277344	12.556251
29741.309043	-1404.315000	1960.306641	103.107353
29741.309043	-1404.315000	1959.334961	63.200157
29741.309043	-1404.315000	1958.363281	89.695099
29741.309043	-1404.315000	1957.391602	17.781410
29741.309043	-1404.315000	1956.419922	174.545746
29741.309043	-1404.315000	1955.447266	-8.034125
29741.309043	-1404.315000	1954.474609	40.481274
29741.309043	-1404.315000	1953.501953	29.980194
29741.309043	-1404.315000	1952.529297	-68.989960
29741.309043	-1404.315000	1951.556641	156.331039
29741.309043	-1404.315000	1950.583984	172.781540
29741.309043	-1404.315000	1949.610352	29.591858
29741.309043	-1404.315000	1948.636719	36.211075
29741.309043	-1404.315000	1947.663086	-1.369298
29741.309043	-1404.315000	1946.689453	-97.848228
29741.309043	-1404.315000	1945.715820	-186.938385
29741.309043	-1404.315000	1944.741211	138.617661
29741.309043	-1404.315000	1943.767578	-105.032372
29741.309043	-1404.315000	1942.792969	102.657379
29741.309043	-1404.315000	1941.818359	23.378912
29741.309043	-1404.315000	1940.842773	96.120949
29741.309043	-1404.315000	1939.868164	53.634579
29741.309043	-1404.315000	1938.892578	-42.755203
29741.309043	-1404.315000	1937.916992	-19.048916
29741.309043	-1404.315000	1936.941406	87.939827
29741.309043	-1404.315000	1935.965820	13.642493
29741.309043	-1404.315000	1934.990234	-107.154015
29741.309043	-1404.315000	1934.013672	-46.723927
29741.309043	-1404.315000	1933.037109	-67.095291
29741.309043	-1404.315000	1932.060547	76.525536
29741.309043	-1404.315000	1931.083984	114.875504
29741.309043	-1404.315000	1930.107422	16.210091
29741.309043	-1404.315000	1929.129883	-172.919876
29741.309043	-1404.315000	1928.153320	17.101450
29741.309043	-1404.315000	1927.175781	-39.906162
29741.309043	-1404.315000	1926.198242	5.793630
29741.309043	-1404.315000	1925.219727	-4.735741
29741.309043	-1404.315000	1924.242188	136.263947
29741.309043	-1404.315000	1923.263672	-145.482300
29741.309043	-1404.315000	1922.285156	-92.436546
29741.309043	-1404.315000	1921.306641	70.507988
29741.309043	-1404.315000	1920.328125	111.301781
29741.309043	-1404.315000	1919.349609	127.673615
29741.309043	-1404.315000	1918.370117	185.547150
29741.309043	-1404.315000	1917.391602	157.988846
29741.309043	-1404.315000	1916.412109	-52.563427
29741.309043	-1404.315000	1915.431641	98.050659
29741.309043	-1404.315000	1914.452148	116.899406
29741.309043	-1404.315000	1913.472656	113.802834
29741.309043	-1404.315000	1912.492188	154.607361
29741.309043	-1404.315000	1911.511719	-72.760796
29741.309043	-1404.315000	1910.531250	70.457184
29741.309043	-1404.315000	1909.550781	-8.132245
29741.309043	-1404.315000	1908.569336	8.341711
29741.309043	-1404.315000	1907.588867	-87.237564
29741.309043	-1404.315000	1906.607422	-87.782814
29741.309043	-1404.315000	1905.625977	-71.270386
29741.309043	-1404.315000	1904.644531	-13.363450
29741.309043	-1404.315000	1903.662109	-57.707878
29741.309043	-1404.315000	1902.680664	-177.471283
29741.309043	-1404.315000	1901.698242	-53.846684
29741.309043	-1404.315000	1900.715820	-42.170914
29741.309043	-1404.315000	1899.733398	132.483566
29741.309043	-1404.315000	1898.750000	166.026489
29741.309043	-1404.315000	1897.767578	65.834015
29741.309043	-1404.315000	1896.784180	-39.174564
29741.309043	-1404.315000	1895.800781	145.107117
29741.309043	-1404.315000	1894.817383	69.302803
29741.309043	-1404.315000	1893.833984	-132.810471
29741.309043	-1404.315000	1892.850586	-4.461517
29741.309043	-1404.315000	1891.866211	-4.879320
29741.309043	-1404.315000	1890.881836	18.993532
29741.309043	-1404.315000	1889.897461	-22.689028
29741.309043	-1404.315000	1888.913086	98.289421
29741.309043	-1404.315000	1887.927734	-246.752258
29741.309043	-1404.315000	1886.943359	0.414212
29741.309043	-1404.315000	1885.958008	131.041183
29741.309043	-1404.315000	1884.972656	84.555077
29741.309043	-1404.315000	1883.987305	-83.167610
29741.309043	-1404.315000	1883.001953	18.319937
29741.309043	-1404.315000	1882.015625	-112.956444
29741.309043	-1404.315000	1881.029297	-35.734470
29741.309043	-1404.315000	1880.042969	-4.581042
29741.309043	-1404.315000	1879.056641	-72.775963
29741.309043	-1404.315000	1878.070313	-111.874428
29741.309043	-1404.315000	1877.083984	-10.481464
29741.309043	-1404.315000	1876.096680	-206.975571
29741.309043	-1404.315000	1875.109375	-132.234192
29741.309043	-1404.315000	1874.122070	61.088787
29741.309043	-1404.315000	1873.134766	-103.847046
29741.309043	-1404.315000	1872.146484	-43.689751
29741.309043	-1404.315000	1871.159180	120.472275
29741.309043	-1404.315000	1870.170898	-153.235672
29741.309043	-1404.315000	1869.182617	6.041346
29741.309043	-1404.315000	1868.194336	-81.370148
29741.309043	-1404.315000	1867.205078	-6.786247
29741.309043	-1404.315000	1866.216797	50.846249
29741.309043	-1404.315000	1865.227539	-51.040775
29741.309043	-1404.315000	1864.238281	-97.325836
29741.309043	-1404.315000	1863.249023	13.415243
29741.309043	-1404.315000	1862.259766	90.295090
29741.309043	-1404.315000	1861.269531	19.838371
29741.309043	-1404.315000	1860.279297	-4.730893
29741.309043	-1404.315000	1859.290039	69.668777
29741.309043	-1404.315000	1858.298828	-147.989975
29741.309043	-1404.315000	1857.308594	220.760300
29741.309043	-1404.315000	1856.318359	-20.991367
29741.309043	-1404.315000	1855.327148	-26.288744
29741.309043	-1404.315000	1854.335938	137.211365
29741.309043	-1404.315000	1853.344727	117.392044
29741.309043	-1404.315000	1852.353516	145.779984
29741.309043	-1404.315000	1851.362305	-28.314985
29741.309043	-1404.315000	1850.370117	110.905075
29741.309043	-1404.315000	1849.377930	225.963089
29741.309043	-1404.315000	1848.385742	54.308559
29741.309043	-1404.315000	1847.393555	157.257187
29741.309043	-1404.315000	1846.401367	-55.291325
29741.309043	-1404.315000	1845.408203	83.711823
29741.309043	-1404.315000	1844.415039	-20.466230
29741.309043	-1404.315000	1843.421875	67.898422
29741.309043	-1404.315000	1842.428711	158.615631
29741.309043	-1404.315000	1841.435547	-3.319226
29741.309043	-1404.315000	1840.441406	123.408188
29741.309043	-1404.315000	1839.448242	139.446381
29741.309043	-1404.315000	1838.454102	256.434448
29741.309043	-1404.315000	1837.459961	154.601593
29741.309043	-1404.315000	1836.464844	-120.265297
29741.309043	-1404.315000	1835.470703	198.475632
29741.309043	-1404.315000	1834.475586	10.140045
29741.309043	-1404.315000	1833.480469	-41.235142
29741.309043	-1404.315000	1832.485352	142.735123
29741.309043	-1404.315000	1831.490234	74.487617
29741.309043	-1404.315000	1830.495117	-137.805481
29741.309043	-1404.315000	1829.499023	274.009735
29741.309043	-1404.315000	1828.502930	140.887268
29741.309043	-1404.315000	1827.506836	190.132141
29741.309043	-1404.315000	1826.510742	128.977036
29741.309043	-1404.315000	1825.513672	115.777885
29741.309043	-1404.315000	1824.517578	6.632292
29741.309043	-1404.315000	1823.520508	91.689285
29741.309043	-1404.315000	1822.523438	121.546669
29741.309043	-1404.315000	1821.526367	108.216469
29741.309043	-1404.315000	1820.529297	118.816177
29741.309043	-1404.315000	1819.531250	-23.953737
29741.309043	-1404.315000	1818.533203	204.557419
29741.309043	-1404.315000	1817.535156	186.277679
29741.309043	-1404.315000	1816.537109	81.766975
29741.309043	-1404.315000	1815.539063	99.345932
29741.309043	-1404.315000	1814.540039	-50.667957
29741.309043	-1404.315000	1813.541992	131.962402
29741.309043	-1404.315000	1812.542969	51.298386
29741.309043	-1404.315000	1811.543945	-34.163342
29741.309043	-1404.315000	1810.543945	14.293988
29741.309043	-1404.315000	1809.544922	108.123634
29741.309043	-1404.315000	1808.544922	94.286072
29741.309043	-1404.315000	1807.544922	-41.496254
29741.309043	-1404.315000	1806.544922	121.455750
29741.309043	-1404.315000	1805.544922	150.493057
29741.309043	-1404.315000	1804.544922	55.247906
29741.309043	-1404.315000	1803.543945	120.015869
29741.309043	-1404.315000	1802.542969	12.771612
29741.309043	-1404.315000	1801.541992	-22.853598
29741.309043	-1404.315000	1800.541016	-10.773404
29741.309043	-1404.315000	1799.539063	75.235352
29741.309043	-1404.315000	1798.538086	51.397514
29741.309043	-1404.315000	1797.536133	80.000725
29741.309043	-1404.315000	1796.534180	48.907673
29741.309043	-1404.315000	1795.532227	115.552391
29741.309043	-1404.315000	1794.529297	27.128538
29741.309043	-1404.315000	1793.527344	76.957176
29741.309043	-1404.315000	1792.524414	-99.725273
29741.309043	-1404.315000	1791.521484	7.189257
29741.309043	-1404.315000	1790.518555	32.998135
29741.309043	-1404.315000	1789.514648	-46.076893
29741.309043	-1404.315000	1788.511719	46.307281
29741.309043	-1404.315000	1787.507813	-142.392700
29741.309043	-1404.315000	1786.503906	-50.143673
29741.309043	-1404.315000	1785.500000	-131.753693
29741.309043	-1404.315000	1784.496094	19.839300
29741.309043	-1404.315000	1783.491211	23.785488
29741.309043	-1404.315000	1782.486328	6.258923
29741.309043	-1404.315000	1781.481445	-51.755459
29741.309043	-1404.315000	1780.476563	-97.918213
29741.309043	-1404.315000	1779.471680	60.353271
29741.309043	-1404.315000	1778.465820	-188.002014
29741.309043	-1404.315000	1777.460938	-1.375959
29741.309043	-1404.315000	1776.455078	-14.495698
29741.309043	-1404.315000	1775.449219	-34.800972
29741.309043	-1404.315000	1774.442383	35.099159
29741.309043	-1404.315000	1773.436523	12.290847
29741.309043	-1404.315000	1772.429688	86.776993
29741.309043	-1404.315000	1771.422852	35.346638
29741.309043	-1404.315000	1770.416016	64.572716
29741.309043	-1404.315000	1769.409180	96.096512
29741.309043	-1404.315000	1768.402344	115.678474
29741.309043	-1404.315000	1767.394531	118.578339
29741.309043	-1404.315000	1766.386719	138.013229
29741.309043	-1404.315000	1765.378906	83.862747
29741.309043	-1404.315000	1764.371094	34.407898
29741.309043	-1404.315000	1763.362305	-50.656258
29741.309043	-1404.315000	1762.354492	-69.390572
29741.309043	-1404.315000	1761.345703	-64.494560
29741.309043	-1404.315000	1760.336914	-137.848312
29741.309043	-1404.315000	1759.328125	16.146584
29741.309043	-1404.315000	1758.318359	-7.605112
29741.309043	-1404.315000	1757.308594	18.306755
29741.309043	-1404.315000	1756.299805	-95.523804
29741.309043	-1404.315000	1755.290039	13.096551
29741.309043	-1404.315000	1754.279297	-18.016123
29741.309043	-1404.315000	1753.269531	-4.227113
29741.309043	-1404.315000	1752.258789	54.425125
29741.309043	-1404.315000	1751.249023	58.595112
29741.309043	-1404.315000	1750.238281	-67.364243
29741.309043	-1404.315000	1749.226563	45.425659
29741.309043	-1404.315000	1748.215820	-47.531605
29741.309043	-1404.315000	1747.204102	-114.533882
29741.309043	-1404.315000	1746.193359	52.338703
29741.309043	-1404.315000	1745.181641	-14.798855
29741.309043	-1404.315000	1744.168945	5.401824
29741.309043	-1404.315000	1743.157227	-2.806936
29741.309043	-1404.315000	1742.144531	-178.718704
29741.309043	-1404.315000	1741.132813	44.299999
29741.309043	-1404.315000	1740.120117	212.874298
29741.309043	-1404.315000	1739.106445	76.916100
29741.309043	-1404.315000	1738.093750	160.347382
29741.309043	-1404.315000	1737.080078	-140.802780
29741.309043	-1404.315000	1736.067383	-173.060379
29741.309043	-1404.315000	1735.053711	-52.124130
29741.309043	-1404.315000	1734.040039	-207.118271
29741.309043	-1404.315000	1733.025391	90.397675
29741.309043	-1404.315000	1732.011719	-45.855610
29741.309043	-1404.315000	1730.997070	-7.789240
29741.309043	-1404.315000	1729.982422	30.191584
29741.309043	-1404.315000	1728.967773	58.665073
29741.309043	-1404.315000	1727.952148	75.276520
29741.309043	-1404.315000	1726.937500	-127.124763
29741.309043	-1404.315000	1725.921875	-42.367489
29741.309043	-1404.315000	1724.906250	-207.165070
29741.309043	-1404.315000	1723.890625	30.370325
29741.309043	-1404.315000	1722.875000	-16.899826
29741.309043	-1404.315000	1721.858398	34.553223
29741.309043	-1404.315000	1720.841797	-71.635994
29741.309043	-1404.315000	1719.825195	-104.972168
29741.309043	-1404.315000	1718.808594	82.592720
29741.309043	-1404.315000	1717.791992	-131.863968
29741.309043	-1404.315000	1716.774414	-33.803017
29741.309043	-1404.315000	1715.756836	-95.600266
29741.309043	-1404.315000	1714.739258	2.275769
29741.309043	-1404.315000	1713.721680	-45.553585
29741.309043	-1404.315000	1712.704102	256.406067
29741.309043	-1404.315000	1711.685547	109.804977
29741.309043	-1404.315000	1710.667969	-142.416443
29741.309043	-1404.315000	1709.649414	6.646566
29741.309043	-1404.315000	1708.630859	5.431167
29741.309043	-1404.315000	1707.611328	83.893097
29741.309043	-1404.315000	1706.592773	230.276016
29741.309043	-1404.315000	1705.573242	69.361168
29741.309043	-1404.315000	1704.553711	-51.705002
29741.309043	-1404.315000	1703.534180	-97.788368
29741.309043	-1404.315000	1702.513672	78.695450
29741.309043	-1404.315000	1701.494141	2.012247
29741.309043	-1404.315000	1700.473633	131.426117
29741.309043	-1404.315000	1699.453125	-163.191544
29741.309043	-1404.315000	1698.432617	-90.126488
29741.309043	-1404.315000	1697.412109	-17.155670
29741.309043	-1404.315000	1696.390625	-58.981140
29741.309043	-1404.315000	1695.369141	11.476781
29741.309043	-1404.315000	1694.347656	49.086674
29741.309043	-1404.315000	1693.326172	-191.767258
29741.309043	-1404.315000	1692.304688	23.497458
29741.309043	-1404.315000	1691.282227	-11.609559
29741.309043	-1404.315000	1690.260742	88.849754
29741.309043	-1404.315000	1689.238281	303.739899
29741.309043	-1404.315000	1688.214844	-56.458385
29741.309043	-1404.315000	1687.192383	144.233383
29741.309043	-1404.315000	1686.168945	80.782890
29741.309043	-1404.315000	1685.146484	185.482315
29741.309043	-1404.315000	1684.123047	-36.873703
29741.309043	-1404.315000	1683.099609	79.352913
29741.309043	-1404.315000	1682.075195	4.042474
29741.309043	-1404.315000	1681.051758	166.777649
29741.309043	-1404.315000	1680.027344	51.692528
29741.309043	-1404.315000	1679.002930	183.901031
29741.309043	-1404.315000	1677.978516	71.074585
29741.309043	-1404.315000	1676.953125	119.145058
29741.309043	-1404.315000	1675.928711	-40.373680
29741.309043	-1404.315000	1674.903320	142.802414
29741.309043	-1404.315000	1673.877930	218.634186
29741.309043	-1404.315000	1672.852539	329.338074
29741.309043	-1404.315000	1671.826172	57.825191
29741.309043	-1404.315000	1670.800781	49.606045
29741.309043	-1404.315000	1669.774414	311.495483
29741.309043	-1404.315000	1668.748047	228.600143
29741.309043	-1404.315000	1667.721680	252.779053
29741.309043	-1404.315000	1666.694336	193.089661
29741.309043	-1404.315000	1665.667969	291.635712
29741.309043	-1404.315000	1664.640625	129.482590
29741.309043	-1404.315000	1663.613281	490.770447
29741.309043	-1404.315000	1662.585938	468.096588
29741.309043	-1404.315000	1661.557617	384.911865
29741.309043	-1404.315000	1660.530273	334.271637
29741.309043	-1404.315000	1659.501953	325.435272
29741.309043	-1404.315000	1658.473633	232.888824
29741.309043	-1404.315000	1657.444336	384.304688
29741.309043	-1404.315000	1656.416016	338.155518
29741.309043	-1404.315000	1655.386719	426.688721
29741.309043	-1404.315000	1654.358398	401.361511
29741.309043	-1404.315000	1653.328125	591.912048
29741.309043	-1404.315000	1652.298828	383.077209
29741.309043	-1404.315000	1651.269531	469.041046
29741.309043	-1404.315000	1650.239258	459.780426
29741.309043	-1404.315000	1649.208984	598.965393
29741.309043	-1404.315000	1648.178711	322.848602
29741.309043	-1404.315000	1647.148438	573.247253
29741.309043	-1404.315000	1646.117188	431.639038
29741.309043	-1404.315000	1645.086914	591.433044
29741.309043	-1404.315000	1644.055664	813.698242
29741.309043	-1404.315000	1643.024414	882.894897
29741.309043	-1404.315000	1641.992188	778.250671
29741.309043	-1404.315000	1640.960938	770.915100
29741.309043	-1404.315000	1639.928711	1034.510620
29741.309043	-1404.315000	1638.896484	943.690125
29741.309043	-1404.315000	1637.864258	1003.355713
29741.309043	-1404.315000	1636.832031	896.309937
29741.309043	-1404.315000	1635.798828	1041.513672
29741.309043	-1404.315000	1634.766602	1251.427490
29741.309043	-1404.315000	1633.733398	1169.741821
29741.309043	-1404.315000	1632.699219	1314.709351
29741.309043	-1404.315000	1631.666016	1350.920654
29741.309043	-1404.315000	1630.632813	1535.058105
29741.309043	-1404.315000	1629.598633	1594.263428
29741.309043	-1404.315000	1628.564453	1415.380859
29741.309043	-1404.315000	1627.530273	1375.180054
29741.309043	-1404.315000	1626.495117	1568.288574
29741.309043	-1404.315000	1625.460938	1588.081421
29741.309043	-1404.315000	1624.425781	1605.523193
29741.309043	-1404.315000	1623.390625	1719.907715
29741.309043	-1404.315000	1622.355469	1651.866699
29741.309043	-1404.315000	1621.319336	1484.579712
29741.309043	-1404.315000	1620.284180	1368.114990
29741.309043	-1404.315000	1619.248047	1650.783936
29741.309043	-1404.315000	1618.211914	1615.016968
29741.309043	-1404.315000	1617.174805	1390.132446
29741.309043	-1404.315000	1616.138672	1506.574585
29741.309043	-1404.315000	1615.101563	1535.346191
29741.309043	-1404.315000	1614.065430	1660.907104
29741.309043	-1404.315000	1613.027344	1240.253174
29741.309043	-1404.315000	1611.990234	1354.266357
29741.309043	-1404.315000	1610.953125	1343.838257
29741.309043	-1404.315000	1609.915039	1538.359863
29741.309043	-1404.315000	1608.876953	1290.706543
29741.309043	-1404.315000	1607.838867	1466.728638
29741.309043	-1404.315000	1606.800781	1612.753174
29741.309043	-1404.315000	1605.761719	1436.534790
29741.309043	-1404.315000	1604.723633	1623.909790
29741.309043	-1404.315000	1603.684570	1912.408936
29741.309043	-1404.315000	1602.644531	1979.994019
29741.309043	-1404.315000	1601.605469	2491.346924
29741.309043	-1404.315000	1600.566406	2625.469482
29741.309043	-1404.315000	1599.526367	2729.645508
29741.309043	-1404.315000	1598.486328	2987.751221
29741.309043	-1404.315000	1597.446289	3123.983398
29741.309043	-1404.315000	1596.405273	3120.024902
29741.309043	-1404.315000	1595.365234	2943.828857
29741.309043	-1404.315000	1594.324219	3015.689697
29741.309043	-1404.315000	1593.283203	2851.058105
29741.309043	-1404.315000	1592.242188	2661.247070
29741.309043	-1404.315000	1591.200195	2579.364990
29741.309043	-1404.315000	1590.159180	2309.386719
29741.309043	-1404.315000	1589.117188	2085.391602
29741.309043	-1404.315000	1588.075195	2116.079590
29741.309043	-1404.315000	1587.032227	1901.388428
29741.309043	-1404.315000	1585.990234	1987.144653
29741.309043	-1404.315000	1584.947266	1779.462158
29741.309043	-1404.315000	1583.904297	1681.878296
29741.309043	-1404.315000	1582.861328	1721.827271
29741.309043	-1404.315000	1581.818359	1867.154907
29741.309043	-1404.315000	1580.775391	2181.933350
29741.309043	-1404.315000	1579.731445	2043.175171
29741.309043	-1404.315000	1578.687500	2215.865723
29741.309043	-1404.315000	1577.643555	2047.431641
29741.309043	-1404.315000	1576.598633	2046.142700
29741.309043	-1404.315000	1575.554688	1859.541138
29741.309043	-1404.315000	1574.509766	2036.774048
29741.309043	-1404.315000	1573.464844	1902.886841
29741.309043	-1404.315000	1572.419922	1807.950928
29741.309043	-1404.315000	1571.374023	1868.538574
29741.309043	-1404.315000	1570.329102	1668.540894
29741.309043	-1404.315000	1569.283203	1827.459229
29741.309043	-1404.315000	1568.237305	1686.998413
29741.309043	-1404.315000	1567.191406	1669.989380
29741.309043	-1404.315000	1566.144531	1920.250854
29741.309043	-1404.315000	1565.098633	1736.548340
29741.309043	-1404.315000	1564.051758	1680.798828
29741.309043	-1404.315000	1563.004883	1618.253662
29741.309043	-1404.315000	1561.957031	1612.813721
29741.309043	-1404.315000	1560.910156	1545.806885
29741.309043	-1404.315000	1559.862305	1611.173706
29741.309043	-1404.315000	1558.814453	1699.359741
29741.309043	-1404.315000	1557.766602	1869.646118
29741.309043	-1404.315000	1556.718750	1547.395996
29741.309043	-1404.315000	1555.669922	1574.087769
29741.309043	-1404.315000	1554.621094	1457.216431
29741.309043	-1404.315000	1553.573242	1723.275269
29741.309043	-1404.315000	1552.523438	1601.930786
29741.309043	-1404.315000	1551.474609	1667.472168
29741.309043	-1404.315000	1550.424805	1771.734375
29741.309043	-1404.315000	1549.375000	1620.975830
29741.309043	-1404.315000	1548.325195	1734.397827
29741.309043	-1404.315000	1547.275391	1952.518677
29741.309043	-1404.315000	1546.225586	1883.868408
29741.309043	-1404.315000	1545.174805	2113.330078
29741.309043	-1404.315000	1544.124023	2049.305664
29741.309043	-1404.315000	1543.073242	1828.427856
29741.309043	-1404.315000	1542.022461	1828.248169
29741.309043	-1404.315000	1540.970703	1737.172119
29741.309043	-1404.315000	1539.919922	1689.377563
29741.309043	-1404.315000	1538.868164	1493.929565
29741.309043	-1404.315000	1537.815430	1634.864380
29741.309043	-1404.315000	1536.763672	1541.830933
29741.309043	-1404.315000	1535.710938	1323.963135
29741.309043	-1404.315000	1534.659180	1510.432373
29741.309043	-1404.315000	1533.606445	1719.575806
29741.309043	-1404.315000	1532.552734	1642.685303
29741.309043	-1404.315000	1531.500000	1840.485596
29741.309043	-1404.315000	1530.446289	1670.690308
29741.309043	-1404.315000	1529.393555	1480.613525
29741.309043	-1404.315000	1528.338867	1576.422363
29741.309043	-1404.315000	1527.285156	1490.856567
29741.309043	-1404.315000	1526.231445	1423.522339
29741.309043	-1404.315000	1525.176758	1197.599609
29741.309043	-1404.315000	1524.122070	1048.878906
29741.309043	-1404.315000	1523.067383	1249.212402
29741.309043	-1404.315000	1522.012695	867.337341
29741.309043	-1404.315000	1520.957031	838.992188
29741.309043	-1404.315000	1519.901367	742.790527
29741.309043	-1404.315000	1518.845703	900.259399
29741.309043	-1404.315000	1517.790039	747.628113
29741.309043	-1404.315000	1516.734375	420.866028
29741.309043	-1404.315000	1515.677734	526.458191
29741.309043	-1404.315000	1514.621094	428.479736
29741.309043	-1404.315000	1513.564453	350.965485
29741.309043	-1404.315000	1512.507813	318.779358
29741.309043	-1404.315000	1511.450195	266.320740
29741.309043	-1404.315000	1510.393555	485.211945
29741.309043	-1404.315000	1509.335938	107.451263
29741.309043	-1404.315000	1508.278320	75.620148
29741.309043	-1404.315000	1507.219727	41.607471
29741.309043	-1404.315000	1506.162109	77.708786
29741.309043	-1404.315000	1505.103516	-227.121017
29741.309043	-1404.315000	1504.044922	-68.919945
29741.309043	-1404.315000	1502.986328	-34.854347
29741.309043	-1404.315000	1501.926758	33.118294
29741.309043	-1404.315000	1500.868164	-156.075409
29741.309043	-1404.315000	1499.808594	-105.995468
29741.309043	-1404.315000	1498.749023	7.298232
29741.309043	-1404.315000	1497.688477	39.438343
29741.309043	-1404.315000	1496.628906	87.436775
29741.309043	-1404.315000	1495.568359	-17.792259
29741.309043	-1404.315000	1494.507813	91.204689
29741.309043	-1404.315000	1493.447266	229.531693
29741.309043	-1404.315000	1492.386719	25.462755
29741.309043	-1404.315000	1491.325195	62.553806
29741.309043	-1404.315000	1490.263672	293.377106
29741.309043	-1404.315000	1489.202148	236.008377
29741.309043	-1404.315000	1488.140625	0.918839
29741.309043	-1404.315000	1487.079102	171.110001
29741.309043	-1404.315000	1486.016602	123.052231
29741.309043	-1404.315000	1484.954102	201.082977
29741.309043	-1404.315000	1483.891602	364.640228
29741.309043	-1404.315000	1482.829102	298.849457
29741.309043	-1404.315000	1481.765625	152.232162
29741.309043	-1404.315000	1480.702148	8.012110
29741.309043	-1404.315000	1479.638672	106.660484
29741.309043	-1404.315000	1478.575195	68.298828
29741.309043	-1404.315000	1477.511719	-226.000153
29741.309043	-1404.315000	1476.447266	-30.530972
29741.309043	-1404.315000	1475.382813	-138.209976
29741.309043	-1404.315000	1474.318359	-7.693958
29741.309043	-1404.315000	1473.253906	64.491127
29741.309043	-1404.315000	1472.189453	47.024406
29741.309043	-1404.315000	1471.124023	186.722107
29741.309043	-1404.315000	1470.058594	48.359783
29741.309043	-1404.315000	1468.993164	223.926117
29741.309043	-1404.315000	1467.927734	141.787704
29741.309043	-1404.315000	1466.861328	109.211273
29741.309043	-1404.315000	1465.794922	114.820663
29741.309043	-1404.315000	1464.728516	230.040039
29741.309043	-1404.315000	1463.662109	329.718384
29741.309043	-1404.315000	1462.594727	219.590561
29741.309043	-1404.315000	1461.528320	341.608856
29741.309043	-1404.315000	1460.460938	253.491730
29741.309043	-1404.315000	1459.393555	436.336029
29741.309043	-1404.315000	1458.326172	335.145020
29741.309043	-1404.315000	1457.257813	442.266266
29741.309043	-1404.315000	1456.189453	539.974060
29741.309043	-1404.315000	1455.121094	588.932739
29741.309043	-1404.315000	1454.052734	680.044922
29741.309043	-1404.315000	1452.984375	698.178040
29741.309043	-1404.315000	1451.915039	672.286560
29741.309043	-1404.315000	1450.845703	576.608215
29741.309043	-1404.315000	1449.776367	672.441895
29741.309043	-1404.315000	1448.707031	917.555542
29741.309043	-1404.315000	1447.636719	836.571899
29741.309043	-1404.315000	1446.567383	903.555725
29741.309043	-1404.315000	1445.497070	1004.728027
29741.309043	-1404.315000	1444.425781	874.026855
29741.309043	-1404.315000	1443.355469	852.883423
29741.309043	-1404.315000	1442.285156	926.064270
29741.309043	-1404.315000	1441.213867	925.132202
29741.309043	-1404.315000	1440.142578	813.310120
29741.309043	-1404.315000	1439.070313	966.168823
29741.309043	-1404.315000	1437.999023	776.932495
29741.309043	-1404.315000	1436.926758	697.420349
29741.309043	-1404.315000	1435.854492	554.053101
29741.309043	-1404.315000	1434.782227	560.715637
29741.309043	-1404.315000	1433.709961	437.674774
29741.309043	-1404.315000	1432.636719	708.591492
29741.309043	-1404.315000	1431.563477	484.213379
29741.309043	-1404.315000	1430.490234	627.401794
29741.309043	-1404.315000	1429.416992	694.302307
29741.309043	-1404.315000	1428.343750	820.702087
29741.309043	-1404.315000	1427.269531	539.367249
29741.309043	-1404.315000	1426.195313	758.861084
29741.309043	-1404.315000	1425.121094	633.172974
29741.309043	-1404.315000	1424.046875	708.401489
29741.309043	-1404.315000	1422.971680	754.351196
29741.309043	-1404.315000	1421.896484	825.577209
29741.309043	-1404.315000	1420.821289	868.535583
29741.309043	-1404.315000	1419.746094	917.817078
29741.309043	-1404.315000	1418.669922	826.226624
29741.309043	-1404.315000	1417.594727	983.343994
29741.309043	-1404.315000	1416.518555	828.545593
29741.309043	-1404.315000	1415.442383	736.152466
29741.309043	-1404.315000	1414.365234	553.025574
29741.309043	-1404.315000	1413.289063	713.710632
29741.309043	-1404.315000	1412.211914	417.776215
29741.309043	-1404.315000	1411.134766	833.546875
29741.309043	-1404.315000	1410.057617	885.763733
29741.309043	-1404.315000	1408.979492	701.676880
29741.309043	-1404.315000	1407.902344	630.819214
29741.309043	-1404.315000	1406.824219	660.988831
29741.309043	-1404.315000	1405.746094	660.023376
29741.309043	-1404.315000	1404.666992	1079.124512
29741.309043	-1404.315000	1403.588867	1111.248047
29741.309043	-1404.315000	1402.509766	1215.124634
29741.309043	-1404.315000	1401.430664	1093.604980
29741.309043	-1404.315000	1400.351563	1346.020142
29741.309043	-1404.315000	1399.271484	1297.286011
29741.309043	-1404.315000	1398.192383	1002.280334
29741.309043	-1404.315000	1397.112305	1286.457153
29741.309043	-1404.315000	1396.031250	1072.995361
29741.309043	-1404.315000	1394.951172	1441.578613
29741.309043	-1404.315000	1393.871094	1193.828247
29741.309043	-1404.315000	1392.790039	1198.249390
29741.309043	-1404.315000	1391.708984	1434.177490
29741.309043	-1404.315000	1390.626953	1468.661743
29741.309043	-1404.315000	1389.545898	1439.979858
29741.309043	-1404.315000	1388.463867	1090.790527
29741.309043	-1404.315000	1387.381836	1108.361084
29741.309043	-1404.315000	1386.299805	1313.701172
29741.309043	-1404.315000	1385.217773	1370.500000
29741.309043	-1404.315000	1384.134766	1309.697021
29741.309043	-1404.315000	1383.051758	1240.364990
29741.309043	-1404.315000	1381.968750	1347.972534
29741.309043	-1404.315000	1380.885742	1601.044556
29741.309043	-1404.315000	1379.802734	1218.063110
29741.309043	-1404.315000	1378.718750	1413.037842
29741.309043	-1404.315000	1377.634766	1241.134399
29741.309043	-1404.315000	1376.550781	1239.483643
29741.309043	-1404.315000	1375.465820	1263.269653
29741.309043	-1404.315000	1374.381836	1240.350342
29741.309043	-1404.315000	1373.296875	1048.081299
29741.309043	-1404.315000	1372.211914	1161.114380
29741.309043	-1404.315000	1371.126953	1166.307495
29741.309043	-1404.315000	1370.041016	1106.791748
29741.309043	-1404.315000	1368.955078	1020.227600
29741.309043	-1404.315000	1367.869141	1054.649658
29741.309043	-1404.315000	1366.783203	906.518433
29741.309043	-1404.315000	1365.697266	836.281799
29741.309043	-1404.315000	1364.610352	921.616272
29741.309043	-1404.315000	1363.523438	900.689392
29741.309043	-1404.315000	1362.436523	595.325012
29741.309043	-1404.315000	1361.349609	743.644653
29741.309043	-1404.315000	1360.261719	698.359375
29741.309043	-1404.315000	1359.174805	549.851624
29741.309043	-1404.315000	1358.086914	515.119019
29741.309043	-1404.315000	1356.998047	597.743408
29741.309043	-1404.315000	1355.910156	671.632080
29741.309043	-1404.315000	1354.821289	578.825256
29741.309043	-1404.315000	1353.732422	554.975891
29741.309043	-1404.315000	1352.643555	722.666565
29741.309043	-1404.315000	1351.554688	645.417236
29741.309043	-1404.315000	1350.464844	557.085205
29741.309043	-1404.315000	1349.375000	688.444092
29741.309043	-1404.315000	1348.285156	646.744446
29741.309043	-1404.315000	1347.195313	657.580505
29741.309043	-1404.315000	1346.105469	610.233826
29741.309043	-1404.315000	1345.014648	865.187134
29741.309043	-1404.315000	1343.923828	840.830811
29741.309043	-1404.315000	1342.833008	1071.421265
29741.309043	-1404.315000	1341.741211	1033.487061
29741.309043	-1404.315000	1340.650391	1064.395996
29741.309043	-1404.315000	1339.558594	912.637817
29741.309043	-1404.315000	1338.466797	1236.066406
29741.309043	-1404.315000	1337.374023	1262.712646
29741.309043	-1404.315000	1336.282227	1361.905518
29741.309043	-1404.315000	1335.189453	1309.114014
29741.309043	-1404.315000	1334.096680	1336.500122
29741.309043	-1404.315000	1333.003906	1500.573120
29741.309043	-1404.315000	1331.910156	1259.424927
29741.309043	-1404.315000	1330.817383	1308.012329
29741.309043	-1404.315000	1329.723633	1194.774902
29741.309043	-1404.315000	1328.629883	1367.575317
29741.309043	-1404.315000	1327.535156	1204.887817
29741.309043	-1404.315000	1326.441406	1041.175537
29741.309043	-1404.315000	1325.346680	1114.517090
29741.309043	-1404.315000	1324.251953	1205.429321
29741.309043	-1404.315000	1323.156250	1045.161865
29741.309043	-1404.315000	1322.061523	1180.914795
29741.309043	-1404.315000	1320.965820	1001.421326
29741.309043	-1404.315000	1319.870117	744.154297
29741.309043	-1404.315000	1318.774414	853.743713
29741.309043	-1404.315000	1317.678711	820.165588
29741.309043	-1404.315000	1316.582031	1059.295776
29741.309043	-1404.315000	1315.485352	902.572693
29741.309043	-1404.315000	1314.388672	826.064697
29741.309043	-1404.315000	1313.291016	878.097351
29741.309043	-1404.315000	1312.194336	850.309753
29741.309043	-1404.315000	1311.096680	723.027222
29741.309043	-1404.315000	1309.999023	870.560730
29741.309043	-1404.315000	1308.901367	958.572571
29741.309043	-1404.315000	1307.802734	889.259521
29741.309043	-1404.315000	1306.705078	730.400696
29741.309043	-1404.315000	1305.606445	1012.529175
29741.309043	-1404.315000	1304.506836	1026.016357
29741.309043	-1404.315000	1303.408203	971.138123
29741.309043	-1404.315000	1302.308594	1111.766724
29741.309043	-1404.315000	1301.208984	1076.720215
29741.309043	-1404.315000	1300.109375	1062.865112
29741.309043	-1404.315000	1299.009766	1047.896851
29741.309043	-1404.315000	1297.909180	1120.774414
29741.309043	-1404.315000	1296.808594	1259.463379
29741.309043	-1404.315000	1295.708008	1191.031982
29741.309043	-1404.315000	1294.607422	1161.718018
29741.309043	-1404.315000	1293.506836	1074.132813
29741.309043	-1404.315000	1292.405273	905.261108
29741.309043	-1404.315000	1291.303711	891.837402
29741.309043	-1404.315000	1290.202148	982.787781
29741.309043	-1404.315000	1289.099609	732.716125
29741.309043	-1404.315000	1287.998047	705.393616
29741.309043	-1404.315000	1286.895508	732.652039
29741.309043	-1404.315000	1285.792969	757.564636
29741.309043	-1404.315000	1284.689453	745.079163
29741.309043	-1404.315000	1283.586914	810.925537
29741.309043	-1404.315000	1282.483398	799.620422
29741.309043	-1404.315000	1281.379883	828.517029
29741.309043	-1404.315000	1280.276367	977.437805
29741.309043	-1404.315000	1279.171875	843.778076
29741.309043	-1404.315000	1278.067383	881.775818
29741.309043	-1404.315000	1276.962891	855.089172
29741.309043	-1404.315000	1275.858398	818.565125
29741.309043	-1404.315000	1274.753906	810.368835
29741.309043	-1404.315000	1273.648438	664.795288
29741.309043	-1404.315000	1272.542969	729.825195
29741.309043	-1404.315000	1271.437500	697.450867
29741.309043	-1404.315000	1270.331055	678.810303
29741.309043	-1404.315000	1269.225586	704.426941
29741.309043	-1404.315000	1268.119141	599.368469
29741.309043	-1404.315000	1267.012695	379.813629
29741.309043	-1404.315000	1265.906250	347.333862
29741.309043	-1404.315000	1264.798828	245.263535
29741.309043	-1404.315000	1263.691406	443.844788
29741.309043	-1404.315000	1262.583984	268.173431
29741.309043	-1404.315000	1261.476563	270.603119
29741.309043	-1404.315000	1260.368164	153.033768
29741.309043	-1404.315000	1259.260742	194.415939
29741.309043	-1404.315000	1258.152344	108.674377
29741.309043	-1404.315000	1257.043945	-48.587654
29741.309043	-1404.315000	1255.934570	31.674406
29741.309043	-1404.315000	1254.825195	-16.372776
29741.309043	-1404.315000	1253.716797	153.305511
29741.309043	-1404.315000	1252.606445	-128.483261
29741.309043	-1404.315000	1251.497070	7.148970
29741.309043	-1404.315000	1250.387695	-36.811749
29741.309043	-1404.315000	1249.277344	-144.441788
29741.309043	-1404.315000	1248.166992	-69.099060
29741.309043	-1404.315000	1247.055664	-95.784698
29741.309043	-1404.315000	1245.945313	-128.476563
29741.309043	-1404.315000	1244.833984	26.057400
29741.309043	-1404.315000	1243.722656	-94.912910
29741.309043	-1404.315000	1242.611328	-71.608093
29741.309043	-1404.315000	1241.499023	111.579254
29741.309043	-1404.315000	1240.387695	-6.229345
29741.309043	-1404.315000	1239.275391	-25.643431
29741.309043	-1404.315000	1238.162109	-104.098381
29741.309043	-1404.315000	1237.049805	-129.186630
29741.309043	-1404.315000	1235.936523	-17.225645
29741.309043	-1404.315000	1234.823242	22.124653
29741.309043	-1404.315000	1233.709961	-24.090706
29741.309043	-1404.315000	1232.596680	-29.171402
29741.309043	-1404.315000	1231.482422	-15.339000
29741.309043	-1404.315000	1230.369141	-52.262302
29741.309043	-1404.315000	1229.253906	-139.271240
29741.309043	-1404.315000	1228.139648	-13.623525
29741.309043	-1404.315000	1227.025391	91.295235
29741.309043	-1404.315000	1225.910156	160.389511
29741.309043	-1404.315000	1224.794922	-15.597442
29741.309043	-1404.315000	1223.679688	247.437057
29741.309043	-1404.315000	1222.563477	264.663116
29741.309043	-1404.315000	1221.447266	236.137482
29741.309043	-1404.315000	1220.331055	471.804596
29741.309043	-1404.315000	1219.214844	389.634308
29741.309043	-1404.315000	1218.098633	521.667786
29741.309043	-1404.315000	1216.981445	653.844727
29741.309043	-1404.315000	1215.864258	559.374207
29741.309043	-1404.315000	1214.747070	803.472046
29741.309043	-1404.315000	1213.629883	586.039917
29741.309043	-1404.315000	1212.511719	514.841675
29741.309043	-1404.315000	1211.393555	541.622498
29741.309043	-1404.315000	1210.275391	498.900116
29741.309043	-1404.315000	1209.157227	528.659058
29741.309043	-1404.315000	1208.038086	536.047974
29741.309043	-1404.315000	1206.918945	509.422424
29741.309043	-1404.315000	1205.799805	474.908539
29741.309043	-1404.315000	1204.680664	460.413727
29741.309043	-1404.315000	1203.560547	593.875732
29741.309043	-1404.315000	1202.441406	323.693970
29741.309043	-1404.315000	1201.321289	389.891235
29741.309043	-1404.315000	1200.200195	372.876862
29741.309043	-1404.315000	1199.080078	363.899872
29741.309043	-1404.315000	1197.958984	372.127655
29741.309043	-1404.315000	1196.837891	303.031921
29741.309043	-1404.315000	1195.716797	211.221298
29741.309043	-1404.315000	1194.594727	215.163773
29741.309043	-1404.315000	1193.473633	224.949310
29741.309043	-1404.315000	1192.351563	64.699272
29741.309043	-1404.315000	1191.229492	98.900131
29741.309043	-1404.315000	1190.106445	-51.485020
29741.309043	-1404.315000	1188.984375	-12.317277
29741.309043	-1404.315000	1187.861328	-40.126755
29741.309043	-1404.315000	1186.738281	12.216667
29741.309043	-1404.315000	1185.614258	58.267818
29741.309043	-1404.315000	1184.491211	160.516327
29741.309043	-1404.315000	1183.367188	156.981766
29741.309043	-1404.315000	1182.243164	169.818756
29741.309043	-1404.315000	1181.119141	60.845890
29741.309043	-1404.315000	1179.994141	228.971451
29741.309043	-1404.315000	1178.869141	127.521965
29741.309043	-1404.315000	1177.744141	230.656891
29741.309043	-1404.315000	1176.619141	230.631332
29741.309043	-1404.315000	1175.493164	185.554703
29741.309043	-1404.315000	1174.368164	291.544922
29741.309043	-1404.315000	1173.242188	196.895660
29741.309043	-1404.315000	1172.115234	455.507538
29741.309043	-1404.315000	1170.989258	485.872650
29741.309043	-1404.315000	1169.862305	470.514069
29741.309043	-1404.315000	1168.735352	413.362030
29741.309043	-1404.315000	1167.608398	366.661041
29741.309043	-1404.315000	1166.481445	114.916222
29741.309043	-1404.315000	1165.353516	201.253403
29741.309043	-1404.315000	1164.225586	184.167450
29741.309043	-1404.315000	1163.097656	-28.014179
29741.309043	-1404.315000	1161.968750	308.168243
29741.309043	-1404.315000	1160.840820	222.745377
29741.309043	-1404.315000	1159.711914	103.519196
29741.309043	-1404.315000	1158.583008	199.691742
29741.309043	-1404.315000	1157.453125	201.396439
29741.309043	-1404.315000	1156.324219	208.288315
29741.309043	-1404.315000	1155.194336	201.988373
29741.309043	-1404.315000	1154.064453	406.196869
29741.309043	-1404.315000	1152.933594	448.375275
29741.309043	-1404.315000	1151.803711	459.569458
29741.309043	-1404.315000	1150.672852	607.969543
29741.309043	-1404.315000	1149.541992	588.595337
29741.309043	-1404.315000	1148.411133	583.143433
29741.309043	-1404.315000	1147.279297	509.525391
29741.309043	-1404.315000	1146.147461	704.179993
29741.309043	-1404.315000	1145.015625	460.368378
29741.309043	-1404.315000	1143.883789	245.903458
29741.309043	-1404.315000	1142.750977	189.124359
29741.309043	-1404.315000	1141.619141	235.748550
29741.309043	-1404.315000	1140.486328	128.889404
29741.309043	-1404.315000	1139.352539	52.152706
29741.309043	-1404.315000	1138.219727	77.313782
29741.309043	-1404.315000	1137.085938	58.049271
29741.309043	-1404.315000	1135.952148	239.534683
29741.309043	-1404.315000	1134.818359	218.977509
29741.309043	-1404.315000	1133.683594	329.068146
29741.309043	-1404.315000	1132.549805	421.294342
29741.309043	-1404.315000	1131.415039	453.613525
29741.309043	-1404.315000	1130.279297	525.152039
29741.309043	-1404.315000	1129.144531	677.211365
29741.309043	-1404.315000	1128.008789	729.200928
29741.309043	-1404.315000	1126.873047	1021.880493
29741.309043	-1404.315000	1125.737305	1186.475342
29741.309043	-1404.315000	1124.601563	1329.730957
29741.309043	-1404.315000	1123.464844	1333.658691
29741.309043	-1404.315000	1122.328125	1333.042236
29741.309043	-1404.315000	1121.191406	1063.864380
29741.309043	-1404.315000	1120.054688	1011.893311
29741.309043	-1404.315000	1118.916992	887.622681
29741.309043	-1404.315000	1117.779297	789.815674
29741.309043	-1404.315000	1116.641602	683.998291
29741.309043	-1404.315000	1115.503906	663.195435
29741.309043	-1404.315000	1114.365234	688.998230
29741.309043	-1404.315000	1113.226563	669.383118
29741.309043	-1404.315000	1112.087891	563.367126
29741.309043	-1404.315000	1110.949219	528.332825
29741.309043	-1404.315000	1109.809570	662.675781
29741.309043	-1404.315000	1108.669922	487.018036
29741.309043	-1404.315000	1107.530273	445.893463
29741.309043	-1404.315000	1106.390625	436.459869
29741.309043	-1404.315000	1105.250000	529.721130
29741.309043	-1404.315000	1104.109375	449.767273
29741.309043	-1404.315000	1102.968750	606.472046
29741.309043	-1404.315000	1101.828125	598.015747
29741.309043	-1404.315000	1100.686523	600.594421
29741.309043	-1404.315000	1099.544922	529.856018
29741.309043	-1404.315000	1098.403320	656.073669
29741.309043	-1404.315000	1097.261719	706.318298
29741.309043	-1404.315000	1096.120117	754.486145
29741.309043	-1404.315000	1094.977539	717.452698
29741.309043	-1404.315000	1093.834961	655.193420
29741.309043	-1404.315000	1092.691406	647.993713
29741.309043	-1404.315000	1091.548828	778.167480
29741.309043	-1404.315000	1090.405273	622.842590
29741.309043	-1404.315000	1089.261719	640.531860
29741.309043	-1404.315000	1088.118164	433.973267
29741.309043	-1404.315000	1086.973633	486.594757
29741.309043	-1404.315000	1085.829102	441.799866
29741.309043	-1404.315000	1084.684570	471.509247
29741.309043	-1404.315000	1083.540039	258.978516
29741.309043	-1404.315000	1082.395508	445.094238
29741.309043	-1404.315000	1081.250000	283.658051
29741.309043	-1404.315000	1080.104492	391.445923
29741.309043	-1404.315000	1078.958984	464.691986
29741.309043	-1404.315000	1077.812500	640.394104
29741.309043	-1404.315000	1076.666016	570.333252
29741.309043	-1404.315000	1075.519531	583.594177
29741.309043	-1404.315000	1074.373047	529.148438
29741.309043	-1404.315000	1073.226563	284.433411
29741.309043	-1404.315000	1072.079102	376.322601
29741.309043	-1404.315000	1070.931641	338.972321
29741.309043	-1404.315000	1069.784180	295.419556
29741.309043	-1404.315000	1068.635742	284.461548
29741.309043	-1404.315000	1067.487305	341.188354
29741.309043	-1404.315000	1066.338867	221.065704
29741.309043	-1404.315000	1065.190430	202.461639
29741.309043	-1404.315000	1064.041992	231.532318
29741.309043	-1404.315000	1062.892578	601.395020
29741.309043	-1404.315000	1061.743164	444.563019
29741.309043	-1404.315000	1060.593750	402.116302
29741.309043	-1404.315000	1059.443359	385.177887
29741.309043	-1404.315000	1058.292969	401.692871
29741.309043	-1404.315000	1057.142578	449.061523
29741.309043	-1404.315000	1055.992188	551.050476
29741.309043	-1404.315000	1054.841797	518.697693
29741.309043	-1404.315000	1053.690430	826.511719
29741.309043	-1404.315000	1052.539063	802.617554
29741.309043	-1404.315000	1051.387695	755.820007
29741.309043	-1404.315000	1050.235352	965.175171
29741.309043	-1404.315000	1049.083984	839.878174
29741.309043	-1404.315000	1047.931641	720.896851
29741.309043	-1404.315000	1046.778320	619.271057
29741.309043	-1404.315000	1045.625977	303.128876
29741.309043	-1404.315000	1044.472656	314.126343
29741.309043	-1404.315000	1043.319336	263.001282
29741.309043	-1404.315000	1042.166016	268.643463
29741.309043	-1404.315000	1041.012695	133.058716
29741.309043	-1404.315000	1039.858398	408.485382
29741.309043	-1404.315000	1038.704102	125.869644
29741.309043	-1404.315000	1037.549805	68.739891
29741.309043	-1404.315000	1036.394531	2.347960
29741.309043	-1404.315000	1035.239258	-2.662493
29741.309043	-1404.315000	1034.083984	256.270111
29741.309043	-1404.315000	1032.928711	274.126343
29741.309043	-1404.315000	1031.773438	188.304688
29741.309043	-1404.315000	1030.617188	232.328201
29741.309043	-1404.315000	1029.460938	330.060608
29741.309043	-1404.315000	1028.304688	221.130920
29741.309043	-1404.315000	1027.147461	155.964371
29741.309043	-1404.315000	1025.991211	97.122810
29741.309043	-1404.315000	1024.833984	175.272034
29741.309043	-1404.315000	1023.675781	65.039909
29741.309043	-1404.315000	1022.518555	36.126358
29741.309043	-1404.315000	1021.360352	-17.607861
29741.309043	-1404.315000	1020.202148	-108.118835
29741.309043	-1404.315000	1019.043945	-90.745300
29741.309043	-1404.315000	1017.884766	-20.165941
29741.309043	-1404.315000	1016.726563	-22.547411
29741.309043	-1404.315000	1015.567383	129.189240
29741.309043	-1404.315000	1014.407227	-36.327084
29741.309043	-1404.315000	1013.248047	77.440437
29741.309043	-1404.315000	1012.087891	77.267693
29741.309043	-1404.315000	1010.927734	195.598526
29741.309043	-1404.315000	1009.767578	117.398918
29741.309043	-1404.315000	1008.606445	198.033722
29741.309043	-1404.315000	1007.446289	145.900726
29741.309043	-1404.315000	1006.285156	318.654144
29741.309043	-1404.315000	1005.123047	180.078232
29741.309043	-1404.315000	1003.961914	117.112114
29741.309043	-1404.315000	1002.799805	490.685120
29741.309043	-1404.315000	1001.637695	483.371429
29741.309043	-1404.315000	1000.475586	542.460327
29741.309043	-1404.315000	999.312500	373.282104
29741.309043	-1404.315000	998.149414	458.235321
29741.309043	-1404.315000	996.986328	482.080963
29741.309043	-1404.315000	995.823242	434.142517
29741.309043	-1404.315000	994.659180	141.379929
29741.309043	-1404.315000	993.496094	281.119080
29741.309043	-1404.315000	992.332031	303.595001
29741.309043	-1404.315000	991.166992	195.252121
29741.309043	-1404.315000	990.002930	292.782898
29741.309043	-1404.315000	988.837891	182.525558
29741.309043	-1404.315000	987.672852	133.348953
29741.309043	-1404.315000	986.506836	137.435318
29741.309043	-1404.315000	985.341797	145.167999
29741.309043	-1404.315000	984.175781	94.020538
29741.309043	-1404.315000	983.009766	122.755577
29741.309043	-1404.315000	981.843750	168.650742
29741.309043	-1404.315000	980.676758	210.885086
29741.309043	-1404.315000	979.509766	-60.316650
29741.309043	-1404.315000	978.342773	-19.376057
29741.309043	-1404.315000	977.175781	-14.765496
29741.309043	-1404.315000	976.007813	-63.765083
29741.309043	-1404.315000	974.839844	35.533722
29741.309043	-1404.315000	973.671875	86.875366
29741.309043	-1404.315000	972.503906	-93.799423
29741.309043	-1404.315000	971.334961	-194.279739
29741.309043	-1404.315000	970.166016	-96.881424
29741.309043	-1404.315000	968.997070	-187.808273
29741.309043	-1404.315000	967.828125	-49.876385
29741.309043	-1404.315000	966.658203	-169.006866
29741.309043	-1404.315000	965.488281	-116.186264
29741.309043	-1404.315000	964.318359	-57.760933
29741.309043	-1404.315000	963.148438	-90.001060
29741.309043	-1404.315000	961.977539	-78.038887
29741.309043	-1404.315000	960.806641	-75.553123
29741.309043	-1404.315000	959.635742	5.003426
29741.309043	-1404.315000	958.463867	-38.648098
29741.309043	-1404.315000	957.292969	46.735554
29741.309043	-1404.315000	956.121094	197.121674
29741.309043	-1404.315000	954.948242	58.091515
29741.309043	-1404.315000	953.776367	199.134705
29741.309043	-1404.315000	952.603516	154.813950
29741.309043	-1404.315000	951.430664	275.559357
29741.309043	-1404.315000	950.257813	518.171021
29741.309043	-1404.315000	949.084961	760.780212
29741.309043	-1404.315000	947.911133	601.934753
29741.309043	-1404.315000	946.737305	412.777802
29741.309043	-1404.315000	945.563477	490.782410
29741.309043	-1404.315000	944.388672	462.352722
29741.309043	-1404.315000	943.213867	275.622284
29741.309043	-1404.315000	942.039063	120.638351
29741.309043	-1404.315000	940.864258	58.141468
29741.309043	-1404.315000	939.688477	-108.214317
29741.309043	-1404.315000	938.513672	179.109634
29741.309043	-1404.315000	937.337891	105.199333
29741.309043	-1404.315000	936.161133	157.682922
29741.309043	-1404.315000	934.985352	320.692078
29741.309043	-1404.315000	933.808594	127.017639
29741.309043	-1404.315000	932.631836	204.105026
29741.309043	-1404.315000	931.454102	276.729065
29741.309043	-1404.315000	930.277344	173.159485
29741.309043	-1404.315000	929.099609	71.988510
29741.309043	-1404.315000	927.921875	184.978149
29741.309043	-1404.315000	926.743164	56.655048
29741.309043	-1404.315000	925.565430	223.663239
29741.309043	-1404.315000	924.386719	180.922775
29741.309043	-1404.315000	923.208008	275.652832
29741.309043	-1404.315000	922.028320	66.058640
29741.309043	-1404.315000	920.849609	20.991547
29741.309043	-1404.315000	919.669922	20.619349
29741.309043	-1404.315000	919.474609	29.908283
29741.309043	-1404.315000	918.309570	61.365307
29741.309043	-1404.315000	917.143555	182.844131
29741.309043	-1404.315000	915.977539	202.909866
29741.309043	-1404.315000	914.810547	175.649292
29741.309043	-1404.315000	913.644531	94.340981
29741.309043	-1404.315000	912.477539	175.033112
29741.309043	-1404.315000	911.310547	28.428650
29741.309043	-1404.315000	910.143555	145.002518
29741.309043	-1404.315000	908.975586	5.122537
29741.309043	-1404.315000	907.807617	-83.031654
29741.309043	-1404.315000	906.639648	-97.012482
29741.309043	-1404.315000	905.471680	-218.905563
29741.309043	-1404.315000	904.303711	-147.552353
29741.309043	-1404.315000	903.134766	-190.843048
29741.309043	-1404.315000	901.965820	26.385544
29741.309043	-1404.315000	900.796875	-140.512741
29741.309043	-1404.315000	899.626953	166.338440
29741.309043	-1404.315000	898.457031	354.056427
29741.309043	-1404.315000	897.287109	582.053711
29741.309043	-1404.315000	896.117188	740.360779
29741.309043	-1404.315000	894.947266	620.393982
29741.309043	-1404.315000	893.776367	475.764832
29741.309043	-1404.315000	892.605469	351.336975
29741.309043	-1404.315000	891.434570	235.888016
29741.309043	-1404.315000	890.262695	228.037201
29741.309043	-1404.315000	889.091797	312.033234
29741.309043	-1404.315000	887.919922	8.339817
29741.309043	-1404.315000	886.748047	-55.576733
29741.309043	-1404.315000	885.575195	-54.557293
29741.309043	-1404.315000	884.403320	-107.313850
29741.309043	-1404.315000	883.230469	-86.210098
29741.309043	-1404.315000	882.057617	-6.957358
29741.309043	-1404.315000	880.883789	-126.939598
29741.309043	-1404.315000	879.710938	66.321838
29741.309043	-1404.315000	878.537109	-69.358276
29741.309043	-1404.315000	877.362305	-124.508095
29741.309043	-1404.315000	876.188477	-168.489609
29741.309043	-1404.315000	875.013672	-4.585893
29741.309043	-1404.315000	873.839844	-171.573868
29741.309043	-1404.315000	872.664063	61.462811
29741.309043	-1404.315000	871.489258	73.190308
29741.309043	-1404.315000	870.313477	51.371201
29741.309043	-1404.315000	869.138672	-3.970440
29741.309043	-1404.315000	867.962891	159.487427
29741.309043	-1404.315000	866.786133	-43.259960
29741.309043	-1404.315000	865.610352	41.955189
29741.309043	-1404.315000	864.433594	35.611954
29741.309043	-1404.315000	863.256836	-1.995698
29741.309043	-1404.315000	862.079102	91.976273
29741.309043	-1404.315000	860.902344	130.126495
29741.309043	-1404.315000	859.724609	16.615475
29741.309043	-1404.315000	858.546875	-41.154339
29741.309043	-1404.315000	857.368164	-136.822433
29741.309043	-1404.315000	856.190430	-49.769459
29741.309043	-1404.315000	855.011719	-20.707224
29741.309043	-1404.315000	853.833008	-69.645294
29741.309043	-1404.315000	852.654297	-160.904800
29741.309043	-1404.315000	851.474609	88.475227
29741.309043	-1404.315000	850.294922	28.317307
29741.309043	-1404.315000	849.115234	77.200691
29741.309043	-1404.315000	847.935547	83.756401
29741.309043	-1404.315000	846.754883	25.764603
29741.309043	-1404.315000	845.575195	132.349930
29741.309043	-1404.315000	844.393555	398.958008
29741.309043	-1404.315000	843.212891	325.280182
29741.309043	-1404.315000	842.032227	407.192322
29741.309043	-1404.315000	840.850586	429.036926
29741.309043	-1404.315000	839.668945	328.641602
29741.309043	-1404.315000	838.486328	405.962128
29741.309043	-1404.315000	837.304688	447.688782
29741.309043	-1404.315000	836.122070	529.332642
29741.309043	-1404.315000	834.939453	646.433167
29741.309043	-1404.315000	833.756836	801.185852
29741.309043	-1404.315000	832.573242	793.850037
29741.309043	-1404.315000	831.389648	813.109802
29741.309043	-1404.315000	830.206055	688.151733
29741.309043	-1404.315000	829.022461	547.690857
29741.309043	-1404.315000	827.838867	553.595337
29741.309043	-1404.315000	826.654297	322.268890
29741.309043	-1404.315000	825.469727	141.982697
29741.309043	-1404.315000	824.284180	141.223404
29741.309043	-1404.315000	823.099609	184.746338
29741.309043	-1404.315000	821.914063	90.889969
29741.309043	-1404.315000	820.728516	36.904053
29741.309043	-1404.315000	819.542969	93.611862
29741.309043	-1404.315000	818.356445	-11.328192
29741.309043	-1404.315000	817.169922	100.631538
29741.309043	-1404.315000	815.983398	48.778172
29741.309043	-1404.315000	814.796875	74.342201
29741.309043	-1404.315000	813.609375	119.769997
29741.309043	-1404.315000	812.422852	304.462738
29741.309043	-1404.315000	811.235352	314.389313
29741.309043	-1404.315000	810.046875	158.500824
29741.309043	-1404.315000	808.859375	396.015930
29741.309043	-1404.315000	807.670898	383.729584
29741.309043	-1404.315000	806.482422	313.983490
29741.309043	-1404.315000	805.293945	228.775726
29741.309043	-1404.315000	804.104492	271.639313
29741.309043	-1404.315000	802.915039	-12.276324
29741.309043	-1404.315000	801.725586	-20.206551
29741.309043	-1404.315000	800.536133	289.605408
29741.309043	-1404.315000	799.345703	155.793091
29741.309043	-1404.315000	798.155273	434.494263
29741.309043	-1404.315000	796.964844	110.985268
29741.309043	-1404.315000	795.774414	206.511124
29741.309043	-1404.315000	794.583008	262.283386
29741.309043	-1404.315000	793.392578	232.048630
29741.309043	-1404.315000	792.200195	241.451340
29741.309043	-1404.315000	791.008789	224.385925
29741.309043	-1404.315000	789.816406	282.181641
29741.309043	-1404.315000	788.625000	368.554047
29741.309043	-1404.315000	787.432617	340.365448
29741.309043	-1404.315000	786.239258	246.115723
29741.309043	-1404.315000	785.046875	407.169891
29741.309043	-1404.315000	783.853516	400.895050
29741.309043	-1404.315000	782.660156	407.789612
29741.309043	-1404.315000	781.465820	535.613586
29741.309043	-1404.315000	780.272461	377.490082
29741.309043	-1404.315000	779.078125	362.298615
29741.309043	-1404.315000	777.883789	72.322853
29741.309043	-1404.315000	776.688477	217.557098
29741.309043	-1404.315000	775.494141	230.871613
29741.309043	-1404.315000	774.298828	103.554985
29741.309043	-1404.315000	773.103516	417.701447
29741.309043	-1404.315000	771.907227	189.322784
29741.309043	-1404.315000	770.711914	413.244568
29741.309043	-1404.315000	769.515625	489.978699
29741.309043	-1404.315000	768.318359	285.759369
29741.309043	-1404.315000	767.122070	358.031403
29741.309043	-1404.315000	765.924805	318.367096
29741.309043	-1404.315000	764.727539	206.314056
29741.309043	-1404.315000	763.530273	181.974579
29741.309043	-1404.315000	762.333008	140.074097
29741.309043	-1404.315000	761.134766	231.842865
29741.309043	-1404.315000	759.936523	259.991577
29741.309043	-1404.315000	758.738281	84.352089
29741.309043	-1404.315000	757.540039	-121.913689
29741.309043	-1404.315000	756.340820	39.759342
29741.309043	-1404.315000	755.141602	-151.164108
29741.309043	-1404.315000	753.942383	1.618495
29741.309043	-1404.315000	752.742188	138.975861
29741.309043	-1404.315000	751.541992	160.274170
29741.309043	-1404.315000	750.341797	13.082518
29741.309043	-1404.315000	749.141602	-112.214531
29741.309043	-1404.315000	747.941406	-29.765633
29741.309043	-1404.315000	746.740234	-117.917068
29741.309043	-1404.315000	745.539063	54.033394
29741.309043	-1404.315000	744.337891	9.528885
29741.309043	-1404.315000	743.135742	-163.904892
29741.309043	-1404.315000	741.933594	-182.215057
29741.309043	-1404.315000	740.731445	-189.639114
29741.309043	-1404.315000	739.529297	21.247484
29741.309043	-1404.315000	738.326172	83.556259
29741.309043	-1404.315000	737.124023	220.009766
29741.309043	-1404.315000	735.919922	7.221211
29741.309043	-1404.315000	734.716797	21.375746
29741.309043	-1404.315000	733.513672	290.681519
29741.309043	-1404.315000	732.309570	221.815323
29741.309043	-1404.315000	731.105469	83.167229
29741.309043	-1404.315000	729.900391	206.108292
29741.309043	-1404.315000	728.696289	230.888809
29741.309043	-1404.315000	727.491211	129.235489
29741.309043	-1404.315000	726.286133	47.187946
29741.309043	-1404.315000	725.080078	60.957909
29741.309043	-1404.315000	723.874023	-145.252823
29741.309043	-1404.315000	722.668945	123.187325
29741.309043	-1404.315000	721.461914	27.965654
29741.309043	-1404.315000	720.255859	156.889526
29741.309043	-1404.315000	719.048828	63.786755
29741.309043	-1404.315000	717.841797	103.370018
29741.309043	-1404.315000	716.634766	-46.317932
29741.309043	-1404.315000	715.427734	-11.167959
29741.309043	-1404.315000	714.219727	-8.692233
29741.309043	-1404.315000	713.011719	-121.455269
29741.309043	-1404.315000	711.803711	-95.145760
29741.309043	-1404.315000	710.594727	124.454483
29741.309043	-1404.315000	709.385742	113.677544
29741.309043	-1404.315000	708.176758	385.167725
29741.309043	-1404.315000	706.967773	569.650452
29741.309043	-1404.315000	705.758789	450.110779
29741.309043	-1404.315000	704.548828	573.634949
29741.309043	-1404.315000	703.338867	438.854126
29741.309043	-1404.315000	702.127930	336.616028
29741.309043	-1404.315000	700.917969	214.858200
29741.309043	-1404.315000	699.707031	539.794067
29741.309043	-1404.315000	698.496094	443.957214
29741.309043	-1404.315000	697.285156	228.898254
29741.309043	-1404.315000	696.073242	211.077179
29741.309043	-1404.315000	694.861328	63.218109
29741.309043	-1404.315000	693.649414	118.989845
29741.309043	-1404.315000	692.436523	-39.721958
29741.309043	-1404.315000	691.224609	-44.679401
29741.309043	-1404.315000	690.011719	-25.877617
29741.309043	-1404.315000	688.798828	49.137253
29741.309043	-1404.315000	687.584961	217.112076
29741.309043	-1404.315000	686.372070	101.562401
29741.309043	-1404.315000	685.158203	204.463531
29741.309043	-1404.315000	683.943359	201.301559
29741.309043	-1404.315000	682.729492	61.886208
29741.309043	-1404.315000	681.514648	244.550003
29741.309043	-1404.315000	680.299805	271.482452
29741.309043	-1404.315000	679.084961	343.726410
29741.309043	-1404.315000	677.869141	247.383011
29741.309043	-1404.315000	676.653320	237.419189
29741.309043	-1404.315000	675.437500	242.523376
29741.309043	-1404.315000	674.221680	210.871262
29741.309043	-1404.315000	673.004883	166.223969
29741.309043	-1404.315000	671.789063	190.603928
29741.309043	-1404.315000	670.571289	148.024048
29741.309043	-1404.315000	669.354492	262.881470
29741.309043	-1404.315000	668.136719	310.776489
29741.309043	-1404.315000	666.919922	56.745514
29741.309043	-1404.315000	665.701172	184.311798
29741.309043	-1404.315000	664.483398	359.192291
29741.309043	-1404.315000	663.264648	460.677460
29741.309043	-1404.315000	662.045898	247.534668
29741.309043	-1404.315000	660.827148	467.356659
29741.309043	-1404.315000	659.608398	516.913025
29741.309043	-1404.315000	658.388672	538.400024
29741.309043	-1404.315000	657.168945	170.221024
29741.309043	-1404.315000	655.949219	464.975616
29741.309043	-1404.315000	654.728516	144.189194
29741.309043	-1404.315000	653.507813	103.133301
29741.309043	-1404.315000	652.287109	79.247498
29741.309043	-1404.315000	651.066406	98.322891
29741.309043	-1404.315000	649.844727	-11.656322
29741.309043	-1404.315000	648.623047	162.068970
29741.309043	-1404.315000	647.401367	47.718597
29741.309043	-1404.315000	646.179688	-133.236572
29741.309043	-1404.315000	644.957031	-67.159157
29741.309043	-1404.315000	643.734375	-29.080851
29741.309043	-1404.315000	642.511719	2.487773
29741.309043	-1404.315000	641.289063	111.268578
29741.309043	-1404.315000	640.065430	76.152763
29741.309043	-1404.315000	638.841797	36.708435
29741.309043	-1404.315000	637.618164	80.891869
29741.309043	-1404.315000	636.393555	64.944778
29741.309043	-1404.315000	635.168945	-83.995247
29741.309043	-1404.315000	633.944336	167.980255
29741.309043	-1404.315000	632.719727	93.998505
29741.309043	-1404.315000	631.494141	182.854828
29741.309043	-1404.315000	630.269531	258.775787
29741.309043	-1404.315000	629.042969	210.359650
29741.309043	-1404.315000	627.817383	388.931641
29741.309043	-1404.315000	626.590820	612.334900
29741.309043	-1404.315000	625.365234	636.517090
29741.309043	-1404.315000	624.137695	667.044861
29741.309043	-1404.315000	622.911133	808.787781
29741.309043	-1404.315000	621.683594	770.709961
29741.309043	-1404.315000	620.456055	734.739563
29741.309043	-1404.315000	619.228516	690.182800
29741.309043	-1404.315000	618.000977	912.844666
29741.309043	-1404.315000	616.772461	833.966553
29741.309043	-1404.315000	615.543945	765.761108
29741.309043	-1404.315000	614.314453	909.054565
29741.309043	-1404.315000	613.085938	983.893066
29741.309043	-1404.315000	611.856445	872.840759
29741.309043	-1404.315000	610.626953	979.586060
29741.309043	-1404.315000	609.397461	1150.285767
29741.309043	-1404.315000	608.166992	1177.859741
29741.309043	-1404.315000	606.936523	787.137207
29741.309043	-1404.315000	605.706055	522.410706
29741.309043	-1404.315000	604.474609	543.565979
29741.309043	-1404.315000	603.244141	577.473938
29741.309043	-1404.315000	602.012695	340.546051
29741.309043	-1404.315000	600.780273	63.168640
29741.309043	-1404.315000	599.548828	171.619080
29741.309043	-1404.315000	598.316406	-118.467621
29741.309043	-1404.315000	597.083984	-99.580338
29741.309043	-1404.315000	595.851563	-248.993774
29741.309043	-1404.315000	594.618164	-53.434593
29741.309043	-1404.315000	593.384766	16.400438
29741.309043	-1404.315000	592.151367	-164.985992
29741.309043	-1404.315000	590.917969	-99.483749
29741.309043	-1404.315000	589.683594	-100.005096
29741.309043	-1404.315000	588.449219	-123.957573
29741.309043	-1404.315000	587.214844	-154.312073
29741.309043	-1404.315000	585.979492	-135.792374
29741.309043	-1404.315000	584.745117	59.132545
29741.309043	-1404.315000	583.509766	86.038742
29741.309043	-1404.315000	582.273438	263.758057
29741.309043	-1404.315000	581.038086	275.681030
29741.309043	-1404.315000	579.801758	361.899323
29741.309043	-1404.315000	578.565430	363.114960
29741.309043	-1404.315000	577.329102	576.606262
29741.309043	-1404.315000	576.091797	681.720642
29741.309043	-1404.315000	574.854492	750.691528
29741.309043	-1404.315000	573.617188	647.755249
29741.309043	-1404.315000	572.378906	788.769958
29741.309043	-1404.315000	571.141602	777.018311
29741.309043	-1404.315000	569.903320	792.805481
29741.309043	-1404.315000	568.664063	670.768188
29741.309043	-1404.315000	567.425781	413.132507
29741.309043	-1404.315000	566.186523	632.341370
29741.309043	-1404.315000	564.947266	783.648926
29741.309043	-1404.315000	563.708008	640.469238
29741.309043	-1404.315000	562.467773	670.969238
29741.309043	-1404.315000	561.227539	737.434265
29741.309043	-1404.315000	559.987305	687.440613
29741.309043	-1404.315000	558.747070	728.455200
29741.309043	-1404.315000	557.505859	741.927979
29741.309043	-1404.315000	556.264648	1034.607422
29741.309043	-1404.315000	555.023438	1265.822754
29741.309043	-1404.315000	553.781250	883.743774
29741.309043	-1404.315000	552.539063	1305.127686
29741.309043	-1404.315000	551.296875	1071.138672
29741.309043	-1404.315000	550.054688	1128.847046
29741.309043	-1404.315000	548.811523	901.318420
29741.309043	-1404.315000	547.569336	906.231018
29741.309043	-1404.315000	546.325195	756.969971
29741.309043	-1404.315000	545.082031	799.905396
29741.309043	-1404.315000	543.837891	705.614075
29741.309043	-1404.315000	542.593750	482.635529
29741.309043	-1404.315000	541.349609	342.042145
29741.309043	-1404.315000	540.105469	165.654465
29741.309043	-1404.315000	538.860352	4.102298
29741.309043	-1404.315000	537.615234	171.559875
29741.309043	-1404.315000	536.369141	115.488129
29741.309043	-1404.315000	535.124023	116.366112
29741.309043	-1404.315000	533.877930	144.638962
29741.309043	-1404.315000	532.631836	48.615631
29741.309043	-1404.315000	531.384766	-72.637451
29741.309043	-1404.315000	530.138672	170.493423
29741.309043	-1404.315000	528.891602	104.037476
29741.309043	-1404.315000	527.643555	277.578888
29741.309043	-1404.315000	526.396484	38.596489
29741.309043	-1404.315000	525.148438	344.668396
29741.309043	-1404.315000	523.900391	421.339752
29741.309043	-1404.315000	522.652344	460.144836
29741.309043	-1404.315000	521.403320	114.159004
29741.309043	-1404.315000	520.154297	392.702667
29741.309043	-1404.315000	518.905273	143.608887
29741.309043	-1404.315000	517.656250	16.525213
29741.309043	-1404.315000	516.406250	7.161812
29741.309043	-1404.315000	515.156250	-18.972586
29741.309043	-1404.315000	513.906250	169.128876
29741.309043	-1404.315000	512.655273	212.305313
29741.309043	-1404.315000	511.404297	163.135620
29741.309043	-1404.315000	510.153320	284.006500
29741.309043	-1404.315000	508.902344	148.883713
29741.309043	-1404.315000	507.650391	122.924751
29741.309043	-1404.315000	506.398438	197.679047
29741.309043	-1404.315000	505.146484	113.081024
29741.309043	-1404.315000	503.893555	118.690567
29741.309043	-1404.315000	502.641602	-51.712116
29741.309043	-1404.315000	501.388672	-4.085305
29741.309043	-1404.315000	500.134766	62.407780
29741.309043	-1404.315000	498.881836	-82.630669
29741.309043	-1404.315000	497.627930	-26.539679
29741.309043	-1404.315000	496.374023	161.466980
29741.309043	-1404.315000	495.119141	104.523392
29741.309043	-1404.315000	493.865234	-8.849730
29741.309043	-1404.315000	492.610352	-34.263729
29741.309043	-1404.315000	491.355469	40.786064
29741.309043	-1404.315000	490.099609	-166.498886
29741.309043	-1404.315000	488.843750	-80.917770
29741.309043	-1404.315000	487.587891	-196.016144
29741.309043	-1404.315000	486.332031	-110.376747
29741.309043	-1404.315000	485.075195	-166.827408
29741.309043	-1404.315000	483.818359	-173.070053
29741.309043	-1404.315000	482.561523	-3.813524
29741.309043	-1404.315000	481.304688	192.562378
29741.309043	-1404.315000	480.046875	380.541260
29741.309043	-1404.315000	478.789063	451.593658
29741.309043	-1404.315000	477.531250	439.186279
29741.309043	-1404.315000	476.272461	401.784088
29741.309043	-1404.315000	475.013672	255.973541
29741.309043	-1404.315000	473.754883	270.856873
29741.309043	-1404.315000	472.496094	-4.049670
29741.309043	-1404.315000	471.236328	35.981419
29741.309043	-1404.315000	469.976563	-61.517548
29741.309043	-1404.315000	468.716797	-6.817694
29741.309043	-1404.315000	467.456055	-66.687698
29741.309043	-1404.315000	466.196289	71.388153
29741.309043	-1404.315000	464.935547	-57.108395
29741.309043	-1404.315000	463.673828	-23.124475
29741.309043	-1404.315000	462.413086	67.092445
29741.309043	-1404.315000	461.151367	80.301392
29741.309043	-1404.315000	459.889648	-72.904816
29741.309043	-1404.315000	458.626953	285.699860
29741.309043	-1404.315000	457.364258	61.868095
29741.309043	-1404.315000	456.101563	195.796616
29741.309043	-1404.315000	454.838867	90.637062
29741.309043	-1404.315000	453.575195	60.366127
29741.309043	-1404.315000	452.312500	333.515289
29741.309043	-1404.315000	451.047852	201.456451
29741.309043	-1404.315000	449.784180	86.100685
29741.309043	-1404.315000	448.519531	273.985779
29741.309043	-1404.315000	447.254883	27.902317
29741.309043	-1404.315000	445.990234	319.537262
29741.309043	-1404.315000	444.725586	428.440704
29741.309043	-1404.315000	443.459961	423.190979
29741.309043	-1404.315000	442.194336	644.049744
29741.309043	-1404.315000	440.927734	551.659546
29741.309043	-1404.315000	439.662109	382.601959
29741.309043	-1404.315000	438.395508	443.706787
29741.309043	-1404.315000	437.127930	479.904053
29741.309043	-1404.315000	435.861328	472.570801
29741.309043	-1404.315000	434.593750	394.785309
29741.309043	-1404.315000	433.326172	300.447784
29741.309043	-1404.315000	432.058594	723.809875
29741.309043	-1404.315000	430.790039	459.626984
29741.309043	-1404.315000	429.521484	321.788055
29741.309043	-1404.315000	428.252930	403.326416
29741.309043	-1404.315000	426.984375	424.792786
29741.309043	-1404.315000	425.714844	380.005157
29741.309043	-1404.315000	424.445313	118.045189
29741.309043	-1404.315000	423.174805	534.301636
29741.309043	-1404.315000	421.905273	398.398956
29741.309043	-1404.315000	420.634766	518.748779
29741.309043	-1404.315000	419.364258	341.435852
29741.309043	-1404.315000	418.092773	372.756195
29741.309043	-1404.315000	416.822266	463.877625
29741.309043	-1404.315000	415.550781	170.788544
29741.309043	-1404.315000	414.278320	218.351807
29741.309043	-1404.315000	413.006836	383.440948
29741.309043	-1404.315000	411.734375	428.647766
29741.309043	-1404.315000	410.461914	533.542053
29741.309043	-1404.315000	409.188477	188.591385
29741.309043	-1404.315000	407.916016	674.725647
29741.309043	-1404.315000	406.642578	539.902832
29741.309043	-1404.315000	405.368164	685.310120
29741.309043	-1404.315000	404.094727	1096.344849
29741.309043	-1404.315000	402.820313	893.010620
29741.309043	-1404.315000	401.545898	837.895447
29741.309043	-1404.315000	400.270508	959.715881
29741.309043	-1404.315000	398.996094	986.565674
29741.309043	-1404.315000	397.720703	764.082581
29741.309043	-1404.315000	396.444336	547.629028
29741.309043	-1404.315000	395.168945	493.598572
29741.309043	-1404.315000	393.892578	591.565369
29741.309043	-1404.315000	392.616211	549.358643
29741.309043	-1404.315000	391.339844	648.782288
29741.309043	-1404.315000	390.062500	486.754883
29741.309043	-1404.315000	388.785156	398.489716
29741.309043	-1404.315000	387.507813	301.723358
29741.309043	-1404.315000	386.229492	278.621399
29741.309043	-1404.315000	384.951172	105.226906
29741.309043	-1404.315000	383.672852	237.546692
29741.309043	-1404.315000	382.394531	238.022720
29741.309043	-1404.315000	381.115234	26.651920
29741.309043	-1404.315000	379.835938	280.849792
29741.309043	-1404.315000	378.556641	113.865639
29741.309043	-1404.315000	377.277344	161.916168
29741.309043	-1404.315000	375.997070	262.796997
29741.309043	-1404.315000	374.716797	398.013947
29741.309043	-1404.315000	373.435547	116.482086
29741.309043	-1404.315000	372.155273	361.340668
29741.309043	-1404.315000	370.874023	326.842773
29741.309043	-1404.315000	369.591797	248.764526
29741.309043	-1404.315000	368.310547	268.478638
29741.309043	-1404.315000	367.028320	107.354271
29741.309043	-1404.315000	365.746094	154.521576
29741.309043	-1404.315000	364.463867	315.659241
29741.309043	-1404.315000	363.180664	-113.366264
29741.309043	-1404.315000	361.897461	189.619904
29741.309043	-1404.315000	360.614258	15.119030
29741.309043	-1404.315000	359.330078	-137.561340
29741.309043	-1404.315000	358.045898	-182.563919
29741.309043	-1404.315000	356.761719	-1.409639
29741.309043	-1404.315000	355.477539	-45.975464
29741.309043	-1404.315000	354.192383	-72.989845
29741.309043	-1404.315000	352.907227	-66.127815
29741.309043	-1404.315000	351.622070	117.539452
29741.309043	-1404.315000	350.336914	102.119835
29741.309043	-1404.315000	349.050781	187.815201
29741.309043	-1404.315000	347.764648	105.109734
29741.309043	-1404.315000	346.477539	235.684860
29741.309043	-1404.315000	345.191406	238.683563
29741.309043	-1404.315000	343.904297	348.693573
29741.309043	-1404.315000	342.616211	88.378799
29741.309043	-1404.315000	341.329102	265.447449
29741.309043	-1404.315000	340.041016	49.830711
29741.309043	-1404.315000	338.752930	24.679338
29741.309043	-1404.315000	337.463867	224.440063
29741.309043	-1404.315000	336.175781	96.905327
29741.309043	-1404.315000	334.886719	106.574142
29741.309043	-1404.315000	333.596680	-96.935402
29741.309043	-1404.315000	332.307617	-63.521637
29741.309043	-1404.315000	331.017578	27.430941
29741.309043	-1404.315000	329.727539	-137.511765
29741.309043	-1404.315000	328.436523	-218.490219
29741.309043	-1404.315000	327.146484	286.899506
29741.309043	-1404.315000	325.855469	48.132683
29741.309043	-1404.315000	324.563477	78.193916
29741.309043	-1404.315000	323.272461	-133.279785
29741.309043	-1404.315000	321.980469	100.665039
29741.309043	-1404.315000	320.688477	34.028790
29741.309043	-1404.315000	319.395508	-81.187988
29741.309043	-1404.315000	318.103516	13.030590
29741.309043	-1404.315000	316.810547	-152.660782
29741.309043	-1404.315000	315.516602	-208.664673
29741.309043	-1404.315000	314.223633	206.279770
29741.309043	-1404.315000	312.929688	79.120010
29741.309043	-1404.315000	311.635742	22.901285
29741.309043	-1404.315000	310.340820	-167.397537
29741.309043	-1404.315000	309.045898	-47.579895
29741.309043	-1404.315000	307.750977	29.315983
29741.309043	-1404.315000	306.456055	-102.954292
29741.309043	-1404.315000	305.160156	196.015213
29741.309043	-1404.315000	303.865234	579.545349
29741.309043	-1404.315000	302.568359	210.705994
29741.309043	-1404.315000	301.272461	222.242081
29741.309043	-1404.315000	299.975586	374.771820
29741.309043	-1404.315000	298.678711	445.527161
