#X		#Y		#Wave		#Intensity
29636.864894	-1635.278333	1999.980469	32.817982
29636.864894	-1635.278333	1999.016602	-39.795521
29636.864894	-1635.278333	1998.052734	-58.932205
29636.864894	-1635.278333	1997.087891	-18.931103
29636.864894	-1635.278333	1996.123047	109.909927
29636.864894	-1635.278333	1995.158203	-113.388557
29636.864894	-1635.278333	1994.193359	-9.997574
29636.864894	-1635.278333	1993.228516	107.901962
29636.864894	-1635.278333	1992.262695	-84.025482
29636.864894	-1635.278333	1991.297852	-38.547054
29636.864894	-1635.278333	1990.332031	199.670914
29636.864894	-1635.278333	1989.366211	-12.832232
29636.864894	-1635.278333	1988.399414	-25.135895
29636.864894	-1635.278333	1987.433594	155.232819
29636.864894	-1635.278333	1986.466797	-107.405014
29636.864894	-1635.278333	1985.500977	-28.976105
29636.864894	-1635.278333	1984.534180	68.954567
29636.864894	-1635.278333	1983.567383	161.667435
29636.864894	-1635.278333	1982.599609	9.461648
29636.864894	-1635.278333	1981.632813	-49.021683
29636.864894	-1635.278333	1980.665039	20.753559
29636.864894	-1635.278333	1979.697266	75.472565
29636.864894	-1635.278333	1978.729492	-193.526138
29636.864894	-1635.278333	1977.761719	-18.212761
29636.864894	-1635.278333	1976.792969	144.496964
29636.864894	-1635.278333	1975.825195	-80.519722
29636.864894	-1635.278333	1974.856445	-118.100975
29636.864894	-1635.278333	1973.887695	88.401787
29636.864894	-1635.278333	1972.918945	141.724777
29636.864894	-1635.278333	1971.949219	268.847290
29636.864894	-1635.278333	1970.980469	408.095001
29636.864894	-1635.278333	1970.010742	-64.257278
29636.864894	-1635.278333	1969.041016	72.232262
29636.864894	-1635.278333	1968.071289	-87.198761
29636.864894	-1635.278333	1967.101563	226.362946
29636.864894	-1635.278333	1966.130859	384.473267
29636.864894	-1635.278333	1965.161133	249.302673
29636.864894	-1635.278333	1964.190430	306.133423
29636.864894	-1635.278333	1963.219727	32.905579
29636.864894	-1635.278333	1962.249023	338.143219
29636.864894	-1635.278333	1961.277344	64.780052
29636.864894	-1635.278333	1960.306641	94.084862
29636.864894	-1635.278333	1959.334961	-39.107067
29636.864894	-1635.278333	1958.363281	213.841675
29636.864894	-1635.278333	1957.391602	215.749603
29636.864894	-1635.278333	1956.419922	146.259323
29636.864894	-1635.278333	1955.447266	140.621750
29636.864894	-1635.278333	1954.474609	-157.594070
29636.864894	-1635.278333	1953.501953	170.887009
29636.864894	-1635.278333	1952.529297	17.588127
29636.864894	-1635.278333	1951.556641	127.127983
29636.864894	-1635.278333	1950.583984	-80.281029
29636.864894	-1635.278333	1949.610352	14.362960
29636.864894	-1635.278333	1948.636719	52.439480
29636.864894	-1635.278333	1947.663086	-24.931145
29636.864894	-1635.278333	1946.689453	81.744370
29636.864894	-1635.278333	1945.715820	68.088135
29636.864894	-1635.278333	1944.741211	17.579857
29636.864894	-1635.278333	1943.767578	202.528397
29636.864894	-1635.278333	1942.792969	340.761200
29636.864894	-1635.278333	1941.818359	-102.229156
29636.864894	-1635.278333	1940.842773	-15.561069
29636.864894	-1635.278333	1939.868164	-73.574104
29636.864894	-1635.278333	1938.892578	145.318329
29636.864894	-1635.278333	1937.916992	21.067652
29636.864894	-1635.278333	1936.941406	112.410522
29636.864894	-1635.278333	1935.965820	-175.947754
29636.864894	-1635.278333	1934.990234	192.061340
29636.864894	-1635.278333	1934.013672	55.537441
29636.864894	-1635.278333	1933.037109	-58.925655
29636.864894	-1635.278333	1932.060547	-143.997910
29636.864894	-1635.278333	1931.083984	111.076408
29636.864894	-1635.278333	1930.107422	25.969000
29636.864894	-1635.278333	1929.129883	46.054470
29636.864894	-1635.278333	1928.153320	122.373802
29636.864894	-1635.278333	1927.175781	105.729050
29636.864894	-1635.278333	1926.198242	-211.620316
29636.864894	-1635.278333	1925.219727	-27.790215
29636.864894	-1635.278333	1924.242188	-22.429287
29636.864894	-1635.278333	1923.263672	-26.856880
29636.864894	-1635.278333	1922.285156	-55.716076
29636.864894	-1635.278333	1921.306641	-182.267380
29636.864894	-1635.278333	1920.328125	-172.021347
29636.864894	-1635.278333	1919.349609	116.552391
29636.864894	-1635.278333	1918.370117	-168.640976
29636.864894	-1635.278333	1917.391602	-270.674347
29636.864894	-1635.278333	1916.412109	-48.131092
29636.864894	-1635.278333	1915.431641	152.366608
29636.864894	-1635.278333	1914.452148	125.948837
29636.864894	-1635.278333	1913.472656	62.961899
29636.864894	-1635.278333	1912.492188	-104.851425
29636.864894	-1635.278333	1911.511719	-131.201248
29636.864894	-1635.278333	1910.531250	-21.036133
29636.864894	-1635.278333	1909.550781	-15.697318
29636.864894	-1635.278333	1908.569336	91.975792
29636.864894	-1635.278333	1907.588867	48.583519
29636.864894	-1635.278333	1906.607422	136.735489
29636.864894	-1635.278333	1905.625977	90.926331
29636.864894	-1635.278333	1904.644531	93.840019
29636.864894	-1635.278333	1903.662109	74.845947
29636.864894	-1635.278333	1902.680664	-22.008625
29636.864894	-1635.278333	1901.698242	151.280365
29636.864894	-1635.278333	1900.715820	-130.437241
29636.864894	-1635.278333	1899.733398	-219.878098
29636.864894	-1635.278333	1898.750000	4.446237
29636.864894	-1635.278333	1897.767578	175.207672
29636.864894	-1635.278333	1896.784180	49.318413
29636.864894	-1635.278333	1895.800781	115.506958
29636.864894	-1635.278333	1894.817383	62.601395
29636.864894	-1635.278333	1893.833984	-41.296772
29636.864894	-1635.278333	1892.850586	5.466650
29636.864894	-1635.278333	1891.866211	30.356480
29636.864894	-1635.278333	1890.881836	-66.168549
29636.864894	-1635.278333	1889.897461	-31.542231
29636.864894	-1635.278333	1888.913086	-21.194479
29636.864894	-1635.278333	1887.927734	71.669525
29636.864894	-1635.278333	1886.943359	79.586296
29636.864894	-1635.278333	1885.958008	-65.340645
29636.864894	-1635.278333	1884.972656	-88.924294
29636.864894	-1635.278333	1883.987305	52.420898
29636.864894	-1635.278333	1883.001953	57.936729
29636.864894	-1635.278333	1882.015625	-9.277401
29636.864894	-1635.278333	1881.029297	270.145050
29636.864894	-1635.278333	1880.042969	-199.347214
29636.864894	-1635.278333	1879.056641	208.430878
29636.864894	-1635.278333	1878.070313	196.978806
29636.864894	-1635.278333	1877.083984	144.362411
29636.864894	-1635.278333	1876.096680	-46.264309
29636.864894	-1635.278333	1875.109375	-77.025246
29636.864894	-1635.278333	1874.122070	35.045784
29636.864894	-1635.278333	1873.134766	103.512589
29636.864894	-1635.278333	1872.146484	65.484184
29636.864894	-1635.278333	1871.159180	54.086273
29636.864894	-1635.278333	1870.170898	18.498432
29636.864894	-1635.278333	1869.182617	-258.911194
29636.864894	-1635.278333	1868.194336	-59.891399
29636.864894	-1635.278333	1867.205078	20.590590
29636.864894	-1635.278333	1866.216797	-65.726357
29636.864894	-1635.278333	1865.227539	-101.274063
29636.864894	-1635.278333	1864.238281	46.809666
29636.864894	-1635.278333	1863.249023	-32.235752
29636.864894	-1635.278333	1862.259766	224.450195
29636.864894	-1635.278333	1861.269531	-149.215073
29636.864894	-1635.278333	1860.279297	-25.408491
29636.864894	-1635.278333	1859.290039	124.902016
29636.864894	-1635.278333	1858.298828	-28.949612
29636.864894	-1635.278333	1857.308594	114.038811
29636.864894	-1635.278333	1856.318359	-133.854034
29636.864894	-1635.278333	1855.327148	-118.763565
29636.864894	-1635.278333	1854.335938	-33.759338
29636.864894	-1635.278333	1853.344727	205.511246
29636.864894	-1635.278333	1852.353516	27.635147
29636.864894	-1635.278333	1851.362305	45.035244
29636.864894	-1635.278333	1850.370117	-209.894699
29636.864894	-1635.278333	1849.377930	-235.864822
29636.864894	-1635.278333	1848.385742	-42.639793
29636.864894	-1635.278333	1847.393555	-46.993996
29636.864894	-1635.278333	1846.401367	6.421195
29636.864894	-1635.278333	1845.408203	-89.475189
29636.864894	-1635.278333	1844.415039	206.987610
29636.864894	-1635.278333	1843.421875	67.726563
29636.864894	-1635.278333	1842.428711	48.797306
29636.864894	-1635.278333	1841.435547	-49.537483
29636.864894	-1635.278333	1840.441406	143.162582
29636.864894	-1635.278333	1839.448242	68.839851
29636.864894	-1635.278333	1838.454102	-120.897362
29636.864894	-1635.278333	1837.459961	-65.399658
29636.864894	-1635.278333	1836.464844	-79.658417
29636.864894	-1635.278333	1835.470703	105.507202
29636.864894	-1635.278333	1834.475586	88.752159
29636.864894	-1635.278333	1833.480469	23.931028
29636.864894	-1635.278333	1832.485352	252.091614
29636.864894	-1635.278333	1831.490234	9.506330
29636.864894	-1635.278333	1830.495117	50.256199
29636.864894	-1635.278333	1829.499023	42.941422
29636.864894	-1635.278333	1828.502930	33.190163
29636.864894	-1635.278333	1827.506836	9.005313
29636.864894	-1635.278333	1826.510742	-245.502808
29636.864894	-1635.278333	1825.513672	152.408417
29636.864894	-1635.278333	1824.517578	-80.536438
29636.864894	-1635.278333	1823.520508	120.506294
29636.864894	-1635.278333	1822.523438	69.737274
29636.864894	-1635.278333	1821.526367	143.561752
29636.864894	-1635.278333	1820.529297	-10.322058
29636.864894	-1635.278333	1819.531250	15.472803
29636.864894	-1635.278333	1818.533203	-78.554001
29636.864894	-1635.278333	1817.535156	18.989117
29636.864894	-1635.278333	1816.537109	-46.373417
29636.864894	-1635.278333	1815.539063	62.992191
29636.864894	-1635.278333	1814.540039	26.253918
29636.864894	-1635.278333	1813.541992	116.309204
29636.864894	-1635.278333	1812.542969	160.811340
29636.864894	-1635.278333	1811.543945	274.609955
29636.864894	-1635.278333	1810.543945	125.220528
29636.864894	-1635.278333	1809.544922	78.656151
29636.864894	-1635.278333	1808.544922	79.856834
29636.864894	-1635.278333	1807.544922	116.850197
29636.864894	-1635.278333	1806.544922	89.242752
29636.864894	-1635.278333	1805.544922	118.930077
29636.864894	-1635.278333	1804.544922	289.487457
29636.864894	-1635.278333	1803.543945	213.896820
29636.864894	-1635.278333	1802.542969	133.490753
29636.864894	-1635.278333	1801.541992	139.002808
29636.864894	-1635.278333	1800.541016	-187.364777
29636.864894	-1635.278333	1799.539063	116.397057
29636.864894	-1635.278333	1798.538086	78.752014
29636.864894	-1635.278333	1797.536133	-118.802513
29636.864894	-1635.278333	1796.534180	91.537231
29636.864894	-1635.278333	1795.532227	96.627869
29636.864894	-1635.278333	1794.529297	-60.506218
29636.864894	-1635.278333	1793.527344	-10.240457
29636.864894	-1635.278333	1792.524414	147.181702
29636.864894	-1635.278333	1791.521484	-64.906288
29636.864894	-1635.278333	1790.518555	366.319031
29636.864894	-1635.278333	1789.514648	46.911026
29636.864894	-1635.278333	1788.511719	301.549744
29636.864894	-1635.278333	1787.507813	336.928558
29636.864894	-1635.278333	1786.503906	217.463394
29636.864894	-1635.278333	1785.500000	231.262894
29636.864894	-1635.278333	1784.496094	-2.532976
29636.864894	-1635.278333	1783.491211	-174.464935
29636.864894	-1635.278333	1782.486328	-87.101166
29636.864894	-1635.278333	1781.481445	147.618256
29636.864894	-1635.278333	1780.476563	210.940765
29636.864894	-1635.278333	1779.471680	-61.093266
29636.864894	-1635.278333	1778.465820	25.838432
29636.864894	-1635.278333	1777.460938	34.230129
29636.864894	-1635.278333	1776.455078	168.465134
29636.864894	-1635.278333	1775.449219	95.866554
29636.864894	-1635.278333	1774.442383	-86.071770
29636.864894	-1635.278333	1773.436523	111.975204
29636.864894	-1635.278333	1772.429688	5.911707
29636.864894	-1635.278333	1771.422852	20.875641
29636.864894	-1635.278333	1770.416016	292.093079
29636.864894	-1635.278333	1769.409180	171.549896
29636.864894	-1635.278333	1768.402344	-10.728994
29636.864894	-1635.278333	1767.394531	60.790817
29636.864894	-1635.278333	1766.386719	1.743813
29636.864894	-1635.278333	1765.378906	305.442078
29636.864894	-1635.278333	1764.371094	68.369598
29636.864894	-1635.278333	1763.362305	82.550720
29636.864894	-1635.278333	1762.354492	-90.584015
29636.864894	-1635.278333	1761.345703	117.737091
29636.864894	-1635.278333	1760.336914	-110.026665
29636.864894	-1635.278333	1759.328125	17.495489
29636.864894	-1635.278333	1758.318359	-28.012291
29636.864894	-1635.278333	1757.308594	-99.643135
29636.864894	-1635.278333	1756.299805	-145.292557
29636.864894	-1635.278333	1755.290039	12.517241
29636.864894	-1635.278333	1754.279297	68.404884
29636.864894	-1635.278333	1753.269531	46.109245
29636.864894	-1635.278333	1752.258789	92.314667
29636.864894	-1635.278333	1751.249023	76.924461
29636.864894	-1635.278333	1750.238281	82.714447
29636.864894	-1635.278333	1749.226563	159.315048
29636.864894	-1635.278333	1748.215820	228.710236
29636.864894	-1635.278333	1747.204102	170.355026
29636.864894	-1635.278333	1746.193359	55.227932
29636.864894	-1635.278333	1745.181641	20.353949
29636.864894	-1635.278333	1744.168945	238.103821
29636.864894	-1635.278333	1743.157227	-26.047277
29636.864894	-1635.278333	1742.144531	425.167358
29636.864894	-1635.278333	1741.132813	5.090498
29636.864894	-1635.278333	1740.120117	80.677956
29636.864894	-1635.278333	1739.106445	-119.953346
29636.864894	-1635.278333	1738.093750	-238.020615
29636.864894	-1635.278333	1737.080078	110.870934
29636.864894	-1635.278333	1736.067383	-66.352921
29636.864894	-1635.278333	1735.053711	230.301895
29636.864894	-1635.278333	1734.040039	-204.040512
29636.864894	-1635.278333	1733.025391	68.747513
29636.864894	-1635.278333	1732.011719	-68.682877
29636.864894	-1635.278333	1730.997070	161.368759
29636.864894	-1635.278333	1729.982422	176.874634
29636.864894	-1635.278333	1728.967773	291.192322
29636.864894	-1635.278333	1727.952148	-138.576324
29636.864894	-1635.278333	1726.937500	-245.738113
29636.864894	-1635.278333	1725.921875	-162.316086
29636.864894	-1635.278333	1724.906250	-24.896107
29636.864894	-1635.278333	1723.890625	110.018143
29636.864894	-1635.278333	1722.875000	-129.250809
29636.864894	-1635.278333	1721.858398	101.851593
29636.864894	-1635.278333	1720.841797	57.642250
29636.864894	-1635.278333	1719.825195	147.361694
29636.864894	-1635.278333	1718.808594	-190.862823
29636.864894	-1635.278333	1717.791992	103.140907
29636.864894	-1635.278333	1716.774414	84.407578
29636.864894	-1635.278333	1715.756836	-129.403625
29636.864894	-1635.278333	1714.739258	-91.907539
29636.864894	-1635.278333	1713.721680	-21.642862
29636.864894	-1635.278333	1712.704102	-134.638474
29636.864894	-1635.278333	1711.685547	59.817692
29636.864894	-1635.278333	1710.667969	-4.052794
29636.864894	-1635.278333	1709.649414	204.193283
29636.864894	-1635.278333	1708.630859	-85.112305
29636.864894	-1635.278333	1707.611328	-27.255802
29636.864894	-1635.278333	1706.592773	-328.319611
29636.864894	-1635.278333	1705.573242	-40.837658
29636.864894	-1635.278333	1704.553711	72.963608
29636.864894	-1635.278333	1703.534180	-12.602776
29636.864894	-1635.278333	1702.513672	42.364124
29636.864894	-1635.278333	1701.494141	254.212479
29636.864894	-1635.278333	1700.473633	2.054099
29636.864894	-1635.278333	1699.453125	-203.256897
29636.864894	-1635.278333	1698.432617	265.811340
29636.864894	-1635.278333	1697.412109	-19.248354
29636.864894	-1635.278333	1696.390625	-131.090134
29636.864894	-1635.278333	1695.369141	126.786972
29636.864894	-1635.278333	1694.347656	192.612167
29636.864894	-1635.278333	1693.326172	-27.076773
29636.864894	-1635.278333	1692.304688	337.963043
29636.864894	-1635.278333	1691.282227	31.620119
29636.864894	-1635.278333	1690.260742	87.719101
29636.864894	-1635.278333	1689.238281	153.046036
29636.864894	-1635.278333	1688.214844	141.124893
29636.864894	-1635.278333	1687.192383	28.663589
29636.864894	-1635.278333	1686.168945	-16.101040
29636.864894	-1635.278333	1685.146484	137.627121
29636.864894	-1635.278333	1684.123047	398.625671
29636.864894	-1635.278333	1683.099609	395.601715
29636.864894	-1635.278333	1682.075195	516.208862
29636.864894	-1635.278333	1681.051758	480.331787
29636.864894	-1635.278333	1680.027344	607.720154
29636.864894	-1635.278333	1679.002930	597.333435
29636.864894	-1635.278333	1677.978516	514.561096
29636.864894	-1635.278333	1676.953125	702.263611
29636.864894	-1635.278333	1675.928711	383.849731
29636.864894	-1635.278333	1674.903320	664.607605
29636.864894	-1635.278333	1673.877930	597.891663
29636.864894	-1635.278333	1672.852539	598.710510
29636.864894	-1635.278333	1671.826172	708.949829
29636.864894	-1635.278333	1670.800781	667.677124
29636.864894	-1635.278333	1669.774414	549.475098
29636.864894	-1635.278333	1668.748047	654.796082
29636.864894	-1635.278333	1667.721680	622.648743
29636.864894	-1635.278333	1666.694336	280.846283
29636.864894	-1635.278333	1665.667969	579.122864
29636.864894	-1635.278333	1664.640625	439.763824
29636.864894	-1635.278333	1663.613281	584.210022
29636.864894	-1635.278333	1662.585938	651.782776
29636.864894	-1635.278333	1661.557617	747.156372
29636.864894	-1635.278333	1660.530273	686.678833
29636.864894	-1635.278333	1659.501953	837.677917
29636.864894	-1635.278333	1658.473633	879.331238
29636.864894	-1635.278333	1657.444336	542.137024
29636.864894	-1635.278333	1656.416016	969.367615
29636.864894	-1635.278333	1655.386719	757.604370
29636.864894	-1635.278333	1654.358398	778.119812
29636.864894	-1635.278333	1653.328125	909.984253
29636.864894	-1635.278333	1652.298828	876.946106
29636.864894	-1635.278333	1651.269531	941.351074
29636.864894	-1635.278333	1650.239258	1237.713013
29636.864894	-1635.278333	1649.208984	1366.867920
29636.864894	-1635.278333	1648.178711	1252.365967
29636.864894	-1635.278333	1647.148438	1272.376221
29636.864894	-1635.278333	1646.117188	1468.535278
29636.864894	-1635.278333	1645.086914	1240.352783
29636.864894	-1635.278333	1644.055664	1264.838989
29636.864894	-1635.278333	1643.024414	1463.076538
29636.864894	-1635.278333	1641.992188	1712.151123
29636.864894	-1635.278333	1640.960938	1539.512207
29636.864894	-1635.278333	1639.928711	1547.532959
29636.864894	-1635.278333	1638.896484	1863.483643
29636.864894	-1635.278333	1637.864258	1762.557129
29636.864894	-1635.278333	1636.832031	2087.533691
29636.864894	-1635.278333	1635.798828	1734.266602
29636.864894	-1635.278333	1634.766602	1797.602173
29636.864894	-1635.278333	1633.733398	1879.372314
29636.864894	-1635.278333	1632.699219	1729.773682
29636.864894	-1635.278333	1631.666016	1968.711182
29636.864894	-1635.278333	1630.632813	1869.981201
29636.864894	-1635.278333	1629.598633	2194.255371
29636.864894	-1635.278333	1628.564453	2217.938965
29636.864894	-1635.278333	1627.530273	2056.740479
29636.864894	-1635.278333	1626.495117	2193.577148
29636.864894	-1635.278333	1625.460938	2219.492920
29636.864894	-1635.278333	1624.425781	2305.401611
29636.864894	-1635.278333	1623.390625	2513.628662
29636.864894	-1635.278333	1622.355469	2306.249512
29636.864894	-1635.278333	1621.319336	2530.498047
29636.864894	-1635.278333	1620.284180	3084.636963
29636.864894	-1635.278333	1619.248047	2997.174072
29636.864894	-1635.278333	1618.211914	2969.704102
29636.864894	-1635.278333	1617.174805	3039.074219
29636.864894	-1635.278333	1616.138672	2827.133057
29636.864894	-1635.278333	1615.101563	2645.218262
29636.864894	-1635.278333	1614.065430	2560.188232
29636.864894	-1635.278333	1613.027344	2574.234619
29636.864894	-1635.278333	1611.990234	2069.918213
29636.864894	-1635.278333	1610.953125	2542.456055
29636.864894	-1635.278333	1609.915039	2356.132568
29636.864894	-1635.278333	1608.876953	2453.097168
29636.864894	-1635.278333	1607.838867	2506.287109
29636.864894	-1635.278333	1606.800781	2340.803223
29636.864894	-1635.278333	1605.761719	2440.006592
29636.864894	-1635.278333	1604.723633	2638.132324
29636.864894	-1635.278333	1603.684570	2833.868164
29636.864894	-1635.278333	1602.644531	2431.554932
29636.864894	-1635.278333	1601.605469	2972.187988
29636.864894	-1635.278333	1600.566406	2714.881836
29636.864894	-1635.278333	1599.526367	2528.923828
29636.864894	-1635.278333	1598.486328	2437.275635
29636.864894	-1635.278333	1597.446289	2642.069580
29636.864894	-1635.278333	1596.405273	2644.633545
29636.864894	-1635.278333	1595.365234	2727.620605
29636.864894	-1635.278333	1594.324219	2845.019287
29636.864894	-1635.278333	1593.283203	2785.615723
29636.864894	-1635.278333	1592.242188	2824.962158
29636.864894	-1635.278333	1591.200195	2758.730225
29636.864894	-1635.278333	1590.159180	2988.556885
29636.864894	-1635.278333	1589.117188	2516.331787
29636.864894	-1635.278333	1588.075195	2542.025879
29636.864894	-1635.278333	1587.032227	2613.585205
29636.864894	-1635.278333	1585.990234	2714.970215
29636.864894	-1635.278333	1584.947266	2742.979004
29636.864894	-1635.278333	1583.904297	2979.563232
29636.864894	-1635.278333	1582.861328	2631.802246
29636.864894	-1635.278333	1581.818359	2705.736816
29636.864894	-1635.278333	1580.775391	2907.946045
29636.864894	-1635.278333	1579.731445	2794.079102
29636.864894	-1635.278333	1578.687500	2639.085449
29636.864894	-1635.278333	1577.643555	2472.751709
29636.864894	-1635.278333	1576.598633	2755.082520
29636.864894	-1635.278333	1575.554688	2614.051025
29636.864894	-1635.278333	1574.509766	2541.735840
29636.864894	-1635.278333	1573.464844	2275.075928
29636.864894	-1635.278333	1572.419922	2456.795654
29636.864894	-1635.278333	1571.374023	2108.030762
29636.864894	-1635.278333	1570.329102	2305.814697
29636.864894	-1635.278333	1569.283203	2396.139893
29636.864894	-1635.278333	1568.237305	2134.586426
29636.864894	-1635.278333	1567.191406	1930.308105
29636.864894	-1635.278333	1566.144531	1936.292236
29636.864894	-1635.278333	1565.098633	1675.155762
29636.864894	-1635.278333	1564.051758	2016.948608
29636.864894	-1635.278333	1563.004883	1781.115479
29636.864894	-1635.278333	1561.957031	1942.554565
29636.864894	-1635.278333	1560.910156	1706.958008
29636.864894	-1635.278333	1559.862305	1654.019165
29636.864894	-1635.278333	1558.814453	1425.531860
29636.864894	-1635.278333	1557.766602	1521.044556
29636.864894	-1635.278333	1556.718750	1402.257446
29636.864894	-1635.278333	1555.669922	1320.047607
29636.864894	-1635.278333	1554.621094	1310.876587
29636.864894	-1635.278333	1553.573242	1506.891602
29636.864894	-1635.278333	1552.523438	1390.740479
29636.864894	-1635.278333	1551.474609	1226.893066
29636.864894	-1635.278333	1550.424805	974.350220
29636.864894	-1635.278333	1549.375000	1443.792236
29636.864894	-1635.278333	1548.325195	806.731873
29636.864894	-1635.278333	1547.275391	818.689941
29636.864894	-1635.278333	1546.225586	1046.913818
29636.864894	-1635.278333	1545.174805	954.312256
29636.864894	-1635.278333	1544.124023	857.283752
29636.864894	-1635.278333	1543.073242	1183.401611
29636.864894	-1635.278333	1542.022461	1127.469971
29636.864894	-1635.278333	1540.970703	844.296204
29636.864894	-1635.278333	1539.919922	879.552002
29636.864894	-1635.278333	1538.868164	1139.849609
29636.864894	-1635.278333	1537.815430	916.174683
29636.864894	-1635.278333	1536.763672	1074.327271
29636.864894	-1635.278333	1535.710938	1062.162109
29636.864894	-1635.278333	1534.659180	1440.674194
29636.864894	-1635.278333	1533.606445	1158.474609
29636.864894	-1635.278333	1532.552734	1818.443604
29636.864894	-1635.278333	1531.500000	1729.376099
29636.864894	-1635.278333	1530.446289	2051.106689
29636.864894	-1635.278333	1529.393555	1662.793091
29636.864894	-1635.278333	1528.338867	1880.272827
29636.864894	-1635.278333	1527.285156	1492.341553
29636.864894	-1635.278333	1526.231445	1653.315308
29636.864894	-1635.278333	1525.176758	1433.515015
29636.864894	-1635.278333	1524.122070	1270.567505
29636.864894	-1635.278333	1523.067383	903.872192
29636.864894	-1635.278333	1522.012695	1029.010254
29636.864894	-1635.278333	1520.957031	655.921936
29636.864894	-1635.278333	1519.901367	824.296143
29636.864894	-1635.278333	1518.845703	494.637726
29636.864894	-1635.278333	1517.790039	497.967255
29636.864894	-1635.278333	1516.734375	603.250549
29636.864894	-1635.278333	1515.677734	473.279877
29636.864894	-1635.278333	1514.621094	370.626434
29636.864894	-1635.278333	1513.564453	419.670013
29636.864894	-1635.278333	1512.507813	545.698730
29636.864894	-1635.278333	1511.450195	348.483734
29636.864894	-1635.278333	1510.393555	499.585052
29636.864894	-1635.278333	1509.335938	365.981842
29636.864894	-1635.278333	1508.278320	214.478912
29636.864894	-1635.278333	1507.219727	361.345978
29636.864894	-1635.278333	1506.162109	164.983765
29636.864894	-1635.278333	1505.103516	348.186859
29636.864894	-1635.278333	1504.044922	249.232178
29636.864894	-1635.278333	1502.986328	482.263092
29636.864894	-1635.278333	1501.926758	451.270660
29636.864894	-1635.278333	1500.868164	91.001923
29636.864894	-1635.278333	1499.808594	322.051514
29636.864894	-1635.278333	1498.749023	187.752289
29636.864894	-1635.278333	1497.688477	328.744141
29636.864894	-1635.278333	1496.628906	109.091484
29636.864894	-1635.278333	1495.568359	0.104728
29636.864894	-1635.278333	1494.507813	51.307571
29636.864894	-1635.278333	1493.447266	-61.859810
29636.864894	-1635.278333	1492.386719	-1.379131
29636.864894	-1635.278333	1491.325195	-57.914417
29636.864894	-1635.278333	1490.263672	23.075010
29636.864894	-1635.278333	1489.202148	-262.812500
29636.864894	-1635.278333	1488.140625	75.083824
29636.864894	-1635.278333	1487.079102	212.686554
29636.864894	-1635.278333	1486.016602	46.603752
29636.864894	-1635.278333	1484.954102	-144.017227
29636.864894	-1635.278333	1483.891602	-96.001930
29636.864894	-1635.278333	1482.829102	118.550636
29636.864894	-1635.278333	1481.765625	-1.844715
29636.864894	-1635.278333	1480.702148	17.329889
29636.864894	-1635.278333	1479.638672	319.797668
29636.864894	-1635.278333	1478.575195	6.666586
29636.864894	-1635.278333	1477.511719	203.751633
29636.864894	-1635.278333	1476.447266	102.189384
29636.864894	-1635.278333	1475.382813	344.293793
29636.864894	-1635.278333	1474.318359	397.981384
29636.864894	-1635.278333	1473.253906	465.106171
29636.864894	-1635.278333	1472.189453	133.076797
29636.864894	-1635.278333	1471.124023	590.958252
29636.864894	-1635.278333	1470.058594	456.743347
29636.864894	-1635.278333	1468.993164	356.518524
29636.864894	-1635.278333	1467.927734	280.864258
29636.864894	-1635.278333	1466.861328	413.933899
29636.864894	-1635.278333	1465.794922	513.389648
29636.864894	-1635.278333	1464.728516	630.973999
29636.864894	-1635.278333	1463.662109	616.796814
29636.864894	-1635.278333	1462.594727	401.197449
29636.864894	-1635.278333	1461.528320	782.806824
29636.864894	-1635.278333	1460.460938	773.537964
29636.864894	-1635.278333	1459.393555	637.149780
29636.864894	-1635.278333	1458.326172	580.701111
29636.864894	-1635.278333	1457.257813	643.516479
29636.864894	-1635.278333	1456.189453	804.467590
29636.864894	-1635.278333	1455.121094	807.388550
29636.864894	-1635.278333	1454.052734	549.139160
29636.864894	-1635.278333	1452.984375	768.897278
29636.864894	-1635.278333	1451.915039	959.827881
29636.864894	-1635.278333	1450.845703	1260.237549
29636.864894	-1635.278333	1449.776367	1114.065674
29636.864894	-1635.278333	1448.707031	1069.689575
29636.864894	-1635.278333	1447.636719	1301.112671
29636.864894	-1635.278333	1446.567383	1194.283691
29636.864894	-1635.278333	1445.497070	1019.574829
29636.864894	-1635.278333	1444.425781	979.224854
29636.864894	-1635.278333	1443.355469	1049.667969
29636.864894	-1635.278333	1442.285156	1108.310303
29636.864894	-1635.278333	1441.213867	1110.189087
29636.864894	-1635.278333	1440.142578	1224.238281
29636.864894	-1635.278333	1439.070313	804.337280
29636.864894	-1635.278333	1437.999023	1014.391357
29636.864894	-1635.278333	1436.926758	1157.585449
29636.864894	-1635.278333	1435.854492	1086.856567
29636.864894	-1635.278333	1434.782227	1086.040527
29636.864894	-1635.278333	1433.709961	918.016235
29636.864894	-1635.278333	1432.636719	1002.709106
29636.864894	-1635.278333	1431.563477	691.328674
29636.864894	-1635.278333	1430.490234	728.671875
29636.864894	-1635.278333	1429.416992	368.203461
29636.864894	-1635.278333	1428.343750	241.218231
29636.864894	-1635.278333	1427.269531	70.400024
29636.864894	-1635.278333	1426.195313	289.166656
29636.864894	-1635.278333	1425.121094	377.549286
29636.864894	-1635.278333	1424.046875	537.209900
29636.864894	-1635.278333	1422.971680	92.795670
29636.864894	-1635.278333	1421.896484	107.960182
29636.864894	-1635.278333	1420.821289	353.523529
29636.864894	-1635.278333	1419.746094	-40.901165
29636.864894	-1635.278333	1418.669922	330.745972
29636.864894	-1635.278333	1417.594727	48.735298
29636.864894	-1635.278333	1416.518555	-11.438058
29636.864894	-1635.278333	1415.442383	-37.855942
29636.864894	-1635.278333	1414.365234	270.005005
29636.864894	-1635.278333	1413.289063	150.366943
29636.864894	-1635.278333	1412.211914	261.634430
29636.864894	-1635.278333	1411.134766	600.914368
29636.864894	-1635.278333	1410.057617	722.972046
29636.864894	-1635.278333	1408.979492	420.148010
29636.864894	-1635.278333	1407.902344	453.750671
29636.864894	-1635.278333	1406.824219	800.053223
29636.864894	-1635.278333	1405.746094	708.798401
29636.864894	-1635.278333	1404.666992	1061.165283
29636.864894	-1635.278333	1403.588867	695.062439
29636.864894	-1635.278333	1402.509766	823.033875
29636.864894	-1635.278333	1401.430664	949.843262
29636.864894	-1635.278333	1400.351563	915.124817
29636.864894	-1635.278333	1399.271484	812.259338
29636.864894	-1635.278333	1398.192383	904.513489
29636.864894	-1635.278333	1397.112305	1300.352417
29636.864894	-1635.278333	1396.031250	1425.545532
29636.864894	-1635.278333	1394.951172	1392.944580
29636.864894	-1635.278333	1393.871094	1366.996948
29636.864894	-1635.278333	1392.790039	1632.818359
29636.864894	-1635.278333	1391.708984	1724.567749
29636.864894	-1635.278333	1390.626953	1645.291016
29636.864894	-1635.278333	1389.545898	1941.140869
29636.864894	-1635.278333	1388.463867	2046.996826
29636.864894	-1635.278333	1387.381836	2021.807983
29636.864894	-1635.278333	1386.299805	2190.991943
29636.864894	-1635.278333	1385.217773	2258.663086
29636.864894	-1635.278333	1384.134766	2271.170654
29636.864894	-1635.278333	1383.051758	2496.990967
29636.864894	-1635.278333	1381.968750	1971.839722
29636.864894	-1635.278333	1380.885742	2139.700928
29636.864894	-1635.278333	1379.802734	2199.380615
29636.864894	-1635.278333	1378.718750	2264.142578
29636.864894	-1635.278333	1377.634766	2083.872070
29636.864894	-1635.278333	1376.550781	2145.363770
29636.864894	-1635.278333	1375.465820	2179.391357
29636.864894	-1635.278333	1374.381836	2348.195557
29636.864894	-1635.278333	1373.296875	2119.695068
29636.864894	-1635.278333	1372.211914	1906.986816
29636.864894	-1635.278333	1371.126953	2088.580078
29636.864894	-1635.278333	1370.041016	1895.538818
29636.864894	-1635.278333	1368.955078	1886.203979
29636.864894	-1635.278333	1367.869141	1999.348267
29636.864894	-1635.278333	1366.783203	1951.129150
29636.864894	-1635.278333	1365.697266	2027.141357
29636.864894	-1635.278333	1364.610352	1761.613647
29636.864894	-1635.278333	1363.523438	1617.737793
29636.864894	-1635.278333	1362.436523	1945.116577
29636.864894	-1635.278333	1361.349609	1665.731567
29636.864894	-1635.278333	1360.261719	1888.044189
29636.864894	-1635.278333	1359.174805	1792.166260
29636.864894	-1635.278333	1358.086914	1635.443359
29636.864894	-1635.278333	1356.998047	1463.545044
29636.864894	-1635.278333	1355.910156	1440.732788
29636.864894	-1635.278333	1354.821289	1685.802002
29636.864894	-1635.278333	1353.732422	1550.884888
29636.864894	-1635.278333	1352.643555	1514.361450
29636.864894	-1635.278333	1351.554688	1576.197632
29636.864894	-1635.278333	1350.464844	1558.511963
29636.864894	-1635.278333	1349.375000	1824.000610
29636.864894	-1635.278333	1348.285156	1713.754272
29636.864894	-1635.278333	1347.195313	1601.574951
29636.864894	-1635.278333	1346.105469	1867.221313
29636.864894	-1635.278333	1345.014648	1851.597656
29636.864894	-1635.278333	1343.923828	1789.905396
29636.864894	-1635.278333	1342.833008	1545.045776
29636.864894	-1635.278333	1341.741211	1579.743896
29636.864894	-1635.278333	1340.650391	1708.873047
29636.864894	-1635.278333	1339.558594	1445.122437
29636.864894	-1635.278333	1338.466797	1433.419556
29636.864894	-1635.278333	1337.374023	1478.938721
29636.864894	-1635.278333	1336.282227	1349.458862
29636.864894	-1635.278333	1335.189453	1464.035156
29636.864894	-1635.278333	1334.096680	1094.205811
29636.864894	-1635.278333	1333.003906	1141.774536
29636.864894	-1635.278333	1331.910156	980.726929
29636.864894	-1635.278333	1330.817383	938.287842
29636.864894	-1635.278333	1329.723633	934.855347
29636.864894	-1635.278333	1328.629883	778.174133
29636.864894	-1635.278333	1327.535156	851.347412
29636.864894	-1635.278333	1326.441406	1029.632324
29636.864894	-1635.278333	1325.346680	1027.537354
29636.864894	-1635.278333	1324.251953	995.773376
29636.864894	-1635.278333	1323.156250	1029.422485
29636.864894	-1635.278333	1322.061523	675.463623
29636.864894	-1635.278333	1320.965820	1013.681458
29636.864894	-1635.278333	1319.870117	837.009155
29636.864894	-1635.278333	1318.774414	769.500183
29636.864894	-1635.278333	1317.678711	761.942505
29636.864894	-1635.278333	1316.582031	794.174561
29636.864894	-1635.278333	1315.485352	792.205383
29636.864894	-1635.278333	1314.388672	856.730957
29636.864894	-1635.278333	1313.291016	672.250244
29636.864894	-1635.278333	1312.194336	765.554993
29636.864894	-1635.278333	1311.096680	714.708618
29636.864894	-1635.278333	1309.999023	774.069336
29636.864894	-1635.278333	1308.901367	657.899475
29636.864894	-1635.278333	1307.802734	510.635895
29636.864894	-1635.278333	1306.705078	811.630066
29636.864894	-1635.278333	1305.606445	837.600464
29636.864894	-1635.278333	1304.506836	811.850830
29636.864894	-1635.278333	1303.408203	785.087585
29636.864894	-1635.278333	1302.308594	654.404785
29636.864894	-1635.278333	1301.208984	850.780884
29636.864894	-1635.278333	1300.109375	951.386597
29636.864894	-1635.278333	1299.009766	1028.875000
29636.864894	-1635.278333	1297.909180	1081.107178
29636.864894	-1635.278333	1296.808594	1211.041870
29636.864894	-1635.278333	1295.708008	1462.959229
29636.864894	-1635.278333	1294.607422	1310.316895
29636.864894	-1635.278333	1293.506836	1064.961304
29636.864894	-1635.278333	1292.405273	1073.875000
29636.864894	-1635.278333	1291.303711	1009.155029
29636.864894	-1635.278333	1290.202148	897.352905
29636.864894	-1635.278333	1289.099609	952.879211
29636.864894	-1635.278333	1287.998047	834.397339
29636.864894	-1635.278333	1286.895508	924.608582
29636.864894	-1635.278333	1285.792969	827.492493
29636.864894	-1635.278333	1284.689453	872.604370
29636.864894	-1635.278333	1283.586914	967.597473
29636.864894	-1635.278333	1282.483398	589.870789
29636.864894	-1635.278333	1281.379883	612.698486
29636.864894	-1635.278333	1280.276367	609.124207
29636.864894	-1635.278333	1279.171875	521.740662
29636.864894	-1635.278333	1278.067383	463.024933
29636.864894	-1635.278333	1276.962891	387.184814
29636.864894	-1635.278333	1275.858398	364.785370
29636.864894	-1635.278333	1274.753906	607.104675
29636.864894	-1635.278333	1273.648438	424.936676
29636.864894	-1635.278333	1272.542969	131.662704
29636.864894	-1635.278333	1271.437500	7.465015
29636.864894	-1635.278333	1270.331055	-54.358292
29636.864894	-1635.278333	1269.225586	41.446297
29636.864894	-1635.278333	1268.119141	-65.267830
29636.864894	-1635.278333	1267.012695	159.823654
29636.864894	-1635.278333	1265.906250	58.160896
29636.864894	-1635.278333	1264.798828	179.749207
29636.864894	-1635.278333	1263.691406	12.000700
29636.864894	-1635.278333	1262.583984	66.455109
29636.864894	-1635.278333	1261.476563	22.464670
29636.864894	-1635.278333	1260.368164	18.987989
29636.864894	-1635.278333	1259.260742	-118.093201
29636.864894	-1635.278333	1258.152344	-157.174835
29636.864894	-1635.278333	1257.043945	113.072945
29636.864894	-1635.278333	1255.934570	18.503408
29636.864894	-1635.278333	1254.825195	16.301821
29636.864894	-1635.278333	1253.716797	214.000992
29636.864894	-1635.278333	1252.606445	-96.022110
29636.864894	-1635.278333	1251.497070	90.843262
29636.864894	-1635.278333	1250.387695	37.341049
29636.864894	-1635.278333	1249.277344	-2.784686
29636.864894	-1635.278333	1248.166992	-230.016785
29636.864894	-1635.278333	1247.055664	-63.011562
29636.864894	-1635.278333	1245.945313	-110.706245
29636.864894	-1635.278333	1244.833984	-252.111359
29636.864894	-1635.278333	1243.722656	-269.803589
29636.864894	-1635.278333	1242.611328	-133.768539
29636.864894	-1635.278333	1241.499023	-176.031555
29636.864894	-1635.278333	1240.387695	-195.424561
29636.864894	-1635.278333	1239.275391	-86.852448
29636.864894	-1635.278333	1238.162109	-181.804672
29636.864894	-1635.278333	1237.049805	69.380898
29636.864894	-1635.278333	1235.936523	-87.780609
29636.864894	-1635.278333	1234.823242	-126.309326
29636.864894	-1635.278333	1233.709961	57.326748
29636.864894	-1635.278333	1232.596680	-107.912659
29636.864894	-1635.278333	1231.482422	-1.388706
29636.864894	-1635.278333	1230.369141	-84.062355
29636.864894	-1635.278333	1229.253906	226.842758
29636.864894	-1635.278333	1228.139648	249.071320
29636.864894	-1635.278333	1227.025391	47.611801
29636.864894	-1635.278333	1225.910156	63.454651
29636.864894	-1635.278333	1224.794922	228.536758
29636.864894	-1635.278333	1223.679688	249.687042
29636.864894	-1635.278333	1222.563477	208.708435
29636.864894	-1635.278333	1221.447266	43.807396
29636.864894	-1635.278333	1220.331055	179.828476
29636.864894	-1635.278333	1219.214844	251.637695
29636.864894	-1635.278333	1218.098633	112.251526
29636.864894	-1635.278333	1216.981445	170.246323
29636.864894	-1635.278333	1215.864258	180.084457
29636.864894	-1635.278333	1214.747070	216.741348
29636.864894	-1635.278333	1213.629883	206.098724
29636.864894	-1635.278333	1212.511719	72.703636
29636.864894	-1635.278333	1211.393555	-109.801819
29636.864894	-1635.278333	1210.275391	-75.125763
29636.864894	-1635.278333	1209.157227	-69.396233
29636.864894	-1635.278333	1208.038086	167.316605
29636.864894	-1635.278333	1206.918945	63.498703
29636.864894	-1635.278333	1205.799805	64.975143
29636.864894	-1635.278333	1204.680664	86.973389
29636.864894	-1635.278333	1203.560547	-20.928318
29636.864894	-1635.278333	1202.441406	134.586929
29636.864894	-1635.278333	1201.321289	40.782120
29636.864894	-1635.278333	1200.200195	-5.806730
29636.864894	-1635.278333	1199.080078	146.910873
29636.864894	-1635.278333	1197.958984	121.940018
29636.864894	-1635.278333	1196.837891	190.719971
29636.864894	-1635.278333	1195.716797	15.952879
29636.864894	-1635.278333	1194.594727	36.050819
29636.864894	-1635.278333	1193.473633	218.463959
29636.864894	-1635.278333	1192.351563	319.913940
29636.864894	-1635.278333	1191.229492	236.939865
29636.864894	-1635.278333	1190.106445	179.332596
29636.864894	-1635.278333	1188.984375	294.792603
29636.864894	-1635.278333	1187.861328	210.705368
29636.864894	-1635.278333	1186.738281	492.112091
29636.864894	-1635.278333	1185.614258	430.868011
29636.864894	-1635.278333	1184.491211	414.630890
29636.864894	-1635.278333	1183.367188	650.733276
29636.864894	-1635.278333	1182.243164	482.900146
29636.864894	-1635.278333	1181.119141	598.394226
29636.864894	-1635.278333	1179.994141	581.564758
29636.864894	-1635.278333	1178.869141	864.976746
29636.864894	-1635.278333	1177.744141	798.445679
29636.864894	-1635.278333	1176.619141	845.587830
29636.864894	-1635.278333	1175.493164	929.977112
29636.864894	-1635.278333	1174.368164	871.598083
29636.864894	-1635.278333	1173.242188	763.222229
29636.864894	-1635.278333	1172.115234	873.733276
29636.864894	-1635.278333	1170.989258	987.311523
29636.864894	-1635.278333	1169.862305	639.866821
29636.864894	-1635.278333	1168.735352	666.673523
29636.864894	-1635.278333	1167.608398	710.703491
29636.864894	-1635.278333	1166.481445	457.789978
29636.864894	-1635.278333	1165.353516	248.338425
29636.864894	-1635.278333	1164.225586	130.732773
29636.864894	-1635.278333	1163.097656	324.612946
29636.864894	-1635.278333	1161.968750	175.411591
29636.864894	-1635.278333	1160.840820	24.493551
29636.864894	-1635.278333	1159.711914	-11.487970
29636.864894	-1635.278333	1158.583008	42.200863
29636.864894	-1635.278333	1157.453125	140.385193
29636.864894	-1635.278333	1156.324219	79.453651
29636.864894	-1635.278333	1155.194336	139.477097
29636.864894	-1635.278333	1154.064453	33.013832
29636.864894	-1635.278333	1152.933594	19.433723
29636.864894	-1635.278333	1151.803711	178.245041
29636.864894	-1635.278333	1150.672852	351.524078
29636.864894	-1635.278333	1149.541992	309.151703
29636.864894	-1635.278333	1148.411133	374.347961
29636.864894	-1635.278333	1147.279297	355.775513
29636.864894	-1635.278333	1146.147461	486.514557
29636.864894	-1635.278333	1145.015625	306.480591
29636.864894	-1635.278333	1143.883789	387.301910
29636.864894	-1635.278333	1142.750977	228.623444
29636.864894	-1635.278333	1141.619141	308.558014
29636.864894	-1635.278333	1140.486328	428.911499
29636.864894	-1635.278333	1139.352539	279.950836
29636.864894	-1635.278333	1138.219727	297.089996
29636.864894	-1635.278333	1137.085938	428.851379
29636.864894	-1635.278333	1135.952148	545.243530
29636.864894	-1635.278333	1134.818359	251.293335
29636.864894	-1635.278333	1133.683594	510.930450
29636.864894	-1635.278333	1132.549805	736.774597
29636.864894	-1635.278333	1131.415039	772.955078
29636.864894	-1635.278333	1130.279297	855.268066
29636.864894	-1635.278333	1129.144531	822.534973
29636.864894	-1635.278333	1128.008789	1068.437378
29636.864894	-1635.278333	1126.873047	968.361450
29636.864894	-1635.278333	1125.737305	827.552795
29636.864894	-1635.278333	1124.601563	743.339294
29636.864894	-1635.278333	1123.464844	928.382446
29636.864894	-1635.278333	1122.328125	1000.471069
29636.864894	-1635.278333	1121.191406	714.290283
29636.864894	-1635.278333	1120.054688	683.662170
29636.864894	-1635.278333	1118.916992	867.185486
29636.864894	-1635.278333	1117.779297	869.237183
29636.864894	-1635.278333	1116.641602	834.250610
29636.864894	-1635.278333	1115.503906	949.289917
29636.864894	-1635.278333	1114.365234	595.268250
29636.864894	-1635.278333	1113.226563	768.406555
29636.864894	-1635.278333	1112.087891	709.501526
29636.864894	-1635.278333	1110.949219	768.640747
29636.864894	-1635.278333	1109.809570	932.850403
29636.864894	-1635.278333	1108.669922	894.318665
29636.864894	-1635.278333	1107.530273	895.685913
29636.864894	-1635.278333	1106.390625	766.815247
29636.864894	-1635.278333	1105.250000	837.757996
29636.864894	-1635.278333	1104.109375	690.601013
29636.864894	-1635.278333	1102.968750	737.060913
29636.864894	-1635.278333	1101.828125	1019.385681
29636.864894	-1635.278333	1100.686523	916.653687
29636.864894	-1635.278333	1099.544922	838.260681
29636.864894	-1635.278333	1098.403320	930.071899
29636.864894	-1635.278333	1097.261719	821.063721
29636.864894	-1635.278333	1096.120117	847.388428
29636.864894	-1635.278333	1094.977539	881.641724
29636.864894	-1635.278333	1093.834961	725.838928
29636.864894	-1635.278333	1092.691406	829.044434
29636.864894	-1635.278333	1091.548828	823.982788
29636.864894	-1635.278333	1090.405273	772.327637
29636.864894	-1635.278333	1089.261719	529.762573
29636.864894	-1635.278333	1088.118164	569.977112
29636.864894	-1635.278333	1086.973633	690.880920
29636.864894	-1635.278333	1085.829102	702.835632
29636.864894	-1635.278333	1084.684570	804.286560
29636.864894	-1635.278333	1083.540039	500.388031
29636.864894	-1635.278333	1082.395508	586.059998
29636.864894	-1635.278333	1081.250000	724.708069
29636.864894	-1635.278333	1080.104492	415.432495
29636.864894	-1635.278333	1078.958984	665.891541
29636.864894	-1635.278333	1077.812500	407.910461
29636.864894	-1635.278333	1076.666016	598.980408
29636.864894	-1635.278333	1075.519531	573.318359
29636.864894	-1635.278333	1074.373047	438.238831
29636.864894	-1635.278333	1073.226563	389.720428
29636.864894	-1635.278333	1072.079102	385.543243
29636.864894	-1635.278333	1070.931641	522.054321
29636.864894	-1635.278333	1069.784180	504.634613
29636.864894	-1635.278333	1068.635742	767.589478
29636.864894	-1635.278333	1067.487305	564.525818
29636.864894	-1635.278333	1066.338867	423.277924
29636.864894	-1635.278333	1065.190430	741.220886
29636.864894	-1635.278333	1064.041992	534.140137
29636.864894	-1635.278333	1062.892578	553.098389
29636.864894	-1635.278333	1061.743164	663.894531
29636.864894	-1635.278333	1060.593750	570.390076
29636.864894	-1635.278333	1059.443359	514.926941
29636.864894	-1635.278333	1058.292969	446.763184
29636.864894	-1635.278333	1057.142578	347.598267
29636.864894	-1635.278333	1055.992188	272.557434
29636.864894	-1635.278333	1054.841797	299.084320
29636.864894	-1635.278333	1053.690430	464.995178
29636.864894	-1635.278333	1052.539063	340.821838
29636.864894	-1635.278333	1051.387695	199.982559
29636.864894	-1635.278333	1050.235352	452.824677
29636.864894	-1635.278333	1049.083984	448.660278
29636.864894	-1635.278333	1047.931641	242.697281
29636.864894	-1635.278333	1046.778320	299.699493
29636.864894	-1635.278333	1045.625977	261.686462
29636.864894	-1635.278333	1044.472656	380.986847
29636.864894	-1635.278333	1043.319336	198.283508
29636.864894	-1635.278333	1042.166016	118.662697
29636.864894	-1635.278333	1041.012695	98.210747
29636.864894	-1635.278333	1039.858398	188.379913
29636.864894	-1635.278333	1038.704102	73.345520
29636.864894	-1635.278333	1037.549805	242.568878
29636.864894	-1635.278333	1036.394531	65.974762
29636.864894	-1635.278333	1035.239258	112.961334
29636.864894	-1635.278333	1034.083984	215.292679
29636.864894	-1635.278333	1032.928711	110.478981
29636.864894	-1635.278333	1031.773438	195.342911
29636.864894	-1635.278333	1030.617188	116.834373
29636.864894	-1635.278333	1029.460938	147.717102
29636.864894	-1635.278333	1028.304688	200.077484
29636.864894	-1635.278333	1027.147461	111.279289
29636.864894	-1635.278333	1025.991211	38.414604
29636.864894	-1635.278333	1024.833984	92.405823
29636.864894	-1635.278333	1023.675781	192.954391
29636.864894	-1635.278333	1022.518555	305.918396
29636.864894	-1635.278333	1021.360352	182.983551
29636.864894	-1635.278333	1020.202148	138.293045
29636.864894	-1635.278333	1019.043945	228.458679
29636.864894	-1635.278333	1017.884766	24.425861
29636.864894	-1635.278333	1016.726563	60.088413
29636.864894	-1635.278333	1015.567383	-55.128246
29636.864894	-1635.278333	1014.407227	-126.229630
29636.864894	-1635.278333	1013.248047	-179.489548
29636.864894	-1635.278333	1012.087891	78.509308
29636.864894	-1635.278333	1010.927734	-83.073784
29636.864894	-1635.278333	1009.767578	47.583961
29636.864894	-1635.278333	1008.606445	-108.789238
29636.864894	-1635.278333	1007.446289	-9.656080
29636.864894	-1635.278333	1006.285156	120.704895
29636.864894	-1635.278333	1005.123047	240.421036
29636.864894	-1635.278333	1003.961914	349.184265
29636.864894	-1635.278333	1002.799805	195.567291
29636.864894	-1635.278333	1001.637695	-103.348236
29636.864894	-1635.278333	1000.475586	56.342522
29636.864894	-1635.278333	999.312500	-228.982224
29636.864894	-1635.278333	998.149414	50.063992
29636.864894	-1635.278333	996.986328	234.743454
29636.864894	-1635.278333	995.823242	137.183685
29636.864894	-1635.278333	994.659180	295.790039
29636.864894	-1635.278333	993.496094	277.024933
29636.864894	-1635.278333	992.332031	-74.420654
29636.864894	-1635.278333	991.166992	56.602139
29636.864894	-1635.278333	990.002930	110.524742
29636.864894	-1635.278333	988.837891	-2.141797
29636.864894	-1635.278333	987.672852	-28.860174
29636.864894	-1635.278333	986.506836	55.927021
29636.864894	-1635.278333	985.341797	289.327362
29636.864894	-1635.278333	984.175781	168.763641
29636.864894	-1635.278333	983.009766	0.953047
29636.864894	-1635.278333	981.843750	216.384445
29636.864894	-1635.278333	980.676758	433.544708
29636.864894	-1635.278333	979.509766	143.961716
29636.864894	-1635.278333	978.342773	476.901672
29636.864894	-1635.278333	977.175781	-95.004005
29636.864894	-1635.278333	976.007813	30.694330
29636.864894	-1635.278333	974.839844	140.845016
29636.864894	-1635.278333	973.671875	33.120495
29636.864894	-1635.278333	972.503906	59.693237
29636.864894	-1635.278333	971.334961	98.657227
29636.864894	-1635.278333	970.166016	182.478149
29636.864894	-1635.278333	968.997070	48.578453
29636.864894	-1635.278333	967.828125	-193.260025
29636.864894	-1635.278333	966.658203	144.687408
29636.864894	-1635.278333	965.488281	-124.277466
29636.864894	-1635.278333	964.318359	78.213097
29636.864894	-1635.278333	963.148438	-118.215317
29636.864894	-1635.278333	961.977539	-168.170212
29636.864894	-1635.278333	960.806641	-305.146515
29636.864894	-1635.278333	959.635742	310.910980
29636.864894	-1635.278333	958.463867	-95.820129
29636.864894	-1635.278333	957.292969	-7.050754
29636.864894	-1635.278333	956.121094	222.356842
29636.864894	-1635.278333	954.948242	-299.635925
29636.864894	-1635.278333	953.776367	-305.105072
29636.864894	-1635.278333	952.603516	60.905388
29636.864894	-1635.278333	951.430664	-83.634483
29636.864894	-1635.278333	950.257813	261.051270
29636.864894	-1635.278333	949.084961	355.972931
29636.864894	-1635.278333	947.911133	23.821468
29636.864894	-1635.278333	946.737305	-12.274714
29636.864894	-1635.278333	945.563477	-46.608047
29636.864894	-1635.278333	944.388672	73.531837
29636.864894	-1635.278333	943.213867	39.396492
29636.864894	-1635.278333	942.039063	287.404388
29636.864894	-1635.278333	940.864258	134.468185
29636.864894	-1635.278333	939.688477	-25.750736
29636.864894	-1635.278333	938.513672	278.473145
29636.864894	-1635.278333	937.337891	367.118408
29636.864894	-1635.278333	936.161133	146.468643
29636.864894	-1635.278333	934.985352	348.761230
29636.864894	-1635.278333	933.808594	110.853455
29636.864894	-1635.278333	932.631836	197.256836
29636.864894	-1635.278333	931.454102	254.376724
29636.864894	-1635.278333	930.277344	376.819794
29636.864894	-1635.278333	929.099609	-61.685757
29636.864894	-1635.278333	927.921875	104.240768
29636.864894	-1635.278333	926.743164	250.694077
29636.864894	-1635.278333	925.565430	322.198975
29636.864894	-1635.278333	924.386719	468.579102
29636.864894	-1635.278333	923.208008	346.752411
29636.864894	-1635.278333	922.028320	333.627899
29636.864894	-1635.278333	920.849609	139.388733
29636.864894	-1635.278333	919.669922	142.204086
29636.864894	-1635.278333	919.474609	380.229431
29636.864894	-1635.278333	918.309570	644.588196
29636.864894	-1635.278333	917.143555	607.168884
29636.864894	-1635.278333	915.977539	596.279968
29636.864894	-1635.278333	914.810547	527.484741
29636.864894	-1635.278333	913.644531	347.751587
29636.864894	-1635.278333	912.477539	177.718170
29636.864894	-1635.278333	911.310547	174.074020
29636.864894	-1635.278333	910.143555	47.485451
29636.864894	-1635.278333	908.975586	14.913937
29636.864894	-1635.278333	907.807617	295.539246
29636.864894	-1635.278333	906.639648	50.914402
29636.864894	-1635.278333	905.471680	-37.089191
29636.864894	-1635.278333	904.303711	60.321728
29636.864894	-1635.278333	903.134766	3.608496
29636.864894	-1635.278333	901.965820	-36.252205
29636.864894	-1635.278333	900.796875	-73.709328
29636.864894	-1635.278333	899.626953	-301.229340
29636.864894	-1635.278333	898.457031	-184.708572
29636.864894	-1635.278333	897.287109	-198.117508
29636.864894	-1635.278333	896.117188	221.251129
29636.864894	-1635.278333	894.947266	-116.795799
29636.864894	-1635.278333	893.776367	-135.066681
29636.864894	-1635.278333	892.605469	103.762878
29636.864894	-1635.278333	891.434570	179.112991
29636.864894	-1635.278333	890.262695	-16.998606
29636.864894	-1635.278333	889.091797	113.545494
29636.864894	-1635.278333	887.919922	164.790314
29636.864894	-1635.278333	886.748047	107.978210
29636.864894	-1635.278333	885.575195	19.974495
29636.864894	-1635.278333	884.403320	-96.806480
29636.864894	-1635.278333	883.230469	-21.632349
29636.864894	-1635.278333	882.057617	17.516623
29636.864894	-1635.278333	880.883789	104.593536
29636.864894	-1635.278333	879.710938	170.042099
29636.864894	-1635.278333	878.537109	-18.635916
29636.864894	-1635.278333	877.362305	-128.163132
29636.864894	-1635.278333	876.188477	-77.128998
29636.864894	-1635.278333	875.013672	-157.885361
29636.864894	-1635.278333	873.839844	-200.304855
29636.864894	-1635.278333	872.664063	-158.909531
29636.864894	-1635.278333	871.489258	40.461399
29636.864894	-1635.278333	870.313477	-126.481552
29636.864894	-1635.278333	869.138672	-214.401947
29636.864894	-1635.278333	867.962891	80.518036
29636.864894	-1635.278333	866.786133	88.249077
29636.864894	-1635.278333	865.610352	-202.993454
29636.864894	-1635.278333	864.433594	-159.372284
29636.864894	-1635.278333	863.256836	-228.144989
29636.864894	-1635.278333	862.079102	-57.886177
29636.864894	-1635.278333	860.902344	114.674286
29636.864894	-1635.278333	859.724609	167.689926
29636.864894	-1635.278333	858.546875	41.516483
29636.864894	-1635.278333	857.368164	65.839005
29636.864894	-1635.278333	856.190430	-177.293030
29636.864894	-1635.278333	855.011719	-4.962543
29636.864894	-1635.278333	853.833008	150.574860
29636.864894	-1635.278333	852.654297	93.654976
29636.864894	-1635.278333	851.474609	122.630722
29636.864894	-1635.278333	850.294922	-67.866776
29636.864894	-1635.278333	849.115234	168.572479
29636.864894	-1635.278333	847.935547	80.633827
29636.864894	-1635.278333	846.754883	-62.113083
29636.864894	-1635.278333	845.575195	21.594246
29636.864894	-1635.278333	844.393555	-37.716652
29636.864894	-1635.278333	843.212891	-20.786631
29636.864894	-1635.278333	842.032227	-158.704330
29636.864894	-1635.278333	840.850586	-198.945175
29636.864894	-1635.278333	839.668945	-203.477631
29636.864894	-1635.278333	838.486328	-96.148247
29636.864894	-1635.278333	837.304688	315.741150
29636.864894	-1635.278333	836.122070	-69.652748
29636.864894	-1635.278333	834.939453	-21.948759
29636.864894	-1635.278333	833.756836	111.339142
29636.864894	-1635.278333	832.573242	280.219727
29636.864894	-1635.278333	831.389648	401.460876
29636.864894	-1635.278333	830.206055	23.474396
29636.864894	-1635.278333	829.022461	177.947449
29636.864894	-1635.278333	827.838867	-81.083229
29636.864894	-1635.278333	826.654297	21.041403
29636.864894	-1635.278333	825.469727	536.349060
29636.864894	-1635.278333	824.284180	82.629532
29636.864894	-1635.278333	823.099609	6.538375
29636.864894	-1635.278333	821.914063	18.276651
29636.864894	-1635.278333	820.728516	153.379929
29636.864894	-1635.278333	819.542969	117.582153
29636.864894	-1635.278333	818.356445	58.053883
29636.864894	-1635.278333	817.169922	541.608032
29636.864894	-1635.278333	815.983398	394.236389
29636.864894	-1635.278333	814.796875	90.438438
29636.864894	-1635.278333	813.609375	33.230350
29636.864894	-1635.278333	812.422852	82.646812
29636.864894	-1635.278333	811.235352	255.210739
29636.864894	-1635.278333	810.046875	408.724274
29636.864894	-1635.278333	808.859375	545.569946
29636.864894	-1635.278333	807.670898	305.873962
29636.864894	-1635.278333	806.482422	385.812683
29636.864894	-1635.278333	805.293945	378.119965
29636.864894	-1635.278333	804.104492	164.544113
29636.864894	-1635.278333	802.915039	237.269287
29636.864894	-1635.278333	801.725586	272.091858
29636.864894	-1635.278333	800.536133	425.099152
29636.864894	-1635.278333	799.345703	183.187775
29636.864894	-1635.278333	798.155273	215.534195
29636.864894	-1635.278333	796.964844	219.473770
29636.864894	-1635.278333	795.774414	140.679764
29636.864894	-1635.278333	794.583008	224.878708
29636.864894	-1635.278333	793.392578	231.065002
29636.864894	-1635.278333	792.200195	154.569672
29636.864894	-1635.278333	791.008789	130.005814
29636.864894	-1635.278333	789.816406	79.449936
29636.864894	-1635.278333	788.625000	99.668144
29636.864894	-1635.278333	787.432617	-52.390141
29636.864894	-1635.278333	786.239258	-1.567425
29636.864894	-1635.278333	785.046875	261.443573
29636.864894	-1635.278333	783.853516	172.984650
29636.864894	-1635.278333	782.660156	-2.702946
29636.864894	-1635.278333	781.465820	238.806107
29636.864894	-1635.278333	780.272461	121.999046
29636.864894	-1635.278333	779.078125	26.400970
29636.864894	-1635.278333	777.883789	105.096985
29636.864894	-1635.278333	776.688477	155.455627
29636.864894	-1635.278333	775.494141	172.784714
29636.864894	-1635.278333	774.298828	237.136398
29636.864894	-1635.278333	773.103516	364.959167
29636.864894	-1635.278333	771.907227	196.205444
29636.864894	-1635.278333	770.711914	300.359070
29636.864894	-1635.278333	769.515625	270.356628
29636.864894	-1635.278333	768.318359	242.668106
29636.864894	-1635.278333	767.122070	337.191620
29636.864894	-1635.278333	765.924805	328.199493
29636.864894	-1635.278333	764.727539	196.958862
29636.864894	-1635.278333	763.530273	248.982712
29636.864894	-1635.278333	762.333008	660.332947
29636.864894	-1635.278333	761.134766	519.547363
29636.864894	-1635.278333	759.936523	289.536011
29636.864894	-1635.278333	758.738281	449.264893
29636.864894	-1635.278333	757.540039	240.376007
29636.864894	-1635.278333	756.340820	404.623871
29636.864894	-1635.278333	755.141602	545.285706
29636.864894	-1635.278333	753.942383	397.316010
29636.864894	-1635.278333	752.742188	122.711342
29636.864894	-1635.278333	751.541992	307.710022
29636.864894	-1635.278333	750.341797	375.364166
29636.864894	-1635.278333	749.141602	164.030518
29636.864894	-1635.278333	747.941406	130.804184
29636.864894	-1635.278333	746.740234	430.189331
29636.864894	-1635.278333	745.539063	22.039768
29636.864894	-1635.278333	744.337891	91.706459
29636.864894	-1635.278333	743.135742	315.798920
29636.864894	-1635.278333	741.933594	123.079300
29636.864894	-1635.278333	740.731445	-32.181477
29636.864894	-1635.278333	739.529297	357.717133
29636.864894	-1635.278333	738.326172	-38.609673
29636.864894	-1635.278333	737.124023	456.236755
29636.864894	-1635.278333	735.919922	405.983856
29636.864894	-1635.278333	734.716797	596.475281
29636.864894	-1635.278333	733.513672	761.107422
29636.864894	-1635.278333	732.309570	502.630066
29636.864894	-1635.278333	731.105469	671.741455
29636.864894	-1635.278333	729.900391	625.808289
29636.864894	-1635.278333	728.696289	437.364990
29636.864894	-1635.278333	727.491211	368.004913
29636.864894	-1635.278333	726.286133	548.379761
29636.864894	-1635.278333	725.080078	513.881592
29636.864894	-1635.278333	723.874023	304.318359
29636.864894	-1635.278333	722.668945	209.082397
29636.864894	-1635.278333	721.461914	258.414856
29636.864894	-1635.278333	720.255859	156.077545
29636.864894	-1635.278333	719.048828	121.313591
29636.864894	-1635.278333	717.841797	328.907959
29636.864894	-1635.278333	716.634766	67.911041
29636.864894	-1635.278333	715.427734	151.783325
29636.864894	-1635.278333	714.219727	-99.909790
29636.864894	-1635.278333	713.011719	-197.863510
29636.864894	-1635.278333	711.803711	-160.800858
29636.864894	-1635.278333	710.594727	-114.525726
29636.864894	-1635.278333	709.385742	-0.850291
29636.864894	-1635.278333	708.176758	17.283724
29636.864894	-1635.278333	706.967773	-146.143524
29636.864894	-1635.278333	705.758789	69.568832
29636.864894	-1635.278333	704.548828	115.337372
29636.864894	-1635.278333	703.338867	223.780014
29636.864894	-1635.278333	702.127930	141.471420
29636.864894	-1635.278333	700.917969	117.220459
29636.864894	-1635.278333	699.707031	278.786072
29636.864894	-1635.278333	698.496094	305.454468
29636.864894	-1635.278333	697.285156	290.221558
29636.864894	-1635.278333	696.073242	144.862961
29636.864894	-1635.278333	694.861328	180.573364
29636.864894	-1635.278333	693.649414	83.876083
29636.864894	-1635.278333	692.436523	186.712601
29636.864894	-1635.278333	691.224609	263.900787
29636.864894	-1635.278333	690.011719	426.798279
29636.864894	-1635.278333	688.798828	654.481079
29636.864894	-1635.278333	687.584961	462.281097
29636.864894	-1635.278333	686.372070	518.137939
29636.864894	-1635.278333	685.158203	671.227112
29636.864894	-1635.278333	683.943359	608.653992
29636.864894	-1635.278333	682.729492	687.350830
29636.864894	-1635.278333	681.514648	819.201782
29636.864894	-1635.278333	680.299805	726.273743
29636.864894	-1635.278333	679.084961	505.953491
29636.864894	-1635.278333	677.869141	639.812927
29636.864894	-1635.278333	676.653320	400.915253
29636.864894	-1635.278333	675.437500	307.807526
29636.864894	-1635.278333	674.221680	536.218506
29636.864894	-1635.278333	673.004883	429.071442
29636.864894	-1635.278333	671.789063	511.506989
29636.864894	-1635.278333	670.571289	503.649628
29636.864894	-1635.278333	669.354492	400.947815
29636.864894	-1635.278333	668.136719	746.526794
29636.864894	-1635.278333	666.919922	592.818909
29636.864894	-1635.278333	665.701172	582.301514
29636.864894	-1635.278333	664.483398	562.474670
29636.864894	-1635.278333	663.264648	764.234741
29636.864894	-1635.278333	662.045898	559.524963
29636.864894	-1635.278333	660.827148	428.677917
29636.864894	-1635.278333	659.608398	355.494904
29636.864894	-1635.278333	658.388672	303.021820
29636.864894	-1635.278333	657.168945	501.909271
29636.864894	-1635.278333	655.949219	827.468445
29636.864894	-1635.278333	654.728516	546.430603
29636.864894	-1635.278333	653.507813	788.696655
29636.864894	-1635.278333	652.287109	401.618988
29636.864894	-1635.278333	651.066406	475.456085
29636.864894	-1635.278333	649.844727	521.538818
29636.864894	-1635.278333	648.623047	493.826996
29636.864894	-1635.278333	647.401367	491.380066
29636.864894	-1635.278333	646.179688	615.484131
29636.864894	-1635.278333	644.957031	592.147644
29636.864894	-1635.278333	643.734375	324.819031
29636.864894	-1635.278333	642.511719	287.606750
29636.864894	-1635.278333	641.289063	291.748108
29636.864894	-1635.278333	640.065430	217.618744
29636.864894	-1635.278333	638.841797	394.077545
29636.864894	-1635.278333	637.618164	400.283875
29636.864894	-1635.278333	636.393555	519.033142
29636.864894	-1635.278333	635.168945	341.249054
29636.864894	-1635.278333	633.944336	62.395672
29636.864894	-1635.278333	632.719727	238.374680
29636.864894	-1635.278333	631.494141	-100.172836
29636.864894	-1635.278333	630.269531	13.658432
29636.864894	-1635.278333	629.042969	99.826218
29636.864894	-1635.278333	627.817383	-43.581486
29636.864894	-1635.278333	626.590820	-108.981117
29636.864894	-1635.278333	625.365234	-80.345840
29636.864894	-1635.278333	624.137695	-168.755356
29636.864894	-1635.278333	622.911133	-57.683559
29636.864894	-1635.278333	621.683594	344.427521
29636.864894	-1635.278333	620.456055	235.211441
29636.864894	-1635.278333	619.228516	-18.371202
29636.864894	-1635.278333	618.000977	241.298431
29636.864894	-1635.278333	616.772461	63.316490
29636.864894	-1635.278333	615.543945	-41.347305
29636.864894	-1635.278333	614.314453	-70.460091
29636.864894	-1635.278333	613.085938	90.404404
29636.864894	-1635.278333	611.856445	-55.512466
29636.864894	-1635.278333	610.626953	41.136219
29636.864894	-1635.278333	609.397461	-214.579300
29636.864894	-1635.278333	608.166992	-220.926117
29636.864894	-1635.278333	606.936523	-176.992691
29636.864894	-1635.278333	605.706055	-25.654005
29636.864894	-1635.278333	604.474609	29.590485
29636.864894	-1635.278333	603.244141	16.241814
29636.864894	-1635.278333	602.012695	5.156531
29636.864894	-1635.278333	600.780273	-53.917213
29636.864894	-1635.278333	599.548828	145.084274
29636.864894	-1635.278333	598.316406	-53.300781
29636.864894	-1635.278333	597.083984	36.013309
29636.864894	-1635.278333	595.851563	184.618591
29636.864894	-1635.278333	594.618164	-187.099442
29636.864894	-1635.278333	593.384766	-232.437836
29636.864894	-1635.278333	592.151367	-26.870836
29636.864894	-1635.278333	590.917969	-90.470383
29636.864894	-1635.278333	589.683594	-97.052055
29636.864894	-1635.278333	588.449219	-48.920578
29636.864894	-1635.278333	587.214844	49.330715
29636.864894	-1635.278333	585.979492	-11.943731
29636.864894	-1635.278333	584.745117	181.950897
29636.864894	-1635.278333	583.509766	-63.769100
29636.864894	-1635.278333	582.273438	-17.929329
29636.864894	-1635.278333	581.038086	171.332947
29636.864894	-1635.278333	579.801758	62.378754
29636.864894	-1635.278333	578.565430	37.686604
29636.864894	-1635.278333	577.329102	97.208252
29636.864894	-1635.278333	576.091797	184.019150
29636.864894	-1635.278333	574.854492	270.826324
29636.864894	-1635.278333	573.617188	178.021027
29636.864894	-1635.278333	572.378906	255.762817
29636.864894	-1635.278333	571.141602	65.359474
29636.864894	-1635.278333	569.903320	206.791672
29636.864894	-1635.278333	568.664063	-103.842140
29636.864894	-1635.278333	567.425781	92.165962
29636.864894	-1635.278333	566.186523	174.603592
29636.864894	-1635.278333	564.947266	-8.545085
29636.864894	-1635.278333	563.708008	-14.529388
29636.864894	-1635.278333	562.467773	99.806747
29636.864894	-1635.278333	561.227539	130.212997
29636.864894	-1635.278333	559.987305	457.803314
29636.864894	-1635.278333	558.747070	-94.548584
29636.864894	-1635.278333	557.505859	246.682724
29636.864894	-1635.278333	556.264648	39.289642
29636.864894	-1635.278333	555.023438	217.321671
29636.864894	-1635.278333	553.781250	227.681351
29636.864894	-1635.278333	552.539063	346.850342
29636.864894	-1635.278333	551.296875	239.571457
29636.864894	-1635.278333	550.054688	78.079674
29636.864894	-1635.278333	548.811523	2.764083
29636.864894	-1635.278333	547.569336	201.440079
29636.864894	-1635.278333	546.325195	334.490814
29636.864894	-1635.278333	545.082031	528.668945
29636.864894	-1635.278333	543.837891	218.455582
29636.864894	-1635.278333	542.593750	453.474182
29636.864894	-1635.278333	541.349609	426.227203
29636.864894	-1635.278333	540.105469	711.037231
29636.864894	-1635.278333	538.860352	598.075195
29636.864894	-1635.278333	537.615234	738.333130
29636.864894	-1635.278333	536.369141	686.624695
29636.864894	-1635.278333	535.124023	786.378418
29636.864894	-1635.278333	533.877930	1066.842163
29636.864894	-1635.278333	532.631836	1038.023071
29636.864894	-1635.278333	531.384766	1090.584717
29636.864894	-1635.278333	530.138672	1064.274780
29636.864894	-1635.278333	528.891602	983.949341
29636.864894	-1635.278333	527.643555	463.940552
29636.864894	-1635.278333	526.396484	898.202698
29636.864894	-1635.278333	525.148438	421.533386
29636.864894	-1635.278333	523.900391	619.192688
29636.864894	-1635.278333	522.652344	645.623718
29636.864894	-1635.278333	521.403320	208.023346
29636.864894	-1635.278333	520.154297	119.914719
29636.864894	-1635.278333	518.905273	2.705555
29636.864894	-1635.278333	517.656250	-76.032516
29636.864894	-1635.278333	516.406250	57.018597
29636.864894	-1635.278333	515.156250	66.365700
29636.864894	-1635.278333	513.906250	233.373138
29636.864894	-1635.278333	512.655273	238.468430
29636.864894	-1635.278333	511.404297	225.712448
29636.864894	-1635.278333	510.153320	545.937988
29636.864894	-1635.278333	508.902344	-127.594566
29636.864894	-1635.278333	507.650391	154.651749
29636.864894	-1635.278333	506.398438	0.934136
29636.864894	-1635.278333	505.146484	60.889614
29636.864894	-1635.278333	503.893555	-27.296444
29636.864894	-1635.278333	502.641602	120.531090
29636.864894	-1635.278333	501.388672	320.090302
29636.864894	-1635.278333	500.134766	-70.712425
29636.864894	-1635.278333	498.881836	277.237823
29636.864894	-1635.278333	497.627930	118.046158
29636.864894	-1635.278333	496.374023	448.157166
29636.864894	-1635.278333	495.119141	293.779480
29636.864894	-1635.278333	493.865234	310.049927
29636.864894	-1635.278333	492.610352	582.056274
29636.864894	-1635.278333	491.355469	446.122833
29636.864894	-1635.278333	490.099609	731.719788
29636.864894	-1635.278333	488.843750	369.795776
29636.864894	-1635.278333	487.587891	386.753265
29636.864894	-1635.278333	486.332031	661.402588
29636.864894	-1635.278333	485.075195	938.307312
29636.864894	-1635.278333	483.818359	944.348511
29636.864894	-1635.278333	482.561523	802.796875
29636.864894	-1635.278333	481.304688	1061.985352
29636.864894	-1635.278333	480.046875	938.621582
29636.864894	-1635.278333	478.789063	1048.057983
29636.864894	-1635.278333	477.531250	784.105286
29636.864894	-1635.278333	476.272461	963.070374
29636.864894	-1635.278333	475.013672	929.716614
29636.864894	-1635.278333	473.754883	880.838440
29636.864894	-1635.278333	472.496094	597.478149
29636.864894	-1635.278333	471.236328	620.375244
29636.864894	-1635.278333	469.976563	824.260620
29636.864894	-1635.278333	468.716797	1108.531006
29636.864894	-1635.278333	467.456055	912.788757
29636.864894	-1635.278333	466.196289	1114.489380
29636.864894	-1635.278333	464.935547	1046.166870
29636.864894	-1635.278333	463.673828	1140.798950
29636.864894	-1635.278333	462.413086	1094.921875
29636.864894	-1635.278333	461.151367	1327.865967
29636.864894	-1635.278333	459.889648	1103.694946
29636.864894	-1635.278333	458.626953	1367.815430
29636.864894	-1635.278333	457.364258	992.247742
29636.864894	-1635.278333	456.101563	1329.842163
29636.864894	-1635.278333	454.838867	1373.253662
29636.864894	-1635.278333	453.575195	1245.155151
29636.864894	-1635.278333	452.312500	1529.025024
29636.864894	-1635.278333	451.047852	1387.552979
29636.864894	-1635.278333	449.784180	1461.996948
29636.864894	-1635.278333	448.519531	1478.507568
29636.864894	-1635.278333	447.254883	1377.042969
29636.864894	-1635.278333	445.990234	1844.956299
29636.864894	-1635.278333	444.725586	1870.057251
29636.864894	-1635.278333	443.459961	2086.251465
29636.864894	-1635.278333	442.194336	1891.028564
29636.864894	-1635.278333	440.927734	1717.988159
29636.864894	-1635.278333	439.662109	1791.507690
29636.864894	-1635.278333	438.395508	1913.711426
29636.864894	-1635.278333	437.127930	2142.296387
29636.864894	-1635.278333	435.861328	1602.342041
29636.864894	-1635.278333	434.593750	1755.029053
29636.864894	-1635.278333	433.326172	1732.098145
29636.864894	-1635.278333	432.058594	1842.076416
29636.864894	-1635.278333	430.790039	1714.374756
29636.864894	-1635.278333	429.521484	1905.843628
29636.864894	-1635.278333	428.252930	1828.616211
29636.864894	-1635.278333	426.984375	1994.980957
29636.864894	-1635.278333	425.714844	2203.052246
29636.864894	-1635.278333	424.445313	2138.100830
29636.864894	-1635.278333	423.174805	2214.591064
29636.864894	-1635.278333	421.905273	2350.457520
29636.864894	-1635.278333	420.634766	2443.758301
29636.864894	-1635.278333	419.364258	2239.875488
29636.864894	-1635.278333	418.092773	2451.767578
29636.864894	-1635.278333	416.822266	2306.751953
29636.864894	-1635.278333	415.550781	2114.798828
29636.864894	-1635.278333	414.278320	1913.520264
29636.864894	-1635.278333	413.006836	1576.836060
29636.864894	-1635.278333	411.734375	1852.199463
29636.864894	-1635.278333	410.461914	2018.473022
29636.864894	-1635.278333	409.188477	1896.658813
29636.864894	-1635.278333	407.916016	2229.421143
29636.864894	-1635.278333	406.642578	1814.542114
29636.864894	-1635.278333	405.368164	1840.835083
29636.864894	-1635.278333	404.094727	1914.908447
29636.864894	-1635.278333	402.820313	2136.032227
29636.864894	-1635.278333	401.545898	1707.203369
29636.864894	-1635.278333	400.270508	1723.442993
29636.864894	-1635.278333	398.996094	1796.106934
29636.864894	-1635.278333	397.720703	1821.413452
29636.864894	-1635.278333	396.444336	1894.192139
29636.864894	-1635.278333	395.168945	2148.900391
29636.864894	-1635.278333	393.892578	2023.191772
29636.864894	-1635.278333	392.616211	1955.897339
29636.864894	-1635.278333	391.339844	1960.153931
29636.864894	-1635.278333	390.062500	1811.133789
29636.864894	-1635.278333	388.785156	1905.384033
29636.864894	-1635.278333	387.507813	2075.334961
29636.864894	-1635.278333	386.229492	1931.168335
29636.864894	-1635.278333	384.951172	1902.295898
29636.864894	-1635.278333	383.672852	1660.681641
29636.864894	-1635.278333	382.394531	1870.886108
29636.864894	-1635.278333	381.115234	1907.804199
29636.864894	-1635.278333	379.835938	1892.476318
29636.864894	-1635.278333	378.556641	1939.222900
29636.864894	-1635.278333	377.277344	1836.902222
29636.864894	-1635.278333	375.997070	1908.611816
29636.864894	-1635.278333	374.716797	1789.438843
29636.864894	-1635.278333	373.435547	1808.947754
29636.864894	-1635.278333	372.155273	1567.304321
29636.864894	-1635.278333	370.874023	1569.614624
29636.864894	-1635.278333	369.591797	1532.431152
29636.864894	-1635.278333	368.310547	1923.321289
29636.864894	-1635.278333	367.028320	1635.828491
29636.864894	-1635.278333	365.746094	1815.647949
29636.864894	-1635.278333	364.463867	1578.401245
29636.864894	-1635.278333	363.180664	1669.883667
29636.864894	-1635.278333	361.897461	1717.111206
29636.864894	-1635.278333	360.614258	1509.591553
29636.864894	-1635.278333	359.330078	1853.884521
29636.864894	-1635.278333	358.045898	1509.403564
29636.864894	-1635.278333	356.761719	1468.895508
29636.864894	-1635.278333	355.477539	1572.191406
29636.864894	-1635.278333	354.192383	1385.489990
29636.864894	-1635.278333	352.907227	1211.063599
29636.864894	-1635.278333	351.622070	1258.941406
29636.864894	-1635.278333	350.336914	1520.133179
29636.864894	-1635.278333	349.050781	1077.640503
29636.864894	-1635.278333	347.764648	957.759766
29636.864894	-1635.278333	346.477539	1146.983398
29636.864894	-1635.278333	345.191406	893.050903
29636.864894	-1635.278333	343.904297	1081.282349
29636.864894	-1635.278333	342.616211	1084.063843
29636.864894	-1635.278333	341.329102	999.901733
29636.864894	-1635.278333	340.041016	760.856262
29636.864894	-1635.278333	338.752930	808.172180
29636.864894	-1635.278333	337.463867	591.205139
29636.864894	-1635.278333	336.175781	712.732117
29636.864894	-1635.278333	334.886719	798.994080
29636.864894	-1635.278333	333.596680	570.581360
29636.864894	-1635.278333	332.307617	557.927307
29636.864894	-1635.278333	331.017578	662.393616
29636.864894	-1635.278333	329.727539	325.642700
29636.864894	-1635.278333	328.436523	369.639618
29636.864894	-1635.278333	327.146484	680.908447
29636.864894	-1635.278333	325.855469	284.769043
29636.864894	-1635.278333	324.563477	105.334435
29636.864894	-1635.278333	323.272461	282.006958
29636.864894	-1635.278333	321.980469	34.476395
29636.864894	-1635.278333	320.688477	382.013031
29636.864894	-1635.278333	319.395508	-38.791862
29636.864894	-1635.278333	318.103516	-67.260933
29636.864894	-1635.278333	316.810547	93.524361
29636.864894	-1635.278333	315.516602	-50.550423
29636.864894	-1635.278333	314.223633	-246.814743
29636.864894	-1635.278333	312.929688	-73.883926
29636.864894	-1635.278333	311.635742	-140.718460
29636.864894	-1635.278333	310.340820	-4.112044
29636.864894	-1635.278333	309.045898	83.738876
29636.864894	-1635.278333	307.750977	300.844055
29636.864894	-1635.278333	306.456055	36.583382
29636.864894	-1635.278333	305.160156	63.987545
29636.864894	-1635.278333	303.865234	-44.617485
29636.864894	-1635.278333	302.568359	187.568146
29636.864894	-1635.278333	301.272461	183.515747
29636.864894	-1635.278333	299.975586	430.924438
29636.864894	-1635.278333	298.678711	196.451065
