#X		#Y		#Wave		#Intensity
29685.876596	-1296.588333	1999.980469	17.749229
29685.876596	-1296.588333	1999.016602	-54.545830
29685.876596	-1296.588333	1998.052734	-18.494463
29685.876596	-1296.588333	1997.087891	-44.420864
29685.876596	-1296.588333	1996.123047	26.281538
29685.876596	-1296.588333	1995.158203	39.971832
29685.876596	-1296.588333	1994.193359	26.403622
29685.876596	-1296.588333	1993.228516	-16.884100
29685.876596	-1296.588333	1992.262695	14.110313
29685.876596	-1296.588333	1991.297852	57.462185
29685.876596	-1296.588333	1990.332031	33.967331
29685.876596	-1296.588333	1989.366211	-1.898283
29685.876596	-1296.588333	1988.399414	135.421356
29685.876596	-1296.588333	1987.433594	-4.352151
29685.876596	-1296.588333	1986.466797	53.765633
29685.876596	-1296.588333	1985.500977	20.369841
29685.876596	-1296.588333	1984.534180	-79.768257
29685.876596	-1296.588333	1983.567383	-14.270363
29685.876596	-1296.588333	1982.599609	127.806175
29685.876596	-1296.588333	1981.632813	-6.902003
29685.876596	-1296.588333	1980.665039	36.298668
29685.876596	-1296.588333	1979.697266	-66.243073
29685.876596	-1296.588333	1978.729492	36.210369
29685.876596	-1296.588333	1977.761719	138.622406
29685.876596	-1296.588333	1976.792969	16.360199
29685.876596	-1296.588333	1975.825195	42.222725
29685.876596	-1296.588333	1974.856445	-3.487162
29685.876596	-1296.588333	1973.887695	86.508690
29685.876596	-1296.588333	1972.918945	18.603106
29685.876596	-1296.588333	1971.949219	-61.610744
29685.876596	-1296.588333	1970.980469	-16.043362
29685.876596	-1296.588333	1970.010742	17.178850
29685.876596	-1296.588333	1969.041016	-65.459442
29685.876596	-1296.588333	1968.071289	-76.601585
29685.876596	-1296.588333	1967.101563	3.424253
29685.876596	-1296.588333	1966.130859	-54.534168
29685.876596	-1296.588333	1965.161133	-13.951104
29685.876596	-1296.588333	1964.190430	-44.797737
29685.876596	-1296.588333	1963.219727	-55.936359
29685.876596	-1296.588333	1962.249023	33.855846
29685.876596	-1296.588333	1961.277344	67.007179
29685.876596	-1296.588333	1960.306641	4.179826
29685.876596	-1296.588333	1959.334961	91.450661
29685.876596	-1296.588333	1958.363281	36.021816
29685.876596	-1296.588333	1957.391602	78.987656
29685.876596	-1296.588333	1956.419922	16.206703
29685.876596	-1296.588333	1955.447266	34.577194
29685.876596	-1296.588333	1954.474609	146.344681
29685.876596	-1296.588333	1953.501953	68.843750
29685.876596	-1296.588333	1952.529297	47.885281
29685.876596	-1296.588333	1951.556641	24.479137
29685.876596	-1296.588333	1950.583984	37.925457
29685.876596	-1296.588333	1949.610352	44.000622
29685.876596	-1296.588333	1948.636719	-3.939754
29685.876596	-1296.588333	1947.663086	83.151276
29685.876596	-1296.588333	1946.689453	106.399994
29685.876596	-1296.588333	1945.715820	70.749336
29685.876596	-1296.588333	1944.741211	76.820885
29685.876596	-1296.588333	1943.767578	73.081100
29685.876596	-1296.588333	1942.792969	-38.565048
29685.876596	-1296.588333	1941.818359	-79.058868
29685.876596	-1296.588333	1940.842773	30.009281
29685.876596	-1296.588333	1939.868164	16.484261
29685.876596	-1296.588333	1938.892578	64.231964
29685.876596	-1296.588333	1937.916992	-44.848614
29685.876596	-1296.588333	1936.941406	-82.843895
29685.876596	-1296.588333	1935.965820	-96.330032
29685.876596	-1296.588333	1934.990234	-46.139557
29685.876596	-1296.588333	1934.013672	43.207985
29685.876596	-1296.588333	1933.037109	-21.694372
29685.876596	-1296.588333	1932.060547	18.670456
29685.876596	-1296.588333	1931.083984	147.114456
29685.876596	-1296.588333	1930.107422	-3.393865
29685.876596	-1296.588333	1929.129883	127.455986
29685.876596	-1296.588333	1928.153320	-22.988337
29685.876596	-1296.588333	1927.175781	105.375412
29685.876596	-1296.588333	1926.198242	11.223480
29685.876596	-1296.588333	1925.219727	27.100252
29685.876596	-1296.588333	1924.242188	3.872396
29685.876596	-1296.588333	1923.263672	17.304749
29685.876596	-1296.588333	1922.285156	35.619919
29685.876596	-1296.588333	1921.306641	-14.458520
29685.876596	-1296.588333	1920.328125	-76.726524
29685.876596	-1296.588333	1919.349609	88.093193
29685.876596	-1296.588333	1918.370117	111.269608
29685.876596	-1296.588333	1917.391602	51.458397
29685.876596	-1296.588333	1916.412109	-69.333900
29685.876596	-1296.588333	1915.431641	22.174873
29685.876596	-1296.588333	1914.452148	-22.947279
29685.876596	-1296.588333	1913.472656	49.011242
29685.876596	-1296.588333	1912.492188	-64.370773
29685.876596	-1296.588333	1911.511719	-19.246746
29685.876596	-1296.588333	1910.531250	145.295822
29685.876596	-1296.588333	1909.550781	66.079826
29685.876596	-1296.588333	1908.569336	-27.725603
29685.876596	-1296.588333	1907.588867	-6.999533
29685.876596	-1296.588333	1906.607422	3.976247
29685.876596	-1296.588333	1905.625977	-48.365780
29685.876596	-1296.588333	1904.644531	45.394447
29685.876596	-1296.588333	1903.662109	58.789310
29685.876596	-1296.588333	1902.680664	89.215851
29685.876596	-1296.588333	1901.698242	-77.469780
29685.876596	-1296.588333	1900.715820	-20.267979
29685.876596	-1296.588333	1899.733398	61.236656
29685.876596	-1296.588333	1898.750000	-64.008217
29685.876596	-1296.588333	1897.767578	44.219875
29685.876596	-1296.588333	1896.784180	-49.372353
29685.876596	-1296.588333	1895.800781	34.504494
29685.876596	-1296.588333	1894.817383	33.293636
29685.876596	-1296.588333	1893.833984	73.386787
29685.876596	-1296.588333	1892.850586	33.298698
29685.876596	-1296.588333	1891.866211	39.370811
29685.876596	-1296.588333	1890.881836	57.580990
29685.876596	-1296.588333	1889.897461	39.364388
29685.876596	-1296.588333	1888.913086	16.298014
29685.876596	-1296.588333	1887.927734	-33.459080
29685.876596	-1296.588333	1886.943359	-75.919533
29685.876596	-1296.588333	1885.958008	39.327915
29685.876596	-1296.588333	1884.972656	-37.093853
29685.876596	-1296.588333	1883.987305	-18.908377
29685.876596	-1296.588333	1883.001953	-27.404142
29685.876596	-1296.588333	1882.015625	90.161377
29685.876596	-1296.588333	1881.029297	-49.243233
29685.876596	-1296.588333	1880.042969	70.699501
29685.876596	-1296.588333	1879.056641	8.876861
29685.876596	-1296.588333	1878.070313	-31.124146
29685.876596	-1296.588333	1877.083984	54.829620
29685.876596	-1296.588333	1876.096680	94.737495
29685.876596	-1296.588333	1875.109375	54.731167
29685.876596	-1296.588333	1874.122070	-11.891443
29685.876596	-1296.588333	1873.134766	71.557251
29685.876596	-1296.588333	1872.146484	21.885406
29685.876596	-1296.588333	1871.159180	-10.837269
29685.876596	-1296.588333	1870.170898	79.806236
29685.876596	-1296.588333	1869.182617	112.370476
29685.876596	-1296.588333	1868.194336	115.902153
29685.876596	-1296.588333	1867.205078	10.641775
29685.876596	-1296.588333	1866.216797	9.346591
29685.876596	-1296.588333	1865.227539	0.796112
29685.876596	-1296.588333	1864.238281	-15.005384
29685.876596	-1296.588333	1863.249023	5.427526
29685.876596	-1296.588333	1862.259766	-7.965870
29685.876596	-1296.588333	1861.269531	0.371545
29685.876596	-1296.588333	1860.279297	64.227272
29685.876596	-1296.588333	1859.290039	33.913979
29685.876596	-1296.588333	1858.298828	88.072083
29685.876596	-1296.588333	1857.308594	98.770538
29685.876596	-1296.588333	1856.318359	8.134578
29685.876596	-1296.588333	1855.327148	74.305260
29685.876596	-1296.588333	1854.335938	-13.896183
29685.876596	-1296.588333	1853.344727	-20.094681
29685.876596	-1296.588333	1852.353516	-40.762814
29685.876596	-1296.588333	1851.362305	18.105108
29685.876596	-1296.588333	1850.370117	-60.413116
29685.876596	-1296.588333	1849.377930	-49.766735
29685.876596	-1296.588333	1848.385742	86.126358
29685.876596	-1296.588333	1847.393555	142.483292
29685.876596	-1296.588333	1846.401367	92.860756
29685.876596	-1296.588333	1845.408203	-14.532603
29685.876596	-1296.588333	1844.415039	-6.357429
29685.876596	-1296.588333	1843.421875	100.474495
29685.876596	-1296.588333	1842.428711	137.479355
29685.876596	-1296.588333	1841.435547	25.308609
29685.876596	-1296.588333	1840.441406	6.973066
29685.876596	-1296.588333	1839.448242	164.182037
29685.876596	-1296.588333	1838.454102	145.806915
29685.876596	-1296.588333	1837.459961	67.331200
29685.876596	-1296.588333	1836.464844	-20.739958
29685.876596	-1296.588333	1835.470703	-19.879045
29685.876596	-1296.588333	1834.475586	38.629990
29685.876596	-1296.588333	1833.480469	-15.790609
29685.876596	-1296.588333	1832.485352	25.861687
29685.876596	-1296.588333	1831.490234	-9.349803
29685.876596	-1296.588333	1830.495117	29.861876
29685.876596	-1296.588333	1829.499023	-46.165657
29685.876596	-1296.588333	1828.502930	-26.185150
29685.876596	-1296.588333	1827.506836	87.349876
29685.876596	-1296.588333	1826.510742	40.104561
29685.876596	-1296.588333	1825.513672	33.636929
29685.876596	-1296.588333	1824.517578	87.109261
29685.876596	-1296.588333	1823.520508	-5.701341
29685.876596	-1296.588333	1822.523438	9.378478
29685.876596	-1296.588333	1821.526367	-6.716613
29685.876596	-1296.588333	1820.529297	106.574280
29685.876596	-1296.588333	1819.531250	-14.972620
29685.876596	-1296.588333	1818.533203	57.529488
29685.876596	-1296.588333	1817.535156	79.699104
29685.876596	-1296.588333	1816.537109	73.114471
29685.876596	-1296.588333	1815.539063	68.911919
29685.876596	-1296.588333	1814.540039	-62.157272
29685.876596	-1296.588333	1813.541992	122.685905
29685.876596	-1296.588333	1812.542969	-25.120564
29685.876596	-1296.588333	1811.543945	-26.967875
29685.876596	-1296.588333	1810.543945	19.002621
29685.876596	-1296.588333	1809.544922	129.504379
29685.876596	-1296.588333	1808.544922	36.734562
29685.876596	-1296.588333	1807.544922	-39.283176
29685.876596	-1296.588333	1806.544922	-12.524298
29685.876596	-1296.588333	1805.544922	222.086029
29685.876596	-1296.588333	1804.544922	105.418053
29685.876596	-1296.588333	1803.543945	89.093750
29685.876596	-1296.588333	1802.542969	115.744057
29685.876596	-1296.588333	1801.541992	108.942574
29685.876596	-1296.588333	1800.541016	-7.680420
29685.876596	-1296.588333	1799.539063	200.311691
29685.876596	-1296.588333	1798.538086	-4.607763
29685.876596	-1296.588333	1797.536133	110.226807
29685.876596	-1296.588333	1796.534180	55.643448
29685.876596	-1296.588333	1795.532227	1.063940
29685.876596	-1296.588333	1794.529297	29.941685
29685.876596	-1296.588333	1793.527344	23.033373
29685.876596	-1296.588333	1792.524414	85.231506
29685.876596	-1296.588333	1791.521484	152.154984
29685.876596	-1296.588333	1790.518555	207.122574
29685.876596	-1296.588333	1789.514648	9.541460
29685.876596	-1296.588333	1788.511719	243.109177
29685.876596	-1296.588333	1787.507813	138.430237
29685.876596	-1296.588333	1786.503906	-18.604385
29685.876596	-1296.588333	1785.500000	55.297695
29685.876596	-1296.588333	1784.496094	0.638605
29685.876596	-1296.588333	1783.491211	-46.880604
29685.876596	-1296.588333	1782.486328	62.614510
29685.876596	-1296.588333	1781.481445	53.122414
29685.876596	-1296.588333	1780.476563	55.506065
29685.876596	-1296.588333	1779.471680	55.492943
29685.876596	-1296.588333	1778.465820	31.688076
29685.876596	-1296.588333	1777.460938	-56.296795
29685.876596	-1296.588333	1776.455078	86.232582
29685.876596	-1296.588333	1775.449219	-20.774994
29685.876596	-1296.588333	1774.442383	-99.257278
29685.876596	-1296.588333	1773.436523	-51.854584
29685.876596	-1296.588333	1772.429688	28.752459
29685.876596	-1296.588333	1771.422852	-94.857635
29685.876596	-1296.588333	1770.416016	80.632950
29685.876596	-1296.588333	1769.409180	78.052299
29685.876596	-1296.588333	1768.402344	80.199196
29685.876596	-1296.588333	1767.394531	13.529333
29685.876596	-1296.588333	1766.386719	-29.416273
29685.876596	-1296.588333	1765.378906	36.716591
29685.876596	-1296.588333	1764.371094	-32.335297
29685.876596	-1296.588333	1763.362305	140.402252
29685.876596	-1296.588333	1762.354492	-44.810993
29685.876596	-1296.588333	1761.345703	49.630341
29685.876596	-1296.588333	1760.336914	46.883354
29685.876596	-1296.588333	1759.328125	82.016388
29685.876596	-1296.588333	1758.318359	124.219376
29685.876596	-1296.588333	1757.308594	-20.664490
29685.876596	-1296.588333	1756.299805	7.300835
29685.876596	-1296.588333	1755.290039	4.465407
29685.876596	-1296.588333	1754.279297	-3.122986
29685.876596	-1296.588333	1753.269531	183.279892
29685.876596	-1296.588333	1752.258789	17.133358
29685.876596	-1296.588333	1751.249023	52.060154
29685.876596	-1296.588333	1750.238281	-19.453606
29685.876596	-1296.588333	1749.226563	-114.603775
29685.876596	-1296.588333	1748.215820	-53.732353
29685.876596	-1296.588333	1747.204102	68.537788
29685.876596	-1296.588333	1746.193359	51.340313
29685.876596	-1296.588333	1745.181641	-41.467247
29685.876596	-1296.588333	1744.168945	99.564781
29685.876596	-1296.588333	1743.157227	157.875336
29685.876596	-1296.588333	1742.144531	-48.287510
29685.876596	-1296.588333	1741.132813	17.071419
29685.876596	-1296.588333	1740.120117	-12.019612
29685.876596	-1296.588333	1739.106445	29.666906
29685.876596	-1296.588333	1738.093750	57.165333
29685.876596	-1296.588333	1737.080078	86.990166
29685.876596	-1296.588333	1736.067383	41.321827
29685.876596	-1296.588333	1735.053711	5.079532
29685.876596	-1296.588333	1734.040039	-80.672592
29685.876596	-1296.588333	1733.025391	-32.069958
29685.876596	-1296.588333	1732.011719	25.923248
29685.876596	-1296.588333	1730.997070	17.904081
29685.876596	-1296.588333	1729.982422	59.334938
29685.876596	-1296.588333	1728.967773	44.208057
29685.876596	-1296.588333	1727.952148	-10.964827
29685.876596	-1296.588333	1726.937500	-40.236828
29685.876596	-1296.588333	1725.921875	34.046806
29685.876596	-1296.588333	1724.906250	-84.689995
29685.876596	-1296.588333	1723.890625	-29.288000
29685.876596	-1296.588333	1722.875000	2.549249
29685.876596	-1296.588333	1721.858398	43.761131
29685.876596	-1296.588333	1720.841797	-27.935381
29685.876596	-1296.588333	1719.825195	-64.357117
29685.876596	-1296.588333	1718.808594	-42.018642
29685.876596	-1296.588333	1717.791992	-76.111298
29685.876596	-1296.588333	1716.774414	117.709991
29685.876596	-1296.588333	1715.756836	57.717476
29685.876596	-1296.588333	1714.739258	-37.502838
29685.876596	-1296.588333	1713.721680	-29.377613
29685.876596	-1296.588333	1712.704102	63.251438
29685.876596	-1296.588333	1711.685547	115.916809
29685.876596	-1296.588333	1710.667969	-23.909121
29685.876596	-1296.588333	1709.649414	77.993805
29685.876596	-1296.588333	1708.630859	81.302757
29685.876596	-1296.588333	1707.611328	98.663460
29685.876596	-1296.588333	1706.592773	17.502504
29685.876596	-1296.588333	1705.573242	-49.578693
29685.876596	-1296.588333	1704.553711	-55.700272
29685.876596	-1296.588333	1703.534180	15.510925
29685.876596	-1296.588333	1702.513672	-105.486946
29685.876596	-1296.588333	1701.494141	24.245590
29685.876596	-1296.588333	1700.473633	-28.809361
29685.876596	-1296.588333	1699.453125	-39.703480
29685.876596	-1296.588333	1698.432617	66.470093
29685.876596	-1296.588333	1697.412109	76.597710
29685.876596	-1296.588333	1696.390625	60.953365
29685.876596	-1296.588333	1695.369141	3.173436
29685.876596	-1296.588333	1694.347656	-35.882576
29685.876596	-1296.588333	1693.326172	98.173157
29685.876596	-1296.588333	1692.304688	218.127380
29685.876596	-1296.588333	1691.282227	-92.263542
29685.876596	-1296.588333	1690.260742	104.803482
29685.876596	-1296.588333	1689.238281	30.616430
29685.876596	-1296.588333	1688.214844	89.654884
29685.876596	-1296.588333	1687.192383	-40.613419
29685.876596	-1296.588333	1686.168945	16.048145
29685.876596	-1296.588333	1685.146484	72.675247
29685.876596	-1296.588333	1684.123047	-27.205517
29685.876596	-1296.588333	1683.099609	3.690385
29685.876596	-1296.588333	1682.075195	62.568909
29685.876596	-1296.588333	1681.051758	-18.625957
29685.876596	-1296.588333	1680.027344	56.539036
29685.876596	-1296.588333	1679.002930	-71.318527
29685.876596	-1296.588333	1677.978516	143.756104
29685.876596	-1296.588333	1676.953125	46.216881
29685.876596	-1296.588333	1675.928711	9.329711
29685.876596	-1296.588333	1674.903320	75.015511
29685.876596	-1296.588333	1673.877930	26.451031
29685.876596	-1296.588333	1672.852539	129.366409
29685.876596	-1296.588333	1671.826172	6.221419
29685.876596	-1296.588333	1670.800781	46.177101
29685.876596	-1296.588333	1669.774414	62.810524
29685.876596	-1296.588333	1668.748047	158.596344
29685.876596	-1296.588333	1667.721680	119.299889
29685.876596	-1296.588333	1666.694336	-122.506836
29685.876596	-1296.588333	1665.667969	3.474555
29685.876596	-1296.588333	1664.640625	92.162811
29685.876596	-1296.588333	1663.613281	57.507767
29685.876596	-1296.588333	1662.585938	34.483723
29685.876596	-1296.588333	1661.557617	125.399467
29685.876596	-1296.588333	1660.530273	102.346954
29685.876596	-1296.588333	1659.501953	149.024628
29685.876596	-1296.588333	1658.473633	84.115768
29685.876596	-1296.588333	1657.444336	137.723587
29685.876596	-1296.588333	1656.416016	77.465958
29685.876596	-1296.588333	1655.386719	86.899689
29685.876596	-1296.588333	1654.358398	119.545547
29685.876596	-1296.588333	1653.328125	189.310318
29685.876596	-1296.588333	1652.298828	212.613785
29685.876596	-1296.588333	1651.269531	182.515671
29685.876596	-1296.588333	1650.239258	166.338364
29685.876596	-1296.588333	1649.208984	226.719818
29685.876596	-1296.588333	1648.178711	273.150452
29685.876596	-1296.588333	1647.148438	263.893707
29685.876596	-1296.588333	1646.117188	57.537533
29685.876596	-1296.588333	1645.086914	168.857254
29685.876596	-1296.588333	1644.055664	189.726883
29685.876596	-1296.588333	1643.024414	189.723892
29685.876596	-1296.588333	1641.992188	249.947952
29685.876596	-1296.588333	1640.960938	150.308243
29685.876596	-1296.588333	1639.928711	291.561066
29685.876596	-1296.588333	1638.896484	263.715027
29685.876596	-1296.588333	1637.864258	219.666367
29685.876596	-1296.588333	1636.832031	175.627213
29685.876596	-1296.588333	1635.798828	251.934036
29685.876596	-1296.588333	1634.766602	337.462402
29685.876596	-1296.588333	1633.733398	323.474854
29685.876596	-1296.588333	1632.699219	156.832962
29685.876596	-1296.588333	1631.666016	334.803894
29685.876596	-1296.588333	1630.632813	272.254364
29685.876596	-1296.588333	1629.598633	285.999878
29685.876596	-1296.588333	1628.564453	366.755188
29685.876596	-1296.588333	1627.530273	281.108887
29685.876596	-1296.588333	1626.495117	276.343231
29685.876596	-1296.588333	1625.460938	273.887543
29685.876596	-1296.588333	1624.425781	312.991669
29685.876596	-1296.588333	1623.390625	432.885040
29685.876596	-1296.588333	1622.355469	368.056610
29685.876596	-1296.588333	1621.319336	453.261353
29685.876596	-1296.588333	1620.284180	406.906616
29685.876596	-1296.588333	1619.248047	459.764648
29685.876596	-1296.588333	1618.211914	418.028320
29685.876596	-1296.588333	1617.174805	486.996429
29685.876596	-1296.588333	1616.138672	364.565674
29685.876596	-1296.588333	1615.101563	465.785156
29685.876596	-1296.588333	1614.065430	477.078918
29685.876596	-1296.588333	1613.027344	389.272125
29685.876596	-1296.588333	1611.990234	317.628479
29685.876596	-1296.588333	1610.953125	326.631317
29685.876596	-1296.588333	1609.915039	243.505295
29685.876596	-1296.588333	1608.876953	326.194244
29685.876596	-1296.588333	1607.838867	383.526489
29685.876596	-1296.588333	1606.800781	436.232239
29685.876596	-1296.588333	1605.761719	495.816956
29685.876596	-1296.588333	1604.723633	233.275864
29685.876596	-1296.588333	1603.684570	421.693268
29685.876596	-1296.588333	1602.644531	405.346283
29685.876596	-1296.588333	1601.605469	485.584717
29685.876596	-1296.588333	1600.566406	499.122864
29685.876596	-1296.588333	1599.526367	427.607819
29685.876596	-1296.588333	1598.486328	287.179626
29685.876596	-1296.588333	1597.446289	477.664215
29685.876596	-1296.588333	1596.405273	424.572388
29685.876596	-1296.588333	1595.365234	362.320313
29685.876596	-1296.588333	1594.324219	309.275482
29685.876596	-1296.588333	1593.283203	235.591690
29685.876596	-1296.588333	1592.242188	402.952759
29685.876596	-1296.588333	1591.200195	294.856781
29685.876596	-1296.588333	1590.159180	292.355621
29685.876596	-1296.588333	1589.117188	338.029297
29685.876596	-1296.588333	1588.075195	337.817139
29685.876596	-1296.588333	1587.032227	385.761230
29685.876596	-1296.588333	1585.990234	358.034973
29685.876596	-1296.588333	1584.947266	417.425446
29685.876596	-1296.588333	1583.904297	456.170807
29685.876596	-1296.588333	1582.861328	371.174133
29685.876596	-1296.588333	1581.818359	464.903931
29685.876596	-1296.588333	1580.775391	302.073822
29685.876596	-1296.588333	1579.731445	315.638000
29685.876596	-1296.588333	1578.687500	358.966492
29685.876596	-1296.588333	1577.643555	180.242142
29685.876596	-1296.588333	1576.598633	241.898193
29685.876596	-1296.588333	1575.554688	308.115753
29685.876596	-1296.588333	1574.509766	326.268433
29685.876596	-1296.588333	1573.464844	287.237854
29685.876596	-1296.588333	1572.419922	225.361694
29685.876596	-1296.588333	1571.374023	286.978516
29685.876596	-1296.588333	1570.329102	236.571075
29685.876596	-1296.588333	1569.283203	284.464203
29685.876596	-1296.588333	1568.237305	231.804718
29685.876596	-1296.588333	1567.191406	167.750534
29685.876596	-1296.588333	1566.144531	233.923965
29685.876596	-1296.588333	1565.098633	318.353058
29685.876596	-1296.588333	1564.051758	258.908691
29685.876596	-1296.588333	1563.004883	245.154083
29685.876596	-1296.588333	1561.957031	315.857544
29685.876596	-1296.588333	1560.910156	213.121323
29685.876596	-1296.588333	1559.862305	242.757233
29685.876596	-1296.588333	1558.814453	158.340164
29685.876596	-1296.588333	1557.766602	258.693634
29685.876596	-1296.588333	1556.718750	194.849045
29685.876596	-1296.588333	1555.669922	178.910309
29685.876596	-1296.588333	1554.621094	279.229584
29685.876596	-1296.588333	1553.573242	117.464226
29685.876596	-1296.588333	1552.523438	322.579163
29685.876596	-1296.588333	1551.474609	238.337433
29685.876596	-1296.588333	1550.424805	349.996887
29685.876596	-1296.588333	1549.375000	418.361786
29685.876596	-1296.588333	1548.325195	302.312714
29685.876596	-1296.588333	1547.275391	67.965637
29685.876596	-1296.588333	1546.225586	238.788040
29685.876596	-1296.588333	1545.174805	307.169556
29685.876596	-1296.588333	1544.124023	104.842590
29685.876596	-1296.588333	1543.073242	118.667236
29685.876596	-1296.588333	1542.022461	234.823395
29685.876596	-1296.588333	1540.970703	125.878448
29685.876596	-1296.588333	1539.919922	232.924347
29685.876596	-1296.588333	1538.868164	180.864243
29685.876596	-1296.588333	1537.815430	319.688599
29685.876596	-1296.588333	1536.763672	265.390167
29685.876596	-1296.588333	1535.710938	145.261307
29685.876596	-1296.588333	1534.659180	259.081787
29685.876596	-1296.588333	1533.606445	157.194885
29685.876596	-1296.588333	1532.552734	246.025146
29685.876596	-1296.588333	1531.500000	305.338043
29685.876596	-1296.588333	1530.446289	332.876373
29685.876596	-1296.588333	1529.393555	190.287369
29685.876596	-1296.588333	1528.338867	306.320190
29685.876596	-1296.588333	1527.285156	197.837418
29685.876596	-1296.588333	1526.231445	168.763519
29685.876596	-1296.588333	1525.176758	83.048965
29685.876596	-1296.588333	1524.122070	176.418030
29685.876596	-1296.588333	1523.067383	235.781555
29685.876596	-1296.588333	1522.012695	-44.661541
29685.876596	-1296.588333	1520.957031	28.344919
29685.876596	-1296.588333	1519.901367	49.258553
29685.876596	-1296.588333	1518.845703	-31.697311
29685.876596	-1296.588333	1517.790039	-51.486843
29685.876596	-1296.588333	1516.734375	30.590336
29685.876596	-1296.588333	1515.677734	58.347607
29685.876596	-1296.588333	1514.621094	58.966618
29685.876596	-1296.588333	1513.564453	116.149200
29685.876596	-1296.588333	1512.507813	15.037143
29685.876596	-1296.588333	1511.450195	49.633831
29685.876596	-1296.588333	1510.393555	59.375401
29685.876596	-1296.588333	1509.335938	164.049255
29685.876596	-1296.588333	1508.278320	49.529282
29685.876596	-1296.588333	1507.219727	120.316032
29685.876596	-1296.588333	1506.162109	186.580811
29685.876596	-1296.588333	1505.103516	81.217148
29685.876596	-1296.588333	1504.044922	-64.722443
29685.876596	-1296.588333	1502.986328	112.207016
29685.876596	-1296.588333	1501.926758	119.824036
29685.876596	-1296.588333	1500.868164	-25.971760
29685.876596	-1296.588333	1499.808594	94.509720
29685.876596	-1296.588333	1498.749023	205.943436
29685.876596	-1296.588333	1497.688477	53.513725
29685.876596	-1296.588333	1496.628906	-26.683716
29685.876596	-1296.588333	1495.568359	17.148321
29685.876596	-1296.588333	1494.507813	2.390278
29685.876596	-1296.588333	1493.447266	30.472473
29685.876596	-1296.588333	1492.386719	-49.567837
29685.876596	-1296.588333	1491.325195	19.099775
29685.876596	-1296.588333	1490.263672	-49.602356
29685.876596	-1296.588333	1489.202148	59.611557
29685.876596	-1296.588333	1488.140625	-45.040089
29685.876596	-1296.588333	1487.079102	-16.843300
29685.876596	-1296.588333	1486.016602	-33.637943
29685.876596	-1296.588333	1484.954102	-12.157082
29685.876596	-1296.588333	1483.891602	-1.906936
29685.876596	-1296.588333	1482.829102	-83.835625
29685.876596	-1296.588333	1481.765625	7.411899
29685.876596	-1296.588333	1480.702148	58.181564
29685.876596	-1296.588333	1479.638672	-39.363422
29685.876596	-1296.588333	1478.575195	83.354698
29685.876596	-1296.588333	1477.511719	48.787701
29685.876596	-1296.588333	1476.447266	16.518267
29685.876596	-1296.588333	1475.382813	-20.216675
29685.876596	-1296.588333	1474.318359	100.298798
29685.876596	-1296.588333	1473.253906	-12.724747
29685.876596	-1296.588333	1472.189453	6.815814
29685.876596	-1296.588333	1471.124023	-119.499161
29685.876596	-1296.588333	1470.058594	-1.329845
29685.876596	-1296.588333	1468.993164	51.822872
29685.876596	-1296.588333	1467.927734	19.762316
29685.876596	-1296.588333	1466.861328	64.101654
29685.876596	-1296.588333	1465.794922	-100.068436
29685.876596	-1296.588333	1464.728516	-80.246887
29685.876596	-1296.588333	1463.662109	73.678215
29685.876596	-1296.588333	1462.594727	28.576471
29685.876596	-1296.588333	1461.528320	-25.667030
29685.876596	-1296.588333	1460.460938	94.746925
29685.876596	-1296.588333	1459.393555	105.475739
29685.876596	-1296.588333	1458.326172	2.642550
29685.876596	-1296.588333	1457.257813	89.336311
29685.876596	-1296.588333	1456.189453	-6.868648
29685.876596	-1296.588333	1455.121094	46.298244
29685.876596	-1296.588333	1454.052734	157.311188
29685.876596	-1296.588333	1452.984375	161.079895
29685.876596	-1296.588333	1451.915039	116.446884
29685.876596	-1296.588333	1450.845703	171.912125
29685.876596	-1296.588333	1449.776367	85.008362
29685.876596	-1296.588333	1448.707031	178.936859
29685.876596	-1296.588333	1447.636719	179.272125
29685.876596	-1296.588333	1446.567383	129.107956
29685.876596	-1296.588333	1445.497070	47.414696
29685.876596	-1296.588333	1444.425781	-26.243578
29685.876596	-1296.588333	1443.355469	29.915243
29685.876596	-1296.588333	1442.285156	-32.351154
29685.876596	-1296.588333	1441.213867	23.365398
29685.876596	-1296.588333	1440.142578	60.113407
29685.876596	-1296.588333	1439.070313	-38.236504
29685.876596	-1296.588333	1437.999023	81.000328
29685.876596	-1296.588333	1436.926758	16.978712
29685.876596	-1296.588333	1435.854492	-26.301298
29685.876596	-1296.588333	1434.782227	-2.566245
29685.876596	-1296.588333	1433.709961	-80.246277
29685.876596	-1296.588333	1432.636719	2.677820
29685.876596	-1296.588333	1431.563477	144.098068
29685.876596	-1296.588333	1430.490234	69.250793
29685.876596	-1296.588333	1429.416992	152.334763
29685.876596	-1296.588333	1428.343750	28.336798
29685.876596	-1296.588333	1427.269531	139.827499
29685.876596	-1296.588333	1426.195313	72.474152
29685.876596	-1296.588333	1425.121094	35.660522
29685.876596	-1296.588333	1424.046875	62.391510
29685.876596	-1296.588333	1422.971680	-66.572235
29685.876596	-1296.588333	1421.896484	15.548726
29685.876596	-1296.588333	1420.821289	45.126469
29685.876596	-1296.588333	1419.746094	64.984222
29685.876596	-1296.588333	1418.669922	49.851009
29685.876596	-1296.588333	1417.594727	-29.477783
29685.876596	-1296.588333	1416.518555	-39.944977
29685.876596	-1296.588333	1415.442383	-49.580391
29685.876596	-1296.588333	1414.365234	-143.179321
29685.876596	-1296.588333	1413.289063	-45.443180
29685.876596	-1296.588333	1412.211914	-116.210098
29685.876596	-1296.588333	1411.134766	-25.041254
29685.876596	-1296.588333	1410.057617	0.889009
29685.876596	-1296.588333	1408.979492	-59.797009
29685.876596	-1296.588333	1407.902344	-30.686741
29685.876596	-1296.588333	1406.824219	2.233509
29685.876596	-1296.588333	1405.746094	55.634830
29685.876596	-1296.588333	1404.666992	-3.663108
29685.876596	-1296.588333	1403.588867	-127.021896
29685.876596	-1296.588333	1402.509766	70.591415
29685.876596	-1296.588333	1401.430664	-20.700539
29685.876596	-1296.588333	1400.351563	50.818993
29685.876596	-1296.588333	1399.271484	149.848694
29685.876596	-1296.588333	1398.192383	-52.728649
29685.876596	-1296.588333	1397.112305	12.880889
29685.876596	-1296.588333	1396.031250	-32.271393
29685.876596	-1296.588333	1394.951172	158.202469
29685.876596	-1296.588333	1393.871094	210.547119
29685.876596	-1296.588333	1392.790039	103.366669
29685.876596	-1296.588333	1391.708984	50.803505
29685.876596	-1296.588333	1390.626953	232.123901
29685.876596	-1296.588333	1389.545898	138.922592
29685.876596	-1296.588333	1388.463867	103.434349
29685.876596	-1296.588333	1387.381836	180.233582
29685.876596	-1296.588333	1386.299805	56.853413
29685.876596	-1296.588333	1385.217773	64.948067
29685.876596	-1296.588333	1384.134766	113.759544
29685.876596	-1296.588333	1383.051758	184.208832
29685.876596	-1296.588333	1381.968750	158.262131
29685.876596	-1296.588333	1380.885742	68.926697
29685.876596	-1296.588333	1379.802734	146.838669
29685.876596	-1296.588333	1378.718750	146.809998
29685.876596	-1296.588333	1377.634766	252.549576
29685.876596	-1296.588333	1376.550781	74.080299
29685.876596	-1296.588333	1375.465820	66.616013
29685.876596	-1296.588333	1374.381836	333.653992
29685.876596	-1296.588333	1373.296875	109.377991
29685.876596	-1296.588333	1372.211914	16.246761
29685.876596	-1296.588333	1371.126953	181.607864
29685.876596	-1296.588333	1370.041016	219.229965
29685.876596	-1296.588333	1368.955078	152.188980
29685.876596	-1296.588333	1367.869141	58.104385
29685.876596	-1296.588333	1366.783203	110.270523
29685.876596	-1296.588333	1365.697266	134.325470
29685.876596	-1296.588333	1364.610352	105.327057
29685.876596	-1296.588333	1363.523438	165.369125
29685.876596	-1296.588333	1362.436523	171.129257
29685.876596	-1296.588333	1361.349609	158.068298
29685.876596	-1296.588333	1360.261719	133.669952
29685.876596	-1296.588333	1359.174805	103.716438
29685.876596	-1296.588333	1358.086914	240.970734
29685.876596	-1296.588333	1356.998047	237.917175
29685.876596	-1296.588333	1355.910156	160.168365
29685.876596	-1296.588333	1354.821289	268.263824
29685.876596	-1296.588333	1353.732422	67.106216
29685.876596	-1296.588333	1352.643555	149.313065
29685.876596	-1296.588333	1351.554688	230.438934
29685.876596	-1296.588333	1350.464844	94.128365
29685.876596	-1296.588333	1349.375000	130.280029
29685.876596	-1296.588333	1348.285156	262.701904
29685.876596	-1296.588333	1347.195313	226.208725
29685.876596	-1296.588333	1346.105469	255.850693
29685.876596	-1296.588333	1345.014648	249.524414
29685.876596	-1296.588333	1343.923828	196.914551
29685.876596	-1296.588333	1342.833008	293.153259
29685.876596	-1296.588333	1341.741211	333.062561
29685.876596	-1296.588333	1340.650391	336.958923
29685.876596	-1296.588333	1339.558594	424.174530
29685.876596	-1296.588333	1338.466797	387.049133
29685.876596	-1296.588333	1337.374023	375.475159
29685.876596	-1296.588333	1336.282227	356.175690
29685.876596	-1296.588333	1335.189453	172.140198
29685.876596	-1296.588333	1334.096680	293.459930
29685.876596	-1296.588333	1333.003906	287.055054
29685.876596	-1296.588333	1331.910156	241.242432
29685.876596	-1296.588333	1330.817383	258.908966
29685.876596	-1296.588333	1329.723633	190.138580
29685.876596	-1296.588333	1328.629883	183.098068
29685.876596	-1296.588333	1327.535156	97.413841
29685.876596	-1296.588333	1326.441406	301.649445
29685.876596	-1296.588333	1325.346680	236.894333
29685.876596	-1296.588333	1324.251953	339.345978
29685.876596	-1296.588333	1323.156250	204.206009
29685.876596	-1296.588333	1322.061523	300.897217
29685.876596	-1296.588333	1320.965820	188.137650
29685.876596	-1296.588333	1319.870117	143.722778
29685.876596	-1296.588333	1318.774414	169.325760
29685.876596	-1296.588333	1317.678711	156.802368
29685.876596	-1296.588333	1316.582031	206.444244
29685.876596	-1296.588333	1315.485352	47.076584
29685.876596	-1296.588333	1314.388672	238.147446
29685.876596	-1296.588333	1313.291016	93.455841
29685.876596	-1296.588333	1312.194336	150.374359
29685.876596	-1296.588333	1311.096680	78.932899
29685.876596	-1296.588333	1309.999023	129.351074
29685.876596	-1296.588333	1308.901367	20.579384
29685.876596	-1296.588333	1307.802734	102.449150
29685.876596	-1296.588333	1306.705078	196.366470
29685.876596	-1296.588333	1305.606445	116.798904
29685.876596	-1296.588333	1304.506836	98.140343
29685.876596	-1296.588333	1303.408203	236.508682
29685.876596	-1296.588333	1302.308594	126.721199
29685.876596	-1296.588333	1301.208984	211.533508
29685.876596	-1296.588333	1300.109375	200.091400
29685.876596	-1296.588333	1299.009766	254.906860
29685.876596	-1296.588333	1297.909180	74.287445
29685.876596	-1296.588333	1296.808594	153.859299
29685.876596	-1296.588333	1295.708008	299.165192
29685.876596	-1296.588333	1294.607422	98.781532
29685.876596	-1296.588333	1293.506836	243.243805
29685.876596	-1296.588333	1292.405273	156.573944
29685.876596	-1296.588333	1291.303711	208.626068
29685.876596	-1296.588333	1290.202148	159.524933
29685.876596	-1296.588333	1289.099609	154.748627
29685.876596	-1296.588333	1287.998047	86.334045
29685.876596	-1296.588333	1286.895508	97.962128
29685.876596	-1296.588333	1285.792969	-12.656645
29685.876596	-1296.588333	1284.689453	53.095978
29685.876596	-1296.588333	1283.586914	53.814388
29685.876596	-1296.588333	1282.483398	79.311005
29685.876596	-1296.588333	1281.379883	17.849953
29685.876596	-1296.588333	1280.276367	-21.219387
29685.876596	-1296.588333	1279.171875	71.903427
29685.876596	-1296.588333	1278.067383	-14.002386
29685.876596	-1296.588333	1276.962891	9.760702
29685.876596	-1296.588333	1275.858398	65.880455
29685.876596	-1296.588333	1274.753906	-17.945105
29685.876596	-1296.588333	1273.648438	13.739785
29685.876596	-1296.588333	1272.542969	-40.394604
29685.876596	-1296.588333	1271.437500	-16.999378
29685.876596	-1296.588333	1270.331055	-9.462000
29685.876596	-1296.588333	1269.225586	-42.660557
29685.876596	-1296.588333	1268.119141	-38.191517
29685.876596	-1296.588333	1267.012695	-32.392963
29685.876596	-1296.588333	1265.906250	-49.652828
29685.876596	-1296.588333	1264.798828	-17.810669
29685.876596	-1296.588333	1263.691406	-35.559589
29685.876596	-1296.588333	1262.583984	4.116786
29685.876596	-1296.588333	1261.476563	-20.410192
29685.876596	-1296.588333	1260.368164	7.593190
29685.876596	-1296.588333	1259.260742	-68.242546
29685.876596	-1296.588333	1258.152344	-44.657730
29685.876596	-1296.588333	1257.043945	63.469898
29685.876596	-1296.588333	1255.934570	-24.720148
29685.876596	-1296.588333	1254.825195	-35.466457
29685.876596	-1296.588333	1253.716797	-33.917801
29685.876596	-1296.588333	1252.606445	-26.351923
29685.876596	-1296.588333	1251.497070	-11.422697
29685.876596	-1296.588333	1250.387695	39.625614
29685.876596	-1296.588333	1249.277344	61.535595
29685.876596	-1296.588333	1248.166992	88.412361
29685.876596	-1296.588333	1247.055664	71.324677
29685.876596	-1296.588333	1245.945313	27.823771
29685.876596	-1296.588333	1244.833984	22.566956
29685.876596	-1296.588333	1243.722656	-3.528672
29685.876596	-1296.588333	1242.611328	41.474644
29685.876596	-1296.588333	1241.499023	10.052444
29685.876596	-1296.588333	1240.387695	-54.524380
29685.876596	-1296.588333	1239.275391	-75.404610
29685.876596	-1296.588333	1238.162109	-51.469810
29685.876596	-1296.588333	1237.049805	55.312119
29685.876596	-1296.588333	1235.936523	56.147396
29685.876596	-1296.588333	1234.823242	26.678665
29685.876596	-1296.588333	1233.709961	62.465267
29685.876596	-1296.588333	1232.596680	-60.320171
29685.876596	-1296.588333	1231.482422	36.885818
29685.876596	-1296.588333	1230.369141	0.554249
29685.876596	-1296.588333	1229.253906	60.190941
29685.876596	-1296.588333	1228.139648	-6.038994
29685.876596	-1296.588333	1227.025391	-21.040340
29685.876596	-1296.588333	1225.910156	33.406643
29685.876596	-1296.588333	1224.794922	10.561747
29685.876596	-1296.588333	1223.679688	-104.883354
29685.876596	-1296.588333	1222.563477	-153.599045
29685.876596	-1296.588333	1221.447266	-44.039906
29685.876596	-1296.588333	1220.331055	65.366119
29685.876596	-1296.588333	1219.214844	-13.563812
29685.876596	-1296.588333	1218.098633	-50.992523
29685.876596	-1296.588333	1216.981445	20.460882
29685.876596	-1296.588333	1215.864258	-65.012177
29685.876596	-1296.588333	1214.747070	-26.112112
29685.876596	-1296.588333	1213.629883	-57.060825
29685.876596	-1296.588333	1212.511719	30.606569
29685.876596	-1296.588333	1211.393555	-54.438042
29685.876596	-1296.588333	1210.275391	42.032665
29685.876596	-1296.588333	1209.157227	-20.293539
29685.876596	-1296.588333	1208.038086	23.381729
29685.876596	-1296.588333	1206.918945	-4.066517
29685.876596	-1296.588333	1205.799805	-13.126769
29685.876596	-1296.588333	1204.680664	-12.646409
29685.876596	-1296.588333	1203.560547	-83.969147
29685.876596	-1296.588333	1202.441406	63.986820
29685.876596	-1296.588333	1201.321289	57.550892
29685.876596	-1296.588333	1200.200195	-80.739067
29685.876596	-1296.588333	1199.080078	-71.196259
29685.876596	-1296.588333	1197.958984	-29.074791
29685.876596	-1296.588333	1196.837891	-49.010372
29685.876596	-1296.588333	1195.716797	-14.480744
29685.876596	-1296.588333	1194.594727	3.545861
29685.876596	-1296.588333	1193.473633	28.695717
29685.876596	-1296.588333	1192.351563	51.308937
29685.876596	-1296.588333	1191.229492	38.156570
29685.876596	-1296.588333	1190.106445	52.520378
29685.876596	-1296.588333	1188.984375	28.861132
29685.876596	-1296.588333	1187.861328	89.416389
29685.876596	-1296.588333	1186.738281	77.136414
29685.876596	-1296.588333	1185.614258	63.172092
29685.876596	-1296.588333	1184.491211	13.555040
29685.876596	-1296.588333	1183.367188	5.574053
29685.876596	-1296.588333	1182.243164	79.796112
29685.876596	-1296.588333	1181.119141	16.558914
29685.876596	-1296.588333	1179.994141	67.653969
29685.876596	-1296.588333	1178.869141	106.948074
29685.876596	-1296.588333	1177.744141	78.793579
29685.876596	-1296.588333	1176.619141	7.110228
29685.876596	-1296.588333	1175.493164	18.268608
29685.876596	-1296.588333	1174.368164	50.882938
29685.876596	-1296.588333	1173.242188	68.259033
29685.876596	-1296.588333	1172.115234	43.856667
29685.876596	-1296.588333	1170.989258	-30.186964
29685.876596	-1296.588333	1169.862305	-41.233063
29685.876596	-1296.588333	1168.735352	125.117455
29685.876596	-1296.588333	1167.608398	41.884926
29685.876596	-1296.588333	1166.481445	67.612144
29685.876596	-1296.588333	1165.353516	-13.388931
29685.876596	-1296.588333	1164.225586	-0.891550
29685.876596	-1296.588333	1163.097656	23.360956
29685.876596	-1296.588333	1161.968750	59.415390
29685.876596	-1296.588333	1160.840820	31.463776
29685.876596	-1296.588333	1159.711914	-110.223366
29685.876596	-1296.588333	1158.583008	-70.304970
29685.876596	-1296.588333	1157.453125	12.544044
29685.876596	-1296.588333	1156.324219	-8.763518
29685.876596	-1296.588333	1155.194336	-39.939613
29685.876596	-1296.588333	1154.064453	-65.956627
29685.876596	-1296.588333	1152.933594	-41.918194
29685.876596	-1296.588333	1151.803711	-45.396805
29685.876596	-1296.588333	1150.672852	-6.320783
29685.876596	-1296.588333	1149.541992	-115.912956
29685.876596	-1296.588333	1148.411133	-21.334127
29685.876596	-1296.588333	1147.279297	-75.587372
29685.876596	-1296.588333	1146.147461	-82.536133
29685.876596	-1296.588333	1145.015625	22.036749
29685.876596	-1296.588333	1143.883789	23.422626
29685.876596	-1296.588333	1142.750977	1.244849
29685.876596	-1296.588333	1141.619141	67.117142
29685.876596	-1296.588333	1140.486328	64.562698
29685.876596	-1296.588333	1139.352539	27.951954
29685.876596	-1296.588333	1138.219727	7.691675
29685.876596	-1296.588333	1137.085938	-126.159851
29685.876596	-1296.588333	1135.952148	-70.271118
29685.876596	-1296.588333	1134.818359	-43.537285
29685.876596	-1296.588333	1133.683594	-35.752052
29685.876596	-1296.588333	1132.549805	-28.321060
29685.876596	-1296.588333	1131.415039	-35.306221
29685.876596	-1296.588333	1130.279297	19.745440
29685.876596	-1296.588333	1129.144531	25.365368
29685.876596	-1296.588333	1128.008789	38.916397
29685.876596	-1296.588333	1126.873047	49.053848
29685.876596	-1296.588333	1125.737305	40.637962
29685.876596	-1296.588333	1124.601563	73.130058
29685.876596	-1296.588333	1123.464844	56.473644
29685.876596	-1296.588333	1122.328125	31.242067
29685.876596	-1296.588333	1121.191406	57.150555
29685.876596	-1296.588333	1120.054688	19.185818
29685.876596	-1296.588333	1118.916992	-36.073410
29685.876596	-1296.588333	1117.779297	16.286596
29685.876596	-1296.588333	1116.641602	85.482048
29685.876596	-1296.588333	1115.503906	48.194500
29685.876596	-1296.588333	1114.365234	38.310249
29685.876596	-1296.588333	1113.226563	62.262123
29685.876596	-1296.588333	1112.087891	60.104233
29685.876596	-1296.588333	1110.949219	-7.576591
29685.876596	-1296.588333	1109.809570	46.696735
29685.876596	-1296.588333	1108.669922	56.391273
29685.876596	-1296.588333	1107.530273	16.012798
29685.876596	-1296.588333	1106.390625	16.300983
29685.876596	-1296.588333	1105.250000	97.084435
29685.876596	-1296.588333	1104.109375	-6.217589
29685.876596	-1296.588333	1102.968750	6.327953
29685.876596	-1296.588333	1101.828125	63.656536
29685.876596	-1296.588333	1100.686523	22.035200
29685.876596	-1296.588333	1099.544922	53.894497
29685.876596	-1296.588333	1098.403320	111.471672
29685.876596	-1296.588333	1097.261719	15.716364
29685.876596	-1296.588333	1096.120117	134.400497
29685.876596	-1296.588333	1094.977539	78.605492
29685.876596	-1296.588333	1093.834961	40.240501
29685.876596	-1296.588333	1092.691406	105.816635
29685.876596	-1296.588333	1091.548828	28.431622
29685.876596	-1296.588333	1090.405273	149.396774
29685.876596	-1296.588333	1089.261719	42.561253
29685.876596	-1296.588333	1088.118164	98.888863
29685.876596	-1296.588333	1086.973633	165.586456
29685.876596	-1296.588333	1085.829102	32.097469
29685.876596	-1296.588333	1084.684570	90.710915
29685.876596	-1296.588333	1083.540039	87.964844
29685.876596	-1296.588333	1082.395508	-14.683743
29685.876596	-1296.588333	1081.250000	-16.261948
29685.876596	-1296.588333	1080.104492	72.121490
29685.876596	-1296.588333	1078.958984	44.440666
29685.876596	-1296.588333	1077.812500	111.872055
29685.876596	-1296.588333	1076.666016	51.801109
29685.876596	-1296.588333	1075.519531	130.303009
29685.876596	-1296.588333	1074.373047	-8.602275
29685.876596	-1296.588333	1073.226563	18.658503
29685.876596	-1296.588333	1072.079102	50.377483
29685.876596	-1296.588333	1070.931641	88.239014
29685.876596	-1296.588333	1069.784180	66.872971
29685.876596	-1296.588333	1068.635742	-1.090162
29685.876596	-1296.588333	1067.487305	83.474937
29685.876596	-1296.588333	1066.338867	66.037979
29685.876596	-1296.588333	1065.190430	94.799164
29685.876596	-1296.588333	1064.041992	84.955254
29685.876596	-1296.588333	1062.892578	35.838348
29685.876596	-1296.588333	1061.743164	159.839951
29685.876596	-1296.588333	1060.593750	113.147560
29685.876596	-1296.588333	1059.443359	28.274876
29685.876596	-1296.588333	1058.292969	76.371269
29685.876596	-1296.588333	1057.142578	-15.915311
29685.876596	-1296.588333	1055.992188	72.435165
29685.876596	-1296.588333	1054.841797	-100.749161
29685.876596	-1296.588333	1053.690430	70.421806
29685.876596	-1296.588333	1052.539063	41.424171
29685.876596	-1296.588333	1051.387695	-79.132668
29685.876596	-1296.588333	1050.235352	-54.255142
29685.876596	-1296.588333	1049.083984	-2.796573
29685.876596	-1296.588333	1047.931641	-112.021294
29685.876596	-1296.588333	1046.778320	-73.524544
29685.876596	-1296.588333	1045.625977	-106.327049
29685.876596	-1296.588333	1044.472656	-52.845554
29685.876596	-1296.588333	1043.319336	22.652031
29685.876596	-1296.588333	1042.166016	-112.456337
29685.876596	-1296.588333	1041.012695	57.406517
29685.876596	-1296.588333	1039.858398	90.586617
29685.876596	-1296.588333	1038.704102	-23.268373
29685.876596	-1296.588333	1037.549805	128.116013
29685.876596	-1296.588333	1036.394531	18.789835
29685.876596	-1296.588333	1035.239258	22.172319
29685.876596	-1296.588333	1034.083984	35.043289
29685.876596	-1296.588333	1032.928711	-15.006887
29685.876596	-1296.588333	1031.773438	24.041370
29685.876596	-1296.588333	1030.617188	78.217567
29685.876596	-1296.588333	1029.460938	-61.567787
29685.876596	-1296.588333	1028.304688	-47.794151
29685.876596	-1296.588333	1027.147461	-7.756259
29685.876596	-1296.588333	1025.991211	48.784439
29685.876596	-1296.588333	1024.833984	59.254017
29685.876596	-1296.588333	1023.675781	39.359524
29685.876596	-1296.588333	1022.518555	36.951416
29685.876596	-1296.588333	1021.360352	49.245728
29685.876596	-1296.588333	1020.202148	115.748779
29685.876596	-1296.588333	1019.043945	13.980170
29685.876596	-1296.588333	1017.884766	91.040565
29685.876596	-1296.588333	1016.726563	19.819611
29685.876596	-1296.588333	1015.567383	-16.186003
29685.876596	-1296.588333	1014.407227	-64.972343
29685.876596	-1296.588333	1013.248047	122.026100
29685.876596	-1296.588333	1012.087891	-39.783421
29685.876596	-1296.588333	1010.927734	52.240299
29685.876596	-1296.588333	1009.767578	88.142731
29685.876596	-1296.588333	1008.606445	125.003960
29685.876596	-1296.588333	1007.446289	66.343719
29685.876596	-1296.588333	1006.285156	13.323060
29685.876596	-1296.588333	1005.123047	-3.146849
29685.876596	-1296.588333	1003.961914	116.020226
29685.876596	-1296.588333	1002.799805	86.636124
29685.876596	-1296.588333	1001.637695	51.619507
29685.876596	-1296.588333	1000.475586	4.947990
29685.876596	-1296.588333	999.312500	20.507711
29685.876596	-1296.588333	998.149414	-26.053635
29685.876596	-1296.588333	996.986328	-114.570923
29685.876596	-1296.588333	995.823242	-37.238411
29685.876596	-1296.588333	994.659180	-68.479080
29685.876596	-1296.588333	993.496094	-18.372988
29685.876596	-1296.588333	992.332031	193.904709
29685.876596	-1296.588333	991.166992	-0.613724
29685.876596	-1296.588333	990.002930	-82.444778
29685.876596	-1296.588333	988.837891	-43.156269
29685.876596	-1296.588333	987.672852	-22.951468
29685.876596	-1296.588333	986.506836	-17.969250
29685.876596	-1296.588333	985.341797	-21.297316
29685.876596	-1296.588333	984.175781	27.742531
29685.876596	-1296.588333	983.009766	-76.527054
29685.876596	-1296.588333	981.843750	76.025864
29685.876596	-1296.588333	980.676758	36.222805
29685.876596	-1296.588333	979.509766	68.701401
29685.876596	-1296.588333	978.342773	-78.953285
29685.876596	-1296.588333	977.175781	82.626999
29685.876596	-1296.588333	976.007813	56.309639
29685.876596	-1296.588333	974.839844	-16.017681
29685.876596	-1296.588333	973.671875	-17.615122
29685.876596	-1296.588333	972.503906	-41.936684
29685.876596	-1296.588333	971.334961	-22.232212
29685.876596	-1296.588333	970.166016	62.513458
29685.876596	-1296.588333	968.997070	107.567513
29685.876596	-1296.588333	967.828125	79.072639
29685.876596	-1296.588333	966.658203	20.125143
29685.876596	-1296.588333	965.488281	-6.352544
29685.876596	-1296.588333	964.318359	146.726593
29685.876596	-1296.588333	963.148438	18.010124
29685.876596	-1296.588333	961.977539	-5.377367
29685.876596	-1296.588333	960.806641	27.312769
29685.876596	-1296.588333	959.635742	48.934639
29685.876596	-1296.588333	958.463867	82.883316
29685.876596	-1296.588333	957.292969	67.118469
29685.876596	-1296.588333	956.121094	23.138632
29685.876596	-1296.588333	954.948242	152.862823
29685.876596	-1296.588333	953.776367	-40.387421
29685.876596	-1296.588333	952.603516	24.408848
29685.876596	-1296.588333	951.430664	72.647316
29685.876596	-1296.588333	950.257813	-31.727579
29685.876596	-1296.588333	949.084961	48.093357
29685.876596	-1296.588333	947.911133	34.944077
29685.876596	-1296.588333	946.737305	-93.941803
29685.876596	-1296.588333	945.563477	-31.416706
29685.876596	-1296.588333	944.388672	-23.237530
29685.876596	-1296.588333	943.213867	-8.773654
29685.876596	-1296.588333	942.039063	127.646904
29685.876596	-1296.588333	940.864258	23.017895
29685.876596	-1296.588333	939.688477	13.772832
29685.876596	-1296.588333	938.513672	19.632893
29685.876596	-1296.588333	937.337891	-0.234725
29685.876596	-1296.588333	936.161133	49.010880
29685.876596	-1296.588333	934.985352	122.320427
29685.876596	-1296.588333	933.808594	52.281956
29685.876596	-1296.588333	932.631836	10.466105
29685.876596	-1296.588333	931.454102	70.657883
29685.876596	-1296.588333	930.277344	180.687958
29685.876596	-1296.588333	929.099609	125.830826
29685.876596	-1296.588333	927.921875	133.901291
29685.876596	-1296.588333	926.743164	196.126251
29685.876596	-1296.588333	925.565430	136.967728
29685.876596	-1296.588333	924.386719	-45.707504
29685.876596	-1296.588333	923.208008	57.669758
29685.876596	-1296.588333	922.028320	122.013374
29685.876596	-1296.588333	920.849609	2.237611
29685.876596	-1296.588333	919.669922	2.457195
29685.876596	-1296.588333	919.474609	94.736130
29685.876596	-1296.588333	918.309570	197.974472
29685.876596	-1296.588333	917.143555	21.954618
29685.876596	-1296.588333	915.977539	84.035378
29685.876596	-1296.588333	914.810547	35.743351
29685.876596	-1296.588333	913.644531	-19.025190
29685.876596	-1296.588333	912.477539	110.046059
29685.876596	-1296.588333	911.310547	113.649414
29685.876596	-1296.588333	910.143555	54.553024
29685.876596	-1296.588333	908.975586	-80.173065
29685.876596	-1296.588333	907.807617	12.042381
29685.876596	-1296.588333	906.639648	-36.215591
29685.876596	-1296.588333	905.471680	-2.380498
29685.876596	-1296.588333	904.303711	57.348530
29685.876596	-1296.588333	903.134766	-16.818853
29685.876596	-1296.588333	901.965820	-0.298207
29685.876596	-1296.588333	900.796875	11.892972
29685.876596	-1296.588333	899.626953	-14.767616
29685.876596	-1296.588333	898.457031	92.333298
29685.876596	-1296.588333	897.287109	-7.681660
29685.876596	-1296.588333	896.117188	-79.627350
29685.876596	-1296.588333	894.947266	-39.434841
29685.876596	-1296.588333	893.776367	-61.777843
29685.876596	-1296.588333	892.605469	-21.617777
29685.876596	-1296.588333	891.434570	141.339874
29685.876596	-1296.588333	890.262695	82.333000
29685.876596	-1296.588333	889.091797	23.344494
29685.876596	-1296.588333	887.919922	13.902341
29685.876596	-1296.588333	886.748047	41.059296
29685.876596	-1296.588333	885.575195	115.555191
29685.876596	-1296.588333	884.403320	-91.909271
29685.876596	-1296.588333	883.230469	-0.214371
29685.876596	-1296.588333	882.057617	80.681442
29685.876596	-1296.588333	880.883789	19.587318
29685.876596	-1296.588333	879.710938	-0.630498
29685.876596	-1296.588333	878.537109	101.698471
29685.876596	-1296.588333	877.362305	-30.310495
29685.876596	-1296.588333	876.188477	9.651251
29685.876596	-1296.588333	875.013672	-17.014881
29685.876596	-1296.588333	873.839844	89.509537
29685.876596	-1296.588333	872.664063	47.793846
29685.876596	-1296.588333	871.489258	113.453369
29685.876596	-1296.588333	870.313477	93.207840
29685.876596	-1296.588333	869.138672	77.259010
29685.876596	-1296.588333	867.962891	-9.504946
29685.876596	-1296.588333	866.786133	-72.637230
29685.876596	-1296.588333	865.610352	-116.442902
29685.876596	-1296.588333	864.433594	41.358765
29685.876596	-1296.588333	863.256836	68.296150
29685.876596	-1296.588333	862.079102	9.467394
29685.876596	-1296.588333	860.902344	156.416077
29685.876596	-1296.588333	859.724609	26.869671
29685.876596	-1296.588333	858.546875	-49.067745
29685.876596	-1296.588333	857.368164	-17.879124
29685.876596	-1296.588333	856.190430	-25.255707
29685.876596	-1296.588333	855.011719	16.611959
29685.876596	-1296.588333	853.833008	-78.545570
29685.876596	-1296.588333	852.654297	55.336185
29685.876596	-1296.588333	851.474609	-80.455246
29685.876596	-1296.588333	850.294922	-87.834328
29685.876596	-1296.588333	849.115234	-33.186287
29685.876596	-1296.588333	847.935547	4.326778
29685.876596	-1296.588333	846.754883	28.991886
29685.876596	-1296.588333	845.575195	-59.650230
29685.876596	-1296.588333	844.393555	67.592026
29685.876596	-1296.588333	843.212891	40.934299
29685.876596	-1296.588333	842.032227	65.553253
29685.876596	-1296.588333	840.850586	-5.954556
29685.876596	-1296.588333	839.668945	-60.354637
29685.876596	-1296.588333	838.486328	73.139511
29685.876596	-1296.588333	837.304688	55.023235
29685.876596	-1296.588333	836.122070	-44.184669
29685.876596	-1296.588333	834.939453	27.334270
29685.876596	-1296.588333	833.756836	-22.772980
29685.876596	-1296.588333	832.573242	-2.482648
29685.876596	-1296.588333	831.389648	162.791809
29685.876596	-1296.588333	830.206055	18.871193
29685.876596	-1296.588333	829.022461	17.812113
29685.876596	-1296.588333	827.838867	-55.705761
29685.876596	-1296.588333	826.654297	5.027849
29685.876596	-1296.588333	825.469727	48.690311
29685.876596	-1296.588333	824.284180	90.200874
29685.876596	-1296.588333	823.099609	-40.779518
29685.876596	-1296.588333	821.914063	-16.308355
29685.876596	-1296.588333	820.728516	-6.750250
29685.876596	-1296.588333	819.542969	70.892815
29685.876596	-1296.588333	818.356445	-15.317862
29685.876596	-1296.588333	817.169922	-58.956837
29685.876596	-1296.588333	815.983398	1.621354
29685.876596	-1296.588333	814.796875	140.837570
29685.876596	-1296.588333	813.609375	5.771656
29685.876596	-1296.588333	812.422852	138.543579
29685.876596	-1296.588333	811.235352	67.269600
29685.876596	-1296.588333	810.046875	259.446747
29685.876596	-1296.588333	808.859375	47.984032
29685.876596	-1296.588333	807.670898	97.798500
29685.876596	-1296.588333	806.482422	162.448898
29685.876596	-1296.588333	805.293945	125.179298
29685.876596	-1296.588333	804.104492	172.807785
29685.876596	-1296.588333	802.915039	80.374069
29685.876596	-1296.588333	801.725586	108.889313
29685.876596	-1296.588333	800.536133	29.220652
29685.876596	-1296.588333	799.345703	100.132423
29685.876596	-1296.588333	798.155273	79.847939
29685.876596	-1296.588333	796.964844	171.903748
29685.876596	-1296.588333	795.774414	47.762691
29685.876596	-1296.588333	794.583008	88.925880
29685.876596	-1296.588333	793.392578	117.356659
29685.876596	-1296.588333	792.200195	97.059036
29685.876596	-1296.588333	791.008789	110.641655
29685.876596	-1296.588333	789.816406	103.042831
29685.876596	-1296.588333	788.625000	150.470581
29685.876596	-1296.588333	787.432617	-58.173885
29685.876596	-1296.588333	786.239258	97.151314
29685.876596	-1296.588333	785.046875	157.221588
29685.876596	-1296.588333	783.853516	-17.478394
29685.876596	-1296.588333	782.660156	63.720032
29685.876596	-1296.588333	781.465820	37.069389
29685.876596	-1296.588333	780.272461	84.393456
29685.876596	-1296.588333	779.078125	95.769630
29685.876596	-1296.588333	777.883789	-21.733019
29685.876596	-1296.588333	776.688477	131.158020
29685.876596	-1296.588333	775.494141	-56.003452
29685.876596	-1296.588333	774.298828	48.257366
29685.876596	-1296.588333	773.103516	6.821086
29685.876596	-1296.588333	771.907227	60.360584
29685.876596	-1296.588333	770.711914	134.969742
29685.876596	-1296.588333	769.515625	72.422615
29685.876596	-1296.588333	768.318359	117.454437
29685.876596	-1296.588333	767.122070	6.421824
29685.876596	-1296.588333	765.924805	61.973301
29685.876596	-1296.588333	764.727539	28.968031
29685.876596	-1296.588333	763.530273	-6.139507
29685.876596	-1296.588333	762.333008	87.277527
29685.876596	-1296.588333	761.134766	87.963722
29685.876596	-1296.588333	759.936523	80.217216
29685.876596	-1296.588333	758.738281	45.092102
29685.876596	-1296.588333	757.540039	22.603390
29685.876596	-1296.588333	756.340820	44.312042
29685.876596	-1296.588333	755.141602	66.002556
29685.876596	-1296.588333	753.942383	1.418956
29685.876596	-1296.588333	752.742188	42.019627
29685.876596	-1296.588333	751.541992	-28.860615
29685.876596	-1296.588333	750.341797	-114.439178
29685.876596	-1296.588333	749.141602	-27.624395
29685.876596	-1296.588333	747.941406	153.716431
29685.876596	-1296.588333	746.740234	55.515278
29685.876596	-1296.588333	745.539063	89.690979
29685.876596	-1296.588333	744.337891	41.929924
29685.876596	-1296.588333	743.135742	134.868179
29685.876596	-1296.588333	741.933594	30.411404
29685.876596	-1296.588333	740.731445	51.925682
29685.876596	-1296.588333	739.529297	-46.196533
29685.876596	-1296.588333	738.326172	-49.875374
29685.876596	-1296.588333	737.124023	51.319851
29685.876596	-1296.588333	735.919922	68.571358
29685.876596	-1296.588333	734.716797	102.578506
29685.876596	-1296.588333	733.513672	86.247322
29685.876596	-1296.588333	732.309570	208.240158
29685.876596	-1296.588333	731.105469	76.618011
29685.876596	-1296.588333	729.900391	135.686295
29685.876596	-1296.588333	728.696289	159.109680
29685.876596	-1296.588333	727.491211	144.815491
29685.876596	-1296.588333	726.286133	27.921913
29685.876596	-1296.588333	725.080078	-28.230566
29685.876596	-1296.588333	723.874023	150.025574
29685.876596	-1296.588333	722.668945	47.812485
29685.876596	-1296.588333	721.461914	144.364761
29685.876596	-1296.588333	720.255859	138.378708
29685.876596	-1296.588333	719.048828	-51.635521
29685.876596	-1296.588333	717.841797	-15.792575
29685.876596	-1296.588333	716.634766	-5.061337
29685.876596	-1296.588333	715.427734	59.985798
29685.876596	-1296.588333	714.219727	18.434368
29685.876596	-1296.588333	713.011719	33.286449
29685.876596	-1296.588333	711.803711	-47.951244
29685.876596	-1296.588333	710.594727	23.256002
29685.876596	-1296.588333	709.385742	-64.238617
29685.876596	-1296.588333	708.176758	-57.788742
29685.876596	-1296.588333	706.967773	-13.795864
29685.876596	-1296.588333	705.758789	94.838036
29685.876596	-1296.588333	704.548828	126.234055
29685.876596	-1296.588333	703.338867	-11.315588
29685.876596	-1296.588333	702.127930	-38.321178
29685.876596	-1296.588333	700.917969	36.812180
29685.876596	-1296.588333	699.707031	-56.913986
29685.876596	-1296.588333	698.496094	-67.270401
29685.876596	-1296.588333	697.285156	-13.058926
29685.876596	-1296.588333	696.073242	-81.770859
29685.876596	-1296.588333	694.861328	3.622926
29685.876596	-1296.588333	693.649414	120.192627
29685.876596	-1296.588333	692.436523	-60.952969
29685.876596	-1296.588333	691.224609	90.926247
29685.876596	-1296.588333	690.011719	55.470776
29685.876596	-1296.588333	688.798828	30.413916
29685.876596	-1296.588333	687.584961	90.618301
29685.876596	-1296.588333	686.372070	32.262157
29685.876596	-1296.588333	685.158203	46.672405
29685.876596	-1296.588333	683.943359	92.233673
29685.876596	-1296.588333	682.729492	48.407471
29685.876596	-1296.588333	681.514648	39.898575
29685.876596	-1296.588333	680.299805	91.611778
29685.876596	-1296.588333	679.084961	157.821899
29685.876596	-1296.588333	677.869141	84.878777
29685.876596	-1296.588333	676.653320	92.904045
29685.876596	-1296.588333	675.437500	127.886879
29685.876596	-1296.588333	674.221680	135.863831
29685.876596	-1296.588333	673.004883	42.168579
29685.876596	-1296.588333	671.789063	106.122269
29685.876596	-1296.588333	670.571289	-141.010712
29685.876596	-1296.588333	669.354492	132.305389
29685.876596	-1296.588333	668.136719	17.887897
29685.876596	-1296.588333	666.919922	96.223595
29685.876596	-1296.588333	665.701172	-61.685020
29685.876596	-1296.588333	664.483398	82.881119
29685.876596	-1296.588333	663.264648	20.268499
29685.876596	-1296.588333	662.045898	63.261070
29685.876596	-1296.588333	660.827148	77.235237
29685.876596	-1296.588333	659.608398	24.955124
29685.876596	-1296.588333	658.388672	63.723030
29685.876596	-1296.588333	657.168945	-3.053017
29685.876596	-1296.588333	655.949219	83.237793
29685.876596	-1296.588333	654.728516	28.853287
29685.876596	-1296.588333	653.507813	193.624893
29685.876596	-1296.588333	652.287109	130.933456
29685.876596	-1296.588333	651.066406	39.317020
29685.876596	-1296.588333	649.844727	92.349792
29685.876596	-1296.588333	648.623047	93.697250
29685.876596	-1296.588333	647.401367	-68.133293
29685.876596	-1296.588333	646.179688	81.878174
29685.876596	-1296.588333	644.957031	33.621227
29685.876596	-1296.588333	643.734375	-70.362106
29685.876596	-1296.588333	642.511719	114.574654
29685.876596	-1296.588333	641.289063	27.083862
29685.876596	-1296.588333	640.065430	17.990601
29685.876596	-1296.588333	638.841797	173.859909
29685.876596	-1296.588333	637.618164	224.492111
29685.876596	-1296.588333	636.393555	79.252777
29685.876596	-1296.588333	635.168945	111.294411
29685.876596	-1296.588333	633.944336	89.730316
29685.876596	-1296.588333	632.719727	72.275864
29685.876596	-1296.588333	631.494141	15.675504
29685.876596	-1296.588333	630.269531	103.223152
29685.876596	-1296.588333	629.042969	3.365910
29685.876596	-1296.588333	627.817383	55.847691
29685.876596	-1296.588333	626.590820	-15.185964
29685.876596	-1296.588333	625.365234	-14.197351
29685.876596	-1296.588333	624.137695	5.281474
29685.876596	-1296.588333	622.911133	80.261703
29685.876596	-1296.588333	621.683594	-64.816307
29685.876596	-1296.588333	620.456055	3.939925
29685.876596	-1296.588333	619.228516	93.200394
29685.876596	-1296.588333	618.000977	44.731304
29685.876596	-1296.588333	616.772461	-53.043331
29685.876596	-1296.588333	615.543945	-130.255875
29685.876596	-1296.588333	614.314453	22.537207
29685.876596	-1296.588333	613.085938	70.541428
29685.876596	-1296.588333	611.856445	157.505554
29685.876596	-1296.588333	610.626953	-30.581123
29685.876596	-1296.588333	609.397461	146.607697
29685.876596	-1296.588333	608.166992	93.952507
29685.876596	-1296.588333	606.936523	33.097927
29685.876596	-1296.588333	605.706055	115.783348
29685.876596	-1296.588333	604.474609	13.911207
29685.876596	-1296.588333	603.244141	-75.635483
29685.876596	-1296.588333	602.012695	-60.656956
29685.876596	-1296.588333	600.780273	23.951878
29685.876596	-1296.588333	599.548828	-104.511826
29685.876596	-1296.588333	598.316406	-32.251678
29685.876596	-1296.588333	597.083984	56.339973
29685.876596	-1296.588333	595.851563	20.011829
29685.876596	-1296.588333	594.618164	32.797127
29685.876596	-1296.588333	593.384766	23.053570
29685.876596	-1296.588333	592.151367	97.169525
29685.876596	-1296.588333	590.917969	220.322906
29685.876596	-1296.588333	589.683594	116.433632
29685.876596	-1296.588333	588.449219	6.440051
29685.876596	-1296.588333	587.214844	80.430244
29685.876596	-1296.588333	585.979492	109.414444
29685.876596	-1296.588333	584.745117	95.468475
29685.876596	-1296.588333	583.509766	46.787411
29685.876596	-1296.588333	582.273438	-5.974762
29685.876596	-1296.588333	581.038086	12.733926
29685.876596	-1296.588333	579.801758	-13.491111
29685.876596	-1296.588333	578.565430	-25.433094
29685.876596	-1296.588333	577.329102	-16.979494
29685.876596	-1296.588333	576.091797	93.454094
29685.876596	-1296.588333	574.854492	95.729996
29685.876596	-1296.588333	573.617188	142.851868
29685.876596	-1296.588333	572.378906	94.119904
29685.876596	-1296.588333	571.141602	-121.740387
29685.876596	-1296.588333	569.903320	37.437569
29685.876596	-1296.588333	568.664063	94.662773
29685.876596	-1296.588333	567.425781	176.296539
29685.876596	-1296.588333	566.186523	141.799820
29685.876596	-1296.588333	564.947266	-14.859485
29685.876596	-1296.588333	563.708008	97.242714
29685.876596	-1296.588333	562.467773	138.050613
29685.876596	-1296.588333	561.227539	34.360268
29685.876596	-1296.588333	559.987305	-14.369071
29685.876596	-1296.588333	558.747070	101.658760
29685.876596	-1296.588333	557.505859	56.979744
29685.876596	-1296.588333	556.264648	-1.922043
29685.876596	-1296.588333	555.023438	65.213921
29685.876596	-1296.588333	553.781250	69.311302
29685.876596	-1296.588333	552.539063	73.398148
29685.876596	-1296.588333	551.296875	49.035763
29685.876596	-1296.588333	550.054688	95.755676
29685.876596	-1296.588333	548.811523	-34.203533
29685.876596	-1296.588333	547.569336	44.977699
29685.876596	-1296.588333	546.325195	28.722559
29685.876596	-1296.588333	545.082031	36.818859
29685.876596	-1296.588333	543.837891	-38.275089
29685.876596	-1296.588333	542.593750	67.171928
29685.876596	-1296.588333	541.349609	81.314003
29685.876596	-1296.588333	540.105469	-20.117640
29685.876596	-1296.588333	538.860352	97.397285
29685.876596	-1296.588333	537.615234	196.616867
29685.876596	-1296.588333	536.369141	149.907562
29685.876596	-1296.588333	535.124023	10.034309
29685.876596	-1296.588333	533.877930	-16.373737
29685.876596	-1296.588333	532.631836	-46.825096
29685.876596	-1296.588333	531.384766	44.190720
29685.876596	-1296.588333	530.138672	104.806824
29685.876596	-1296.588333	528.891602	-93.616714
29685.876596	-1296.588333	527.643555	112.649834
29685.876596	-1296.588333	526.396484	17.455902
29685.876596	-1296.588333	525.148438	13.295313
29685.876596	-1296.588333	523.900391	27.328976
29685.876596	-1296.588333	522.652344	-17.264166
29685.876596	-1296.588333	521.403320	51.325645
29685.876596	-1296.588333	520.154297	-45.793430
29685.876596	-1296.588333	518.905273	10.647863
29685.876596	-1296.588333	517.656250	-27.857594
29685.876596	-1296.588333	516.406250	-38.082592
29685.876596	-1296.588333	515.156250	-26.099169
29685.876596	-1296.588333	513.906250	14.133383
29685.876596	-1296.588333	512.655273	32.148403
29685.876596	-1296.588333	511.404297	19.892870
29685.876596	-1296.588333	510.153320	1.591061
29685.876596	-1296.588333	508.902344	-133.664108
29685.876596	-1296.588333	507.650391	-61.204079
29685.876596	-1296.588333	506.398438	81.772583
29685.876596	-1296.588333	505.146484	-67.524063
29685.876596	-1296.588333	503.893555	51.211239
29685.876596	-1296.588333	502.641602	119.538208
29685.876596	-1296.588333	501.388672	58.939766
29685.876596	-1296.588333	500.134766	-47.945839
29685.876596	-1296.588333	498.881836	-1.788912
29685.876596	-1296.588333	497.627930	-114.654411
29685.876596	-1296.588333	496.374023	42.166195
29685.876596	-1296.588333	495.119141	19.867714
29685.876596	-1296.588333	493.865234	86.080551
29685.876596	-1296.588333	492.610352	150.250916
29685.876596	-1296.588333	491.355469	-46.969353
29685.876596	-1296.588333	490.099609	101.621300
29685.876596	-1296.588333	488.843750	43.157104
29685.876596	-1296.588333	487.587891	87.185791
29685.876596	-1296.588333	486.332031	32.766327
29685.876596	-1296.588333	485.075195	64.724220
29685.876596	-1296.588333	483.818359	162.927979
29685.876596	-1296.588333	482.561523	30.230925
29685.876596	-1296.588333	481.304688	146.460480
29685.876596	-1296.588333	480.046875	184.379074
29685.876596	-1296.588333	478.789063	93.884911
29685.876596	-1296.588333	477.531250	125.777000
29685.876596	-1296.588333	476.272461	203.772308
29685.876596	-1296.588333	475.013672	199.531631
29685.876596	-1296.588333	473.754883	135.156647
29685.876596	-1296.588333	472.496094	-27.389658
29685.876596	-1296.588333	471.236328	116.672523
29685.876596	-1296.588333	469.976563	136.474106
29685.876596	-1296.588333	468.716797	232.364197
29685.876596	-1296.588333	467.456055	190.049271
29685.876596	-1296.588333	466.196289	159.759293
29685.876596	-1296.588333	464.935547	247.556107
29685.876596	-1296.588333	463.673828	123.202744
29685.876596	-1296.588333	462.413086	162.941299
29685.876596	-1296.588333	461.151367	170.649872
29685.876596	-1296.588333	459.889648	232.336548
29685.876596	-1296.588333	458.626953	188.024414
29685.876596	-1296.588333	457.364258	249.657028
29685.876596	-1296.588333	456.101563	205.337036
29685.876596	-1296.588333	454.838867	105.080635
29685.876596	-1296.588333	453.575195	198.610397
29685.876596	-1296.588333	452.312500	206.212601
29685.876596	-1296.588333	451.047852	295.652985
29685.876596	-1296.588333	449.784180	403.006470
29685.876596	-1296.588333	448.519531	260.819519
29685.876596	-1296.588333	447.254883	208.465530
29685.876596	-1296.588333	445.990234	285.783142
29685.876596	-1296.588333	444.725586	281.271545
29685.876596	-1296.588333	443.459961	282.718231
29685.876596	-1296.588333	442.194336	256.228424
29685.876596	-1296.588333	440.927734	323.401459
29685.876596	-1296.588333	439.662109	264.976074
29685.876596	-1296.588333	438.395508	244.398407
29685.876596	-1296.588333	437.127930	309.447479
29685.876596	-1296.588333	435.861328	282.830750
29685.876596	-1296.588333	434.593750	349.766907
29685.876596	-1296.588333	433.326172	285.257446
29685.876596	-1296.588333	432.058594	151.081146
29685.876596	-1296.588333	430.790039	285.535950
29685.876596	-1296.588333	429.521484	348.274445
29685.876596	-1296.588333	428.252930	297.574860
29685.876596	-1296.588333	426.984375	173.277222
29685.876596	-1296.588333	425.714844	204.047180
29685.876596	-1296.588333	424.445313	226.802353
29685.876596	-1296.588333	423.174805	356.796967
29685.876596	-1296.588333	421.905273	278.075226
29685.876596	-1296.588333	420.634766	274.804596
29685.876596	-1296.588333	419.364258	257.572357
29685.876596	-1296.588333	418.092773	234.323730
29685.876596	-1296.588333	416.822266	302.330933
29685.876596	-1296.588333	415.550781	269.021393
29685.876596	-1296.588333	414.278320	277.316772
29685.876596	-1296.588333	413.006836	224.039169
29685.876596	-1296.588333	411.734375	271.849304
29685.876596	-1296.588333	410.461914	149.029526
29685.876596	-1296.588333	409.188477	81.680679
29685.876596	-1296.588333	407.916016	210.491653
29685.876596	-1296.588333	406.642578	129.102707
29685.876596	-1296.588333	405.368164	75.382980
29685.876596	-1296.588333	404.094727	229.562973
29685.876596	-1296.588333	402.820313	240.986801
29685.876596	-1296.588333	401.545898	280.012726
29685.876596	-1296.588333	400.270508	97.209000
29685.876596	-1296.588333	398.996094	246.840012
29685.876596	-1296.588333	397.720703	152.915741
29685.876596	-1296.588333	396.444336	151.872284
29685.876596	-1296.588333	395.168945	124.991333
29685.876596	-1296.588333	393.892578	220.570465
29685.876596	-1296.588333	392.616211	157.818771
29685.876596	-1296.588333	391.339844	229.342087
29685.876596	-1296.588333	390.062500	219.661911
29685.876596	-1296.588333	388.785156	95.245544
29685.876596	-1296.588333	387.507813	132.679352
29685.876596	-1296.588333	386.229492	85.009926
29685.876596	-1296.588333	384.951172	102.336815
29685.876596	-1296.588333	383.672852	58.285496
29685.876596	-1296.588333	382.394531	106.815765
29685.876596	-1296.588333	381.115234	168.935455
29685.876596	-1296.588333	379.835938	134.173233
29685.876596	-1296.588333	378.556641	28.222815
29685.876596	-1296.588333	377.277344	111.386612
29685.876596	-1296.588333	375.997070	186.401657
29685.876596	-1296.588333	374.716797	89.693535
29685.876596	-1296.588333	373.435547	8.548381
29685.876596	-1296.588333	372.155273	35.550808
29685.876596	-1296.588333	370.874023	34.709869
29685.876596	-1296.588333	369.591797	132.058304
29685.876596	-1296.588333	368.310547	32.236988
29685.876596	-1296.588333	367.028320	121.128731
29685.876596	-1296.588333	365.746094	97.532166
29685.876596	-1296.588333	364.463867	140.544785
29685.876596	-1296.588333	363.180664	-41.005970
29685.876596	-1296.588333	361.897461	109.557945
29685.876596	-1296.588333	360.614258	45.430103
29685.876596	-1296.588333	359.330078	59.619202
29685.876596	-1296.588333	358.045898	59.706184
29685.876596	-1296.588333	356.761719	-9.325490
29685.876596	-1296.588333	355.477539	107.932228
29685.876596	-1296.588333	354.192383	8.721936
29685.876596	-1296.588333	352.907227	164.435242
29685.876596	-1296.588333	351.622070	50.742214
29685.876596	-1296.588333	350.336914	83.898132
29685.876596	-1296.588333	349.050781	8.690318
29685.876596	-1296.588333	347.764648	21.371914
29685.876596	-1296.588333	346.477539	-74.279205
29685.876596	-1296.588333	345.191406	-50.706131
29685.876596	-1296.588333	343.904297	-53.105583
29685.876596	-1296.588333	342.616211	-101.074936
29685.876596	-1296.588333	341.329102	83.705727
29685.876596	-1296.588333	340.041016	9.267717
29685.876596	-1296.588333	338.752930	-22.558685
29685.876596	-1296.588333	337.463867	-54.914597
29685.876596	-1296.588333	336.175781	-46.666649
29685.876596	-1296.588333	334.886719	54.968086
29685.876596	-1296.588333	333.596680	120.742126
29685.876596	-1296.588333	332.307617	13.725986
29685.876596	-1296.588333	331.017578	19.601494
29685.876596	-1296.588333	329.727539	17.032198
29685.876596	-1296.588333	328.436523	58.786827
29685.876596	-1296.588333	327.146484	-31.093918
29685.876596	-1296.588333	325.855469	-51.257423
29685.876596	-1296.588333	324.563477	-9.583017
29685.876596	-1296.588333	323.272461	99.770340
29685.876596	-1296.588333	321.980469	-20.198418
29685.876596	-1296.588333	320.688477	-64.691383
29685.876596	-1296.588333	319.395508	34.537537
29685.876596	-1296.588333	318.103516	76.361130
29685.876596	-1296.588333	316.810547	-77.808067
29685.876596	-1296.588333	315.516602	-27.876057
29685.876596	-1296.588333	314.223633	-58.756649
29685.876596	-1296.588333	312.929688	55.770908
29685.876596	-1296.588333	311.635742	-49.013588
29685.876596	-1296.588333	310.340820	48.067913
29685.876596	-1296.588333	309.045898	-19.529522
29685.876596	-1296.588333	307.750977	36.672340
29685.876596	-1296.588333	306.456055	0.322740
29685.876596	-1296.588333	305.160156	138.272003
29685.876596	-1296.588333	303.865234	123.290680
29685.876596	-1296.588333	302.568359	116.957588
29685.876596	-1296.588333	301.272461	152.422501
29685.876596	-1296.588333	299.975586	237.356186
29685.876596	-1296.588333	298.678711	122.692093
