#X		#Y		#Wave		#Intensity
30285.746809	-1934.865000	1999.980469	-18.439802
30285.746809	-1934.865000	1999.016602	-28.570744
30285.746809	-1934.865000	1998.052734	12.482708
30285.746809	-1934.865000	1997.087891	-5.989301
30285.746809	-1934.865000	1996.123047	139.038269
30285.746809	-1934.865000	1995.158203	108.097992
30285.746809	-1934.865000	1994.193359	17.696060
30285.746809	-1934.865000	1993.228516	-65.272705
30285.746809	-1934.865000	1992.262695	-24.448145
30285.746809	-1934.865000	1991.297852	-45.549355
30285.746809	-1934.865000	1990.332031	-44.395428
30285.746809	-1934.865000	1989.366211	-3.675180
30285.746809	-1934.865000	1988.399414	51.849262
30285.746809	-1934.865000	1987.433594	-1.504479
30285.746809	-1934.865000	1986.466797	-69.698868
30285.746809	-1934.865000	1985.500977	64.866455
30285.746809	-1934.865000	1984.534180	-42.910259
30285.746809	-1934.865000	1983.567383	-24.608484
30285.746809	-1934.865000	1982.599609	8.495713
30285.746809	-1934.865000	1981.632813	103.340637
30285.746809	-1934.865000	1980.665039	-147.711365
30285.746809	-1934.865000	1979.697266	-23.265169
30285.746809	-1934.865000	1978.729492	66.548744
30285.746809	-1934.865000	1977.761719	208.163834
30285.746809	-1934.865000	1976.792969	23.872648
30285.746809	-1934.865000	1975.825195	61.761467
30285.746809	-1934.865000	1974.856445	65.079056
30285.746809	-1934.865000	1973.887695	90.589134
30285.746809	-1934.865000	1972.918945	22.347107
30285.746809	-1934.865000	1971.949219	-100.135391
30285.746809	-1934.865000	1970.980469	83.172241
30285.746809	-1934.865000	1970.010742	44.527843
30285.746809	-1934.865000	1969.041016	60.117928
30285.746809	-1934.865000	1968.071289	75.695557
30285.746809	-1934.865000	1967.101563	179.962494
30285.746809	-1934.865000	1966.130859	114.207085
30285.746809	-1934.865000	1965.161133	-0.787694
30285.746809	-1934.865000	1964.190430	34.470192
30285.746809	-1934.865000	1963.219727	77.098320
30285.746809	-1934.865000	1962.249023	21.242701
30285.746809	-1934.865000	1961.277344	26.933737
30285.746809	-1934.865000	1960.306641	27.699965
30285.746809	-1934.865000	1959.334961	-18.280666
30285.746809	-1934.865000	1958.363281	41.525845
30285.746809	-1934.865000	1957.391602	79.175095
30285.746809	-1934.865000	1956.419922	70.091797
30285.746809	-1934.865000	1955.447266	75.761810
30285.746809	-1934.865000	1954.474609	2.775228
30285.746809	-1934.865000	1953.501953	106.757401
30285.746809	-1934.865000	1952.529297	43.622726
30285.746809	-1934.865000	1951.556641	44.384708
30285.746809	-1934.865000	1950.583984	40.236038
30285.746809	-1934.865000	1949.610352	41.001358
30285.746809	-1934.865000	1948.636719	-51.529636
30285.746809	-1934.865000	1947.663086	30.264900
30285.746809	-1934.865000	1946.689453	119.394974
30285.746809	-1934.865000	1945.715820	46.541000
30285.746809	-1934.865000	1944.741211	30.144760
30285.746809	-1934.865000	1943.767578	26.023527
30285.746809	-1934.865000	1942.792969	63.599205
30285.746809	-1934.865000	1941.818359	-55.764420
30285.746809	-1934.865000	1940.842773	-57.404892
30285.746809	-1934.865000	1939.868164	114.988625
30285.746809	-1934.865000	1938.892578	-58.220078
30285.746809	-1934.865000	1937.916992	13.659867
30285.746809	-1934.865000	1936.941406	-2.672693
30285.746809	-1934.865000	1935.965820	20.193970
30285.746809	-1934.865000	1934.990234	133.663757
30285.746809	-1934.865000	1934.013672	122.228676
30285.746809	-1934.865000	1933.037109	64.292397
30285.746809	-1934.865000	1932.060547	74.912117
30285.746809	-1934.865000	1931.083984	-61.287113
30285.746809	-1934.865000	1930.107422	154.871994
30285.746809	-1934.865000	1929.129883	-93.801682
30285.746809	-1934.865000	1928.153320	80.718239
30285.746809	-1934.865000	1927.175781	22.885403
30285.746809	-1934.865000	1926.198242	-42.254536
30285.746809	-1934.865000	1925.219727	-46.258450
30285.746809	-1934.865000	1924.242188	-35.592201
30285.746809	-1934.865000	1923.263672	-46.915924
30285.746809	-1934.865000	1922.285156	27.272038
30285.746809	-1934.865000	1921.306641	-1.145054
30285.746809	-1934.865000	1920.328125	11.967031
30285.746809	-1934.865000	1919.349609	47.053551
30285.746809	-1934.865000	1918.370117	18.663578
30285.746809	-1934.865000	1917.391602	-100.013626
30285.746809	-1934.865000	1916.412109	3.413109
30285.746809	-1934.865000	1915.431641	-10.300431
30285.746809	-1934.865000	1914.452148	83.324028
30285.746809	-1934.865000	1913.472656	93.998627
30285.746809	-1934.865000	1912.492188	14.455029
30285.746809	-1934.865000	1911.511719	-152.818909
30285.746809	-1934.865000	1910.531250	-25.096264
30285.746809	-1934.865000	1909.550781	5.103805
30285.746809	-1934.865000	1908.569336	-74.347389
30285.746809	-1934.865000	1907.588867	41.121101
30285.746809	-1934.865000	1906.607422	42.076244
30285.746809	-1934.865000	1905.625977	-124.991730
30285.746809	-1934.865000	1904.644531	-9.567352
30285.746809	-1934.865000	1903.662109	-15.896006
30285.746809	-1934.865000	1902.680664	-68.461021
30285.746809	-1934.865000	1901.698242	-26.103121
30285.746809	-1934.865000	1900.715820	52.735260
30285.746809	-1934.865000	1899.733398	-31.426039
30285.746809	-1934.865000	1898.750000	183.579697
30285.746809	-1934.865000	1897.767578	-7.557073
30285.746809	-1934.865000	1896.784180	-79.497879
30285.746809	-1934.865000	1895.800781	-49.323856
30285.746809	-1934.865000	1894.817383	-77.482964
30285.746809	-1934.865000	1893.833984	-168.802536
30285.746809	-1934.865000	1892.850586	45.998951
30285.746809	-1934.865000	1891.866211	25.127766
30285.746809	-1934.865000	1890.881836	-12.732626
30285.746809	-1934.865000	1889.897461	14.974694
30285.746809	-1934.865000	1888.913086	28.107424
30285.746809	-1934.865000	1887.927734	12.111561
30285.746809	-1934.865000	1886.943359	-16.010521
30285.746809	-1934.865000	1885.958008	40.790127
30285.746809	-1934.865000	1884.972656	-74.649246
30285.746809	-1934.865000	1883.987305	144.626205
30285.746809	-1934.865000	1883.001953	72.854073
30285.746809	-1934.865000	1882.015625	32.622406
30285.746809	-1934.865000	1881.029297	4.523343
30285.746809	-1934.865000	1880.042969	-45.375969
30285.746809	-1934.865000	1879.056641	-49.223713
30285.746809	-1934.865000	1878.070313	-2.200789
30285.746809	-1934.865000	1877.083984	20.582703
30285.746809	-1934.865000	1876.096680	-0.232934
30285.746809	-1934.865000	1875.109375	126.642670
30285.746809	-1934.865000	1874.122070	-15.221886
30285.746809	-1934.865000	1873.134766	-113.472832
30285.746809	-1934.865000	1872.146484	-49.569977
30285.746809	-1934.865000	1871.159180	-26.821486
30285.746809	-1934.865000	1870.170898	75.734612
30285.746809	-1934.865000	1869.182617	69.422379
30285.746809	-1934.865000	1868.194336	-55.368782
30285.746809	-1934.865000	1867.205078	-30.236877
30285.746809	-1934.865000	1866.216797	113.314163
30285.746809	-1934.865000	1865.227539	12.735029
30285.746809	-1934.865000	1864.238281	-39.489540
30285.746809	-1934.865000	1863.249023	106.381416
30285.746809	-1934.865000	1862.259766	42.071285
30285.746809	-1934.865000	1861.269531	93.685638
30285.746809	-1934.865000	1860.279297	68.017342
30285.746809	-1934.865000	1859.290039	10.973514
30285.746809	-1934.865000	1858.298828	19.103754
30285.746809	-1934.865000	1857.308594	65.830643
30285.746809	-1934.865000	1856.318359	23.272438
30285.746809	-1934.865000	1855.327148	-55.458492
30285.746809	-1934.865000	1854.335938	32.229580
30285.746809	-1934.865000	1853.344727	-10.322770
30285.746809	-1934.865000	1852.353516	176.143982
30285.746809	-1934.865000	1851.362305	169.717026
30285.746809	-1934.865000	1850.370117	4.239624
30285.746809	-1934.865000	1849.377930	46.014496
30285.746809	-1934.865000	1848.385742	-54.357033
30285.746809	-1934.865000	1847.393555	148.756149
30285.746809	-1934.865000	1846.401367	94.134590
30285.746809	-1934.865000	1845.408203	171.934021
30285.746809	-1934.865000	1844.415039	54.724800
30285.746809	-1934.865000	1843.421875	96.383629
30285.746809	-1934.865000	1842.428711	46.583149
30285.746809	-1934.865000	1841.435547	129.101944
30285.746809	-1934.865000	1840.441406	-93.883766
30285.746809	-1934.865000	1839.448242	99.227005
30285.746809	-1934.865000	1838.454102	56.630669
30285.746809	-1934.865000	1837.459961	107.789238
30285.746809	-1934.865000	1836.464844	-6.919442
30285.746809	-1934.865000	1835.470703	-13.463625
30285.746809	-1934.865000	1834.475586	42.446766
30285.746809	-1934.865000	1833.480469	-45.799931
30285.746809	-1934.865000	1832.485352	82.117851
30285.746809	-1934.865000	1831.490234	1.074433
30285.746809	-1934.865000	1830.495117	-5.530005
30285.746809	-1934.865000	1829.499023	-12.146781
30285.746809	-1934.865000	1828.502930	103.614464
30285.746809	-1934.865000	1827.506836	0.979122
30285.746809	-1934.865000	1826.510742	97.474838
30285.746809	-1934.865000	1825.513672	71.599464
30285.746809	-1934.865000	1824.517578	19.342558
30285.746809	-1934.865000	1823.520508	-23.320009
30285.746809	-1934.865000	1822.523438	87.430923
30285.746809	-1934.865000	1821.526367	107.053185
30285.746809	-1934.865000	1820.529297	124.257057
30285.746809	-1934.865000	1819.531250	179.768845
30285.746809	-1934.865000	1818.533203	158.596237
30285.746809	-1934.865000	1817.535156	17.675112
30285.746809	-1934.865000	1816.537109	118.621033
30285.746809	-1934.865000	1815.539063	102.211678
30285.746809	-1934.865000	1814.540039	155.201111
30285.746809	-1934.865000	1813.541992	59.788719
30285.746809	-1934.865000	1812.542969	-49.960083
30285.746809	-1934.865000	1811.543945	146.504044
30285.746809	-1934.865000	1810.543945	20.003485
30285.746809	-1934.865000	1809.544922	37.006310
30285.746809	-1934.865000	1808.544922	147.223328
30285.746809	-1934.865000	1807.544922	-12.721820
30285.746809	-1934.865000	1806.544922	30.512524
30285.746809	-1934.865000	1805.544922	23.535610
30285.746809	-1934.865000	1804.544922	35.654930
30285.746809	-1934.865000	1803.543945	38.196674
30285.746809	-1934.865000	1802.542969	24.002838
30285.746809	-1934.865000	1801.541992	86.198792
30285.746809	-1934.865000	1800.541016	31.384033
30285.746809	-1934.865000	1799.539063	21.916439
30285.746809	-1934.865000	1798.538086	153.222504
30285.746809	-1934.865000	1797.536133	136.541000
30285.746809	-1934.865000	1796.534180	143.699921
30285.746809	-1934.865000	1795.532227	10.130292
30285.746809	-1934.865000	1794.529297	165.104965
30285.746809	-1934.865000	1793.527344	165.045746
30285.746809	-1934.865000	1792.524414	112.528191
30285.746809	-1934.865000	1791.521484	36.180630
30285.746809	-1934.865000	1790.518555	-16.331472
30285.746809	-1934.865000	1789.514648	93.142586
30285.746809	-1934.865000	1788.511719	112.051643
30285.746809	-1934.865000	1787.507813	116.644936
30285.746809	-1934.865000	1786.503906	14.080690
30285.746809	-1934.865000	1785.500000	-5.152376
30285.746809	-1934.865000	1784.496094	27.959839
30285.746809	-1934.865000	1783.491211	-15.104903
30285.746809	-1934.865000	1782.486328	60.777058
30285.746809	-1934.865000	1781.481445	-10.860144
30285.746809	-1934.865000	1780.476563	55.439995
30285.746809	-1934.865000	1779.471680	7.567079
30285.746809	-1934.865000	1778.465820	-64.081772
30285.746809	-1934.865000	1777.460938	101.952995
30285.746809	-1934.865000	1776.455078	-109.928902
30285.746809	-1934.865000	1775.449219	46.505745
30285.746809	-1934.865000	1774.442383	22.328783
30285.746809	-1934.865000	1773.436523	138.263611
30285.746809	-1934.865000	1772.429688	95.041344
30285.746809	-1934.865000	1771.422852	20.952408
30285.746809	-1934.865000	1770.416016	115.395721
30285.746809	-1934.865000	1769.409180	-91.606270
30285.746809	-1934.865000	1768.402344	19.390787
30285.746809	-1934.865000	1767.394531	87.622208
30285.746809	-1934.865000	1766.386719	37.217873
30285.746809	-1934.865000	1765.378906	65.066467
30285.746809	-1934.865000	1764.371094	76.287628
30285.746809	-1934.865000	1763.362305	-42.892654
30285.746809	-1934.865000	1762.354492	124.722610
30285.746809	-1934.865000	1761.345703	69.515053
30285.746809	-1934.865000	1760.336914	47.475037
30285.746809	-1934.865000	1759.328125	60.952202
30285.746809	-1934.865000	1758.318359	93.347267
30285.746809	-1934.865000	1757.308594	125.709259
30285.746809	-1934.865000	1756.299805	39.676636
30285.746809	-1934.865000	1755.290039	64.894989
30285.746809	-1934.865000	1754.279297	49.852585
30285.746809	-1934.865000	1753.269531	30.066116
30285.746809	-1934.865000	1752.258789	33.919357
30285.746809	-1934.865000	1751.249023	186.749878
30285.746809	-1934.865000	1750.238281	86.489227
30285.746809	-1934.865000	1749.226563	52.440636
30285.746809	-1934.865000	1748.215820	20.750399
30285.746809	-1934.865000	1747.204102	-13.313612
30285.746809	-1934.865000	1746.193359	229.062454
30285.746809	-1934.865000	1745.181641	24.844645
30285.746809	-1934.865000	1744.168945	378.084259
30285.746809	-1934.865000	1743.157227	-5.592231
30285.746809	-1934.865000	1742.144531	49.996452
30285.746809	-1934.865000	1741.132813	119.709282
30285.746809	-1934.865000	1740.120117	163.413498
30285.746809	-1934.865000	1739.106445	138.649216
30285.746809	-1934.865000	1738.093750	146.905853
30285.746809	-1934.865000	1737.080078	136.267868
30285.746809	-1934.865000	1736.067383	146.841492
30285.746809	-1934.865000	1735.053711	155.031921
30285.746809	-1934.865000	1734.040039	120.767059
30285.746809	-1934.865000	1733.025391	6.358410
30285.746809	-1934.865000	1732.011719	-20.833750
30285.746809	-1934.865000	1730.997070	-76.308662
30285.746809	-1934.865000	1729.982422	99.064827
30285.746809	-1934.865000	1728.967773	76.522179
30285.746809	-1934.865000	1727.952148	148.154114
30285.746809	-1934.865000	1726.937500	38.468067
30285.746809	-1934.865000	1725.921875	86.505661
30285.746809	-1934.865000	1724.906250	-51.405575
30285.746809	-1934.865000	1723.890625	78.945442
30285.746809	-1934.865000	1722.875000	53.968513
30285.746809	-1934.865000	1721.858398	-6.298455
30285.746809	-1934.865000	1720.841797	34.555141
30285.746809	-1934.865000	1719.825195	18.950357
30285.746809	-1934.865000	1718.808594	38.592911
30285.746809	-1934.865000	1717.791992	-73.398384
30285.746809	-1934.865000	1716.774414	49.605602
30285.746809	-1934.865000	1715.756836	-31.840862
30285.746809	-1934.865000	1714.739258	135.701843
30285.746809	-1934.865000	1713.721680	-60.833519
30285.746809	-1934.865000	1712.704102	17.396996
30285.746809	-1934.865000	1711.685547	-78.134773
30285.746809	-1934.865000	1710.667969	-39.862740
30285.746809	-1934.865000	1709.649414	-27.436651
30285.746809	-1934.865000	1708.630859	-87.760620
30285.746809	-1934.865000	1707.611328	23.154253
30285.746809	-1934.865000	1706.592773	12.062635
30285.746809	-1934.865000	1705.573242	-29.525150
30285.746809	-1934.865000	1704.553711	-82.833961
30285.746809	-1934.865000	1703.534180	-21.286943
30285.746809	-1934.865000	1702.513672	-76.952377
30285.746809	-1934.865000	1701.494141	57.172581
30285.746809	-1934.865000	1700.473633	-40.681145
30285.746809	-1934.865000	1699.453125	11.381777
30285.746809	-1934.865000	1698.432617	-93.478302
30285.746809	-1934.865000	1697.412109	-34.429623
30285.746809	-1934.865000	1696.390625	-31.597666
30285.746809	-1934.865000	1695.369141	62.490601
30285.746809	-1934.865000	1694.347656	-25.976625
30285.746809	-1934.865000	1693.326172	-27.865831
30285.746809	-1934.865000	1692.304688	61.450638
30285.746809	-1934.865000	1691.282227	-69.099510
30285.746809	-1934.865000	1690.260742	-49.974571
30285.746809	-1934.865000	1689.238281	-19.184582
30285.746809	-1934.865000	1688.214844	-93.592140
30285.746809	-1934.865000	1687.192383	-60.492893
30285.746809	-1934.865000	1686.168945	-4.058052
30285.746809	-1934.865000	1685.146484	-62.106651
30285.746809	-1934.865000	1684.123047	185.781357
30285.746809	-1934.865000	1683.099609	88.000549
30285.746809	-1934.865000	1682.075195	-119.474091
30285.746809	-1934.865000	1681.051758	-126.154381
30285.746809	-1934.865000	1680.027344	121.510048
30285.746809	-1934.865000	1679.002930	68.101288
30285.746809	-1934.865000	1677.978516	66.021919
30285.746809	-1934.865000	1676.953125	31.279638
30285.746809	-1934.865000	1675.928711	45.511135
30285.746809	-1934.865000	1674.903320	1.442488
30285.746809	-1934.865000	1673.877930	-128.858322
30285.746809	-1934.865000	1672.852539	-37.730888
30285.746809	-1934.865000	1671.826172	-49.167553
30285.746809	-1934.865000	1670.800781	-11.684862
30285.746809	-1934.865000	1669.774414	-79.034836
30285.746809	-1934.865000	1668.748047	81.835426
30285.746809	-1934.865000	1667.721680	47.072651
30285.746809	-1934.865000	1666.694336	-1.652926
30285.746809	-1934.865000	1665.667969	117.197876
30285.746809	-1934.865000	1664.640625	19.601025
30285.746809	-1934.865000	1663.613281	73.248108
30285.746809	-1934.865000	1662.585938	-26.640398
30285.746809	-1934.865000	1661.557617	-38.133045
30285.746809	-1934.865000	1660.530273	31.751774
30285.746809	-1934.865000	1659.501953	-35.547607
30285.746809	-1934.865000	1658.473633	106.342560
30285.746809	-1934.865000	1657.444336	11.157916
30285.746809	-1934.865000	1656.416016	48.431370
30285.746809	-1934.865000	1655.386719	111.233063
30285.746809	-1934.865000	1654.358398	2.159400
30285.746809	-1934.865000	1653.328125	34.750263
30285.746809	-1934.865000	1652.298828	141.613251
30285.746809	-1934.865000	1651.269531	32.582661
30285.746809	-1934.865000	1650.239258	65.139221
30285.746809	-1934.865000	1649.208984	137.121063
30285.746809	-1934.865000	1648.178711	144.123688
30285.746809	-1934.865000	1647.148438	107.057503
30285.746809	-1934.865000	1646.117188	116.374443
30285.746809	-1934.865000	1645.086914	83.960983
30285.746809	-1934.865000	1644.055664	100.229034
30285.746809	-1934.865000	1643.024414	181.375626
30285.746809	-1934.865000	1641.992188	88.718430
30285.746809	-1934.865000	1640.960938	172.151230
30285.746809	-1934.865000	1639.928711	204.595230
30285.746809	-1934.865000	1638.896484	88.830460
30285.746809	-1934.865000	1637.864258	112.017830
30285.746809	-1934.865000	1636.832031	121.308983
30285.746809	-1934.865000	1635.798828	109.765251
30285.746809	-1934.865000	1634.766602	167.643661
30285.746809	-1934.865000	1633.733398	167.664795
30285.746809	-1934.865000	1632.699219	160.745392
30285.746809	-1934.865000	1631.666016	112.209892
30285.746809	-1934.865000	1630.632813	128.431152
30285.746809	-1934.865000	1629.598633	262.532532
30285.746809	-1934.865000	1628.564453	281.030365
30285.746809	-1934.865000	1627.530273	183.992783
30285.746809	-1934.865000	1626.495117	267.186737
30285.746809	-1934.865000	1625.460938	401.168518
30285.746809	-1934.865000	1624.425781	405.779327
30285.746809	-1934.865000	1623.390625	318.039429
30285.746809	-1934.865000	1622.355469	209.561829
30285.746809	-1934.865000	1621.319336	290.378174
30285.746809	-1934.865000	1620.284180	336.559326
30285.746809	-1934.865000	1619.248047	218.924133
30285.746809	-1934.865000	1618.211914	507.299377
30285.746809	-1934.865000	1617.174805	435.807556
30285.746809	-1934.865000	1616.138672	415.077606
30285.746809	-1934.865000	1615.101563	339.032379
30285.746809	-1934.865000	1614.065430	320.646484
30285.746809	-1934.865000	1613.027344	343.746307
30285.746809	-1934.865000	1611.990234	240.132431
30285.746809	-1934.865000	1610.953125	214.883926
30285.746809	-1934.865000	1609.915039	293.283905
30285.746809	-1934.865000	1608.876953	182.852005
30285.746809	-1934.865000	1607.838867	263.545532
30285.746809	-1934.865000	1606.800781	215.323196
30285.746809	-1934.865000	1605.761719	252.269501
30285.746809	-1934.865000	1604.723633	238.597168
30285.746809	-1934.865000	1603.684570	356.052948
30285.746809	-1934.865000	1602.644531	363.075653
30285.746809	-1934.865000	1601.605469	305.725555
30285.746809	-1934.865000	1600.566406	331.169678
30285.746809	-1934.865000	1599.526367	202.610687
30285.746809	-1934.865000	1598.486328	285.533936
30285.746809	-1934.865000	1597.446289	329.375702
30285.746809	-1934.865000	1596.405273	210.109680
30285.746809	-1934.865000	1595.365234	265.454773
30285.746809	-1934.865000	1594.324219	385.081757
30285.746809	-1934.865000	1593.283203	435.799164
30285.746809	-1934.865000	1592.242188	245.494949
30285.746809	-1934.865000	1591.200195	234.278122
30285.746809	-1934.865000	1590.159180	209.313705
30285.746809	-1934.865000	1589.117188	367.890778
30285.746809	-1934.865000	1588.075195	301.648407
30285.746809	-1934.865000	1587.032227	345.512024
30285.746809	-1934.865000	1585.990234	492.545502
30285.746809	-1934.865000	1584.947266	231.515060
30285.746809	-1934.865000	1583.904297	229.571884
30285.746809	-1934.865000	1582.861328	280.344147
30285.746809	-1934.865000	1581.818359	333.401398
30285.746809	-1934.865000	1580.775391	287.964081
30285.746809	-1934.865000	1579.731445	297.516388
30285.746809	-1934.865000	1578.687500	300.210815
30285.746809	-1934.865000	1577.643555	314.365509
30285.746809	-1934.865000	1576.598633	399.474915
30285.746809	-1934.865000	1575.554688	255.750046
30285.746809	-1934.865000	1574.509766	288.251343
30285.746809	-1934.865000	1573.464844	313.893982
30285.746809	-1934.865000	1572.419922	305.240692
30285.746809	-1934.865000	1571.374023	314.895355
30285.746809	-1934.865000	1570.329102	308.564941
30285.746809	-1934.865000	1569.283203	325.105927
30285.746809	-1934.865000	1568.237305	353.082855
30285.746809	-1934.865000	1567.191406	280.544220
30285.746809	-1934.865000	1566.144531	258.300598
30285.746809	-1934.865000	1565.098633	242.937103
30285.746809	-1934.865000	1564.051758	179.646881
30285.746809	-1934.865000	1563.004883	127.814148
30285.746809	-1934.865000	1561.957031	167.312500
30285.746809	-1934.865000	1560.910156	330.040405
30285.746809	-1934.865000	1559.862305	107.152527
30285.746809	-1934.865000	1558.814453	153.532074
30285.746809	-1934.865000	1557.766602	227.279785
30285.746809	-1934.865000	1556.718750	191.572647
30285.746809	-1934.865000	1555.669922	185.532379
30285.746809	-1934.865000	1554.621094	275.242249
30285.746809	-1934.865000	1553.573242	203.146286
30285.746809	-1934.865000	1552.523438	158.434631
30285.746809	-1934.865000	1551.474609	193.489304
30285.746809	-1934.865000	1550.424805	267.265106
30285.746809	-1934.865000	1549.375000	252.230988
30285.746809	-1934.865000	1548.325195	230.393936
30285.746809	-1934.865000	1547.275391	397.502655
30285.746809	-1934.865000	1546.225586	298.317596
30285.746809	-1934.865000	1545.174805	426.710175
30285.746809	-1934.865000	1544.124023	291.203888
30285.746809	-1934.865000	1543.073242	219.453644
30285.746809	-1934.865000	1542.022461	286.458679
30285.746809	-1934.865000	1540.970703	342.090942
30285.746809	-1934.865000	1539.919922	425.001526
30285.746809	-1934.865000	1538.868164	285.195007
30285.746809	-1934.865000	1537.815430	290.876190
30285.746809	-1934.865000	1536.763672	212.530914
30285.746809	-1934.865000	1535.710938	343.184967
30285.746809	-1934.865000	1534.659180	344.382599
30285.746809	-1934.865000	1533.606445	257.060852
30285.746809	-1934.865000	1532.552734	351.381042
30285.746809	-1934.865000	1531.500000	130.248215
30285.746809	-1934.865000	1530.446289	233.680496
30285.746809	-1934.865000	1529.393555	416.494934
30285.746809	-1934.865000	1528.338867	338.434937
30285.746809	-1934.865000	1527.285156	292.178741
30285.746809	-1934.865000	1526.231445	345.719208
30285.746809	-1934.865000	1525.176758	367.528259
30285.746809	-1934.865000	1524.122070	296.438446
30285.746809	-1934.865000	1523.067383	300.173096
30285.746809	-1934.865000	1522.012695	399.076019
30285.746809	-1934.865000	1520.957031	239.766235
30285.746809	-1934.865000	1519.901367	386.244659
30285.746809	-1934.865000	1518.845703	324.403992
30285.746809	-1934.865000	1517.790039	210.551956
30285.746809	-1934.865000	1516.734375	314.028992
30285.746809	-1934.865000	1515.677734	222.901489
30285.746809	-1934.865000	1514.621094	122.787880
30285.746809	-1934.865000	1513.564453	199.157028
30285.746809	-1934.865000	1512.507813	92.357193
30285.746809	-1934.865000	1511.450195	180.058823
30285.746809	-1934.865000	1510.393555	195.420822
30285.746809	-1934.865000	1509.335938	183.682480
30285.746809	-1934.865000	1508.278320	273.654480
30285.746809	-1934.865000	1507.219727	185.150452
30285.746809	-1934.865000	1506.162109	166.727020
30285.746809	-1934.865000	1505.103516	55.752571
30285.746809	-1934.865000	1504.044922	73.539635
30285.746809	-1934.865000	1502.986328	107.148354
30285.746809	-1934.865000	1501.926758	224.272842
30285.746809	-1934.865000	1500.868164	61.588566
30285.746809	-1934.865000	1499.808594	259.945160
30285.746809	-1934.865000	1498.749023	151.505112
30285.746809	-1934.865000	1497.688477	104.021210
30285.746809	-1934.865000	1496.628906	164.805420
30285.746809	-1934.865000	1495.568359	245.880432
30285.746809	-1934.865000	1494.507813	38.478920
30285.746809	-1934.865000	1493.447266	94.817711
30285.746809	-1934.865000	1492.386719	180.449127
30285.746809	-1934.865000	1491.325195	27.324842
30285.746809	-1934.865000	1490.263672	22.916182
30285.746809	-1934.865000	1489.202148	178.391159
30285.746809	-1934.865000	1488.140625	-75.850288
30285.746809	-1934.865000	1487.079102	90.893051
30285.746809	-1934.865000	1486.016602	-64.168198
30285.746809	-1934.865000	1484.954102	118.311630
30285.746809	-1934.865000	1483.891602	84.822304
30285.746809	-1934.865000	1482.829102	67.117287
30285.746809	-1934.865000	1481.765625	13.475637
30285.746809	-1934.865000	1480.702148	2.593990
30285.746809	-1934.865000	1479.638672	151.315628
30285.746809	-1934.865000	1478.575195	124.747986
30285.746809	-1934.865000	1477.511719	156.605453
30285.746809	-1934.865000	1476.447266	-72.004173
30285.746809	-1934.865000	1475.382813	85.676132
30285.746809	-1934.865000	1474.318359	99.653214
30285.746809	-1934.865000	1473.253906	68.801109
30285.746809	-1934.865000	1472.189453	177.068054
30285.746809	-1934.865000	1471.124023	-44.393559
30285.746809	-1934.865000	1470.058594	25.725368
30285.746809	-1934.865000	1468.993164	15.164096
30285.746809	-1934.865000	1467.927734	40.631607
30285.746809	-1934.865000	1466.861328	45.817966
30285.746809	-1934.865000	1465.794922	39.935493
30285.746809	-1934.865000	1464.728516	-8.566115
30285.746809	-1934.865000	1463.662109	59.319958
30285.746809	-1934.865000	1462.594727	-46.922169
30285.746809	-1934.865000	1461.528320	110.579094
30285.746809	-1934.865000	1460.460938	-79.000946
30285.746809	-1934.865000	1459.393555	42.735378
30285.746809	-1934.865000	1458.326172	-78.846230
30285.746809	-1934.865000	1457.257813	-21.974899
30285.746809	-1934.865000	1456.189453	-58.930298
30285.746809	-1934.865000	1455.121094	153.860306
30285.746809	-1934.865000	1454.052734	114.794327
30285.746809	-1934.865000	1452.984375	118.485016
30285.746809	-1934.865000	1451.915039	193.767319
30285.746809	-1934.865000	1450.845703	136.710083
30285.746809	-1934.865000	1449.776367	239.823486
30285.746809	-1934.865000	1448.707031	118.735435
30285.746809	-1934.865000	1447.636719	142.590057
30285.746809	-1934.865000	1446.567383	248.229828
30285.746809	-1934.865000	1445.497070	222.548050
30285.746809	-1934.865000	1444.425781	288.097961
30285.746809	-1934.865000	1443.355469	128.842514
30285.746809	-1934.865000	1442.285156	247.203674
30285.746809	-1934.865000	1441.213867	222.135300
30285.746809	-1934.865000	1440.142578	143.759171
30285.746809	-1934.865000	1439.070313	255.367538
30285.746809	-1934.865000	1437.999023	240.321960
30285.746809	-1934.865000	1436.926758	190.818909
30285.746809	-1934.865000	1435.854492	233.637253
30285.746809	-1934.865000	1434.782227	193.027390
30285.746809	-1934.865000	1433.709961	129.107407
30285.746809	-1934.865000	1432.636719	54.438789
30285.746809	-1934.865000	1431.563477	-63.372089
30285.746809	-1934.865000	1430.490234	93.536499
30285.746809	-1934.865000	1429.416992	64.847580
30285.746809	-1934.865000	1428.343750	140.763214
30285.746809	-1934.865000	1427.269531	54.363041
30285.746809	-1934.865000	1426.195313	16.778221
30285.746809	-1934.865000	1425.121094	44.965683
30285.746809	-1934.865000	1424.046875	-25.140099
30285.746809	-1934.865000	1422.971680	-68.963768
30285.746809	-1934.865000	1421.896484	0.171118
30285.746809	-1934.865000	1420.821289	43.141895
30285.746809	-1934.865000	1419.746094	13.666227
30285.746809	-1934.865000	1418.669922	13.882558
30285.746809	-1934.865000	1417.594727	68.149437
30285.746809	-1934.865000	1416.518555	45.660393
30285.746809	-1934.865000	1415.442383	115.633194
30285.746809	-1934.865000	1414.365234	107.808914
30285.746809	-1934.865000	1413.289063	-24.850582
30285.746809	-1934.865000	1412.211914	41.688744
30285.746809	-1934.865000	1411.134766	10.341831
30285.746809	-1934.865000	1410.057617	18.937653
30285.746809	-1934.865000	1408.979492	-4.582896
30285.746809	-1934.865000	1407.902344	-80.221596
30285.746809	-1934.865000	1406.824219	126.143730
30285.746809	-1934.865000	1405.746094	142.789703
30285.746809	-1934.865000	1404.666992	108.400459
30285.746809	-1934.865000	1403.588867	146.256744
30285.746809	-1934.865000	1402.509766	202.876419
30285.746809	-1934.865000	1401.430664	197.166367
30285.746809	-1934.865000	1400.351563	166.472626
30285.746809	-1934.865000	1399.271484	283.880859
30285.746809	-1934.865000	1398.192383	198.430298
30285.746809	-1934.865000	1397.112305	342.792389
30285.746809	-1934.865000	1396.031250	335.363495
30285.746809	-1934.865000	1394.951172	363.388855
30285.746809	-1934.865000	1393.871094	347.706543
30285.746809	-1934.865000	1392.790039	273.652313
30285.746809	-1934.865000	1391.708984	431.883820
30285.746809	-1934.865000	1390.626953	411.750519
30285.746809	-1934.865000	1389.545898	329.990479
30285.746809	-1934.865000	1388.463867	541.243286
30285.746809	-1934.865000	1387.381836	613.517578
30285.746809	-1934.865000	1386.299805	593.146667
30285.746809	-1934.865000	1385.217773	693.772888
30285.746809	-1934.865000	1384.134766	795.728882
30285.746809	-1934.865000	1383.051758	713.768616
30285.746809	-1934.865000	1381.968750	561.801208
30285.746809	-1934.865000	1380.885742	578.064758
30285.746809	-1934.865000	1379.802734	647.202087
30285.746809	-1934.865000	1378.718750	766.325134
30285.746809	-1934.865000	1377.634766	511.411072
30285.746809	-1934.865000	1376.550781	584.466064
30285.746809	-1934.865000	1375.465820	513.527344
30285.746809	-1934.865000	1374.381836	445.306000
30285.746809	-1934.865000	1373.296875	398.955872
30285.746809	-1934.865000	1372.211914	293.452515
30285.746809	-1934.865000	1371.126953	374.369476
30285.746809	-1934.865000	1370.041016	388.330536
30285.746809	-1934.865000	1368.955078	230.853653
30285.746809	-1934.865000	1367.869141	350.766296
30285.746809	-1934.865000	1366.783203	276.886658
30285.746809	-1934.865000	1365.697266	208.655884
30285.746809	-1934.865000	1364.610352	204.384415
30285.746809	-1934.865000	1363.523438	360.829376
30285.746809	-1934.865000	1362.436523	271.416351
30285.746809	-1934.865000	1361.349609	236.332153
30285.746809	-1934.865000	1360.261719	164.954605
30285.746809	-1934.865000	1359.174805	198.191086
30285.746809	-1934.865000	1358.086914	124.535706
30285.746809	-1934.865000	1356.998047	231.256393
30285.746809	-1934.865000	1355.910156	132.514297
30285.746809	-1934.865000	1354.821289	158.427704
30285.746809	-1934.865000	1353.732422	305.919067
30285.746809	-1934.865000	1352.643555	249.334930
30285.746809	-1934.865000	1351.554688	85.744377
30285.746809	-1934.865000	1350.464844	128.592773
30285.746809	-1934.865000	1349.375000	246.277145
30285.746809	-1934.865000	1348.285156	158.586365
30285.746809	-1934.865000	1347.195313	205.169632
30285.746809	-1934.865000	1346.105469	190.918839
30285.746809	-1934.865000	1345.014648	334.181732
30285.746809	-1934.865000	1343.923828	285.296204
30285.746809	-1934.865000	1342.833008	285.137512
30285.746809	-1934.865000	1341.741211	237.582306
30285.746809	-1934.865000	1340.650391	319.181854
30285.746809	-1934.865000	1339.558594	287.147675
30285.746809	-1934.865000	1338.466797	102.249680
30285.746809	-1934.865000	1337.374023	221.903580
30285.746809	-1934.865000	1336.282227	293.379852
30285.746809	-1934.865000	1335.189453	224.340225
30285.746809	-1934.865000	1334.096680	142.292389
30285.746809	-1934.865000	1333.003906	43.241970
30285.746809	-1934.865000	1331.910156	29.604784
30285.746809	-1934.865000	1330.817383	112.132561
30285.746809	-1934.865000	1329.723633	175.661530
30285.746809	-1934.865000	1328.629883	109.286674
30285.746809	-1934.865000	1327.535156	19.104515
30285.746809	-1934.865000	1326.441406	19.466295
30285.746809	-1934.865000	1325.346680	109.100426
30285.746809	-1934.865000	1324.251953	70.042274
30285.746809	-1934.865000	1323.156250	35.316139
30285.746809	-1934.865000	1322.061523	59.840549
30285.746809	-1934.865000	1320.965820	38.742931
30285.746809	-1934.865000	1319.870117	-10.333483
30285.746809	-1934.865000	1318.774414	84.350830
30285.746809	-1934.865000	1317.678711	-39.661873
30285.746809	-1934.865000	1316.582031	-9.997632
30285.746809	-1934.865000	1315.485352	22.339281
30285.746809	-1934.865000	1314.388672	47.317875
30285.746809	-1934.865000	1313.291016	-9.217636
30285.746809	-1934.865000	1312.194336	-45.652142
30285.746809	-1934.865000	1311.096680	64.622932
30285.746809	-1934.865000	1309.999023	-28.498791
30285.746809	-1934.865000	1308.901367	0.310586
30285.746809	-1934.865000	1307.802734	30.776175
30285.746809	-1934.865000	1306.705078	-68.158386
30285.746809	-1934.865000	1305.606445	50.447594
30285.746809	-1934.865000	1304.506836	12.997237
30285.746809	-1934.865000	1303.408203	20.724165
30285.746809	-1934.865000	1302.308594	73.019806
30285.746809	-1934.865000	1301.208984	101.352905
30285.746809	-1934.865000	1300.109375	52.774509
30285.746809	-1934.865000	1299.009766	49.862019
30285.746809	-1934.865000	1297.909180	142.575974
30285.746809	-1934.865000	1296.808594	69.600914
30285.746809	-1934.865000	1295.708008	68.808678
30285.746809	-1934.865000	1294.607422	123.633614
30285.746809	-1934.865000	1293.506836	62.846485
30285.746809	-1934.865000	1292.405273	0.348295
30285.746809	-1934.865000	1291.303711	-27.506048
30285.746809	-1934.865000	1290.202148	115.863312
30285.746809	-1934.865000	1289.099609	17.605921
30285.746809	-1934.865000	1287.998047	-37.183453
30285.746809	-1934.865000	1286.895508	16.532795
30285.746809	-1934.865000	1285.792969	50.321957
30285.746809	-1934.865000	1284.689453	19.176861
30285.746809	-1934.865000	1283.586914	17.950535
30285.746809	-1934.865000	1282.483398	55.758266
30285.746809	-1934.865000	1281.379883	-47.591957
30285.746809	-1934.865000	1280.276367	27.811270
30285.746809	-1934.865000	1279.171875	-146.729630
30285.746809	-1934.865000	1278.067383	-34.179638
30285.746809	-1934.865000	1276.962891	-102.462296
30285.746809	-1934.865000	1275.858398	15.752727
30285.746809	-1934.865000	1274.753906	-80.271111
30285.746809	-1934.865000	1273.648438	-17.896404
30285.746809	-1934.865000	1272.542969	-76.052010
30285.746809	-1934.865000	1271.437500	-52.046242
30285.746809	-1934.865000	1270.331055	8.797363
30285.746809	-1934.865000	1269.225586	-21.332794
30285.746809	-1934.865000	1268.119141	-30.557182
30285.746809	-1934.865000	1267.012695	-11.768037
30285.746809	-1934.865000	1265.906250	-96.729248
30285.746809	-1934.865000	1264.798828	-6.706220
30285.746809	-1934.865000	1263.691406	25.300890
30285.746809	-1934.865000	1262.583984	-62.640747
30285.746809	-1934.865000	1261.476563	-89.352142
30285.746809	-1934.865000	1260.368164	113.844650
30285.746809	-1934.865000	1259.260742	-33.581215
30285.746809	-1934.865000	1258.152344	-81.054382
30285.746809	-1934.865000	1257.043945	44.944523
30285.746809	-1934.865000	1255.934570	-58.647747
30285.746809	-1934.865000	1254.825195	-24.407026
30285.746809	-1934.865000	1253.716797	-23.365696
30285.746809	-1934.865000	1252.606445	68.682411
30285.746809	-1934.865000	1251.497070	52.826130
30285.746809	-1934.865000	1250.387695	48.728775
30285.746809	-1934.865000	1249.277344	43.071724
30285.746809	-1934.865000	1248.166992	-37.610016
30285.746809	-1934.865000	1247.055664	-16.060844
30285.746809	-1934.865000	1245.945313	-49.657787
30285.746809	-1934.865000	1244.833984	-69.010559
30285.746809	-1934.865000	1243.722656	-37.346817
30285.746809	-1934.865000	1242.611328	-38.162861
30285.746809	-1934.865000	1241.499023	-39.360817
30285.746809	-1934.865000	1240.387695	-47.701473
30285.746809	-1934.865000	1239.275391	6.792851
30285.746809	-1934.865000	1238.162109	-38.634884
30285.746809	-1934.865000	1237.049805	-118.899246
30285.746809	-1934.865000	1235.936523	-67.122681
30285.746809	-1934.865000	1234.823242	-32.823841
30285.746809	-1934.865000	1233.709961	-31.287090
30285.746809	-1934.865000	1232.596680	-27.372972
30285.746809	-1934.865000	1231.482422	-76.639885
30285.746809	-1934.865000	1230.369141	61.866302
30285.746809	-1934.865000	1229.253906	-22.796341
30285.746809	-1934.865000	1228.139648	-39.535366
30285.746809	-1934.865000	1227.025391	16.148438
30285.746809	-1934.865000	1225.910156	-120.894165
30285.746809	-1934.865000	1224.794922	-79.251602
30285.746809	-1934.865000	1223.679688	-44.121811
30285.746809	-1934.865000	1222.563477	-33.710190
30285.746809	-1934.865000	1221.447266	-90.434746
30285.746809	-1934.865000	1220.331055	-26.844482
30285.746809	-1934.865000	1219.214844	-87.641716
30285.746809	-1934.865000	1218.098633	-71.072708
30285.746809	-1934.865000	1216.981445	53.421268
30285.746809	-1934.865000	1215.864258	6.747936
30285.746809	-1934.865000	1214.747070	3.751362
30285.746809	-1934.865000	1213.629883	108.691635
30285.746809	-1934.865000	1212.511719	42.397007
30285.746809	-1934.865000	1211.393555	21.279123
30285.746809	-1934.865000	1210.275391	6.648371
30285.746809	-1934.865000	1209.157227	24.727249
30285.746809	-1934.865000	1208.038086	44.369858
30285.746809	-1934.865000	1206.918945	-20.483307
30285.746809	-1934.865000	1205.799805	8.885369
30285.746809	-1934.865000	1204.680664	9.203763
30285.746809	-1934.865000	1203.560547	62.136501
30285.746809	-1934.865000	1202.441406	-24.947887
30285.746809	-1934.865000	1201.321289	-51.882114
30285.746809	-1934.865000	1200.200195	-50.467621
30285.746809	-1934.865000	1199.080078	-105.089722
30285.746809	-1934.865000	1197.958984	-94.824837
30285.746809	-1934.865000	1196.837891	-29.566374
30285.746809	-1934.865000	1195.716797	-10.060561
30285.746809	-1934.865000	1194.594727	106.438225
30285.746809	-1934.865000	1193.473633	98.958809
30285.746809	-1934.865000	1192.351563	66.085365
30285.746809	-1934.865000	1191.229492	-5.283490
30285.746809	-1934.865000	1190.106445	18.759468
30285.746809	-1934.865000	1188.984375	45.983875
30285.746809	-1934.865000	1187.861328	35.670105
30285.746809	-1934.865000	1186.738281	57.415081
30285.746809	-1934.865000	1185.614258	57.049816
30285.746809	-1934.865000	1184.491211	84.858673
30285.746809	-1934.865000	1183.367188	174.159561
30285.746809	-1934.865000	1182.243164	182.312622
30285.746809	-1934.865000	1181.119141	136.801147
30285.746809	-1934.865000	1179.994141	126.452675
30285.746809	-1934.865000	1178.869141	120.835892
30285.746809	-1934.865000	1177.744141	95.558105
30285.746809	-1934.865000	1176.619141	130.159241
30285.746809	-1934.865000	1175.493164	100.726578
30285.746809	-1934.865000	1174.368164	40.424576
30285.746809	-1934.865000	1173.242188	90.185211
30285.746809	-1934.865000	1172.115234	34.954163
30285.746809	-1934.865000	1170.989258	42.098579
30285.746809	-1934.865000	1169.862305	110.084084
30285.746809	-1934.865000	1168.735352	149.661591
30285.746809	-1934.865000	1167.608398	147.654755
30285.746809	-1934.865000	1166.481445	50.313446
30285.746809	-1934.865000	1165.353516	-30.194553
30285.746809	-1934.865000	1164.225586	101.020889
30285.746809	-1934.865000	1163.097656	-41.281052
30285.746809	-1934.865000	1161.968750	67.579086
30285.746809	-1934.865000	1160.840820	-2.658758
30285.746809	-1934.865000	1159.711914	-47.917343
30285.746809	-1934.865000	1158.583008	27.219896
30285.746809	-1934.865000	1157.453125	59.059326
30285.746809	-1934.865000	1156.324219	52.099289
30285.746809	-1934.865000	1155.194336	104.837837
30285.746809	-1934.865000	1154.064453	91.814644
30285.746809	-1934.865000	1152.933594	38.738377
30285.746809	-1934.865000	1151.803711	86.566948
30285.746809	-1934.865000	1150.672852	164.822250
30285.746809	-1934.865000	1149.541992	89.241753
30285.746809	-1934.865000	1148.411133	31.945524
30285.746809	-1934.865000	1147.279297	-21.254808
30285.746809	-1934.865000	1146.147461	120.331886
30285.746809	-1934.865000	1145.015625	82.172348
30285.746809	-1934.865000	1143.883789	140.922775
30285.746809	-1934.865000	1142.750977	59.857136
30285.746809	-1934.865000	1141.619141	128.225616
30285.746809	-1934.865000	1140.486328	-2.747006
30285.746809	-1934.865000	1139.352539	44.014389
30285.746809	-1934.865000	1138.219727	51.812283
30285.746809	-1934.865000	1137.085938	85.437317
30285.746809	-1934.865000	1135.952148	-19.308882
30285.746809	-1934.865000	1134.818359	92.725487
30285.746809	-1934.865000	1133.683594	74.313354
30285.746809	-1934.865000	1132.549805	123.078148
30285.746809	-1934.865000	1131.415039	104.419769
30285.746809	-1934.865000	1130.279297	134.532959
30285.746809	-1934.865000	1129.144531	70.113983
30285.746809	-1934.865000	1128.008789	115.632973
30285.746809	-1934.865000	1126.873047	128.104568
30285.746809	-1934.865000	1125.737305	33.868092
30285.746809	-1934.865000	1124.601563	85.624672
30285.746809	-1934.865000	1123.464844	107.481125
30285.746809	-1934.865000	1122.328125	131.566391
30285.746809	-1934.865000	1121.191406	103.738853
30285.746809	-1934.865000	1120.054688	83.264595
30285.746809	-1934.865000	1118.916992	55.245495
30285.746809	-1934.865000	1117.779297	32.904797
30285.746809	-1934.865000	1116.641602	92.490044
30285.746809	-1934.865000	1115.503906	89.535881
30285.746809	-1934.865000	1114.365234	114.087502
30285.746809	-1934.865000	1113.226563	115.415581
30285.746809	-1934.865000	1112.087891	2.488361
30285.746809	-1934.865000	1110.949219	-10.217115
30285.746809	-1934.865000	1109.809570	53.085014
30285.746809	-1934.865000	1108.669922	17.220661
30285.746809	-1934.865000	1107.530273	125.049683
30285.746809	-1934.865000	1106.390625	58.328903
30285.746809	-1934.865000	1105.250000	-40.113373
30285.746809	-1934.865000	1104.109375	9.834954
30285.746809	-1934.865000	1102.968750	-14.227971
30285.746809	-1934.865000	1101.828125	178.642685
30285.746809	-1934.865000	1100.686523	204.109619
30285.746809	-1934.865000	1099.544922	160.606308
30285.746809	-1934.865000	1098.403320	205.832962
30285.746809	-1934.865000	1097.261719	95.416992
30285.746809	-1934.865000	1096.120117	130.748093
30285.746809	-1934.865000	1094.977539	157.857559
30285.746809	-1934.865000	1093.834961	94.547096
30285.746809	-1934.865000	1092.691406	2.091630
30285.746809	-1934.865000	1091.548828	124.669838
30285.746809	-1934.865000	1090.405273	223.180206
30285.746809	-1934.865000	1089.261719	223.270676
30285.746809	-1934.865000	1088.118164	232.586777
30285.746809	-1934.865000	1086.973633	196.653870
30285.746809	-1934.865000	1085.829102	283.887543
30285.746809	-1934.865000	1084.684570	155.646194
30285.746809	-1934.865000	1083.540039	175.466019
30285.746809	-1934.865000	1082.395508	295.815765
30285.746809	-1934.865000	1081.250000	171.509308
30285.746809	-1934.865000	1080.104492	182.221100
30285.746809	-1934.865000	1078.958984	314.640137
30285.746809	-1934.865000	1077.812500	322.918152
30285.746809	-1934.865000	1076.666016	283.253540
30285.746809	-1934.865000	1075.519531	183.818726
30285.746809	-1934.865000	1074.373047	203.453568
30285.746809	-1934.865000	1073.226563	188.915421
30285.746809	-1934.865000	1072.079102	237.596222
30285.746809	-1934.865000	1070.931641	233.400482
30285.746809	-1934.865000	1069.784180	199.189575
30285.746809	-1934.865000	1068.635742	323.148346
30285.746809	-1934.865000	1067.487305	135.459213
30285.746809	-1934.865000	1066.338867	237.269196
30285.746809	-1934.865000	1065.190430	228.543167
30285.746809	-1934.865000	1064.041992	374.082947
30285.746809	-1934.865000	1062.892578	352.560120
30285.746809	-1934.865000	1061.743164	353.517548
30285.746809	-1934.865000	1060.593750	247.844406
30285.746809	-1934.865000	1059.443359	229.559464
30285.746809	-1934.865000	1058.292969	259.559570
30285.746809	-1934.865000	1057.142578	211.043533
30285.746809	-1934.865000	1055.992188	243.617844
30285.746809	-1934.865000	1054.841797	155.200027
30285.746809	-1934.865000	1053.690430	147.029495
30285.746809	-1934.865000	1052.539063	76.997299
30285.746809	-1934.865000	1051.387695	-6.577134
30285.746809	-1934.865000	1050.235352	124.143173
30285.746809	-1934.865000	1049.083984	52.782269
30285.746809	-1934.865000	1047.931641	85.452049
30285.746809	-1934.865000	1046.778320	175.203339
30285.746809	-1934.865000	1045.625977	95.621658
30285.746809	-1934.865000	1044.472656	175.198730
30285.746809	-1934.865000	1043.319336	62.876549
30285.746809	-1934.865000	1042.166016	169.314835
30285.746809	-1934.865000	1041.012695	119.910645
30285.746809	-1934.865000	1039.858398	88.063858
30285.746809	-1934.865000	1038.704102	94.112488
30285.746809	-1934.865000	1037.549805	66.089836
30285.746809	-1934.865000	1036.394531	79.089577
30285.746809	-1934.865000	1035.239258	71.441978
30285.746809	-1934.865000	1034.083984	76.044571
30285.746809	-1934.865000	1032.928711	24.231903
30285.746809	-1934.865000	1031.773438	3.723295
30285.746809	-1934.865000	1030.617188	35.479084
30285.746809	-1934.865000	1029.460938	77.500000
30285.746809	-1934.865000	1028.304688	32.658188
30285.746809	-1934.865000	1027.147461	52.475971
30285.746809	-1934.865000	1025.991211	21.623783
30285.746809	-1934.865000	1024.833984	164.050461
30285.746809	-1934.865000	1023.675781	52.587128
30285.746809	-1934.865000	1022.518555	205.280243
30285.746809	-1934.865000	1021.360352	219.810516
30285.746809	-1934.865000	1020.202148	125.013763
30285.746809	-1934.865000	1019.043945	192.895401
30285.746809	-1934.865000	1017.884766	58.204262
30285.746809	-1934.865000	1016.726563	52.575779
30285.746809	-1934.865000	1015.567383	81.494774
30285.746809	-1934.865000	1014.407227	233.815292
30285.746809	-1934.865000	1013.248047	79.516129
30285.746809	-1934.865000	1012.087891	80.228516
30285.746809	-1934.865000	1010.927734	154.113510
30285.746809	-1934.865000	1009.767578	11.161940
30285.746809	-1934.865000	1008.606445	3.553663
30285.746809	-1934.865000	1007.446289	-80.052254
30285.746809	-1934.865000	1006.285156	45.030014
30285.746809	-1934.865000	1005.123047	69.386452
30285.746809	-1934.865000	1003.961914	18.999437
30285.746809	-1934.865000	1002.799805	5.778355
30285.746809	-1934.865000	1001.637695	201.385834
30285.746809	-1934.865000	1000.475586	12.282394
30285.746809	-1934.865000	999.312500	-28.773050
30285.746809	-1934.865000	998.149414	-86.274109
30285.746809	-1934.865000	996.986328	58.197777
30285.746809	-1934.865000	995.823242	48.616322
30285.746809	-1934.865000	994.659180	24.652491
30285.746809	-1934.865000	993.496094	42.857681
30285.746809	-1934.865000	992.332031	55.343258
30285.746809	-1934.865000	991.166992	-45.093353
30285.746809	-1934.865000	990.002930	-144.888489
30285.746809	-1934.865000	988.837891	11.552543
30285.746809	-1934.865000	987.672852	8.037514
30285.746809	-1934.865000	986.506836	-82.429184
30285.746809	-1934.865000	985.341797	-25.220823
30285.746809	-1934.865000	984.175781	9.182027
30285.746809	-1934.865000	983.009766	13.113042
30285.746809	-1934.865000	981.843750	-17.518995
30285.746809	-1934.865000	980.676758	-29.214127
30285.746809	-1934.865000	979.509766	35.798847
30285.746809	-1934.865000	978.342773	-25.319828
30285.746809	-1934.865000	977.175781	-0.846429
30285.746809	-1934.865000	976.007813	-55.875759
30285.746809	-1934.865000	974.839844	23.346817
30285.746809	-1934.865000	973.671875	-9.753813
30285.746809	-1934.865000	972.503906	-135.089661
30285.746809	-1934.865000	971.334961	-7.550990
30285.746809	-1934.865000	970.166016	77.192078
30285.746809	-1934.865000	968.997070	-39.831089
30285.746809	-1934.865000	967.828125	-33.769802
30285.746809	-1934.865000	966.658203	9.649223
30285.746809	-1934.865000	965.488281	-16.497049
30285.746809	-1934.865000	964.318359	-94.680702
30285.746809	-1934.865000	963.148438	51.815144
30285.746809	-1934.865000	961.977539	16.520107
30285.746809	-1934.865000	960.806641	-19.352110
30285.746809	-1934.865000	959.635742	-75.786774
30285.746809	-1934.865000	958.463867	58.445896
30285.746809	-1934.865000	957.292969	-40.212543
30285.746809	-1934.865000	956.121094	-1.758179
30285.746809	-1934.865000	954.948242	-18.498569
30285.746809	-1934.865000	953.776367	-24.222107
30285.746809	-1934.865000	952.603516	47.406139
30285.746809	-1934.865000	951.430664	-5.554864
30285.746809	-1934.865000	950.257813	-17.845268
30285.746809	-1934.865000	949.084961	44.576019
30285.746809	-1934.865000	947.911133	-5.594482
30285.746809	-1934.865000	946.737305	126.780342
30285.746809	-1934.865000	945.563477	44.349506
30285.746809	-1934.865000	944.388672	-42.532791
30285.746809	-1934.865000	943.213867	17.411707
30285.746809	-1934.865000	942.039063	-67.755890
30285.746809	-1934.865000	940.864258	-26.699081
30285.746809	-1934.865000	939.688477	91.866974
30285.746809	-1934.865000	938.513672	4.659914
30285.746809	-1934.865000	937.337891	-73.266769
30285.746809	-1934.865000	936.161133	5.225152
30285.746809	-1934.865000	934.985352	-58.587074
30285.746809	-1934.865000	933.808594	29.198145
30285.746809	-1934.865000	932.631836	60.981674
30285.746809	-1934.865000	931.454102	-47.135777
30285.746809	-1934.865000	930.277344	-6.065885
30285.746809	-1934.865000	929.099609	-9.263062
30285.746809	-1934.865000	927.921875	132.119370
30285.746809	-1934.865000	926.743164	0.609353
30285.746809	-1934.865000	925.565430	85.949043
30285.746809	-1934.865000	924.386719	85.031158
30285.746809	-1934.865000	923.208008	-95.334221
30285.746809	-1934.865000	922.028320	108.805618
30285.746809	-1934.865000	920.849609	30.983397
30285.746809	-1934.865000	919.669922	30.994133
30285.746809	-1934.865000	919.474609	64.987160
30285.746809	-1934.865000	918.309570	-94.308846
30285.746809	-1934.865000	917.143555	111.976891
30285.746809	-1934.865000	915.977539	-63.570629
30285.746809	-1934.865000	914.810547	70.468071
30285.746809	-1934.865000	913.644531	109.049118
30285.746809	-1934.865000	912.477539	54.556309
30285.746809	-1934.865000	911.310547	55.899376
30285.746809	-1934.865000	910.143555	33.981686
30285.746809	-1934.865000	908.975586	35.315937
30285.746809	-1934.865000	907.807617	-9.844870
30285.746809	-1934.865000	906.639648	-38.725788
30285.746809	-1934.865000	905.471680	-90.835564
30285.746809	-1934.865000	904.303711	28.969881
30285.746809	-1934.865000	903.134766	-71.917381
30285.746809	-1934.865000	901.965820	-63.633991
30285.746809	-1934.865000	900.796875	35.180935
30285.746809	-1934.865000	899.626953	64.316910
30285.746809	-1934.865000	898.457031	95.755470
30285.746809	-1934.865000	897.287109	-79.316330
30285.746809	-1934.865000	896.117188	93.626427
30285.746809	-1934.865000	894.947266	50.808399
30285.746809	-1934.865000	893.776367	119.299812
30285.746809	-1934.865000	892.605469	152.984589
30285.746809	-1934.865000	891.434570	91.621040
30285.746809	-1934.865000	890.262695	88.208595
30285.746809	-1934.865000	889.091797	24.555113
30285.746809	-1934.865000	887.919922	67.473862
30285.746809	-1934.865000	886.748047	128.896133
30285.746809	-1934.865000	885.575195	-8.836875
30285.746809	-1934.865000	884.403320	-40.033001
30285.746809	-1934.865000	883.230469	21.356823
30285.746809	-1934.865000	882.057617	71.145737
30285.746809	-1934.865000	880.883789	-239.999405
30285.746809	-1934.865000	879.710938	-62.971371
30285.746809	-1934.865000	878.537109	-112.653252
30285.746809	-1934.865000	877.362305	-16.658342
30285.746809	-1934.865000	876.188477	33.059101
30285.746809	-1934.865000	875.013672	89.683815
30285.746809	-1934.865000	873.839844	44.610668
30285.746809	-1934.865000	872.664063	38.823032
30285.746809	-1934.865000	871.489258	-29.329935
30285.746809	-1934.865000	870.313477	-92.842735
30285.746809	-1934.865000	869.138672	-6.263828
30285.746809	-1934.865000	867.962891	1.791174
30285.746809	-1934.865000	866.786133	60.609364
30285.746809	-1934.865000	865.610352	-42.116974
30285.746809	-1934.865000	864.433594	46.664490
30285.746809	-1934.865000	863.256836	59.292316
30285.746809	-1934.865000	862.079102	150.310730
30285.746809	-1934.865000	860.902344	-139.116302
30285.746809	-1934.865000	859.724609	-138.000427
30285.746809	-1934.865000	858.546875	5.989589
30285.746809	-1934.865000	857.368164	2.455557
30285.746809	-1934.865000	856.190430	-60.976097
30285.746809	-1934.865000	855.011719	-50.688190
30285.746809	-1934.865000	853.833008	-3.567714
30285.746809	-1934.865000	852.654297	-4.818300
30285.746809	-1934.865000	851.474609	-70.521767
30285.746809	-1934.865000	850.294922	-2.733073
30285.746809	-1934.865000	849.115234	-33.910732
30285.746809	-1934.865000	847.935547	-67.381432
30285.746809	-1934.865000	846.754883	-41.050259
30285.746809	-1934.865000	845.575195	26.652639
30285.746809	-1934.865000	844.393555	64.435867
30285.746809	-1934.865000	843.212891	-12.721251
30285.746809	-1934.865000	842.032227	96.278137
30285.746809	-1934.865000	840.850586	19.133411
30285.746809	-1934.865000	839.668945	-23.531155
30285.746809	-1934.865000	838.486328	-100.631920
30285.746809	-1934.865000	837.304688	17.454737
30285.746809	-1934.865000	836.122070	-64.226921
30285.746809	-1934.865000	834.939453	-38.012573
30285.746809	-1934.865000	833.756836	-27.877350
30285.746809	-1934.865000	832.573242	207.071442
30285.746809	-1934.865000	831.389648	-14.520911
30285.746809	-1934.865000	830.206055	-73.212555
30285.746809	-1934.865000	829.022461	35.481823
30285.746809	-1934.865000	827.838867	63.896145
30285.746809	-1934.865000	826.654297	73.957260
30285.746809	-1934.865000	825.469727	22.143000
30285.746809	-1934.865000	824.284180	130.700012
30285.746809	-1934.865000	823.099609	110.946365
30285.746809	-1934.865000	821.914063	125.541412
30285.746809	-1934.865000	820.728516	-52.186413
30285.746809	-1934.865000	819.542969	-3.243507
30285.746809	-1934.865000	818.356445	100.594772
30285.746809	-1934.865000	817.169922	85.407364
30285.746809	-1934.865000	815.983398	10.743521
30285.746809	-1934.865000	814.796875	103.057281
30285.746809	-1934.865000	813.609375	220.477570
30285.746809	-1934.865000	812.422852	45.221447
30285.746809	-1934.865000	811.235352	187.731857
30285.746809	-1934.865000	810.046875	170.214783
30285.746809	-1934.865000	808.859375	173.259399
30285.746809	-1934.865000	807.670898	148.884277
30285.746809	-1934.865000	806.482422	103.957954
30285.746809	-1934.865000	805.293945	182.338272
30285.746809	-1934.865000	804.104492	41.529587
30285.746809	-1934.865000	802.915039	181.496613
30285.746809	-1934.865000	801.725586	141.131393
30285.746809	-1934.865000	800.536133	16.363516
30285.746809	-1934.865000	799.345703	135.695847
30285.746809	-1934.865000	798.155273	90.778694
30285.746809	-1934.865000	796.964844	111.990875
30285.746809	-1934.865000	795.774414	14.651655
30285.746809	-1934.865000	794.583008	81.433777
30285.746809	-1934.865000	793.392578	57.037411
30285.746809	-1934.865000	792.200195	-1.529817
30285.746809	-1934.865000	791.008789	62.909847
30285.746809	-1934.865000	789.816406	68.107697
30285.746809	-1934.865000	788.625000	86.954872
30285.746809	-1934.865000	787.432617	-55.825199
30285.746809	-1934.865000	786.239258	-102.975784
30285.746809	-1934.865000	785.046875	52.381596
30285.746809	-1934.865000	783.853516	-42.560921
30285.746809	-1934.865000	782.660156	-21.484009
30285.746809	-1934.865000	781.465820	74.610191
30285.746809	-1934.865000	780.272461	-15.760145
30285.746809	-1934.865000	779.078125	41.634174
30285.746809	-1934.865000	777.883789	144.443558
30285.746809	-1934.865000	776.688477	54.083797
30285.746809	-1934.865000	775.494141	-18.075796
30285.746809	-1934.865000	774.298828	-35.711853
30285.746809	-1934.865000	773.103516	137.372437
30285.746809	-1934.865000	771.907227	142.390213
30285.746809	-1934.865000	770.711914	33.916901
30285.746809	-1934.865000	769.515625	127.428131
30285.746809	-1934.865000	768.318359	98.382790
30285.746809	-1934.865000	767.122070	46.657124
30285.746809	-1934.865000	765.924805	26.689619
30285.746809	-1934.865000	764.727539	92.873932
30285.746809	-1934.865000	763.530273	145.418961
30285.746809	-1934.865000	762.333008	105.013077
30285.746809	-1934.865000	761.134766	288.927429
30285.746809	-1934.865000	759.936523	117.095772
30285.746809	-1934.865000	758.738281	29.124432
30285.746809	-1934.865000	757.540039	106.478165
30285.746809	-1934.865000	756.340820	-99.202271
30285.746809	-1934.865000	755.141602	43.761986
30285.746809	-1934.865000	753.942383	50.876225
30285.746809	-1934.865000	752.742188	30.824615
30285.746809	-1934.865000	751.541992	169.111755
30285.746809	-1934.865000	750.341797	29.156483
30285.746809	-1934.865000	749.141602	79.178932
30285.746809	-1934.865000	747.941406	122.386536
30285.746809	-1934.865000	746.740234	152.001495
30285.746809	-1934.865000	745.539063	43.751125
30285.746809	-1934.865000	744.337891	100.455627
30285.746809	-1934.865000	743.135742	170.675095
30285.746809	-1934.865000	741.933594	146.005005
30285.746809	-1934.865000	740.731445	-43.486378
30285.746809	-1934.865000	739.529297	40.223820
30285.746809	-1934.865000	738.326172	169.022293
30285.746809	-1934.865000	737.124023	24.732548
30285.746809	-1934.865000	735.919922	117.358078
30285.746809	-1934.865000	734.716797	76.861526
30285.746809	-1934.865000	733.513672	286.669617
30285.746809	-1934.865000	732.309570	164.964401
30285.746809	-1934.865000	731.105469	140.219421
30285.746809	-1934.865000	729.900391	167.301743
30285.746809	-1934.865000	728.696289	135.779663
30285.746809	-1934.865000	727.491211	147.054947
30285.746809	-1934.865000	726.286133	7.418026
30285.746809	-1934.865000	725.080078	63.719856
30285.746809	-1934.865000	723.874023	-8.335021
30285.746809	-1934.865000	722.668945	182.962372
30285.746809	-1934.865000	721.461914	99.631760
30285.746809	-1934.865000	720.255859	45.569283
30285.746809	-1934.865000	719.048828	-84.962608
30285.746809	-1934.865000	717.841797	2.683070
30285.746809	-1934.865000	716.634766	7.087784
30285.746809	-1934.865000	715.427734	-13.251951
30285.746809	-1934.865000	714.219727	11.350174
30285.746809	-1934.865000	713.011719	-26.988596
30285.746809	-1934.865000	711.803711	-24.889418
30285.746809	-1934.865000	710.594727	22.112795
30285.746809	-1934.865000	709.385742	69.080147
30285.746809	-1934.865000	708.176758	89.071175
30285.746809	-1934.865000	706.967773	86.592659
30285.746809	-1934.865000	705.758789	180.597183
30285.746809	-1934.865000	704.548828	166.849564
30285.746809	-1934.865000	703.338867	14.014055
30285.746809	-1934.865000	702.127930	92.226563
30285.746809	-1934.865000	700.917969	6.706780
30285.746809	-1934.865000	699.707031	-18.265594
30285.746809	-1934.865000	698.496094	57.615318
30285.746809	-1934.865000	697.285156	108.798683
30285.746809	-1934.865000	696.073242	45.685028
30285.746809	-1934.865000	694.861328	83.377144
30285.746809	-1934.865000	693.649414	76.248520
30285.746809	-1934.865000	692.436523	95.973091
30285.746809	-1934.865000	691.224609	55.235115
30285.746809	-1934.865000	690.011719	90.589493
30285.746809	-1934.865000	688.798828	11.797782
30285.746809	-1934.865000	687.584961	56.060726
30285.746809	-1934.865000	686.372070	13.062204
30285.746809	-1934.865000	685.158203	-25.463770
30285.746809	-1934.865000	683.943359	12.021318
30285.746809	-1934.865000	682.729492	221.585220
30285.746809	-1934.865000	681.514648	321.541473
30285.746809	-1934.865000	680.299805	135.454987
30285.746809	-1934.865000	679.084961	137.067902
30285.746809	-1934.865000	677.869141	136.429031
30285.746809	-1934.865000	676.653320	24.131132
30285.746809	-1934.865000	675.437500	36.877338
30285.746809	-1934.865000	674.221680	74.152023
30285.746809	-1934.865000	673.004883	200.649933
30285.746809	-1934.865000	671.789063	74.981071
30285.746809	-1934.865000	670.571289	152.320007
30285.746809	-1934.865000	669.354492	40.060062
30285.746809	-1934.865000	668.136719	54.912960
30285.746809	-1934.865000	666.919922	125.471230
30285.746809	-1934.865000	665.701172	187.066040
30285.746809	-1934.865000	664.483398	79.280807
30285.746809	-1934.865000	663.264648	176.468781
30285.746809	-1934.865000	662.045898	90.968521
30285.746809	-1934.865000	660.827148	114.597427
30285.746809	-1934.865000	659.608398	93.674393
30285.746809	-1934.865000	658.388672	-29.644035
30285.746809	-1934.865000	657.168945	134.139450
30285.746809	-1934.865000	655.949219	88.701172
30285.746809	-1934.865000	654.728516	16.571194
30285.746809	-1934.865000	653.507813	15.620394
30285.746809	-1934.865000	652.287109	116.932327
30285.746809	-1934.865000	651.066406	9.225315
30285.746809	-1934.865000	649.844727	-40.668858
30285.746809	-1934.865000	648.623047	40.541660
30285.746809	-1934.865000	647.401367	170.575684
30285.746809	-1934.865000	646.179688	200.589539
30285.746809	-1934.865000	644.957031	35.158127
30285.746809	-1934.865000	643.734375	-23.651724
30285.746809	-1934.865000	642.511719	135.075592
30285.746809	-1934.865000	641.289063	153.909988
30285.746809	-1934.865000	640.065430	174.937561
30285.746809	-1934.865000	638.841797	91.681747
30285.746809	-1934.865000	637.618164	103.810600
30285.746809	-1934.865000	636.393555	95.961006
30285.746809	-1934.865000	635.168945	139.087555
30285.746809	-1934.865000	633.944336	153.367142
30285.746809	-1934.865000	632.719727	103.363327
30285.746809	-1934.865000	631.494141	48.933178
30285.746809	-1934.865000	630.269531	209.365845
30285.746809	-1934.865000	629.042969	35.320621
30285.746809	-1934.865000	627.817383	191.228790
30285.746809	-1934.865000	626.590820	-44.749401
30285.746809	-1934.865000	625.365234	-10.640622
30285.746809	-1934.865000	624.137695	10.159636
30285.746809	-1934.865000	622.911133	128.274185
30285.746809	-1934.865000	621.683594	-3.600158
30285.746809	-1934.865000	620.456055	34.832699
30285.746809	-1934.865000	619.228516	37.862453
30285.746809	-1934.865000	618.000977	-100.581047
30285.746809	-1934.865000	616.772461	-17.999226
30285.746809	-1934.865000	615.543945	44.649677
30285.746809	-1934.865000	614.314453	-3.187520
30285.746809	-1934.865000	613.085938	-4.638825
30285.746809	-1934.865000	611.856445	44.677998
30285.746809	-1934.865000	610.626953	-42.902279
30285.746809	-1934.865000	609.397461	-51.005939
30285.746809	-1934.865000	608.166992	-50.294590
30285.746809	-1934.865000	606.936523	-106.953926
30285.746809	-1934.865000	605.706055	-29.059433
30285.746809	-1934.865000	604.474609	62.018761
30285.746809	-1934.865000	603.244141	-78.441414
30285.746809	-1934.865000	602.012695	-22.681856
30285.746809	-1934.865000	600.780273	-81.553459
30285.746809	-1934.865000	599.548828	-17.026768
30285.746809	-1934.865000	598.316406	-36.246552
30285.746809	-1934.865000	597.083984	-2.613253
30285.746809	-1934.865000	595.851563	-103.317566
30285.746809	-1934.865000	594.618164	-71.908852
30285.746809	-1934.865000	593.384766	-135.162994
30285.746809	-1934.865000	592.151367	4.040834
30285.746809	-1934.865000	590.917969	24.377186
30285.746809	-1934.865000	589.683594	-91.676445
30285.746809	-1934.865000	588.449219	117.768631
30285.746809	-1934.865000	587.214844	-40.046619
30285.746809	-1934.865000	585.979492	28.598948
30285.746809	-1934.865000	584.745117	18.094355
30285.746809	-1934.865000	583.509766	-27.571007
30285.746809	-1934.865000	582.273438	100.312096
30285.746809	-1934.865000	581.038086	80.987694
30285.746809	-1934.865000	579.801758	83.619499
30285.746809	-1934.865000	578.565430	53.313545
30285.746809	-1934.865000	577.329102	174.456818
30285.746809	-1934.865000	576.091797	51.965271
30285.746809	-1934.865000	574.854492	65.540680
30285.746809	-1934.865000	573.617188	28.655478
30285.746809	-1934.865000	572.378906	-84.975555
30285.746809	-1934.865000	571.141602	-73.589722
30285.746809	-1934.865000	569.903320	49.576221
30285.746809	-1934.865000	568.664063	95.978607
30285.746809	-1934.865000	567.425781	61.288364
30285.746809	-1934.865000	566.186523	-23.778143
30285.746809	-1934.865000	564.947266	-40.918022
30285.746809	-1934.865000	563.708008	88.654182
30285.746809	-1934.865000	562.467773	117.461334
30285.746809	-1934.865000	561.227539	21.494347
30285.746809	-1934.865000	559.987305	41.544029
30285.746809	-1934.865000	558.747070	37.516453
30285.746809	-1934.865000	557.505859	-14.635331
30285.746809	-1934.865000	556.264648	14.146967
30285.746809	-1934.865000	555.023438	56.034061
30285.746809	-1934.865000	553.781250	71.667488
30285.746809	-1934.865000	552.539063	4.245675
30285.746809	-1934.865000	551.296875	-100.293571
30285.746809	-1934.865000	550.054688	-110.853745
30285.746809	-1934.865000	548.811523	-7.840191
30285.746809	-1934.865000	547.569336	20.889254
30285.746809	-1934.865000	546.325195	-77.020203
30285.746809	-1934.865000	545.082031	-6.819109
30285.746809	-1934.865000	543.837891	0.066822
30285.746809	-1934.865000	542.593750	-93.408607
30285.746809	-1934.865000	541.349609	-93.048325
30285.746809	-1934.865000	540.105469	1.088425
30285.746809	-1934.865000	538.860352	-13.832397
30285.746809	-1934.865000	537.615234	23.572685
30285.746809	-1934.865000	536.369141	10.836351
30285.746809	-1934.865000	535.124023	30.794548
30285.746809	-1934.865000	533.877930	-25.500851
30285.746809	-1934.865000	532.631836	29.309193
30285.746809	-1934.865000	531.384766	-18.246050
30285.746809	-1934.865000	530.138672	21.308006
30285.746809	-1934.865000	528.891602	230.621887
30285.746809	-1934.865000	527.643555	8.975201
30285.746809	-1934.865000	526.396484	46.334679
30285.746809	-1934.865000	525.148438	-7.676468
30285.746809	-1934.865000	523.900391	88.397430
30285.746809	-1934.865000	522.652344	-54.732895
30285.746809	-1934.865000	521.403320	-45.631413
30285.746809	-1934.865000	520.154297	41.712212
30285.746809	-1934.865000	518.905273	7.344633
30285.746809	-1934.865000	517.656250	68.584961
30285.746809	-1934.865000	516.406250	58.130478
30285.746809	-1934.865000	515.156250	97.631599
30285.746809	-1934.865000	513.906250	134.952850
30285.746809	-1934.865000	512.655273	78.931625
30285.746809	-1934.865000	511.404297	109.745186
30285.746809	-1934.865000	510.153320	-37.352818
30285.746809	-1934.865000	508.902344	-10.847999
30285.746809	-1934.865000	507.650391	67.700584
30285.746809	-1934.865000	506.398438	-5.549402
30285.746809	-1934.865000	505.146484	138.015030
30285.746809	-1934.865000	503.893555	30.122442
30285.746809	-1934.865000	502.641602	6.793876
30285.746809	-1934.865000	501.388672	57.139050
30285.746809	-1934.865000	500.134766	-9.486358
30285.746809	-1934.865000	498.881836	-71.739601
30285.746809	-1934.865000	497.627930	-19.215517
30285.746809	-1934.865000	496.374023	44.118900
30285.746809	-1934.865000	495.119141	44.679218
30285.746809	-1934.865000	493.865234	-0.181678
30285.746809	-1934.865000	492.610352	63.139652
30285.746809	-1934.865000	491.355469	-91.977669
30285.746809	-1934.865000	490.099609	40.545502
30285.746809	-1934.865000	488.843750	67.101418
30285.746809	-1934.865000	487.587891	-103.011986
30285.746809	-1934.865000	486.332031	-52.644749
30285.746809	-1934.865000	485.075195	53.877972
30285.746809	-1934.865000	483.818359	4.860448
30285.746809	-1934.865000	482.561523	83.277321
30285.746809	-1934.865000	481.304688	51.569515
30285.746809	-1934.865000	480.046875	-57.817146
30285.746809	-1934.865000	478.789063	-126.143913
30285.746809	-1934.865000	477.531250	45.051582
30285.746809	-1934.865000	476.272461	95.390442
30285.746809	-1934.865000	475.013672	96.118652
30285.746809	-1934.865000	473.754883	73.141418
30285.746809	-1934.865000	472.496094	-76.995461
30285.746809	-1934.865000	471.236328	25.095186
30285.746809	-1934.865000	469.976563	-8.592207
30285.746809	-1934.865000	468.716797	115.005188
30285.746809	-1934.865000	467.456055	-78.044800
30285.746809	-1934.865000	466.196289	-3.989187
30285.746809	-1934.865000	464.935547	3.305373
30285.746809	-1934.865000	463.673828	14.910452
30285.746809	-1934.865000	462.413086	-48.794125
30285.746809	-1934.865000	461.151367	87.620880
30285.746809	-1934.865000	459.889648	32.550514
30285.746809	-1934.865000	458.626953	46.327660
30285.746809	-1934.865000	457.364258	-55.994003
30285.746809	-1934.865000	456.101563	52.395702
30285.746809	-1934.865000	454.838867	79.080856
30285.746809	-1934.865000	453.575195	21.963602
30285.746809	-1934.865000	452.312500	205.477142
30285.746809	-1934.865000	451.047852	167.699814
30285.746809	-1934.865000	449.784180	144.977585
30285.746809	-1934.865000	448.519531	102.948616
30285.746809	-1934.865000	447.254883	166.113556
30285.746809	-1934.865000	445.990234	119.816551
30285.746809	-1934.865000	444.725586	217.286484
30285.746809	-1934.865000	443.459961	271.817383
30285.746809	-1934.865000	442.194336	485.018219
30285.746809	-1934.865000	440.927734	367.950531
30285.746809	-1934.865000	439.662109	379.549561
30285.746809	-1934.865000	438.395508	380.426880
30285.746809	-1934.865000	437.127930	389.872742
30285.746809	-1934.865000	435.861328	255.790985
30285.746809	-1934.865000	434.593750	183.873169
30285.746809	-1934.865000	433.326172	116.266068
30285.746809	-1934.865000	432.058594	202.819794
30285.746809	-1934.865000	430.790039	167.332428
30285.746809	-1934.865000	429.521484	253.825623
30285.746809	-1934.865000	428.252930	181.960922
30285.746809	-1934.865000	426.984375	146.480820
30285.746809	-1934.865000	425.714844	166.605133
30285.746809	-1934.865000	424.445313	186.710831
30285.746809	-1934.865000	423.174805	191.831543
30285.746809	-1934.865000	421.905273	107.182808
30285.746809	-1934.865000	420.634766	302.448303
30285.746809	-1934.865000	419.364258	74.660622
30285.746809	-1934.865000	418.092773	321.070465
30285.746809	-1934.865000	416.822266	247.076324
30285.746809	-1934.865000	415.550781	205.113617
30285.746809	-1934.865000	414.278320	124.729019
30285.746809	-1934.865000	413.006836	153.182343
30285.746809	-1934.865000	411.734375	207.196289
30285.746809	-1934.865000	410.461914	203.572708
30285.746809	-1934.865000	409.188477	14.399211
30285.746809	-1934.865000	407.916016	55.531246
30285.746809	-1934.865000	406.642578	126.452362
30285.746809	-1934.865000	405.368164	103.540901
30285.746809	-1934.865000	404.094727	82.735771
30285.746809	-1934.865000	402.820313	61.899094
30285.746809	-1934.865000	401.545898	-20.729055
30285.746809	-1934.865000	400.270508	26.514515
30285.746809	-1934.865000	398.996094	65.179543
30285.746809	-1934.865000	397.720703	-19.660921
30285.746809	-1934.865000	396.444336	67.834869
30285.746809	-1934.865000	395.168945	-0.052864
30285.746809	-1934.865000	393.892578	12.852999
30285.746809	-1934.865000	392.616211	-84.877625
30285.746809	-1934.865000	391.339844	15.087071
30285.746809	-1934.865000	390.062500	46.927490
30285.746809	-1934.865000	388.785156	76.563072
30285.746809	-1934.865000	387.507813	-155.204880
30285.746809	-1934.865000	386.229492	14.509232
30285.746809	-1934.865000	384.951172	50.285397
30285.746809	-1934.865000	383.672852	73.228409
30285.746809	-1934.865000	382.394531	53.625614
30285.746809	-1934.865000	381.115234	48.800022
30285.746809	-1934.865000	379.835938	-7.035170
30285.746809	-1934.865000	378.556641	77.070213
30285.746809	-1934.865000	377.277344	33.791855
30285.746809	-1934.865000	375.997070	-20.171879
30285.746809	-1934.865000	374.716797	59.341839
30285.746809	-1934.865000	373.435547	-20.250698
30285.746809	-1934.865000	372.155273	44.178070
30285.746809	-1934.865000	370.874023	-20.772081
30285.746809	-1934.865000	369.591797	85.750473
30285.746809	-1934.865000	368.310547	-81.068848
30285.746809	-1934.865000	367.028320	-118.798592
30285.746809	-1934.865000	365.746094	-21.173950
30285.746809	-1934.865000	364.463867	63.574043
30285.746809	-1934.865000	363.180664	6.382123
30285.746809	-1934.865000	361.897461	25.220623
30285.746809	-1934.865000	360.614258	24.866024
30285.746809	-1934.865000	359.330078	104.699707
30285.746809	-1934.865000	358.045898	72.297478
30285.746809	-1934.865000	356.761719	-25.774975
30285.746809	-1934.865000	355.477539	-31.002831
30285.746809	-1934.865000	354.192383	-89.224907
30285.746809	-1934.865000	352.907227	-27.213520
30285.746809	-1934.865000	351.622070	5.019425
30285.746809	-1934.865000	350.336914	-72.738297
30285.746809	-1934.865000	349.050781	151.167603
30285.746809	-1934.865000	347.764648	62.448738
30285.746809	-1934.865000	346.477539	-74.975067
30285.746809	-1934.865000	345.191406	82.756874
30285.746809	-1934.865000	343.904297	-114.104912
30285.746809	-1934.865000	342.616211	127.435059
30285.746809	-1934.865000	341.329102	-31.878120
30285.746809	-1934.865000	340.041016	-8.019980
30285.746809	-1934.865000	338.752930	34.538216
30285.746809	-1934.865000	337.463867	-106.462677
30285.746809	-1934.865000	336.175781	-37.049091
30285.746809	-1934.865000	334.886719	-64.808517
30285.746809	-1934.865000	333.596680	56.624054
30285.746809	-1934.865000	332.307617	120.892403
30285.746809	-1934.865000	331.017578	16.483028
30285.746809	-1934.865000	329.727539	82.223351
30285.746809	-1934.865000	328.436523	73.993744
30285.746809	-1934.865000	327.146484	-149.044220
30285.746809	-1934.865000	325.855469	-56.956814
30285.746809	-1934.865000	324.563477	15.822875
30285.746809	-1934.865000	323.272461	18.879288
30285.746809	-1934.865000	321.980469	4.757415
30285.746809	-1934.865000	320.688477	-58.040470
30285.746809	-1934.865000	319.395508	34.213589
30285.746809	-1934.865000	318.103516	69.358452
30285.746809	-1934.865000	316.810547	-15.576994
30285.746809	-1934.865000	315.516602	-33.732250
30285.746809	-1934.865000	314.223633	109.285500
30285.746809	-1934.865000	312.929688	67.188820
30285.746809	-1934.865000	311.635742	9.990490
30285.746809	-1934.865000	310.340820	21.554644
30285.746809	-1934.865000	309.045898	129.092056
30285.746809	-1934.865000	307.750977	-42.662033
30285.746809	-1934.865000	306.456055	-34.604397
30285.746809	-1934.865000	305.160156	37.890064
30285.746809	-1934.865000	303.865234	187.363541
30285.746809	-1934.865000	302.568359	189.629227
30285.746809	-1934.865000	301.272461	-15.902998
30285.746809	-1934.865000	299.975586	50.223278
30285.746809	-1934.865000	298.678711	88.557953
