#X		#Y		#Wave		#Intensity
29685.067021	-1635.278333	1999.980469	127.809425
29685.067021	-1635.278333	1999.016602	115.532356
29685.067021	-1635.278333	1998.052734	13.945700
29685.067021	-1635.278333	1997.087891	-162.058441
29685.067021	-1635.278333	1996.123047	21.159176
29685.067021	-1635.278333	1995.158203	-130.219284
29685.067021	-1635.278333	1994.193359	32.906284
29685.067021	-1635.278333	1993.228516	0.246246
29685.067021	-1635.278333	1992.262695	-91.914543
29685.067021	-1635.278333	1991.297852	-119.771835
29685.067021	-1635.278333	1990.332031	258.178070
29685.067021	-1635.278333	1989.366211	32.137173
29685.067021	-1635.278333	1988.399414	-129.578018
29685.067021	-1635.278333	1987.433594	45.089119
29685.067021	-1635.278333	1986.466797	-297.257996
29685.067021	-1635.278333	1985.500977	23.112242
29685.067021	-1635.278333	1984.534180	51.577248
29685.067021	-1635.278333	1983.567383	45.360634
29685.067021	-1635.278333	1982.599609	86.032997
29685.067021	-1635.278333	1981.632813	-46.325062
29685.067021	-1635.278333	1980.665039	-3.301754
29685.067021	-1635.278333	1979.697266	140.912521
29685.067021	-1635.278333	1978.729492	45.486244
29685.067021	-1635.278333	1977.761719	177.185486
29685.067021	-1635.278333	1976.792969	-12.118999
29685.067021	-1635.278333	1975.825195	-8.893179
29685.067021	-1635.278333	1974.856445	63.375351
29685.067021	-1635.278333	1973.887695	-44.524319
29685.067021	-1635.278333	1972.918945	165.772263
29685.067021	-1635.278333	1971.949219	65.208618
29685.067021	-1635.278333	1970.980469	-87.133202
29685.067021	-1635.278333	1970.010742	36.656021
29685.067021	-1635.278333	1969.041016	69.167084
29685.067021	-1635.278333	1968.071289	64.668488
29685.067021	-1635.278333	1967.101563	42.895481
29685.067021	-1635.278333	1966.130859	-8.461835
29685.067021	-1635.278333	1965.161133	201.253891
29685.067021	-1635.278333	1964.190430	-91.493111
29685.067021	-1635.278333	1963.219727	110.724770
29685.067021	-1635.278333	1962.249023	101.146454
29685.067021	-1635.278333	1961.277344	-48.737499
29685.067021	-1635.278333	1960.306641	49.949970
29685.067021	-1635.278333	1959.334961	-94.981636
29685.067021	-1635.278333	1958.363281	-43.093094
29685.067021	-1635.278333	1957.391602	158.783005
29685.067021	-1635.278333	1956.419922	87.635330
29685.067021	-1635.278333	1955.447266	-15.459006
29685.067021	-1635.278333	1954.474609	-138.187836
29685.067021	-1635.278333	1953.501953	-49.535290
29685.067021	-1635.278333	1952.529297	93.131668
29685.067021	-1635.278333	1951.556641	-12.375265
29685.067021	-1635.278333	1950.583984	93.377632
29685.067021	-1635.278333	1949.610352	164.705505
29685.067021	-1635.278333	1948.636719	91.145897
29685.067021	-1635.278333	1947.663086	177.171478
29685.067021	-1635.278333	1946.689453	135.539078
29685.067021	-1635.278333	1945.715820	125.821884
29685.067021	-1635.278333	1944.741211	52.318245
29685.067021	-1635.278333	1943.767578	91.681145
29685.067021	-1635.278333	1942.792969	-87.241707
29685.067021	-1635.278333	1941.818359	180.172928
29685.067021	-1635.278333	1940.842773	16.014284
29685.067021	-1635.278333	1939.868164	-30.424189
29685.067021	-1635.278333	1938.892578	182.927780
29685.067021	-1635.278333	1937.916992	67.878799
29685.067021	-1635.278333	1936.941406	-5.474796
29685.067021	-1635.278333	1935.965820	51.016983
29685.067021	-1635.278333	1934.990234	-34.535946
29685.067021	-1635.278333	1934.013672	34.195736
29685.067021	-1635.278333	1933.037109	-14.588918
29685.067021	-1635.278333	1932.060547	-87.822067
29685.067021	-1635.278333	1931.083984	29.848274
29685.067021	-1635.278333	1930.107422	-104.509132
29685.067021	-1635.278333	1929.129883	-60.244759
29685.067021	-1635.278333	1928.153320	118.526039
29685.067021	-1635.278333	1927.175781	148.083359
29685.067021	-1635.278333	1926.198242	-35.050781
29685.067021	-1635.278333	1925.219727	-91.005226
29685.067021	-1635.278333	1924.242188	26.585896
29685.067021	-1635.278333	1923.263672	-56.213139
29685.067021	-1635.278333	1922.285156	44.249416
29685.067021	-1635.278333	1921.306641	127.588951
29685.067021	-1635.278333	1920.328125	17.992117
29685.067021	-1635.278333	1919.349609	108.655304
29685.067021	-1635.278333	1918.370117	-8.196899
29685.067021	-1635.278333	1917.391602	116.631096
29685.067021	-1635.278333	1916.412109	-212.448761
29685.067021	-1635.278333	1915.431641	-11.977425
29685.067021	-1635.278333	1914.452148	51.836235
29685.067021	-1635.278333	1913.472656	-16.056715
29685.067021	-1635.278333	1912.492188	116.030174
29685.067021	-1635.278333	1911.511719	35.983585
29685.067021	-1635.278333	1910.531250	-114.706337
29685.067021	-1635.278333	1909.550781	78.287445
29685.067021	-1635.278333	1908.569336	20.256800
29685.067021	-1635.278333	1907.588867	174.200546
29685.067021	-1635.278333	1906.607422	-81.087448
29685.067021	-1635.278333	1905.625977	-121.974625
29685.067021	-1635.278333	1904.644531	19.769279
29685.067021	-1635.278333	1903.662109	-152.550201
29685.067021	-1635.278333	1902.680664	-310.188385
29685.067021	-1635.278333	1901.698242	-51.658035
29685.067021	-1635.278333	1900.715820	138.665482
29685.067021	-1635.278333	1899.733398	-159.990616
29685.067021	-1635.278333	1898.750000	-40.226078
29685.067021	-1635.278333	1897.767578	118.408646
29685.067021	-1635.278333	1896.784180	63.057079
29685.067021	-1635.278333	1895.800781	36.902309
29685.067021	-1635.278333	1894.817383	-66.998436
29685.067021	-1635.278333	1893.833984	-15.351601
29685.067021	-1635.278333	1892.850586	2.275026
29685.067021	-1635.278333	1891.866211	24.757225
29685.067021	-1635.278333	1890.881836	-110.603889
29685.067021	-1635.278333	1889.897461	-24.970871
29685.067021	-1635.278333	1888.913086	89.766167
29685.067021	-1635.278333	1887.927734	-67.357834
29685.067021	-1635.278333	1886.943359	49.780170
29685.067021	-1635.278333	1885.958008	-99.989738
29685.067021	-1635.278333	1884.972656	41.374660
29685.067021	-1635.278333	1883.987305	-135.007034
29685.067021	-1635.278333	1883.001953	108.154671
29685.067021	-1635.278333	1882.015625	-39.078945
29685.067021	-1635.278333	1881.029297	44.006138
29685.067021	-1635.278333	1880.042969	-204.937317
29685.067021	-1635.278333	1879.056641	-177.576889
29685.067021	-1635.278333	1878.070313	271.277313
29685.067021	-1635.278333	1877.083984	-193.125351
29685.067021	-1635.278333	1876.096680	98.161148
29685.067021	-1635.278333	1875.109375	23.755039
29685.067021	-1635.278333	1874.122070	-147.450729
29685.067021	-1635.278333	1873.134766	10.547122
29685.067021	-1635.278333	1872.146484	59.593964
29685.067021	-1635.278333	1871.159180	-217.980362
29685.067021	-1635.278333	1870.170898	-139.891739
29685.067021	-1635.278333	1869.182617	66.334488
29685.067021	-1635.278333	1868.194336	115.313866
29685.067021	-1635.278333	1867.205078	-67.808487
29685.067021	-1635.278333	1866.216797	46.422291
29685.067021	-1635.278333	1865.227539	-27.889462
29685.067021	-1635.278333	1864.238281	-111.846245
29685.067021	-1635.278333	1863.249023	-4.946778
29685.067021	-1635.278333	1862.259766	-88.895851
29685.067021	-1635.278333	1861.269531	-93.140228
29685.067021	-1635.278333	1860.279297	-104.636887
29685.067021	-1635.278333	1859.290039	197.656250
29685.067021	-1635.278333	1858.298828	82.307434
29685.067021	-1635.278333	1857.308594	-151.243225
29685.067021	-1635.278333	1856.318359	112.246933
29685.067021	-1635.278333	1855.327148	66.883789
29685.067021	-1635.278333	1854.335938	60.106892
29685.067021	-1635.278333	1853.344727	171.460449
29685.067021	-1635.278333	1852.353516	-288.569916
29685.067021	-1635.278333	1851.362305	-30.205641
29685.067021	-1635.278333	1850.370117	-5.705174
29685.067021	-1635.278333	1849.377930	83.818359
29685.067021	-1635.278333	1848.385742	-45.917015
29685.067021	-1635.278333	1847.393555	-151.539948
29685.067021	-1635.278333	1846.401367	55.886353
29685.067021	-1635.278333	1845.408203	80.241005
29685.067021	-1635.278333	1844.415039	97.342613
29685.067021	-1635.278333	1843.421875	107.195343
29685.067021	-1635.278333	1842.428711	20.774063
29685.067021	-1635.278333	1841.435547	136.435471
29685.067021	-1635.278333	1840.441406	93.282211
29685.067021	-1635.278333	1839.448242	38.096077
29685.067021	-1635.278333	1838.454102	-31.525349
29685.067021	-1635.278333	1837.459961	129.622452
29685.067021	-1635.278333	1836.464844	-33.781807
29685.067021	-1635.278333	1835.470703	170.499924
29685.067021	-1635.278333	1834.475586	-24.142969
29685.067021	-1635.278333	1833.480469	-134.672867
29685.067021	-1635.278333	1832.485352	18.982784
29685.067021	-1635.278333	1831.490234	16.473658
29685.067021	-1635.278333	1830.495117	393.241425
29685.067021	-1635.278333	1829.499023	152.969543
29685.067021	-1635.278333	1828.502930	20.743603
29685.067021	-1635.278333	1827.506836	-85.075737
29685.067021	-1635.278333	1826.510742	48.997169
29685.067021	-1635.278333	1825.513672	7.894624
29685.067021	-1635.278333	1824.517578	-97.973709
29685.067021	-1635.278333	1823.520508	57.487926
29685.067021	-1635.278333	1822.523438	-26.855318
29685.067021	-1635.278333	1821.526367	130.851364
29685.067021	-1635.278333	1820.529297	79.992073
29685.067021	-1635.278333	1819.531250	84.208885
29685.067021	-1635.278333	1818.533203	105.150330
29685.067021	-1635.278333	1817.535156	109.276703
29685.067021	-1635.278333	1816.537109	10.400823
29685.067021	-1635.278333	1815.539063	167.666595
29685.067021	-1635.278333	1814.540039	217.120209
29685.067021	-1635.278333	1813.541992	144.469101
29685.067021	-1635.278333	1812.542969	-14.334354
29685.067021	-1635.278333	1811.543945	101.966103
29685.067021	-1635.278333	1810.543945	-95.133286
29685.067021	-1635.278333	1809.544922	33.000084
29685.067021	-1635.278333	1808.544922	91.702049
29685.067021	-1635.278333	1807.544922	-234.504318
29685.067021	-1635.278333	1806.544922	84.619637
29685.067021	-1635.278333	1805.544922	76.226677
29685.067021	-1635.278333	1804.544922	82.118958
29685.067021	-1635.278333	1803.543945	73.623497
29685.067021	-1635.278333	1802.542969	141.496048
29685.067021	-1635.278333	1801.541992	199.740952
29685.067021	-1635.278333	1800.541016	12.035395
29685.067021	-1635.278333	1799.539063	29.596844
29685.067021	-1635.278333	1798.538086	82.895950
29685.067021	-1635.278333	1797.536133	162.358368
29685.067021	-1635.278333	1796.534180	203.571274
29685.067021	-1635.278333	1795.532227	92.080040
29685.067021	-1635.278333	1794.529297	123.635132
29685.067021	-1635.278333	1793.527344	193.269257
29685.067021	-1635.278333	1792.524414	-54.192963
29685.067021	-1635.278333	1791.521484	163.079071
29685.067021	-1635.278333	1790.518555	206.279251
29685.067021	-1635.278333	1789.514648	-3.110790
29685.067021	-1635.278333	1788.511719	-21.938574
29685.067021	-1635.278333	1787.507813	102.050644
29685.067021	-1635.278333	1786.503906	61.657532
29685.067021	-1635.278333	1785.500000	-16.867359
29685.067021	-1635.278333	1784.496094	-21.647488
29685.067021	-1635.278333	1783.491211	125.793640
29685.067021	-1635.278333	1782.486328	137.512802
29685.067021	-1635.278333	1781.481445	11.207854
29685.067021	-1635.278333	1780.476563	253.494644
29685.067021	-1635.278333	1779.471680	8.206773
29685.067021	-1635.278333	1778.465820	309.699402
29685.067021	-1635.278333	1777.460938	233.114639
29685.067021	-1635.278333	1776.455078	113.714836
29685.067021	-1635.278333	1775.449219	-41.341175
29685.067021	-1635.278333	1774.442383	105.265411
29685.067021	-1635.278333	1773.436523	247.006317
29685.067021	-1635.278333	1772.429688	201.036057
29685.067021	-1635.278333	1771.422852	164.513702
29685.067021	-1635.278333	1770.416016	56.730011
29685.067021	-1635.278333	1769.409180	69.949356
29685.067021	-1635.278333	1768.402344	-11.810938
29685.067021	-1635.278333	1767.394531	103.283188
29685.067021	-1635.278333	1766.386719	121.021088
29685.067021	-1635.278333	1765.378906	39.087090
29685.067021	-1635.278333	1764.371094	96.998558
29685.067021	-1635.278333	1763.362305	19.698727
29685.067021	-1635.278333	1762.354492	267.052399
29685.067021	-1635.278333	1761.345703	-222.689514
29685.067021	-1635.278333	1760.336914	206.890656
29685.067021	-1635.278333	1759.328125	136.455872
29685.067021	-1635.278333	1758.318359	89.653152
29685.067021	-1635.278333	1757.308594	-101.633720
29685.067021	-1635.278333	1756.299805	0.630638
29685.067021	-1635.278333	1755.290039	24.673937
29685.067021	-1635.278333	1754.279297	84.126724
29685.067021	-1635.278333	1753.269531	-7.927154
29685.067021	-1635.278333	1752.258789	63.193748
29685.067021	-1635.278333	1751.249023	51.446609
29685.067021	-1635.278333	1750.238281	-76.238342
29685.067021	-1635.278333	1749.226563	176.671829
29685.067021	-1635.278333	1748.215820	-12.586937
29685.067021	-1635.278333	1747.204102	-237.300613
29685.067021	-1635.278333	1746.193359	-83.948799
29685.067021	-1635.278333	1745.181641	-74.837234
29685.067021	-1635.278333	1744.168945	-207.519836
29685.067021	-1635.278333	1743.157227	-118.244331
29685.067021	-1635.278333	1742.144531	-73.938896
29685.067021	-1635.278333	1741.132813	-220.919342
29685.067021	-1635.278333	1740.120117	-25.710758
29685.067021	-1635.278333	1739.106445	-14.707827
29685.067021	-1635.278333	1738.093750	123.621719
29685.067021	-1635.278333	1737.080078	-108.501472
29685.067021	-1635.278333	1736.067383	-135.430588
29685.067021	-1635.278333	1735.053711	30.913164
29685.067021	-1635.278333	1734.040039	-88.121811
29685.067021	-1635.278333	1733.025391	-141.196472
29685.067021	-1635.278333	1732.011719	168.581665
29685.067021	-1635.278333	1730.997070	-235.713959
29685.067021	-1635.278333	1729.982422	-3.922124
29685.067021	-1635.278333	1728.967773	-83.165749
29685.067021	-1635.278333	1727.952148	47.105850
29685.067021	-1635.278333	1726.937500	-91.116470
29685.067021	-1635.278333	1725.921875	17.780170
29685.067021	-1635.278333	1724.906250	-108.767258
29685.067021	-1635.278333	1723.890625	21.124250
29685.067021	-1635.278333	1722.875000	-114.927902
29685.067021	-1635.278333	1721.858398	-218.079407
29685.067021	-1635.278333	1720.841797	-95.516060
29685.067021	-1635.278333	1719.825195	-60.059864
29685.067021	-1635.278333	1718.808594	-10.583628
29685.067021	-1635.278333	1717.791992	41.153149
29685.067021	-1635.278333	1716.774414	3.503285
29685.067021	-1635.278333	1715.756836	-179.857285
29685.067021	-1635.278333	1714.739258	31.385185
29685.067021	-1635.278333	1713.721680	19.381407
29685.067021	-1635.278333	1712.704102	49.577000
29685.067021	-1635.278333	1711.685547	-25.952822
29685.067021	-1635.278333	1710.667969	-103.859535
29685.067021	-1635.278333	1709.649414	120.893661
29685.067021	-1635.278333	1708.630859	134.341583
29685.067021	-1635.278333	1707.611328	-56.364574
29685.067021	-1635.278333	1706.592773	-127.449982
29685.067021	-1635.278333	1705.573242	49.962524
29685.067021	-1635.278333	1704.553711	-133.786285
29685.067021	-1635.278333	1703.534180	125.462212
29685.067021	-1635.278333	1702.513672	133.789597
29685.067021	-1635.278333	1701.494141	92.855141
29685.067021	-1635.278333	1700.473633	176.015945
29685.067021	-1635.278333	1699.453125	254.395340
29685.067021	-1635.278333	1698.432617	93.835571
29685.067021	-1635.278333	1697.412109	-76.090637
29685.067021	-1635.278333	1696.390625	-173.463104
29685.067021	-1635.278333	1695.369141	94.221680
29685.067021	-1635.278333	1694.347656	-66.445969
29685.067021	-1635.278333	1693.326172	81.682869
29685.067021	-1635.278333	1692.304688	21.528629
29685.067021	-1635.278333	1691.282227	262.990753
29685.067021	-1635.278333	1690.260742	-75.522102
29685.067021	-1635.278333	1689.238281	-203.592453
29685.067021	-1635.278333	1688.214844	-48.891804
29685.067021	-1635.278333	1687.192383	185.148010
29685.067021	-1635.278333	1686.168945	115.318245
29685.067021	-1635.278333	1685.146484	120.213615
29685.067021	-1635.278333	1684.123047	234.799011
29685.067021	-1635.278333	1683.099609	202.186111
29685.067021	-1635.278333	1682.075195	-19.570761
29685.067021	-1635.278333	1681.051758	300.195831
29685.067021	-1635.278333	1680.027344	246.409424
29685.067021	-1635.278333	1679.002930	24.605717
29685.067021	-1635.278333	1677.978516	26.765793
29685.067021	-1635.278333	1676.953125	89.497520
29685.067021	-1635.278333	1675.928711	252.427841
29685.067021	-1635.278333	1674.903320	305.661469
29685.067021	-1635.278333	1673.877930	179.347672
29685.067021	-1635.278333	1672.852539	90.318169
29685.067021	-1635.278333	1671.826172	285.513641
29685.067021	-1635.278333	1670.800781	208.043961
29685.067021	-1635.278333	1669.774414	97.938217
29685.067021	-1635.278333	1668.748047	132.198486
29685.067021	-1635.278333	1667.721680	224.600876
29685.067021	-1635.278333	1666.694336	67.845642
29685.067021	-1635.278333	1665.667969	297.437622
29685.067021	-1635.278333	1664.640625	138.309845
29685.067021	-1635.278333	1663.613281	276.969543
29685.067021	-1635.278333	1662.585938	262.021912
29685.067021	-1635.278333	1661.557617	449.338959
29685.067021	-1635.278333	1660.530273	357.551880
29685.067021	-1635.278333	1659.501953	263.422516
29685.067021	-1635.278333	1658.473633	376.131134
29685.067021	-1635.278333	1657.444336	546.834778
29685.067021	-1635.278333	1656.416016	585.022339
29685.067021	-1635.278333	1655.386719	504.682983
29685.067021	-1635.278333	1654.358398	552.074341
29685.067021	-1635.278333	1653.328125	339.338593
29685.067021	-1635.278333	1652.298828	514.333130
29685.067021	-1635.278333	1651.269531	554.608582
29685.067021	-1635.278333	1650.239258	425.424286
29685.067021	-1635.278333	1649.208984	437.777313
29685.067021	-1635.278333	1648.178711	591.588379
29685.067021	-1635.278333	1647.148438	724.433472
29685.067021	-1635.278333	1646.117188	792.258484
29685.067021	-1635.278333	1645.086914	447.388062
29685.067021	-1635.278333	1644.055664	763.183716
29685.067021	-1635.278333	1643.024414	768.299866
29685.067021	-1635.278333	1641.992188	838.246826
29685.067021	-1635.278333	1640.960938	935.947998
29685.067021	-1635.278333	1639.928711	950.194519
29685.067021	-1635.278333	1638.896484	1001.457275
29685.067021	-1635.278333	1637.864258	1207.786987
29685.067021	-1635.278333	1636.832031	1187.174805
29685.067021	-1635.278333	1635.798828	1016.109375
29685.067021	-1635.278333	1634.766602	902.943054
29685.067021	-1635.278333	1633.733398	1338.042969
29685.067021	-1635.278333	1632.699219	1046.698975
29685.067021	-1635.278333	1631.666016	1086.135742
29685.067021	-1635.278333	1630.632813	1009.937500
29685.067021	-1635.278333	1629.598633	1155.644775
29685.067021	-1635.278333	1628.564453	1449.184692
29685.067021	-1635.278333	1627.530273	1449.146118
29685.067021	-1635.278333	1626.495117	1352.049683
29685.067021	-1635.278333	1625.460938	1465.173096
29685.067021	-1635.278333	1624.425781	1629.029663
29685.067021	-1635.278333	1623.390625	1638.117065
29685.067021	-1635.278333	1622.355469	1746.447754
29685.067021	-1635.278333	1621.319336	1820.094360
29685.067021	-1635.278333	1620.284180	1711.422363
29685.067021	-1635.278333	1619.248047	1833.472534
29685.067021	-1635.278333	1618.211914	1946.240479
29685.067021	-1635.278333	1617.174805	1772.982300
29685.067021	-1635.278333	1616.138672	1936.426880
29685.067021	-1635.278333	1615.101563	1779.360962
29685.067021	-1635.278333	1614.065430	1661.546387
29685.067021	-1635.278333	1613.027344	1923.962891
29685.067021	-1635.278333	1611.990234	1948.984253
29685.067021	-1635.278333	1610.953125	1921.015137
29685.067021	-1635.278333	1609.915039	2077.282227
29685.067021	-1635.278333	1608.876953	1756.861816
29685.067021	-1635.278333	1607.838867	1869.359863
29685.067021	-1635.278333	1606.800781	2209.677734
29685.067021	-1635.278333	1605.761719	2085.009521
29685.067021	-1635.278333	1604.723633	2158.270996
29685.067021	-1635.278333	1603.684570	2160.186768
29685.067021	-1635.278333	1602.644531	1982.705200
29685.067021	-1635.278333	1601.605469	2021.455078
29685.067021	-1635.278333	1600.566406	2071.692871
29685.067021	-1635.278333	1599.526367	1983.992920
29685.067021	-1635.278333	1598.486328	2241.048340
29685.067021	-1635.278333	1597.446289	2139.583008
29685.067021	-1635.278333	1596.405273	2277.063721
29685.067021	-1635.278333	1595.365234	2189.434082
29685.067021	-1635.278333	1594.324219	2416.428223
29685.067021	-1635.278333	1593.283203	2181.887939
29685.067021	-1635.278333	1592.242188	2238.966064
29685.067021	-1635.278333	1591.200195	2348.807861
29685.067021	-1635.278333	1590.159180	2440.280518
29685.067021	-1635.278333	1589.117188	2513.370117
29685.067021	-1635.278333	1588.075195	2169.020020
29685.067021	-1635.278333	1587.032227	2184.831787
29685.067021	-1635.278333	1585.990234	2372.619873
29685.067021	-1635.278333	1584.947266	2177.542725
29685.067021	-1635.278333	1583.904297	2220.908447
29685.067021	-1635.278333	1582.861328	2287.194336
29685.067021	-1635.278333	1581.818359	1959.448486
29685.067021	-1635.278333	1580.775391	2138.040527
29685.067021	-1635.278333	1579.731445	2108.188721
29685.067021	-1635.278333	1578.687500	2021.135742
29685.067021	-1635.278333	1577.643555	2005.109375
29685.067021	-1635.278333	1576.598633	2160.753174
29685.067021	-1635.278333	1575.554688	1897.638550
29685.067021	-1635.278333	1574.509766	1641.510376
29685.067021	-1635.278333	1573.464844	1582.223267
29685.067021	-1635.278333	1572.419922	1946.057373
29685.067021	-1635.278333	1571.374023	1777.041138
29685.067021	-1635.278333	1570.329102	1614.995605
29685.067021	-1635.278333	1569.283203	1663.304810
29685.067021	-1635.278333	1568.237305	1800.748779
29685.067021	-1635.278333	1567.191406	1773.683960
29685.067021	-1635.278333	1566.144531	1748.941772
29685.067021	-1635.278333	1565.098633	1320.043823
29685.067021	-1635.278333	1564.051758	1423.343384
29685.067021	-1635.278333	1563.004883	1467.292358
29685.067021	-1635.278333	1561.957031	1474.735718
29685.067021	-1635.278333	1560.910156	1628.275024
29685.067021	-1635.278333	1559.862305	1583.298950
29685.067021	-1635.278333	1558.814453	1556.635986
29685.067021	-1635.278333	1557.766602	1203.906250
29685.067021	-1635.278333	1556.718750	1131.817749
29685.067021	-1635.278333	1555.669922	1381.229370
29685.067021	-1635.278333	1554.621094	1295.545776
29685.067021	-1635.278333	1553.573242	1253.255005
29685.067021	-1635.278333	1552.523438	1103.927490
29685.067021	-1635.278333	1551.474609	1328.293335
29685.067021	-1635.278333	1550.424805	1215.554932
29685.067021	-1635.278333	1549.375000	1257.747192
29685.067021	-1635.278333	1548.325195	1475.273438
29685.067021	-1635.278333	1547.275391	1273.968262
29685.067021	-1635.278333	1546.225586	1471.035889
29685.067021	-1635.278333	1545.174805	1395.048828
29685.067021	-1635.278333	1544.124023	1467.010620
29685.067021	-1635.278333	1543.073242	1407.091797
29685.067021	-1635.278333	1542.022461	1388.187866
29685.067021	-1635.278333	1540.970703	1855.850220
29685.067021	-1635.278333	1539.919922	1661.968872
29685.067021	-1635.278333	1538.868164	1509.122437
29685.067021	-1635.278333	1537.815430	1592.684692
29685.067021	-1635.278333	1536.763672	1676.287842
29685.067021	-1635.278333	1535.710938	1834.860107
29685.067021	-1635.278333	1534.659180	1557.470703
29685.067021	-1635.278333	1533.606445	1457.327637
29685.067021	-1635.278333	1532.552734	1516.172119
29685.067021	-1635.278333	1531.500000	1400.326782
29685.067021	-1635.278333	1530.446289	1357.195313
29685.067021	-1635.278333	1529.393555	1393.555054
29685.067021	-1635.278333	1528.338867	1361.914063
29685.067021	-1635.278333	1527.285156	1031.045288
29685.067021	-1635.278333	1526.231445	707.182190
29685.067021	-1635.278333	1525.176758	1034.048950
29685.067021	-1635.278333	1524.122070	848.692688
29685.067021	-1635.278333	1523.067383	803.963623
29685.067021	-1635.278333	1522.012695	759.327454
29685.067021	-1635.278333	1520.957031	807.637390
29685.067021	-1635.278333	1519.901367	332.920685
29685.067021	-1635.278333	1518.845703	603.324524
29685.067021	-1635.278333	1517.790039	520.585938
29685.067021	-1635.278333	1516.734375	612.221191
29685.067021	-1635.278333	1515.677734	638.273560
29685.067021	-1635.278333	1514.621094	494.732544
29685.067021	-1635.278333	1513.564453	489.296204
29685.067021	-1635.278333	1512.507813	226.158493
29685.067021	-1635.278333	1511.450195	352.066010
29685.067021	-1635.278333	1510.393555	270.058960
29685.067021	-1635.278333	1509.335938	208.502884
29685.067021	-1635.278333	1508.278320	217.099838
29685.067021	-1635.278333	1507.219727	295.803680
29685.067021	-1635.278333	1506.162109	295.521118
29685.067021	-1635.278333	1505.103516	8.530484
29685.067021	-1635.278333	1504.044922	40.080296
29685.067021	-1635.278333	1502.986328	33.335228
29685.067021	-1635.278333	1501.926758	-2.664495
29685.067021	-1635.278333	1500.868164	279.598267
29685.067021	-1635.278333	1499.808594	151.252243
29685.067021	-1635.278333	1498.749023	171.912704
29685.067021	-1635.278333	1497.688477	66.368240
29685.067021	-1635.278333	1496.628906	91.730949
29685.067021	-1635.278333	1495.568359	299.757202
29685.067021	-1635.278333	1494.507813	199.040421
29685.067021	-1635.278333	1493.447266	184.079147
29685.067021	-1635.278333	1492.386719	-65.069435
29685.067021	-1635.278333	1491.325195	-106.812515
29685.067021	-1635.278333	1490.263672	54.229019
29685.067021	-1635.278333	1489.202148	-349.811493
29685.067021	-1635.278333	1488.140625	-157.077148
29685.067021	-1635.278333	1487.079102	-54.342819
29685.067021	-1635.278333	1486.016602	-7.807266
29685.067021	-1635.278333	1484.954102	-15.183678
29685.067021	-1635.278333	1483.891602	132.739349
29685.067021	-1635.278333	1482.829102	181.759140
29685.067021	-1635.278333	1481.765625	-133.365677
29685.067021	-1635.278333	1480.702148	-32.406303
29685.067021	-1635.278333	1479.638672	-135.905304
29685.067021	-1635.278333	1478.575195	77.559631
29685.067021	-1635.278333	1477.511719	48.438137
29685.067021	-1635.278333	1476.447266	102.610374
29685.067021	-1635.278333	1475.382813	-79.002037
29685.067021	-1635.278333	1474.318359	-78.541306
29685.067021	-1635.278333	1473.253906	278.787872
29685.067021	-1635.278333	1472.189453	63.993713
29685.067021	-1635.278333	1471.124023	217.228287
29685.067021	-1635.278333	1470.058594	-115.915451
29685.067021	-1635.278333	1468.993164	86.666351
29685.067021	-1635.278333	1467.927734	70.005295
29685.067021	-1635.278333	1466.861328	283.869080
29685.067021	-1635.278333	1465.794922	229.223251
29685.067021	-1635.278333	1464.728516	98.644310
29685.067021	-1635.278333	1463.662109	254.628632
29685.067021	-1635.278333	1462.594727	193.592758
29685.067021	-1635.278333	1461.528320	305.063965
29685.067021	-1635.278333	1460.460938	204.019592
29685.067021	-1635.278333	1459.393555	413.684357
29685.067021	-1635.278333	1458.326172	422.316284
29685.067021	-1635.278333	1457.257813	220.988617
29685.067021	-1635.278333	1456.189453	375.697174
29685.067021	-1635.278333	1455.121094	239.717560
29685.067021	-1635.278333	1454.052734	297.667175
29685.067021	-1635.278333	1452.984375	433.977875
29685.067021	-1635.278333	1451.915039	348.225311
29685.067021	-1635.278333	1450.845703	556.309021
29685.067021	-1635.278333	1449.776367	772.947998
29685.067021	-1635.278333	1448.707031	419.241913
29685.067021	-1635.278333	1447.636719	469.682922
29685.067021	-1635.278333	1446.567383	704.562805
29685.067021	-1635.278333	1445.497070	634.183960
29685.067021	-1635.278333	1444.425781	571.013733
29685.067021	-1635.278333	1443.355469	523.886169
29685.067021	-1635.278333	1442.285156	445.471222
29685.067021	-1635.278333	1441.213867	494.595612
29685.067021	-1635.278333	1440.142578	600.134216
29685.067021	-1635.278333	1439.070313	629.492065
29685.067021	-1635.278333	1437.999023	491.746216
29685.067021	-1635.278333	1436.926758	612.878540
29685.067021	-1635.278333	1435.854492	524.964600
29685.067021	-1635.278333	1434.782227	601.285767
29685.067021	-1635.278333	1433.709961	617.846008
29685.067021	-1635.278333	1432.636719	700.650452
29685.067021	-1635.278333	1431.563477	474.338654
29685.067021	-1635.278333	1430.490234	361.256409
29685.067021	-1635.278333	1429.416992	406.849030
29685.067021	-1635.278333	1428.343750	303.942657
29685.067021	-1635.278333	1427.269531	172.205032
29685.067021	-1635.278333	1426.195313	288.017426
29685.067021	-1635.278333	1425.121094	197.629761
29685.067021	-1635.278333	1424.046875	461.836945
29685.067021	-1635.278333	1422.971680	210.578598
29685.067021	-1635.278333	1421.896484	-69.580910
29685.067021	-1635.278333	1420.821289	16.780205
29685.067021	-1635.278333	1419.746094	44.716557
29685.067021	-1635.278333	1418.669922	3.375205
29685.067021	-1635.278333	1417.594727	116.149330
29685.067021	-1635.278333	1416.518555	90.659424
29685.067021	-1635.278333	1415.442383	25.285542
29685.067021	-1635.278333	1414.365234	-132.797516
29685.067021	-1635.278333	1413.289063	-11.826360
29685.067021	-1635.278333	1412.211914	58.933590
29685.067021	-1635.278333	1411.134766	-58.778698
29685.067021	-1635.278333	1410.057617	-158.324722
29685.067021	-1635.278333	1408.979492	184.712997
29685.067021	-1635.278333	1407.902344	76.001030
29685.067021	-1635.278333	1406.824219	203.345276
29685.067021	-1635.278333	1405.746094	82.800560
29685.067021	-1635.278333	1404.666992	74.468315
29685.067021	-1635.278333	1403.588867	397.426331
29685.067021	-1635.278333	1402.509766	330.989197
29685.067021	-1635.278333	1401.430664	86.429916
29685.067021	-1635.278333	1400.351563	579.828369
29685.067021	-1635.278333	1399.271484	463.153687
29685.067021	-1635.278333	1398.192383	562.660278
29685.067021	-1635.278333	1397.112305	685.271118
29685.067021	-1635.278333	1396.031250	595.984253
29685.067021	-1635.278333	1394.951172	762.377747
29685.067021	-1635.278333	1393.871094	752.598511
29685.067021	-1635.278333	1392.790039	828.844910
29685.067021	-1635.278333	1391.708984	796.793152
29685.067021	-1635.278333	1390.626953	1044.358521
29685.067021	-1635.278333	1389.545898	1062.221436
29685.067021	-1635.278333	1388.463867	718.796570
29685.067021	-1635.278333	1387.381836	854.056885
29685.067021	-1635.278333	1386.299805	841.808594
29685.067021	-1635.278333	1385.217773	764.928284
29685.067021	-1635.278333	1384.134766	825.677429
29685.067021	-1635.278333	1383.051758	853.395447
29685.067021	-1635.278333	1381.968750	802.648499
29685.067021	-1635.278333	1380.885742	789.906799
29685.067021	-1635.278333	1379.802734	704.082031
29685.067021	-1635.278333	1378.718750	477.791656
29685.067021	-1635.278333	1377.634766	725.790588
29685.067021	-1635.278333	1376.550781	877.228821
29685.067021	-1635.278333	1375.465820	844.589233
29685.067021	-1635.278333	1374.381836	497.947815
29685.067021	-1635.278333	1373.296875	843.311829
29685.067021	-1635.278333	1372.211914	676.349792
29685.067021	-1635.278333	1371.126953	836.178467
29685.067021	-1635.278333	1370.041016	711.664001
29685.067021	-1635.278333	1368.955078	410.753845
29685.067021	-1635.278333	1367.869141	513.553040
29685.067021	-1635.278333	1366.783203	459.500488
29685.067021	-1635.278333	1365.697266	497.384735
29685.067021	-1635.278333	1364.610352	445.812622
29685.067021	-1635.278333	1363.523438	399.393219
29685.067021	-1635.278333	1362.436523	710.409180
29685.067021	-1635.278333	1361.349609	562.217468
29685.067021	-1635.278333	1360.261719	392.686859
29685.067021	-1635.278333	1359.174805	554.335876
29685.067021	-1635.278333	1358.086914	468.979065
29685.067021	-1635.278333	1356.998047	480.616119
29685.067021	-1635.278333	1355.910156	514.868469
29685.067021	-1635.278333	1354.821289	512.199646
29685.067021	-1635.278333	1353.732422	474.331146
29685.067021	-1635.278333	1352.643555	770.971313
29685.067021	-1635.278333	1351.554688	607.869568
29685.067021	-1635.278333	1350.464844	622.280212
29685.067021	-1635.278333	1349.375000	755.610046
29685.067021	-1635.278333	1348.285156	796.778259
29685.067021	-1635.278333	1347.195313	750.467834
29685.067021	-1635.278333	1346.105469	826.033569
29685.067021	-1635.278333	1345.014648	943.462708
29685.067021	-1635.278333	1343.923828	793.848877
29685.067021	-1635.278333	1342.833008	1002.226624
29685.067021	-1635.278333	1341.741211	702.171265
29685.067021	-1635.278333	1340.650391	1111.243164
29685.067021	-1635.278333	1339.558594	812.732239
29685.067021	-1635.278333	1338.466797	949.210327
29685.067021	-1635.278333	1337.374023	1042.952271
29685.067021	-1635.278333	1336.282227	696.226685
29685.067021	-1635.278333	1335.189453	662.285217
29685.067021	-1635.278333	1334.096680	562.400391
29685.067021	-1635.278333	1333.003906	676.866455
29685.067021	-1635.278333	1331.910156	490.940948
29685.067021	-1635.278333	1330.817383	667.274597
29685.067021	-1635.278333	1329.723633	507.955688
29685.067021	-1635.278333	1328.629883	735.611816
29685.067021	-1635.278333	1327.535156	437.149323
29685.067021	-1635.278333	1326.441406	519.079529
29685.067021	-1635.278333	1325.346680	598.395691
29685.067021	-1635.278333	1324.251953	457.111725
29685.067021	-1635.278333	1323.156250	209.294464
29685.067021	-1635.278333	1322.061523	438.231964
29685.067021	-1635.278333	1320.965820	420.494110
29685.067021	-1635.278333	1319.870117	209.660065
29685.067021	-1635.278333	1318.774414	497.314026
29685.067021	-1635.278333	1317.678711	245.454193
29685.067021	-1635.278333	1316.582031	320.828400
29685.067021	-1635.278333	1315.485352	179.651260
29685.067021	-1635.278333	1314.388672	150.919983
29685.067021	-1635.278333	1313.291016	117.054466
29685.067021	-1635.278333	1312.194336	396.254608
29685.067021	-1635.278333	1311.096680	171.629532
29685.067021	-1635.278333	1309.999023	252.760712
29685.067021	-1635.278333	1308.901367	139.316238
29685.067021	-1635.278333	1307.802734	142.831543
29685.067021	-1635.278333	1306.705078	53.520500
29685.067021	-1635.278333	1305.606445	37.084675
29685.067021	-1635.278333	1304.506836	245.137665
29685.067021	-1635.278333	1303.408203	293.704498
29685.067021	-1635.278333	1302.308594	359.306458
29685.067021	-1635.278333	1301.208984	471.370117
29685.067021	-1635.278333	1300.109375	291.871216
29685.067021	-1635.278333	1299.009766	293.888000
29685.067021	-1635.278333	1297.909180	305.921204
29685.067021	-1635.278333	1296.808594	435.443054
29685.067021	-1635.278333	1295.708008	334.426392
29685.067021	-1635.278333	1294.607422	561.071472
29685.067021	-1635.278333	1293.506836	230.689957
29685.067021	-1635.278333	1292.405273	165.338486
29685.067021	-1635.278333	1291.303711	140.585739
29685.067021	-1635.278333	1290.202148	121.851700
29685.067021	-1635.278333	1289.099609	40.109219
29685.067021	-1635.278333	1287.998047	13.484290
29685.067021	-1635.278333	1286.895508	-12.276732
29685.067021	-1635.278333	1285.792969	-68.054672
29685.067021	-1635.278333	1284.689453	-114.677315
29685.067021	-1635.278333	1283.586914	-36.901859
29685.067021	-1635.278333	1282.483398	259.059448
29685.067021	-1635.278333	1281.379883	166.606796
29685.067021	-1635.278333	1280.276367	42.586990
29685.067021	-1635.278333	1279.171875	133.398026
29685.067021	-1635.278333	1278.067383	182.057175
29685.067021	-1635.278333	1276.962891	183.606522
29685.067021	-1635.278333	1275.858398	226.771729
29685.067021	-1635.278333	1274.753906	48.535278
29685.067021	-1635.278333	1273.648438	-7.607926
29685.067021	-1635.278333	1272.542969	291.916779
29685.067021	-1635.278333	1271.437500	138.029434
29685.067021	-1635.278333	1270.331055	-9.550412
29685.067021	-1635.278333	1269.225586	178.970749
29685.067021	-1635.278333	1268.119141	70.326004
29685.067021	-1635.278333	1267.012695	27.251974
29685.067021	-1635.278333	1265.906250	39.196960
29685.067021	-1635.278333	1264.798828	3.920776
29685.067021	-1635.278333	1263.691406	125.400146
29685.067021	-1635.278333	1262.583984	187.733780
29685.067021	-1635.278333	1261.476563	101.386581
29685.067021	-1635.278333	1260.368164	39.790367
29685.067021	-1635.278333	1259.260742	-90.091080
29685.067021	-1635.278333	1258.152344	-42.121738
29685.067021	-1635.278333	1257.043945	-97.239128
29685.067021	-1635.278333	1255.934570	-128.424423
29685.067021	-1635.278333	1254.825195	-62.454056
29685.067021	-1635.278333	1253.716797	-124.239334
29685.067021	-1635.278333	1252.606445	-220.074387
29685.067021	-1635.278333	1251.497070	-237.635620
29685.067021	-1635.278333	1250.387695	-116.988174
29685.067021	-1635.278333	1249.277344	-86.173607
29685.067021	-1635.278333	1248.166992	-120.137459
29685.067021	-1635.278333	1247.055664	-124.805054
29685.067021	-1635.278333	1245.945313	-154.891876
29685.067021	-1635.278333	1244.833984	-72.028915
29685.067021	-1635.278333	1243.722656	-29.582680
29685.067021	-1635.278333	1242.611328	-93.461281
29685.067021	-1635.278333	1241.499023	-20.649527
29685.067021	-1635.278333	1240.387695	-5.848422
29685.067021	-1635.278333	1239.275391	214.536804
29685.067021	-1635.278333	1238.162109	103.985771
29685.067021	-1635.278333	1237.049805	105.734901
29685.067021	-1635.278333	1235.936523	190.499161
29685.067021	-1635.278333	1234.823242	30.052568
29685.067021	-1635.278333	1233.709961	-89.574501
29685.067021	-1635.278333	1232.596680	-114.192505
29685.067021	-1635.278333	1231.482422	10.604517
29685.067021	-1635.278333	1230.369141	-180.161987
29685.067021	-1635.278333	1229.253906	-5.217749
29685.067021	-1635.278333	1228.139648	-90.270401
29685.067021	-1635.278333	1227.025391	15.600650
29685.067021	-1635.278333	1225.910156	0.758431
29685.067021	-1635.278333	1224.794922	-174.497711
29685.067021	-1635.278333	1223.679688	-31.469429
29685.067021	-1635.278333	1222.563477	-56.820034
29685.067021	-1635.278333	1221.447266	111.785934
29685.067021	-1635.278333	1220.331055	-67.005875
29685.067021	-1635.278333	1219.214844	58.978497
29685.067021	-1635.278333	1218.098633	47.972588
29685.067021	-1635.278333	1216.981445	-56.216206
29685.067021	-1635.278333	1215.864258	-59.508263
29685.067021	-1635.278333	1214.747070	-3.273557
29685.067021	-1635.278333	1213.629883	-18.425014
29685.067021	-1635.278333	1212.511719	126.153351
29685.067021	-1635.278333	1211.393555	-46.500809
29685.067021	-1635.278333	1210.275391	83.022827
29685.067021	-1635.278333	1209.157227	-43.922058
29685.067021	-1635.278333	1208.038086	-35.225342
29685.067021	-1635.278333	1206.918945	135.628204
29685.067021	-1635.278333	1205.799805	-13.076095
29685.067021	-1635.278333	1204.680664	-70.417137
29685.067021	-1635.278333	1203.560547	246.127274
29685.067021	-1635.278333	1202.441406	102.860962
29685.067021	-1635.278333	1201.321289	161.046890
29685.067021	-1635.278333	1200.200195	50.790710
29685.067021	-1635.278333	1199.080078	246.079895
29685.067021	-1635.278333	1197.958984	226.755493
29685.067021	-1635.278333	1196.837891	236.706879
29685.067021	-1635.278333	1195.716797	145.228226
29685.067021	-1635.278333	1194.594727	209.525269
29685.067021	-1635.278333	1193.473633	290.838562
29685.067021	-1635.278333	1192.351563	168.586197
29685.067021	-1635.278333	1191.229492	103.465271
29685.067021	-1635.278333	1190.106445	7.511537
29685.067021	-1635.278333	1188.984375	142.162003
29685.067021	-1635.278333	1187.861328	149.816101
29685.067021	-1635.278333	1186.738281	141.655350
29685.067021	-1635.278333	1185.614258	76.616837
29685.067021	-1635.278333	1184.491211	259.245178
29685.067021	-1635.278333	1183.367188	91.626175
29685.067021	-1635.278333	1182.243164	170.618225
29685.067021	-1635.278333	1181.119141	144.521408
29685.067021	-1635.278333	1179.994141	236.150696
29685.067021	-1635.278333	1178.869141	212.284454
29685.067021	-1635.278333	1177.744141	-32.308414
29685.067021	-1635.278333	1176.619141	177.265930
29685.067021	-1635.278333	1175.493164	69.742302
29685.067021	-1635.278333	1174.368164	20.462622
29685.067021	-1635.278333	1173.242188	38.002563
29685.067021	-1635.278333	1172.115234	98.795013
29685.067021	-1635.278333	1170.989258	127.571732
29685.067021	-1635.278333	1169.862305	17.317432
29685.067021	-1635.278333	1168.735352	27.311768
29685.067021	-1635.278333	1167.608398	-160.950760
29685.067021	-1635.278333	1166.481445	-62.882839
29685.067021	-1635.278333	1165.353516	22.315535
29685.067021	-1635.278333	1164.225586	-84.664711
29685.067021	-1635.278333	1163.097656	-96.929619
29685.067021	-1635.278333	1161.968750	-187.335495
29685.067021	-1635.278333	1160.840820	-183.646088
29685.067021	-1635.278333	1159.711914	-339.918182
29685.067021	-1635.278333	1158.583008	-198.259491
29685.067021	-1635.278333	1157.453125	-164.578171
29685.067021	-1635.278333	1156.324219	-52.500969
29685.067021	-1635.278333	1155.194336	77.636780
29685.067021	-1635.278333	1154.064453	-91.318375
29685.067021	-1635.278333	1152.933594	-174.122375
29685.067021	-1635.278333	1151.803711	54.069054
29685.067021	-1635.278333	1150.672852	83.832428
29685.067021	-1635.278333	1149.541992	35.957829
29685.067021	-1635.278333	1148.411133	-20.784735
29685.067021	-1635.278333	1147.279297	-101.636688
29685.067021	-1635.278333	1146.147461	129.170685
29685.067021	-1635.278333	1145.015625	-9.255672
29685.067021	-1635.278333	1143.883789	-39.876163
29685.067021	-1635.278333	1142.750977	-104.073959
29685.067021	-1635.278333	1141.619141	-312.074371
29685.067021	-1635.278333	1140.486328	-336.342468
29685.067021	-1635.278333	1139.352539	-242.472626
29685.067021	-1635.278333	1138.219727	-98.248421
29685.067021	-1635.278333	1137.085938	-100.248489
29685.067021	-1635.278333	1135.952148	-231.502518
29685.067021	-1635.278333	1134.818359	-30.309734
29685.067021	-1635.278333	1133.683594	2.280416
29685.067021	-1635.278333	1132.549805	11.191772
29685.067021	-1635.278333	1131.415039	-99.095078
29685.067021	-1635.278333	1130.279297	136.736755
29685.067021	-1635.278333	1129.144531	266.719757
29685.067021	-1635.278333	1128.008789	83.642921
29685.067021	-1635.278333	1126.873047	90.539421
29685.067021	-1635.278333	1125.737305	156.655991
29685.067021	-1635.278333	1124.601563	118.966896
29685.067021	-1635.278333	1123.464844	241.972198
29685.067021	-1635.278333	1122.328125	279.514862
29685.067021	-1635.278333	1121.191406	424.849457
29685.067021	-1635.278333	1120.054688	87.649521
29685.067021	-1635.278333	1118.916992	244.497955
29685.067021	-1635.278333	1117.779297	234.574844
29685.067021	-1635.278333	1116.641602	308.583069
29685.067021	-1635.278333	1115.503906	126.059418
29685.067021	-1635.278333	1114.365234	125.496826
29685.067021	-1635.278333	1113.226563	144.020920
29685.067021	-1635.278333	1112.087891	59.309177
29685.067021	-1635.278333	1110.949219	-99.188438
29685.067021	-1635.278333	1109.809570	-13.888367
29685.067021	-1635.278333	1108.669922	100.793243
29685.067021	-1635.278333	1107.530273	75.463608
29685.067021	-1635.278333	1106.390625	104.096146
29685.067021	-1635.278333	1105.250000	163.442215
29685.067021	-1635.278333	1104.109375	316.024384
29685.067021	-1635.278333	1102.968750	453.908875
29685.067021	-1635.278333	1101.828125	237.033997
29685.067021	-1635.278333	1100.686523	257.994690
29685.067021	-1635.278333	1099.544922	475.866455
29685.067021	-1635.278333	1098.403320	259.369873
29685.067021	-1635.278333	1097.261719	146.735245
29685.067021	-1635.278333	1096.120117	203.983917
29685.067021	-1635.278333	1094.977539	181.697937
29685.067021	-1635.278333	1093.834961	165.831055
29685.067021	-1635.278333	1092.691406	81.756241
29685.067021	-1635.278333	1091.548828	149.611908
29685.067021	-1635.278333	1090.405273	148.981003
29685.067021	-1635.278333	1089.261719	235.607544
29685.067021	-1635.278333	1088.118164	376.667206
29685.067021	-1635.278333	1086.973633	299.398010
29685.067021	-1635.278333	1085.829102	217.453293
29685.067021	-1635.278333	1084.684570	-56.272469
29685.067021	-1635.278333	1083.540039	125.897430
29685.067021	-1635.278333	1082.395508	119.820358
29685.067021	-1635.278333	1081.250000	116.020233
29685.067021	-1635.278333	1080.104492	218.249329
29685.067021	-1635.278333	1078.958984	112.356270
29685.067021	-1635.278333	1077.812500	149.359924
29685.067021	-1635.278333	1076.666016	28.351645
29685.067021	-1635.278333	1075.519531	261.323608
29685.067021	-1635.278333	1074.373047	407.785553
29685.067021	-1635.278333	1073.226563	321.301971
29685.067021	-1635.278333	1072.079102	122.407188
29685.067021	-1635.278333	1070.931641	194.250397
29685.067021	-1635.278333	1069.784180	128.644135
29685.067021	-1635.278333	1068.635742	212.884308
29685.067021	-1635.278333	1067.487305	452.229675
29685.067021	-1635.278333	1066.338867	271.827789
29685.067021	-1635.278333	1065.190430	288.691345
29685.067021	-1635.278333	1064.041992	240.241379
29685.067021	-1635.278333	1062.892578	351.767639
29685.067021	-1635.278333	1061.743164	187.198181
29685.067021	-1635.278333	1060.593750	175.134628
29685.067021	-1635.278333	1059.443359	151.928192
29685.067021	-1635.278333	1058.292969	141.607666
29685.067021	-1635.278333	1057.142578	293.610626
29685.067021	-1635.278333	1055.992188	180.004562
29685.067021	-1635.278333	1054.841797	72.231033
29685.067021	-1635.278333	1053.690430	-3.895124
29685.067021	-1635.278333	1052.539063	-50.345837
29685.067021	-1635.278333	1051.387695	131.460098
29685.067021	-1635.278333	1050.235352	11.621573
29685.067021	-1635.278333	1049.083984	118.987076
29685.067021	-1635.278333	1047.931641	18.605795
29685.067021	-1635.278333	1046.778320	-46.783978
29685.067021	-1635.278333	1045.625977	-75.452583
29685.067021	-1635.278333	1044.472656	-53.972210
29685.067021	-1635.278333	1043.319336	-24.168825
29685.067021	-1635.278333	1042.166016	14.314204
29685.067021	-1635.278333	1041.012695	11.912615
29685.067021	-1635.278333	1039.858398	54.095039
29685.067021	-1635.278333	1038.704102	230.308182
29685.067021	-1635.278333	1037.549805	14.896991
29685.067021	-1635.278333	1036.394531	-53.396603
29685.067021	-1635.278333	1035.239258	9.499274
29685.067021	-1635.278333	1034.083984	259.735229
29685.067021	-1635.278333	1032.928711	84.162109
29685.067021	-1635.278333	1031.773438	-49.430828
29685.067021	-1635.278333	1030.617188	175.900314
29685.067021	-1635.278333	1029.460938	-133.904160
29685.067021	-1635.278333	1028.304688	1.696030
29685.067021	-1635.278333	1027.147461	150.796005
29685.067021	-1635.278333	1025.991211	210.587112
29685.067021	-1635.278333	1024.833984	-21.285631
29685.067021	-1635.278333	1023.675781	194.609558
29685.067021	-1635.278333	1022.518555	-27.052309
29685.067021	-1635.278333	1021.360352	119.696793
29685.067021	-1635.278333	1020.202148	-5.983687
29685.067021	-1635.278333	1019.043945	-111.650101
29685.067021	-1635.278333	1017.884766	-50.410778
29685.067021	-1635.278333	1016.726563	-61.876354
29685.067021	-1635.278333	1015.567383	-11.339991
29685.067021	-1635.278333	1014.407227	-166.714600
29685.067021	-1635.278333	1013.248047	-36.790237
29685.067021	-1635.278333	1012.087891	-7.958940
29685.067021	-1635.278333	1010.927734	33.450859
29685.067021	-1635.278333	1009.767578	-340.253876
29685.067021	-1635.278333	1008.606445	-62.906433
29685.067021	-1635.278333	1007.446289	-275.255371
29685.067021	-1635.278333	1006.285156	51.439682
29685.067021	-1635.278333	1005.123047	9.549016
29685.067021	-1635.278333	1003.961914	296.651489
29685.067021	-1635.278333	1002.799805	-37.802864
29685.067021	-1635.278333	1001.637695	-53.495590
29685.067021	-1635.278333	1000.475586	-84.669525
29685.067021	-1635.278333	999.312500	-56.543972
29685.067021	-1635.278333	998.149414	18.841213
29685.067021	-1635.278333	996.986328	-64.016548
29685.067021	-1635.278333	995.823242	153.076462
29685.067021	-1635.278333	994.659180	165.376358
29685.067021	-1635.278333	993.496094	87.591644
29685.067021	-1635.278333	992.332031	127.367004
29685.067021	-1635.278333	991.166992	125.953644
29685.067021	-1635.278333	990.002930	-69.529541
29685.067021	-1635.278333	988.837891	7.099994
29685.067021	-1635.278333	987.672852	6.849647
29685.067021	-1635.278333	986.506836	29.751661
29685.067021	-1635.278333	985.341797	17.659607
29685.067021	-1635.278333	984.175781	93.705925
29685.067021	-1635.278333	983.009766	226.999741
29685.067021	-1635.278333	981.843750	-26.703686
29685.067021	-1635.278333	980.676758	46.752701
29685.067021	-1635.278333	979.509766	124.828720
29685.067021	-1635.278333	978.342773	179.925140
29685.067021	-1635.278333	977.175781	329.450562
29685.067021	-1635.278333	976.007813	111.712257
29685.067021	-1635.278333	974.839844	-128.273132
29685.067021	-1635.278333	973.671875	-31.809919
29685.067021	-1635.278333	972.503906	73.701874
29685.067021	-1635.278333	971.334961	108.731544
29685.067021	-1635.278333	970.166016	241.786072
29685.067021	-1635.278333	968.997070	-109.094124
29685.067021	-1635.278333	967.828125	36.824730
29685.067021	-1635.278333	966.658203	144.477615
29685.067021	-1635.278333	965.488281	-23.846117
29685.067021	-1635.278333	964.318359	145.891983
29685.067021	-1635.278333	963.148438	19.082918
29685.067021	-1635.278333	961.977539	-14.059153
29685.067021	-1635.278333	960.806641	201.330429
29685.067021	-1635.278333	959.635742	184.233475
29685.067021	-1635.278333	958.463867	306.728333
29685.067021	-1635.278333	957.292969	353.489471
29685.067021	-1635.278333	956.121094	221.513031
29685.067021	-1635.278333	954.948242	468.835388
29685.067021	-1635.278333	953.776367	418.577545
29685.067021	-1635.278333	952.603516	405.675842
29685.067021	-1635.278333	951.430664	338.354523
29685.067021	-1635.278333	950.257813	186.531921
29685.067021	-1635.278333	949.084961	85.604897
29685.067021	-1635.278333	947.911133	181.806763
29685.067021	-1635.278333	946.737305	-28.976000
29685.067021	-1635.278333	945.563477	99.681770
29685.067021	-1635.278333	944.388672	84.722298
29685.067021	-1635.278333	943.213867	195.096588
29685.067021	-1635.278333	942.039063	141.845032
29685.067021	-1635.278333	940.864258	457.213074
29685.067021	-1635.278333	939.688477	151.621384
29685.067021	-1635.278333	938.513672	58.556805
29685.067021	-1635.278333	937.337891	-22.772562
29685.067021	-1635.278333	936.161133	20.942131
29685.067021	-1635.278333	934.985352	194.589279
29685.067021	-1635.278333	933.808594	368.192230
29685.067021	-1635.278333	932.631836	123.861382
29685.067021	-1635.278333	931.454102	179.323807
29685.067021	-1635.278333	930.277344	211.135056
29685.067021	-1635.278333	929.099609	283.009705
29685.067021	-1635.278333	927.921875	267.578705
29685.067021	-1635.278333	926.743164	124.672577
29685.067021	-1635.278333	925.565430	128.026718
29685.067021	-1635.278333	924.386719	-43.237278
29685.067021	-1635.278333	923.208008	219.675690
29685.067021	-1635.278333	922.028320	234.781570
29685.067021	-1635.278333	920.849609	25.813988
29685.067021	-1635.278333	919.669922	29.333780
29685.067021	-1635.278333	919.474609	-52.822716
29685.067021	-1635.278333	918.309570	42.371742
29685.067021	-1635.278333	917.143555	90.368172
29685.067021	-1635.278333	915.977539	350.404175
29685.067021	-1635.278333	914.810547	209.795303
29685.067021	-1635.278333	913.644531	238.814499
29685.067021	-1635.278333	912.477539	251.316238
29685.067021	-1635.278333	911.310547	106.035248
29685.067021	-1635.278333	910.143555	-18.021393
29685.067021	-1635.278333	908.975586	180.394394
29685.067021	-1635.278333	907.807617	16.328876
29685.067021	-1635.278333	906.639648	-60.645439
29685.067021	-1635.278333	905.471680	-64.692406
29685.067021	-1635.278333	904.303711	-21.724894
29685.067021	-1635.278333	903.134766	228.111496
29685.067021	-1635.278333	901.965820	-147.466965
29685.067021	-1635.278333	900.796875	-64.615349
29685.067021	-1635.278333	899.626953	-87.555489
29685.067021	-1635.278333	898.457031	-103.458778
29685.067021	-1635.278333	897.287109	47.389820
29685.067021	-1635.278333	896.117188	-198.710709
29685.067021	-1635.278333	894.947266	-64.379326
29685.067021	-1635.278333	893.776367	13.542868
29685.067021	-1635.278333	892.605469	-91.643768
29685.067021	-1635.278333	891.434570	-16.133423
29685.067021	-1635.278333	890.262695	-36.854168
29685.067021	-1635.278333	889.091797	97.211678
29685.067021	-1635.278333	887.919922	104.576942
29685.067021	-1635.278333	886.748047	6.418011
29685.067021	-1635.278333	885.575195	-126.877853
29685.067021	-1635.278333	884.403320	-112.496964
29685.067021	-1635.278333	883.230469	89.305779
29685.067021	-1635.278333	882.057617	-287.609619
29685.067021	-1635.278333	880.883789	-13.283705
29685.067021	-1635.278333	879.710938	-205.073593
29685.067021	-1635.278333	878.537109	-244.625946
29685.067021	-1635.278333	877.362305	-50.112610
29685.067021	-1635.278333	876.188477	-106.099609
29685.067021	-1635.278333	875.013672	-28.716143
29685.067021	-1635.278333	873.839844	-63.667831
29685.067021	-1635.278333	872.664063	-110.313179
29685.067021	-1635.278333	871.489258	-56.414696
29685.067021	-1635.278333	870.313477	-138.145660
29685.067021	-1635.278333	869.138672	-77.287796
29685.067021	-1635.278333	867.962891	-254.827927
29685.067021	-1635.278333	866.786133	-222.038559
29685.067021	-1635.278333	865.610352	140.075043
29685.067021	-1635.278333	864.433594	-184.583435
29685.067021	-1635.278333	863.256836	-210.257370
29685.067021	-1635.278333	862.079102	-312.973999
29685.067021	-1635.278333	860.902344	-137.925964
29685.067021	-1635.278333	859.724609	-44.639473
29685.067021	-1635.278333	858.546875	76.587486
29685.067021	-1635.278333	857.368164	-245.433563
29685.067021	-1635.278333	856.190430	97.292328
29685.067021	-1635.278333	855.011719	99.451698
29685.067021	-1635.278333	853.833008	61.962414
29685.067021	-1635.278333	852.654297	-131.682449
29685.067021	-1635.278333	851.474609	-59.628502
29685.067021	-1635.278333	850.294922	-59.842636
29685.067021	-1635.278333	849.115234	135.575439
29685.067021	-1635.278333	847.935547	14.190078
29685.067021	-1635.278333	846.754883	-25.674702
29685.067021	-1635.278333	845.575195	141.624695
29685.067021	-1635.278333	844.393555	-9.997133
29685.067021	-1635.278333	843.212891	-117.368134
29685.067021	-1635.278333	842.032227	54.441147
29685.067021	-1635.278333	840.850586	170.342499
29685.067021	-1635.278333	839.668945	74.568321
29685.067021	-1635.278333	838.486328	-81.632721
29685.067021	-1635.278333	837.304688	-26.271162
29685.067021	-1635.278333	836.122070	59.259838
29685.067021	-1635.278333	834.939453	265.553070
29685.067021	-1635.278333	833.756836	-69.510818
29685.067021	-1635.278333	832.573242	145.972992
29685.067021	-1635.278333	831.389648	8.401019
29685.067021	-1635.278333	830.206055	-31.632221
29685.067021	-1635.278333	829.022461	237.028336
29685.067021	-1635.278333	827.838867	94.815063
29685.067021	-1635.278333	826.654297	135.926590
29685.067021	-1635.278333	825.469727	260.504608
29685.067021	-1635.278333	824.284180	153.095352
29685.067021	-1635.278333	823.099609	34.112446
29685.067021	-1635.278333	821.914063	184.064560
29685.067021	-1635.278333	820.728516	199.504562
29685.067021	-1635.278333	819.542969	277.479095
29685.067021	-1635.278333	818.356445	186.275406
29685.067021	-1635.278333	817.169922	268.804840
29685.067021	-1635.278333	815.983398	286.433319
29685.067021	-1635.278333	814.796875	232.253326
29685.067021	-1635.278333	813.609375	437.332306
29685.067021	-1635.278333	812.422852	424.750244
29685.067021	-1635.278333	811.235352	402.893280
29685.067021	-1635.278333	810.046875	378.705383
29685.067021	-1635.278333	808.859375	467.832062
29685.067021	-1635.278333	807.670898	378.837036
29685.067021	-1635.278333	806.482422	363.834930
29685.067021	-1635.278333	805.293945	295.645660
29685.067021	-1635.278333	804.104492	264.433197
29685.067021	-1635.278333	802.915039	124.610001
29685.067021	-1635.278333	801.725586	486.096619
29685.067021	-1635.278333	800.536133	690.352600
29685.067021	-1635.278333	799.345703	340.311340
29685.067021	-1635.278333	798.155273	343.603119
29685.067021	-1635.278333	796.964844	312.240265
29685.067021	-1635.278333	795.774414	52.400154
29685.067021	-1635.278333	794.583008	295.602875
29685.067021	-1635.278333	793.392578	5.822614
29685.067021	-1635.278333	792.200195	119.722000
29685.067021	-1635.278333	791.008789	-98.488373
29685.067021	-1635.278333	789.816406	158.245651
29685.067021	-1635.278333	788.625000	2.279309
29685.067021	-1635.278333	787.432617	422.424438
29685.067021	-1635.278333	786.239258	52.142490
29685.067021	-1635.278333	785.046875	87.370850
29685.067021	-1635.278333	783.853516	152.487595
29685.067021	-1635.278333	782.660156	334.963196
29685.067021	-1635.278333	781.465820	167.432663
29685.067021	-1635.278333	780.272461	144.926392
29685.067021	-1635.278333	779.078125	152.304642
29685.067021	-1635.278333	777.883789	79.124901
29685.067021	-1635.278333	776.688477	137.038635
29685.067021	-1635.278333	775.494141	84.510071
29685.067021	-1635.278333	774.298828	310.151184
29685.067021	-1635.278333	773.103516	-9.107430
29685.067021	-1635.278333	771.907227	-45.604633
29685.067021	-1635.278333	770.711914	55.728539
29685.067021	-1635.278333	769.515625	186.842636
29685.067021	-1635.278333	768.318359	58.334751
29685.067021	-1635.278333	767.122070	99.757462
29685.067021	-1635.278333	765.924805	-157.324631
29685.067021	-1635.278333	764.727539	-40.217991
29685.067021	-1635.278333	763.530273	214.481232
29685.067021	-1635.278333	762.333008	368.082123
29685.067021	-1635.278333	761.134766	110.980843
29685.067021	-1635.278333	759.936523	324.075165
29685.067021	-1635.278333	758.738281	190.813812
29685.067021	-1635.278333	757.540039	357.862396
29685.067021	-1635.278333	756.340820	105.376602
29685.067021	-1635.278333	755.141602	327.272949
29685.067021	-1635.278333	753.942383	6.074423
29685.067021	-1635.278333	752.742188	163.670044
29685.067021	-1635.278333	751.541992	2.840660
29685.067021	-1635.278333	750.341797	80.139542
29685.067021	-1635.278333	749.141602	237.471497
29685.067021	-1635.278333	747.941406	122.348763
29685.067021	-1635.278333	746.740234	50.696308
29685.067021	-1635.278333	745.539063	152.880173
29685.067021	-1635.278333	744.337891	5.673334
29685.067021	-1635.278333	743.135742	-72.927086
29685.067021	-1635.278333	741.933594	-85.247299
29685.067021	-1635.278333	740.731445	-111.330734
29685.067021	-1635.278333	739.529297	164.191330
29685.067021	-1635.278333	738.326172	263.618561
29685.067021	-1635.278333	737.124023	177.924484
29685.067021	-1635.278333	735.919922	115.046982
29685.067021	-1635.278333	734.716797	285.038513
29685.067021	-1635.278333	733.513672	251.730957
29685.067021	-1635.278333	732.309570	309.673828
29685.067021	-1635.278333	731.105469	246.595016
29685.067021	-1635.278333	729.900391	318.086914
29685.067021	-1635.278333	728.696289	373.525055
29685.067021	-1635.278333	727.491211	440.283020
29685.067021	-1635.278333	726.286133	137.597717
29685.067021	-1635.278333	725.080078	163.226410
29685.067021	-1635.278333	723.874023	-39.117336
29685.067021	-1635.278333	722.668945	59.331039
29685.067021	-1635.278333	721.461914	68.832085
29685.067021	-1635.278333	720.255859	-119.882309
29685.067021	-1635.278333	719.048828	-140.073898
29685.067021	-1635.278333	717.841797	-69.253448
29685.067021	-1635.278333	716.634766	-146.475006
29685.067021	-1635.278333	715.427734	-141.802383
29685.067021	-1635.278333	714.219727	44.820171
29685.067021	-1635.278333	713.011719	40.223896
29685.067021	-1635.278333	711.803711	-96.340523
29685.067021	-1635.278333	710.594727	-12.357526
29685.067021	-1635.278333	709.385742	-73.965408
29685.067021	-1635.278333	708.176758	-106.065796
29685.067021	-1635.278333	706.967773	-79.135506
29685.067021	-1635.278333	705.758789	-118.166985
29685.067021	-1635.278333	704.548828	83.518219
29685.067021	-1635.278333	703.338867	339.554565
29685.067021	-1635.278333	702.127930	175.384109
29685.067021	-1635.278333	700.917969	249.564484
29685.067021	-1635.278333	699.707031	178.397903
29685.067021	-1635.278333	698.496094	107.194855
29685.067021	-1635.278333	697.285156	126.695442
29685.067021	-1635.278333	696.073242	152.921539
29685.067021	-1635.278333	694.861328	222.153610
29685.067021	-1635.278333	693.649414	57.778221
29685.067021	-1635.278333	692.436523	2.199000
29685.067021	-1635.278333	691.224609	179.990158
29685.067021	-1635.278333	690.011719	-16.199162
29685.067021	-1635.278333	688.798828	-78.727859
29685.067021	-1635.278333	687.584961	42.141514
29685.067021	-1635.278333	686.372070	135.721939
29685.067021	-1635.278333	685.158203	-110.372002
29685.067021	-1635.278333	683.943359	202.598770
29685.067021	-1635.278333	682.729492	225.730804
29685.067021	-1635.278333	681.514648	273.667725
29685.067021	-1635.278333	680.299805	251.397751
29685.067021	-1635.278333	679.084961	168.010834
29685.067021	-1635.278333	677.869141	333.288025
29685.067021	-1635.278333	676.653320	202.309647
29685.067021	-1635.278333	675.437500	75.837479
29685.067021	-1635.278333	674.221680	279.233948
29685.067021	-1635.278333	673.004883	292.716553
29685.067021	-1635.278333	671.789063	274.509888
29685.067021	-1635.278333	670.571289	240.428070
29685.067021	-1635.278333	669.354492	413.993286
29685.067021	-1635.278333	668.136719	72.795403
29685.067021	-1635.278333	666.919922	81.453094
29685.067021	-1635.278333	665.701172	-189.729828
29685.067021	-1635.278333	664.483398	15.084922
29685.067021	-1635.278333	663.264648	77.664642
29685.067021	-1635.278333	662.045898	65.744751
29685.067021	-1635.278333	660.827148	-43.168564
29685.067021	-1635.278333	659.608398	-73.221451
29685.067021	-1635.278333	658.388672	155.798294
29685.067021	-1635.278333	657.168945	184.153732
29685.067021	-1635.278333	655.949219	349.825714
29685.067021	-1635.278333	654.728516	-7.076174
29685.067021	-1635.278333	653.507813	3.086335
29685.067021	-1635.278333	652.287109	227.016830
29685.067021	-1635.278333	651.066406	200.989243
29685.067021	-1635.278333	649.844727	73.656967
29685.067021	-1635.278333	648.623047	238.749390
29685.067021	-1635.278333	647.401367	25.874468
29685.067021	-1635.278333	646.179688	238.002518
29685.067021	-1635.278333	644.957031	54.315147
29685.067021	-1635.278333	643.734375	27.976591
29685.067021	-1635.278333	642.511719	-41.107243
29685.067021	-1635.278333	641.289063	127.922714
29685.067021	-1635.278333	640.065430	-4.168029
29685.067021	-1635.278333	638.841797	97.289909
29685.067021	-1635.278333	637.618164	43.727928
29685.067021	-1635.278333	636.393555	100.119484
29685.067021	-1635.278333	635.168945	214.781631
29685.067021	-1635.278333	633.944336	288.950500
29685.067021	-1635.278333	632.719727	44.484360
29685.067021	-1635.278333	631.494141	35.560688
29685.067021	-1635.278333	630.269531	273.251831
29685.067021	-1635.278333	629.042969	163.287704
29685.067021	-1635.278333	627.817383	71.255630
29685.067021	-1635.278333	626.590820	147.277222
29685.067021	-1635.278333	625.365234	-72.518150
29685.067021	-1635.278333	624.137695	-66.041519
29685.067021	-1635.278333	622.911133	-21.538055
29685.067021	-1635.278333	621.683594	107.977921
29685.067021	-1635.278333	620.456055	-42.425793
29685.067021	-1635.278333	619.228516	30.997972
29685.067021	-1635.278333	618.000977	142.386047
29685.067021	-1635.278333	616.772461	114.976364
29685.067021	-1635.278333	615.543945	67.408203
29685.067021	-1635.278333	614.314453	-130.010223
29685.067021	-1635.278333	613.085938	-50.150616
29685.067021	-1635.278333	611.856445	-108.951416
29685.067021	-1635.278333	610.626953	142.866531
29685.067021	-1635.278333	609.397461	14.714645
29685.067021	-1635.278333	608.166992	-24.070560
29685.067021	-1635.278333	606.936523	-98.606262
29685.067021	-1635.278333	605.706055	-244.592316
29685.067021	-1635.278333	604.474609	136.291214
29685.067021	-1635.278333	603.244141	104.086266
29685.067021	-1635.278333	602.012695	-126.736633
29685.067021	-1635.278333	600.780273	-118.780602
29685.067021	-1635.278333	599.548828	-14.935159
29685.067021	-1635.278333	598.316406	-125.244461
29685.067021	-1635.278333	597.083984	-12.574374
29685.067021	-1635.278333	595.851563	-249.936096
29685.067021	-1635.278333	594.618164	-172.989166
29685.067021	-1635.278333	593.384766	-149.568100
29685.067021	-1635.278333	592.151367	-50.432079
29685.067021	-1635.278333	590.917969	-2.577586
29685.067021	-1635.278333	589.683594	-3.749073
29685.067021	-1635.278333	588.449219	17.331367
29685.067021	-1635.278333	587.214844	9.458325
29685.067021	-1635.278333	585.979492	106.162781
29685.067021	-1635.278333	584.745117	18.167980
29685.067021	-1635.278333	583.509766	-138.753815
29685.067021	-1635.278333	582.273438	-42.097977
29685.067021	-1635.278333	581.038086	43.404678
29685.067021	-1635.278333	579.801758	-53.412987
29685.067021	-1635.278333	578.565430	-112.404755
29685.067021	-1635.278333	577.329102	68.602997
29685.067021	-1635.278333	576.091797	120.688263
29685.067021	-1635.278333	574.854492	181.642792
29685.067021	-1635.278333	573.617188	40.512310
29685.067021	-1635.278333	572.378906	-89.451294
29685.067021	-1635.278333	571.141602	-168.291351
29685.067021	-1635.278333	569.903320	-87.311478
29685.067021	-1635.278333	568.664063	392.998962
29685.067021	-1635.278333	567.425781	165.534088
29685.067021	-1635.278333	566.186523	266.399567
29685.067021	-1635.278333	564.947266	167.695709
29685.067021	-1635.278333	563.708008	159.942886
29685.067021	-1635.278333	562.467773	-7.355793
29685.067021	-1635.278333	561.227539	31.512220
29685.067021	-1635.278333	559.987305	54.886665
29685.067021	-1635.278333	558.747070	-45.748192
29685.067021	-1635.278333	557.505859	-53.309074
29685.067021	-1635.278333	556.264648	3.372528
29685.067021	-1635.278333	555.023438	135.322876
29685.067021	-1635.278333	553.781250	37.103851
29685.067021	-1635.278333	552.539063	-131.831955
29685.067021	-1635.278333	551.296875	59.904991
29685.067021	-1635.278333	550.054688	-303.490143
29685.067021	-1635.278333	548.811523	109.392296
29685.067021	-1635.278333	547.569336	55.718925
29685.067021	-1635.278333	546.325195	28.629271
29685.067021	-1635.278333	545.082031	67.898491
29685.067021	-1635.278333	543.837891	-202.084442
29685.067021	-1635.278333	542.593750	-47.827278
29685.067021	-1635.278333	541.349609	-207.145676
29685.067021	-1635.278333	540.105469	35.473785
29685.067021	-1635.278333	538.860352	-192.104874
29685.067021	-1635.278333	537.615234	1.976531
29685.067021	-1635.278333	536.369141	162.939499
29685.067021	-1635.278333	535.124023	383.461243
29685.067021	-1635.278333	533.877930	195.955734
29685.067021	-1635.278333	532.631836	35.059216
29685.067021	-1635.278333	531.384766	257.870239
29685.067021	-1635.278333	530.138672	-105.591827
29685.067021	-1635.278333	528.891602	90.857903
29685.067021	-1635.278333	527.643555	-1.300446
29685.067021	-1635.278333	526.396484	142.333878
29685.067021	-1635.278333	525.148438	89.995781
29685.067021	-1635.278333	523.900391	108.212402
29685.067021	-1635.278333	522.652344	-1.164405
29685.067021	-1635.278333	521.403320	10.620358
29685.067021	-1635.278333	520.154297	152.294662
29685.067021	-1635.278333	518.905273	52.023685
29685.067021	-1635.278333	517.656250	-103.098747
29685.067021	-1635.278333	516.406250	113.521309
29685.067021	-1635.278333	515.156250	125.693367
29685.067021	-1635.278333	513.906250	74.213219
29685.067021	-1635.278333	512.655273	25.038128
29685.067021	-1635.278333	511.404297	-2.056009
29685.067021	-1635.278333	510.153320	232.325043
29685.067021	-1635.278333	508.902344	31.902597
29685.067021	-1635.278333	507.650391	-67.353386
29685.067021	-1635.278333	506.398438	68.391006
29685.067021	-1635.278333	505.146484	171.252350
29685.067021	-1635.278333	503.893555	24.039476
29685.067021	-1635.278333	502.641602	-245.852676
29685.067021	-1635.278333	501.388672	-48.406490
29685.067021	-1635.278333	500.134766	-114.068962
29685.067021	-1635.278333	498.881836	-221.256439
29685.067021	-1635.278333	497.627930	17.980518
29685.067021	-1635.278333	496.374023	226.532104
29685.067021	-1635.278333	495.119141	77.994095
29685.067021	-1635.278333	493.865234	109.217674
29685.067021	-1635.278333	492.610352	74.825325
29685.067021	-1635.278333	491.355469	143.438889
29685.067021	-1635.278333	490.099609	39.192070
29685.067021	-1635.278333	488.843750	162.673126
29685.067021	-1635.278333	487.587891	139.600693
29685.067021	-1635.278333	486.332031	86.002831
29685.067021	-1635.278333	485.075195	242.463181
29685.067021	-1635.278333	483.818359	372.703979
29685.067021	-1635.278333	482.561523	295.299683
29685.067021	-1635.278333	481.304688	250.794434
29685.067021	-1635.278333	480.046875	252.275467
29685.067021	-1635.278333	478.789063	430.787323
29685.067021	-1635.278333	477.531250	406.173431
29685.067021	-1635.278333	476.272461	482.092041
29685.067021	-1635.278333	475.013672	320.080139
29685.067021	-1635.278333	473.754883	636.225830
29685.067021	-1635.278333	472.496094	581.316040
29685.067021	-1635.278333	471.236328	703.216614
29685.067021	-1635.278333	469.976563	561.184326
29685.067021	-1635.278333	468.716797	696.237061
29685.067021	-1635.278333	467.456055	602.342651
29685.067021	-1635.278333	466.196289	663.312866
29685.067021	-1635.278333	464.935547	556.482178
29685.067021	-1635.278333	463.673828	589.190063
29685.067021	-1635.278333	462.413086	587.065735
29685.067021	-1635.278333	461.151367	493.493134
29685.067021	-1635.278333	459.889648	717.910461
29685.067021	-1635.278333	458.626953	768.084045
29685.067021	-1635.278333	457.364258	909.667358
29685.067021	-1635.278333	456.101563	816.175232
29685.067021	-1635.278333	454.838867	696.618103
29685.067021	-1635.278333	453.575195	951.243652
29685.067021	-1635.278333	452.312500	894.762878
29685.067021	-1635.278333	451.047852	1051.365479
29685.067021	-1635.278333	449.784180	899.198303
29685.067021	-1635.278333	448.519531	855.730530
29685.067021	-1635.278333	447.254883	933.921204
29685.067021	-1635.278333	445.990234	1072.859009
29685.067021	-1635.278333	444.725586	1250.773682
29685.067021	-1635.278333	443.459961	1289.574463
29685.067021	-1635.278333	442.194336	1224.076660
29685.067021	-1635.278333	440.927734	1115.113403
29685.067021	-1635.278333	439.662109	1557.294556
29685.067021	-1635.278333	438.395508	1326.614502
29685.067021	-1635.278333	437.127930	1345.366089
29685.067021	-1635.278333	435.861328	1403.021118
29685.067021	-1635.278333	434.593750	1122.281128
29685.067021	-1635.278333	433.326172	1444.134277
29685.067021	-1635.278333	432.058594	1076.511841
29685.067021	-1635.278333	430.790039	1049.054810
29685.067021	-1635.278333	429.521484	1296.543335
29685.067021	-1635.278333	428.252930	1303.321777
29685.067021	-1635.278333	426.984375	1270.908813
29685.067021	-1635.278333	425.714844	1231.787598
29685.067021	-1635.278333	424.445313	1292.005859
29685.067021	-1635.278333	423.174805	1581.317139
29685.067021	-1635.278333	421.905273	1355.330078
29685.067021	-1635.278333	420.634766	1585.543213
29685.067021	-1635.278333	419.364258	1443.398438
29685.067021	-1635.278333	418.092773	1359.365967
29685.067021	-1635.278333	416.822266	1519.296997
29685.067021	-1635.278333	415.550781	1246.573608
29685.067021	-1635.278333	414.278320	1384.113037
29685.067021	-1635.278333	413.006836	1618.412842
29685.067021	-1635.278333	411.734375	1346.818726
29685.067021	-1635.278333	410.461914	1323.221924
29685.067021	-1635.278333	409.188477	1195.553589
29685.067021	-1635.278333	407.916016	1225.028564
29685.067021	-1635.278333	406.642578	1122.357666
29685.067021	-1635.278333	405.368164	1377.327881
29685.067021	-1635.278333	404.094727	1103.208130
29685.067021	-1635.278333	402.820313	1063.685425
29685.067021	-1635.278333	401.545898	1239.183594
29685.067021	-1635.278333	400.270508	1575.641235
29685.067021	-1635.278333	398.996094	1230.329468
29685.067021	-1635.278333	397.720703	1414.510742
29685.067021	-1635.278333	396.444336	1201.550659
29685.067021	-1635.278333	395.168945	1199.024536
29685.067021	-1635.278333	393.892578	1240.950806
29685.067021	-1635.278333	392.616211	987.155945
29685.067021	-1635.278333	391.339844	1328.825439
29685.067021	-1635.278333	390.062500	1094.968750
29685.067021	-1635.278333	388.785156	948.540283
29685.067021	-1635.278333	387.507813	1259.392700
29685.067021	-1635.278333	386.229492	1425.078247
29685.067021	-1635.278333	384.951172	1170.486206
29685.067021	-1635.278333	383.672852	1089.096924
29685.067021	-1635.278333	382.394531	1346.229858
29685.067021	-1635.278333	381.115234	1273.430786
29685.067021	-1635.278333	379.835938	1195.244629
29685.067021	-1635.278333	378.556641	1225.458130
29685.067021	-1635.278333	377.277344	1342.488892
29685.067021	-1635.278333	375.997070	1389.514893
29685.067021	-1635.278333	374.716797	1362.269775
29685.067021	-1635.278333	373.435547	1271.462891
29685.067021	-1635.278333	372.155273	1247.999634
29685.067021	-1635.278333	370.874023	1139.464355
29685.067021	-1635.278333	369.591797	1218.187378
29685.067021	-1635.278333	368.310547	1282.536743
29685.067021	-1635.278333	367.028320	1325.988281
29685.067021	-1635.278333	365.746094	1016.388855
29685.067021	-1635.278333	364.463867	1013.781982
29685.067021	-1635.278333	363.180664	1264.335205
29685.067021	-1635.278333	361.897461	994.787415
29685.067021	-1635.278333	360.614258	1220.266602
29685.067021	-1635.278333	359.330078	1233.977905
29685.067021	-1635.278333	358.045898	978.255127
29685.067021	-1635.278333	356.761719	1003.101929
29685.067021	-1635.278333	355.477539	831.245300
29685.067021	-1635.278333	354.192383	764.266235
29685.067021	-1635.278333	352.907227	962.441956
29685.067021	-1635.278333	351.622070	1171.148193
29685.067021	-1635.278333	350.336914	900.874512
29685.067021	-1635.278333	349.050781	754.402954
29685.067021	-1635.278333	347.764648	819.226135
29685.067021	-1635.278333	346.477539	900.717285
29685.067021	-1635.278333	345.191406	721.301453
29685.067021	-1635.278333	343.904297	609.751404
29685.067021	-1635.278333	342.616211	743.107178
29685.067021	-1635.278333	341.329102	728.597290
29685.067021	-1635.278333	340.041016	719.734924
29685.067021	-1635.278333	338.752930	560.787598
29685.067021	-1635.278333	337.463867	503.355865
29685.067021	-1635.278333	336.175781	408.842590
29685.067021	-1635.278333	334.886719	590.408325
29685.067021	-1635.278333	333.596680	329.560059
29685.067021	-1635.278333	332.307617	406.512665
29685.067021	-1635.278333	331.017578	441.615509
29685.067021	-1635.278333	329.727539	437.009064
29685.067021	-1635.278333	328.436523	288.209656
29685.067021	-1635.278333	327.146484	65.646400
29685.067021	-1635.278333	325.855469	273.537384
29685.067021	-1635.278333	324.563477	34.773003
29685.067021	-1635.278333	323.272461	47.561546
29685.067021	-1635.278333	321.980469	232.748901
29685.067021	-1635.278333	320.688477	-9.482580
29685.067021	-1635.278333	319.395508	-43.349026
29685.067021	-1635.278333	318.103516	-38.931683
29685.067021	-1635.278333	316.810547	43.797733
29685.067021	-1635.278333	315.516602	187.676056
29685.067021	-1635.278333	314.223633	-55.434189
29685.067021	-1635.278333	312.929688	-54.863071
29685.067021	-1635.278333	311.635742	-48.577541
29685.067021	-1635.278333	310.340820	43.837765
29685.067021	-1635.278333	309.045898	-140.596848
29685.067021	-1635.278333	307.750977	-281.408142
29685.067021	-1635.278333	306.456055	39.187622
29685.067021	-1635.278333	305.160156	-44.760494
29685.067021	-1635.278333	303.865234	3.677215
29685.067021	-1635.278333	302.568359	14.221866
29685.067021	-1635.278333	301.272461	63.530365
29685.067021	-1635.278333	299.975586	221.058487
29685.067021	-1635.278333	298.678711	308.782196
