#X		#Y		#Wave		#Intensity
19449.549468	16979.150333	2000.043945	-112.953308
19449.549468	16979.150333	1999.080078	-215.978088
19449.549468	16979.150333	1998.116211	57.405350
19449.549468	16979.150333	1997.151367	-26.659428
19449.549468	16979.150333	1996.186523	144.016327
19449.549468	16979.150333	1995.222656	76.320313
19449.549468	16979.150333	1994.256836	-197.357178
19449.549468	16979.150333	1993.291992	-218.815018
19449.549468	16979.150333	1992.327148	29.168087
19449.549468	16979.150333	1991.361328	313.780121
19449.549468	16979.150333	1990.395508	23.689581
19449.549468	16979.150333	1989.429688	3.028864
19449.549468	16979.150333	1988.463867	71.057037
19449.549468	16979.150333	1987.497070	254.955566
19449.549468	16979.150333	1986.531250	139.168579
19449.549468	16979.150333	1985.564453	230.791504
19449.549468	16979.150333	1984.597656	17.964455
19449.549468	16979.150333	1983.630859	66.894470
19449.549468	16979.150333	1982.664063	303.309814
19449.549468	16979.150333	1981.696289	200.841583
19449.549468	16979.150333	1980.728516	196.935028
19449.549468	16979.150333	1979.761719	316.235474
19449.549468	16979.150333	1978.792969	25.310650
19449.549468	16979.150333	1977.825195	237.896912
19449.549468	16979.150333	1976.857422	25.566998
19449.549468	16979.150333	1975.888672	146.271347
19449.549468	16979.150333	1974.919922	-155.259323
19449.549468	16979.150333	1973.951172	140.146530
19449.549468	16979.150333	1972.982422	-127.173737
19449.549468	16979.150333	1972.013672	318.138519
19449.549468	16979.150333	1971.043945	92.408508
19449.549468	16979.150333	1970.075195	105.705116
19449.549468	16979.150333	1969.105469	136.075729
19449.549468	16979.150333	1968.135742	166.264832
19449.549468	16979.150333	1967.165039	-180.696762
19449.549468	16979.150333	1966.195313	66.008484
19449.549468	16979.150333	1965.224609	265.681671
19449.549468	16979.150333	1964.253906	61.278217
19449.549468	16979.150333	1963.283203	127.651047
19449.549468	16979.150333	1962.312500	260.336548
19449.549468	16979.150333	1961.341797	486.378723
19449.549468	16979.150333	1960.370117	360.343323
19449.549468	16979.150333	1959.399414	-166.779694
19449.549468	16979.150333	1958.427734	85.958183
19449.549468	16979.150333	1957.455078	-165.655869
19449.549468	16979.150333	1956.483398	-33.678608
19449.549468	16979.150333	1955.511719	-91.135201
19449.549468	16979.150333	1954.539063	291.339294
19449.549468	16979.150333	1953.566406	469.623505
19449.549468	16979.150333	1952.593750	80.193527
19449.549468	16979.150333	1951.621094	-73.318428
19449.549468	16979.150333	1950.647461	58.090408
19449.549468	16979.150333	1949.674805	0.306559
19449.549468	16979.150333	1948.701172	165.929733
19449.549468	16979.150333	1947.727539	117.882935
19449.549468	16979.150333	1946.753906	339.795715
19449.549468	16979.150333	1945.780273	-125.493607
19449.549468	16979.150333	1944.805664	-107.309471
19449.549468	16979.150333	1943.831055	188.028549
19449.549468	16979.150333	1942.856445	-26.883762
19449.549468	16979.150333	1941.881836	-33.308193
19449.549468	16979.150333	1940.907227	14.190624
19449.549468	16979.150333	1939.932617	15.092834
19449.549468	16979.150333	1938.957031	214.498886
19449.549468	16979.150333	1937.981445	95.297546
19449.549468	16979.150333	1937.005859	444.048706
19449.549468	16979.150333	1936.030273	324.855042
19449.549468	16979.150333	1935.054688	2.457848
19449.549468	16979.150333	1934.078125	-82.310570
19449.549468	16979.150333	1933.101563	70.414543
19449.549468	16979.150333	1932.125000	86.042091
19449.549468	16979.150333	1931.148438	-47.589443
19449.549468	16979.150333	1930.171875	-36.801838
19449.549468	16979.150333	1929.194336	20.484808
19449.549468	16979.150333	1928.217773	156.031662
19449.549468	16979.150333	1927.240234	-375.980530
19449.549468	16979.150333	1926.262695	38.351200
19449.549468	16979.150333	1925.284180	176.360382
19449.549468	16979.150333	1924.306641	-52.229530
19449.549468	16979.150333	1923.328125	-38.800449
19449.549468	16979.150333	1922.350586	-83.973000
19449.549468	16979.150333	1921.372070	-6.963117
19449.549468	16979.150333	1920.392578	-81.345367
19449.549468	16979.150333	1919.414063	-123.920570
19449.549468	16979.150333	1918.434570	-93.199593
19449.549468	16979.150333	1917.456055	-96.620300
19449.549468	16979.150333	1916.476563	70.822083
19449.549468	16979.150333	1915.497070	-71.597801
19449.549468	16979.150333	1914.516602	339.802704
19449.549468	16979.150333	1913.537109	331.616302
19449.549468	16979.150333	1912.556641	108.908356
19449.549468	16979.150333	1911.576172	-55.156334
19449.549468	16979.150333	1910.595703	175.758865
19449.549468	16979.150333	1909.615234	-58.829819
19449.549468	16979.150333	1908.633789	60.025749
19449.549468	16979.150333	1907.653320	122.854752
19449.549468	16979.150333	1906.671875	85.855560
19449.549468	16979.150333	1905.690430	175.551636
19449.549468	16979.150333	1904.708984	-102.375092
19449.549468	16979.150333	1903.727539	133.485764
19449.549468	16979.150333	1902.745117	82.127159
19449.549468	16979.150333	1901.762695	157.376816
19449.549468	16979.150333	1900.780273	-217.437088
19449.549468	16979.150333	1899.797852	-39.888790
19449.549468	16979.150333	1898.815430	18.478672
19449.549468	16979.150333	1897.832031	225.209061
19449.549468	16979.150333	1896.849609	91.556305
19449.549468	16979.150333	1895.866211	-112.477943
19449.549468	16979.150333	1894.882813	157.505524
19449.549468	16979.150333	1893.898438	-124.103828
19449.549468	16979.150333	1892.915039	-99.470634
19449.549468	16979.150333	1891.930664	136.518295
19449.549468	16979.150333	1890.947266	39.780048
19449.549468	16979.150333	1889.962891	-156.409958
19449.549468	16979.150333	1888.977539	193.707672
19449.549468	16979.150333	1887.993164	38.920670
19449.549468	16979.150333	1887.007813	-1.704337
19449.549468	16979.150333	1886.023438	-15.581043
19449.549468	16979.150333	1885.038086	-41.529434
19449.549468	16979.150333	1884.051758	-186.247360
19449.549468	16979.150333	1883.066406	-241.156738
19449.549468	16979.150333	1882.081055	-80.235306
19449.549468	16979.150333	1881.094727	70.980736
19449.549468	16979.150333	1880.108398	-148.591217
19449.549468	16979.150333	1879.122070	36.588959
19449.549468	16979.150333	1878.135742	-83.485519
19449.549468	16979.150333	1877.148438	247.026138
19449.549468	16979.150333	1876.162109	-231.351501
19449.549468	16979.150333	1875.174805	-460.131256
19449.549468	16979.150333	1874.187500	56.775757
19449.549468	16979.150333	1873.199219	-14.574783
19449.549468	16979.150333	1872.211914	-279.445862
19449.549468	16979.150333	1871.223633	-273.217224
19449.549468	16979.150333	1870.236328	-54.103207
19449.549468	16979.150333	1869.248047	-103.473732
19449.549468	16979.150333	1868.258789	122.857635
19449.549468	16979.150333	1867.270508	-134.364700
19449.549468	16979.150333	1866.282227	-62.745243
19449.549468	16979.150333	1865.292969	-63.614914
19449.549468	16979.150333	1864.303711	-81.369797
19449.549468	16979.150333	1863.314453	-24.206455
19449.549468	16979.150333	1862.324219	134.407471
19449.549468	16979.150333	1861.334961	56.331188
19449.549468	16979.150333	1860.344727	19.359200
19449.549468	16979.150333	1859.354492	4.146016
19449.549468	16979.150333	1858.364258	37.225471
19449.549468	16979.150333	1857.374023	-192.696747
19449.549468	16979.150333	1856.383789	-50.995010
19449.549468	16979.150333	1855.392578	-85.400597
19449.549468	16979.150333	1854.401367	29.740854
19449.549468	16979.150333	1853.410156	166.551025
19449.549468	16979.150333	1852.418945	136.985550
19449.549468	16979.150333	1851.426758	329.188202
19449.549468	16979.150333	1850.435547	-172.691269
19449.549468	16979.150333	1849.443359	-55.174530
19449.549468	16979.150333	1848.451172	149.025467
19449.549468	16979.150333	1847.458984	32.833111
19449.549468	16979.150333	1846.466797	82.838783
19449.549468	16979.150333	1845.473633	209.873734
19449.549468	16979.150333	1844.480469	7.098039
19449.549468	16979.150333	1843.487305	28.209494
19449.549468	16979.150333	1842.494141	126.308250
19449.549468	16979.150333	1841.500977	178.658524
19449.549468	16979.150333	1840.506836	298.337616
19449.549468	16979.150333	1839.513672	95.717903
19449.549468	16979.150333	1838.519531	304.312836
19449.549468	16979.150333	1837.525391	178.682938
19449.549468	16979.150333	1836.530273	79.532394
19449.549468	16979.150333	1835.536133	247.132126
19449.549468	16979.150333	1834.541016	32.659557
19449.549468	16979.150333	1833.545898	-104.879448
19449.549468	16979.150333	1832.550781	-76.671829
19449.549468	16979.150333	1831.555664	318.886475
19449.549468	16979.150333	1830.560547	63.684727
19449.549468	16979.150333	1829.564453	48.589169
19449.549468	16979.150333	1828.568359	83.875290
19449.549468	16979.150333	1827.572266	155.113998
19449.549468	16979.150333	1826.576172	87.165253
19449.549468	16979.150333	1825.580078	146.334351
19449.549468	16979.150333	1824.583008	-55.920750
19449.549468	16979.150333	1823.585938	127.876762
19449.549468	16979.150333	1822.588867	309.176727
19449.549468	16979.150333	1821.591797	298.645813
19449.549468	16979.150333	1820.594727	-85.719231
19449.549468	16979.150333	1819.596680	241.568710
19449.549468	16979.150333	1818.599609	101.609589
19449.549468	16979.150333	1817.601563	-143.699173
19449.549468	16979.150333	1816.603516	259.924225
19449.549468	16979.150333	1815.604492	249.212936
19449.549468	16979.150333	1814.606445	97.243744
19449.549468	16979.150333	1813.607422	170.240036
19449.549468	16979.150333	1812.608398	-194.674438
19449.549468	16979.150333	1811.609375	17.005018
19449.549468	16979.150333	1810.610352	73.103363
19449.549468	16979.150333	1809.610352	100.443382
19449.549468	16979.150333	1808.611328	84.684555
19449.549468	16979.150333	1807.611328	252.944290
19449.549468	16979.150333	1806.611328	373.294006
19449.549468	16979.150333	1805.610352	297.618835
19449.549468	16979.150333	1804.610352	327.029846
19449.549468	16979.150333	1803.609375	456.698822
19449.549468	16979.150333	1802.608398	275.816559
19449.549468	16979.150333	1801.607422	188.063614
19449.549468	16979.150333	1800.606445	296.034698
19449.549468	16979.150333	1799.605469	284.570526
19449.549468	16979.150333	1798.603516	179.993500
19449.549468	16979.150333	1797.601563	426.108032
19449.549468	16979.150333	1796.599609	11.327201
19449.549468	16979.150333	1795.597656	281.107086
19449.549468	16979.150333	1794.595703	154.905716
19449.549468	16979.150333	1793.592773	95.441727
19449.549468	16979.150333	1792.589844	119.361725
19449.549468	16979.150333	1791.587891	143.201233
19449.549468	16979.150333	1790.583984	112.172363
19449.549468	16979.150333	1789.581055	464.617920
19449.549468	16979.150333	1788.577148	111.868301
19449.549468	16979.150333	1787.574219	394.984161
19449.549468	16979.150333	1786.570313	554.123779
19449.549468	16979.150333	1785.566406	127.555473
19449.549468	16979.150333	1784.561523	338.905579
19449.549468	16979.150333	1783.557617	-28.118114
19449.549468	16979.150333	1782.552734	435.210541
19449.549468	16979.150333	1781.547852	56.273479
19449.549468	16979.150333	1780.542969	359.927399
19449.549468	16979.150333	1779.538086	-9.494366
19449.549468	16979.150333	1778.532227	334.321747
19449.549468	16979.150333	1777.527344	326.162598
19449.549468	16979.150333	1776.521484	113.568062
19449.549468	16979.150333	1775.515625	157.570969
19449.549468	16979.150333	1774.508789	260.865540
19449.549468	16979.150333	1773.502930	444.788116
19449.549468	16979.150333	1772.496094	175.030411
19449.549468	16979.150333	1771.489258	221.043594
19449.549468	16979.150333	1770.482422	357.157257
19449.549468	16979.150333	1769.475586	96.818176
19449.549468	16979.150333	1768.467773	256.468262
19449.549468	16979.150333	1767.460938	425.460571
19449.549468	16979.150333	1766.453125	252.767181
19449.549468	16979.150333	1765.445313	644.441467
19449.549468	16979.150333	1764.437500	315.121704
19449.549468	16979.150333	1763.428711	267.933075
19449.549468	16979.150333	1762.420898	396.053772
19449.549468	16979.150333	1761.412109	137.802826
19449.549468	16979.150333	1760.403320	102.263390
19449.549468	16979.150333	1759.393555	-56.519680
19449.549468	16979.150333	1758.384766	229.894272
19449.549468	16979.150333	1757.375000	295.911560
19449.549468	16979.150333	1756.366211	269.488861
19449.549468	16979.150333	1755.356445	-41.030296
19449.549468	16979.150333	1754.345703	-174.038910
19449.549468	16979.150333	1753.335938	-37.364937
19449.549468	16979.150333	1752.325195	411.414825
19449.549468	16979.150333	1751.315430	84.195427
19449.549468	16979.150333	1750.304688	-1.795527
19449.549468	16979.150333	1749.292969	-213.140427
19449.549468	16979.150333	1748.282227	173.521255
19449.549468	16979.150333	1747.270508	-56.862698
19449.549468	16979.150333	1746.259766	-8.437240
19449.549468	16979.150333	1745.248047	325.727570
19449.549468	16979.150333	1744.235352	194.379517
19449.549468	16979.150333	1743.223633	-135.367981
19449.549468	16979.150333	1742.211914	49.618916
19449.549468	16979.150333	1741.199219	-15.772360
19449.549468	16979.150333	1740.186523	-64.708542
19449.549468	16979.150333	1739.173828	-193.941467
19449.549468	16979.150333	1738.160156	44.820389
19449.549468	16979.150333	1737.147461	-362.894379
19449.549468	16979.150333	1736.133789	118.536179
19449.549468	16979.150333	1735.120117	347.404816
19449.549468	16979.150333	1734.106445	-414.010895
19449.549468	16979.150333	1733.091797	236.588058
19449.549468	16979.150333	1732.078125	-260.764923
19449.549468	16979.150333	1731.063477	203.252579
19449.549468	16979.150333	1730.048828	82.816635
19449.549468	16979.150333	1729.034180	108.357216
19449.549468	16979.150333	1728.019531	-26.318703
19449.549468	16979.150333	1727.003906	-175.156647
19449.549468	16979.150333	1725.988281	-189.857071
19449.549468	16979.150333	1724.972656	-101.091469
19449.549468	16979.150333	1723.957031	-203.031342
19449.549468	16979.150333	1722.941406	-32.133331
19449.549468	16979.150333	1721.924805	272.674316
19449.549468	16979.150333	1720.909180	-92.906929
19449.549468	16979.150333	1719.892578	-51.695007
19449.549468	16979.150333	1718.875977	-57.596699
19449.549468	16979.150333	1717.858398	-16.577621
19449.549468	16979.150333	1716.841797	-93.144608
19449.549468	16979.150333	1715.824219	227.264725
19449.549468	16979.150333	1714.806641	-25.648600
19449.549468	16979.150333	1713.789063	205.221420
19449.549468	16979.150333	1712.770508	-0.798163
19449.549468	16979.150333	1711.752930	-30.756292
19449.549468	16979.150333	1710.734375	206.779816
19449.549468	16979.150333	1709.715820	80.419853
19449.549468	16979.150333	1708.697266	-104.622673
19449.549468	16979.150333	1707.678711	64.525917
19449.549468	16979.150333	1706.659180	160.827103
19449.549468	16979.150333	1705.640625	-101.739731
19449.549468	16979.150333	1704.621094	-104.060966
19449.549468	16979.150333	1703.600586	-17.391964
19449.549468	16979.150333	1702.581055	-160.487244
19449.549468	16979.150333	1701.561523	-167.709656
19449.549468	16979.150333	1700.541016	-221.857803
19449.549468	16979.150333	1699.520508	-6.715675
19449.549468	16979.150333	1698.500000	42.012409
19449.549468	16979.150333	1697.478516	67.236649
19449.549468	16979.150333	1696.458008	-118.286812
19449.549468	16979.150333	1695.436523	54.253765
19449.549468	16979.150333	1694.415039	-351.284576
19449.549468	16979.150333	1693.393555	-64.274025
19449.549468	16979.150333	1692.372070	-23.032116
19449.549468	16979.150333	1691.349609	92.956528
19449.549468	16979.150333	1690.327148	-67.058174
19449.549468	16979.150333	1689.304688	128.239120
19449.549468	16979.150333	1688.282227	5.544626
19449.549468	16979.150333	1687.259766	-70.435669
19449.549468	16979.150333	1686.236328	94.182503
19449.549468	16979.150333	1685.213867	401.162628
19449.549468	16979.150333	1684.190430	-15.999203
19449.549468	16979.150333	1683.166016	138.984909
19449.549468	16979.150333	1682.142578	454.931549
19449.549468	16979.150333	1681.119141	121.844070
19449.549468	16979.150333	1680.094727	232.198273
19449.549468	16979.150333	1679.070313	225.799545
19449.549468	16979.150333	1678.045898	123.705521
19449.549468	16979.150333	1677.020508	187.180954
19449.549468	16979.150333	1675.996094	325.197418
19449.549468	16979.150333	1674.970703	-47.452991
19449.549468	16979.150333	1673.945313	88.117462
19449.549468	16979.150333	1672.919922	228.243805
19449.549468	16979.150333	1671.893555	60.706234
19449.549468	16979.150333	1670.868164	198.357681
19449.549468	16979.150333	1669.841797	56.413677
19449.549468	16979.150333	1668.815430	12.279797
19449.549468	16979.150333	1667.789063	156.699310
19449.549468	16979.150333	1666.761719	121.780388
19449.549468	16979.150333	1665.735352	307.925232
19449.549468	16979.150333	1664.708008	228.694733
19449.549468	16979.150333	1663.680664	396.047424
19449.549468	16979.150333	1662.653320	160.912155
19449.549468	16979.150333	1661.625000	-16.038582
19449.549468	16979.150333	1660.597656	253.449387
19449.549468	16979.150333	1659.569336	232.219803
19449.549468	16979.150333	1658.541016	238.850586
19449.549468	16979.150333	1657.512695	282.624146
19449.549468	16979.150333	1656.483398	349.576080
19449.549468	16979.150333	1655.455078	318.916016
19449.549468	16979.150333	1654.425781	241.786285
19449.549468	16979.150333	1653.396484	199.483688
19449.549468	16979.150333	1652.366211	324.307434
19449.549468	16979.150333	1651.336914	397.998627
19449.549468	16979.150333	1650.306641	93.384933
19449.549468	16979.150333	1649.276367	-180.976913
19449.549468	16979.150333	1648.246094	310.220917
19449.549468	16979.150333	1647.215820	244.604660
19449.549468	16979.150333	1646.185547	434.050537
19449.549468	16979.150333	1645.154297	384.615479
19449.549468	16979.150333	1644.123047	321.272339
19449.549468	16979.150333	1643.091797	334.410980
19449.549468	16979.150333	1642.060547	618.608887
19449.549468	16979.150333	1641.028320	332.819336
19449.549468	16979.150333	1639.997070	512.654968
19449.549468	16979.150333	1638.964844	622.935425
19449.549468	16979.150333	1637.931641	277.073914
19449.549468	16979.150333	1636.899414	852.587463
19449.549468	16979.150333	1635.867188	735.909851
19449.549468	16979.150333	1634.833984	815.937805
19449.549468	16979.150333	1633.800781	602.132690
19449.549468	16979.150333	1632.767578	672.890137
19449.549468	16979.150333	1631.734375	542.432190
19449.549468	16979.150333	1630.700195	414.331390
19449.549468	16979.150333	1629.666016	376.427826
19449.549468	16979.150333	1628.631836	516.492371
19449.549468	16979.150333	1627.597656	513.243042
19449.549468	16979.150333	1626.563477	708.675232
19449.549468	16979.150333	1625.528320	816.257996
19449.549468	16979.150333	1624.493164	517.366638
19449.549468	16979.150333	1623.458008	719.617676
19449.549468	16979.150333	1622.422852	693.266235
19449.549468	16979.150333	1621.387695	740.786316
19449.549468	16979.150333	1620.351563	578.310974
19449.549468	16979.150333	1619.315430	644.307312
19449.549468	16979.150333	1618.279297	564.973816
19449.549468	16979.150333	1617.243164	446.479797
19449.549468	16979.150333	1616.207031	738.463196
19449.549468	16979.150333	1615.169922	424.061096
19449.549468	16979.150333	1614.132813	457.824524
19449.549468	16979.150333	1613.095703	791.160950
19449.549468	16979.150333	1612.058594	762.671265
19449.549468	16979.150333	1611.020508	812.527832
19449.549468	16979.150333	1609.983398	443.241211
19449.549468	16979.150333	1608.945313	608.315125
19449.549468	16979.150333	1607.907227	701.983887
19449.549468	16979.150333	1606.868164	687.457214
19449.549468	16979.150333	1605.830078	689.079346
19449.549468	16979.150333	1604.791016	610.194092
19449.549468	16979.150333	1603.751953	588.879456
19449.549468	16979.150333	1602.712891	503.208923
19449.549468	16979.150333	1601.673828	649.843872
19449.549468	16979.150333	1600.633789	688.400330
19449.549468	16979.150333	1599.594727	1131.523071
19449.549468	16979.150333	1598.554688	816.136108
19449.549468	16979.150333	1597.513672	765.131470
19449.549468	16979.150333	1596.473633	1090.931152
19449.549468	16979.150333	1595.433594	1065.240845
19449.549468	16979.150333	1594.392578	754.856445
19449.549468	16979.150333	1593.351563	821.154541
19449.549468	16979.150333	1592.310547	825.493713
19449.549468	16979.150333	1591.268555	783.972717
19449.549468	16979.150333	1590.227539	714.983521
19449.549468	16979.150333	1589.185547	779.120972
19449.549468	16979.150333	1588.143555	928.142151
19449.549468	16979.150333	1587.100586	978.548340
19449.549468	16979.150333	1586.058594	655.276001
19449.549468	16979.150333	1585.015625	1042.777832
19449.549468	16979.150333	1583.972656	662.425781
19449.549468	16979.150333	1582.929688	896.359863
19449.549468	16979.150333	1581.886719	882.840820
19449.549468	16979.150333	1580.843750	1045.746826
19449.549468	16979.150333	1579.799805	878.883972
19449.549468	16979.150333	1578.755859	959.415344
19449.549468	16979.150333	1577.711914	907.209045
19449.549468	16979.150333	1576.666992	891.696655
19449.549468	16979.150333	1575.623047	919.733337
19449.549468	16979.150333	1574.578125	1242.942749
19449.549468	16979.150333	1573.533203	975.959961
19449.549468	16979.150333	1572.488281	1004.153259
19449.549468	16979.150333	1571.443359	613.986633
19449.549468	16979.150333	1570.397461	310.903564
19449.549468	16979.150333	1569.351563	570.249817
19449.549468	16979.150333	1568.305664	553.069458
19449.549468	16979.150333	1567.259766	449.150574
19449.549468	16979.150333	1566.213867	626.298889
19449.549468	16979.150333	1565.166992	463.171082
19449.549468	16979.150333	1564.120117	699.757141
19449.549468	16979.150333	1563.073242	799.356873
19449.549468	16979.150333	1562.026367	563.479065
19449.549468	16979.150333	1560.978516	505.763062
19449.549468	16979.150333	1559.930664	379.702484
19449.549468	16979.150333	1558.883789	269.739777
19449.549468	16979.150333	1557.834961	244.277847
19449.549468	16979.150333	1556.787109	440.085632
19449.549468	16979.150333	1555.739258	515.072083
19449.549468	16979.150333	1554.690430	384.978516
19449.549468	16979.150333	1553.641602	321.106628
19449.549468	16979.150333	1552.592773	507.963165
19449.549468	16979.150333	1551.542969	574.102173
19449.549468	16979.150333	1550.494141	701.795227
19449.549468	16979.150333	1549.444336	640.534363
19449.549468	16979.150333	1548.394531	622.638428
19449.549468	16979.150333	1547.344727	513.795654
19449.549468	16979.150333	1546.293945	625.826172
19449.549468	16979.150333	1545.244141	492.180267
19449.549468	16979.150333	1544.193359	399.624329
19449.549468	16979.150333	1543.142578	414.091827
19449.549468	16979.150333	1542.090820	358.157074
19449.549468	16979.150333	1541.040039	659.267700
19449.549468	16979.150333	1539.988281	121.626236
19449.549468	16979.150333	1538.936523	445.581818
19449.549468	16979.150333	1537.884766	465.049255
19449.549468	16979.150333	1536.833008	570.929688
19449.549468	16979.150333	1535.780273	336.188507
19449.549468	16979.150333	1534.727539	60.768196
19449.549468	16979.150333	1533.674805	119.288597
19449.549468	16979.150333	1532.622070	41.697674
19449.549468	16979.150333	1531.569336	-13.066397
19449.549468	16979.150333	1530.515625	159.188766
19449.549468	16979.150333	1529.461914	281.575043
19449.549468	16979.150333	1528.408203	245.251297
19449.549468	16979.150333	1527.354492	23.104870
19449.549468	16979.150333	1526.299805	-40.146118
19449.549468	16979.150333	1525.246094	-21.664465
19449.549468	16979.150333	1524.191406	117.028503
19449.549468	16979.150333	1523.136719	-56.905228
19449.549468	16979.150333	1522.081055	-436.809662
19449.549468	16979.150333	1521.026367	-82.623848
19449.549468	16979.150333	1519.970703	49.617966
19449.549468	16979.150333	1518.915039	16.641790
19449.549468	16979.150333	1517.859375	160.350494
19449.549468	16979.150333	1516.802734	267.906372
19449.549468	16979.150333	1515.747070	165.099777
19449.549468	16979.150333	1514.690430	171.036087
19449.549468	16979.150333	1513.633789	34.593094
19449.549468	16979.150333	1512.577148	-2.183823
19449.549468	16979.150333	1511.519531	103.606400
19449.549468	16979.150333	1510.461914	306.667328
19449.549468	16979.150333	1509.405273	213.704071
19449.549468	16979.150333	1508.346680	118.640167
19449.549468	16979.150333	1507.289063	224.787277
19449.549468	16979.150333	1506.231445	231.628647
19449.549468	16979.150333	1505.172852	141.483871
19449.549468	16979.150333	1504.114258	335.971832
19449.549468	16979.150333	1503.055664	97.098717
19449.549468	16979.150333	1501.996094	32.219612
19449.549468	16979.150333	1500.937500	78.047424
19449.549468	16979.150333	1499.877930	-110.637703
19449.549468	16979.150333	1498.818359	-69.067101
19449.549468	16979.150333	1497.757813	-20.623604
19449.549468	16979.150333	1496.698242	-12.665564
19449.549468	16979.150333	1495.637695	-304.388519
19449.549468	16979.150333	1494.577148	-253.307556
19449.549468	16979.150333	1493.516602	-118.754433
19449.549468	16979.150333	1492.456055	65.431252
19449.549468	16979.150333	1491.394531	-146.747971
19449.549468	16979.150333	1490.333008	-63.717815
19449.549468	16979.150333	1489.271484	1.391072
19449.549468	16979.150333	1488.209961	-230.536362
19449.549468	16979.150333	1487.148438	37.380913
19449.549468	16979.150333	1486.085938	-344.969269
19449.549468	16979.150333	1485.023438	134.588272
19449.549468	16979.150333	1483.960938	188.975586
19449.549468	16979.150333	1482.898438	90.548271
19449.549468	16979.150333	1481.834961	214.882034
19449.549468	16979.150333	1480.772461	379.745789
19449.549468	16979.150333	1479.708984	277.271423
19449.549468	16979.150333	1478.644531	222.133209
19449.549468	16979.150333	1477.581055	308.691132
19449.549468	16979.150333	1476.517578	548.001526
19449.549468	16979.150333	1475.453125	809.857544
19449.549468	16979.150333	1474.388672	521.829590
19449.549468	16979.150333	1473.323242	586.238403
19449.549468	16979.150333	1472.258789	330.042358
19449.549468	16979.150333	1471.193359	531.771545
19449.549468	16979.150333	1470.127930	309.540863
19449.549468	16979.150333	1469.062500	358.910767
19449.549468	16979.150333	1467.997070	715.592163
19449.549468	16979.150333	1466.930664	420.076355
19449.549468	16979.150333	1465.865234	431.355316
19449.549468	16979.150333	1464.798828	293.023010
19449.549468	16979.150333	1463.731445	470.378571
19449.549468	16979.150333	1462.665039	233.993347
19449.549468	16979.150333	1461.597656	606.313538
19449.549468	16979.150333	1460.530273	293.497803
19449.549468	16979.150333	1459.462891	533.754944
19449.549468	16979.150333	1458.395508	43.604290
19449.549468	16979.150333	1457.327148	433.159180
19449.549468	16979.150333	1456.259766	351.870392
19449.549468	16979.150333	1455.191406	500.187378
19449.549468	16979.150333	1454.123047	151.748444
19449.549468	16979.150333	1453.053711	325.124329
19449.549468	16979.150333	1451.985352	48.557808
19449.549468	16979.150333	1450.916016	210.577347
19449.549468	16979.150333	1449.846680	230.914505
19449.549468	16979.150333	1448.776367	209.130615
19449.549468	16979.150333	1447.707031	46.895309
19449.549468	16979.150333	1446.636719	32.058170
19449.549468	16979.150333	1445.566406	19.479185
19449.549468	16979.150333	1444.496094	254.486176
19449.549468	16979.150333	1443.425781	-108.227814
19449.549468	16979.150333	1442.354492	111.020248
19449.549468	16979.150333	1441.283203	-111.724586
19449.549468	16979.150333	1440.211914	90.414284
19449.549468	16979.150333	1439.140625	45.014626
19449.549468	16979.150333	1438.069336	-143.750107
19449.549468	16979.150333	1436.997070	152.873947
19449.549468	16979.150333	1435.924805	232.241760
19449.549468	16979.150333	1434.852539	271.505280
19449.549468	16979.150333	1433.780273	-58.023426
19449.549468	16979.150333	1432.707031	-194.230713
19449.549468	16979.150333	1431.633789	-228.826553
19449.549468	16979.150333	1430.560547	-47.416851
19449.549468	16979.150333	1429.487305	-11.818464
19449.549468	16979.150333	1428.413086	-245.284576
19449.549468	16979.150333	1427.339844	44.596134
19449.549468	16979.150333	1426.265625	26.821762
19449.549468	16979.150333	1425.191406	-120.847656
19449.549468	16979.150333	1424.116211	99.042122
19449.549468	16979.150333	1423.041992	255.690582
19449.549468	16979.150333	1421.966797	153.102493
19449.549468	16979.150333	1420.891602	405.123352
19449.549468	16979.150333	1419.816406	347.266296
19449.549468	16979.150333	1418.740234	218.745819
19449.549468	16979.150333	1417.665039	157.027878
19449.549468	16979.150333	1416.588867	453.100647
19449.549468	16979.150333	1415.512695	608.848145
19449.549468	16979.150333	1414.435547	440.885620
19449.549468	16979.150333	1413.359375	760.627380
19449.549468	16979.150333	1412.282227	279.644470
19449.549468	16979.150333	1411.205078	313.238342
19449.549468	16979.150333	1410.127930	460.605682
19449.549468	16979.150333	1409.049805	575.077026
19449.549468	16979.150333	1407.972656	484.009064
19449.549468	16979.150333	1406.894531	504.606476
19449.549468	16979.150333	1405.816406	485.197632
19449.549468	16979.150333	1404.737305	776.662231
19449.549468	16979.150333	1403.659180	438.315125
19449.549468	16979.150333	1402.580078	493.961426
19449.549468	16979.150333	1401.500977	580.942688
19449.549468	16979.150333	1400.421875	727.086365
19449.549468	16979.150333	1399.341797	788.106567
19449.549468	16979.150333	1398.262695	937.221436
19449.549468	16979.150333	1397.182617	506.746765
19449.549468	16979.150333	1396.102539	564.713013
19449.549468	16979.150333	1395.021484	226.508591
19449.549468	16979.150333	1393.941406	412.512909
19449.549468	16979.150333	1392.860352	333.511200
19449.549468	16979.150333	1391.779297	419.305054
19449.549468	16979.150333	1390.698242	721.917175
19449.549468	16979.150333	1389.616211	371.134705
19449.549468	16979.150333	1388.535156	378.510040
19449.549468	16979.150333	1387.453125	466.040131
19449.549468	16979.150333	1386.371094	228.871902
19449.549468	16979.150333	1385.288086	101.214615
19449.549468	16979.150333	1384.206055	365.453979
19449.549468	16979.150333	1383.123047	236.737991
19449.549468	16979.150333	1382.040039	478.564728
19449.549468	16979.150333	1380.957031	347.392365
19449.549468	16979.150333	1379.873047	189.243073
19449.549468	16979.150333	1378.789063	461.024811
19449.549468	16979.150333	1377.705078	354.529663
19449.549468	16979.150333	1376.621094	237.514648
19449.549468	16979.150333	1375.537109	315.728882
19449.549468	16979.150333	1374.452148	480.364868
19449.549468	16979.150333	1373.367188	291.792999
19449.549468	16979.150333	1372.282227	317.035858
19449.549468	16979.150333	1371.197266	174.793716
19449.549468	16979.150333	1370.112305	362.512970
19449.549468	16979.150333	1369.026367	317.763458
19449.549468	16979.150333	1367.940430	454.797913
19449.549468	16979.150333	1366.854492	420.447510
19449.549468	16979.150333	1365.767578	631.924805
19449.549468	16979.150333	1364.681641	259.305969
19449.549468	16979.150333	1363.594727	297.550262
19449.549468	16979.150333	1362.507813	196.449188
19449.549468	16979.150333	1361.419922	334.283936
19449.549468	16979.150333	1360.333008	482.473816
19449.549468	16979.150333	1359.245117	319.820496
19449.549468	16979.150333	1358.157227	353.861176
19449.549468	16979.150333	1357.069336	89.589149
19449.549468	16979.150333	1355.981445	152.460480
19449.549468	16979.150333	1354.892578	381.653198
19449.549468	16979.150333	1353.803711	304.458221
19449.549468	16979.150333	1352.714844	78.751587
19449.549468	16979.150333	1351.625000	506.199738
19449.549468	16979.150333	1350.536133	239.525558
19449.549468	16979.150333	1349.446289	342.361816
19449.549468	16979.150333	1348.356445	458.290131
19449.549468	16979.150333	1347.266602	475.442322
19449.549468	16979.150333	1346.175781	358.873901
19449.549468	16979.150333	1345.085938	456.308990
19449.549468	16979.150333	1343.995117	575.966919
19449.549468	16979.150333	1342.903320	558.501221
19449.549468	16979.150333	1341.812500	560.291931
19449.549468	16979.150333	1340.720703	579.234497
19449.549468	16979.150333	1339.629883	627.939209
19449.549468	16979.150333	1338.538086	610.838867
19449.549468	16979.150333	1337.445313	596.526367
19449.549468	16979.150333	1336.353516	290.103943
19449.549468	16979.150333	1335.260742	601.840515
19449.549468	16979.150333	1334.167969	781.338501
19449.549468	16979.150333	1333.075195	633.645691
19449.549468	16979.150333	1331.981445	345.070099
19449.549468	16979.150333	1330.888672	208.693985
19449.549468	16979.150333	1329.794922	304.187134
19449.549468	16979.150333	1328.701172	470.845032
19449.549468	16979.150333	1327.606445	501.136017
19449.549468	16979.150333	1326.512695	419.950562
19449.549468	16979.150333	1325.417969	600.829895
19449.549468	16979.150333	1324.323242	376.014618
19449.549468	16979.150333	1323.227539	541.981018
19449.549468	16979.150333	1322.132813	367.748230
19449.549468	16979.150333	1321.037109	376.086243
19449.549468	16979.150333	1319.941406	65.407417
19449.549468	16979.150333	1318.845703	286.570129
19449.549468	16979.150333	1317.750000	479.688629
19449.549468	16979.150333	1316.653320	443.526550
19449.549468	16979.150333	1315.556641	405.156219
19449.549468	16979.150333	1314.459961	143.375488
19449.549468	16979.150333	1313.363281	268.095490
19449.549468	16979.150333	1312.265625	87.279198
19449.549468	16979.150333	1311.167969	208.231247
19449.549468	16979.150333	1310.070313	141.792450
19449.549468	16979.150333	1308.972656	234.928635
19449.549468	16979.150333	1307.874023	336.522797
19449.549468	16979.150333	1306.776367	323.837250
19449.549468	16979.150333	1305.677734	301.230804
19449.549468	16979.150333	1304.579102	206.269714
19449.549468	16979.150333	1303.479492	392.532349
19449.549468	16979.150333	1302.380859	495.005463
19449.549468	16979.150333	1301.281250	233.839096
19449.549468	16979.150333	1300.181641	295.269287
19449.549468	16979.150333	1299.081055	603.151855
19449.549468	16979.150333	1297.981445	346.764465
19449.549468	16979.150333	1296.880859	369.579498
19449.549468	16979.150333	1295.780273	660.483398
19449.549468	16979.150333	1294.679688	382.898956
19449.549468	16979.150333	1293.578125	249.328629
19449.549468	16979.150333	1292.476563	130.270081
19449.549468	16979.150333	1291.375000	375.820007
19449.549468	16979.150333	1290.273438	121.162994
19449.549468	16979.150333	1289.171875	95.837173
19449.549468	16979.150333	1288.069336	336.292297
19449.549468	16979.150333	1286.966797	383.117767
19449.549468	16979.150333	1285.864258	62.867344
19449.549468	16979.150333	1284.761719	91.844765
19449.549468	16979.150333	1283.658203	231.253754
19449.549468	16979.150333	1282.554688	231.586014
19449.549468	16979.150333	1281.451172	171.508606
19449.549468	16979.150333	1280.347656	309.469818
19449.549468	16979.150333	1279.244141	415.697266
19449.549468	16979.150333	1278.139648	98.955246
19449.549468	16979.150333	1277.035156	313.782318
19449.549468	16979.150333	1275.930664	-75.552849
19449.549468	16979.150333	1274.825195	-113.207855
19449.549468	16979.150333	1273.720703	-82.524536
19449.549468	16979.150333	1272.615234	180.044189
19449.549468	16979.150333	1271.508789	-130.717377
19449.549468	16979.150333	1270.403320	-119.479225
19449.549468	16979.150333	1269.297852	9.052285
19449.549468	16979.150333	1268.191406	72.395378
19449.549468	16979.150333	1267.084961	-127.893745
19449.549468	16979.150333	1265.977539	-11.529273
19449.549468	16979.150333	1264.871094	-5.311976
19449.549468	16979.150333	1263.763672	-44.108826
19449.549468	16979.150333	1262.656250	-148.763977
19449.549468	16979.150333	1261.548828	-380.789978
19449.549468	16979.150333	1260.440430	-143.285828
19449.549468	16979.150333	1259.333008	-104.880302
19449.549468	16979.150333	1258.224609	-119.866196
19449.549468	16979.150333	1257.115234	-100.818604
19449.549468	16979.150333	1256.006836	-35.303711
19449.549468	16979.150333	1254.897461	19.608263
19449.549468	16979.150333	1253.788086	-133.561493
19449.549468	16979.150333	1252.678711	-106.495399
19449.549468	16979.150333	1251.569336	100.422928
19449.549468	16979.150333	1250.458984	-94.501259
19449.549468	16979.150333	1249.349609	-70.046844
19449.549468	16979.150333	1248.239258	69.541992
19449.549468	16979.150333	1247.127930	39.946072
19449.549468	16979.150333	1246.017578	-48.572361
19449.549468	16979.150333	1244.906250	-92.376717
19449.549468	16979.150333	1243.794922	-179.457321
19449.549468	16979.150333	1242.683594	29.925312
19449.549468	16979.150333	1241.571289	-147.210770
19449.549468	16979.150333	1240.459961	39.400810
19449.549468	16979.150333	1239.347656	-12.896494
19449.549468	16979.150333	1238.234375	-147.488235
19449.549468	16979.150333	1237.122070	-44.109825
19449.549468	16979.150333	1236.008789	76.277374
19449.549468	16979.150333	1234.896484	-241.157654
19449.549468	16979.150333	1233.782227	41.718452
19449.549468	16979.150333	1232.668945	-64.502480
19449.549468	16979.150333	1231.555664	13.951425
19449.549468	16979.150333	1230.441406	-63.058220
19449.549468	16979.150333	1229.327148	34.863400
19449.549468	16979.150333	1228.211914	-60.203392
19449.549468	16979.150333	1227.097656	33.969395
19449.549468	16979.150333	1225.982422	43.767658
19449.549468	16979.150333	1224.867188	42.199627
19449.549468	16979.150333	1223.751953	-146.965790
19449.549468	16979.150333	1222.635742	-95.673782
19449.549468	16979.150333	1221.520508	-5.936244
19449.549468	16979.150333	1220.404297	21.151974
19449.549468	16979.150333	1219.287109	118.529633
19449.549468	16979.150333	1218.170898	-29.441906
19449.549468	16979.150333	1217.053711	-23.840088
19449.549468	16979.150333	1215.936523	76.384644
19449.549468	16979.150333	1214.819336	132.434860
19449.549468	16979.150333	1213.702148	107.011154
19449.549468	16979.150333	1212.583984	252.086075
19449.549468	16979.150333	1211.465820	131.990616
19449.549468	16979.150333	1210.347656	453.386353
19449.549468	16979.150333	1209.229492	347.630127
19449.549468	16979.150333	1208.110352	199.471786
19449.549468	16979.150333	1206.992188	569.181641
19449.549468	16979.150333	1205.873047	374.892517
19449.549468	16979.150333	1204.752930	602.203430
19449.549468	16979.150333	1203.633789	463.726837
19449.549468	16979.150333	1202.513672	591.618774
19449.549468	16979.150333	1201.393555	732.989868
19449.549468	16979.150333	1200.273438	770.324158
19449.549468	16979.150333	1199.152344	760.042908
19449.549468	16979.150333	1198.032227	696.800049
19449.549468	16979.150333	1196.911133	694.721924
19449.549468	16979.150333	1195.790039	827.991821
19449.549468	16979.150333	1194.667969	871.280945
19449.549468	16979.150333	1193.545898	719.901489
19449.549468	16979.150333	1192.424805	696.552551
19449.549468	16979.150333	1191.301758	439.266052
19449.549468	16979.150333	1190.179688	567.577637
19449.549468	16979.150333	1189.056641	596.744080
19449.549468	16979.150333	1187.933594	391.628510
19449.549468	16979.150333	1186.810547	271.377106
19449.549468	16979.150333	1185.687500	68.184814
19449.549468	16979.150333	1184.563477	328.535065
19449.549468	16979.150333	1183.440430	261.373962
19449.549468	16979.150333	1182.316406	-19.112587
19449.549468	16979.150333	1181.191406	-88.346886
19449.549468	16979.150333	1180.067383	47.168240
19449.549468	16979.150333	1178.942383	95.444641
19449.549468	16979.150333	1177.817383	45.435871
19449.549468	16979.150333	1176.692383	-91.248985
19449.549468	16979.150333	1175.566406	-73.699089
19449.549468	16979.150333	1174.440430	35.316639
19449.549468	16979.150333	1173.314453	-217.893494
19449.549468	16979.150333	1172.188477	19.803085
19449.549468	16979.150333	1171.062500	225.929535
19449.549468	16979.150333	1169.935547	62.279335
19449.549468	16979.150333	1168.808594	165.441238
19449.549468	16979.150333	1167.681641	27.915022
19449.549468	16979.150333	1166.553711	-186.160278
19449.549468	16979.150333	1165.426758	-84.522423
19449.549468	16979.150333	1164.298828	-35.998631
19449.549468	16979.150333	1163.170898	82.043137
19449.549468	16979.150333	1162.041992	-103.547318
19449.549468	16979.150333	1160.914063	-45.188972
19449.549468	16979.150333	1159.785156	-76.898857
19449.549468	16979.150333	1158.656250	-67.435326
19449.549468	16979.150333	1157.526367	-37.653843
19449.549468	16979.150333	1156.397461	-178.664337
19449.549468	16979.150333	1155.267578	-188.474442
19449.549468	16979.150333	1154.137695	-240.119644
19449.549468	16979.150333	1153.006836	-246.088379
19449.549468	16979.150333	1151.876953	-77.527245
19449.549468	16979.150333	1150.746094	11.979566
19449.549468	16979.150333	1149.615234	-188.800461
19449.549468	16979.150333	1148.484375	-182.990448
19449.549468	16979.150333	1147.352539	-187.262665
19449.549468	16979.150333	1146.220703	-163.947067
19449.549468	16979.150333	1145.088867	-252.543747
19449.549468	16979.150333	1143.957031	-174.556671
19449.549468	16979.150333	1142.825195	-217.362839
19449.549468	16979.150333	1141.692383	-31.841772
19449.549468	16979.150333	1140.559570	-246.127823
19449.549468	16979.150333	1139.426758	-42.555016
19449.549468	16979.150333	1138.292969	96.696228
19449.549468	16979.150333	1137.159180	201.532745
19449.549468	16979.150333	1136.025391	-15.408772
19449.549468	16979.150333	1134.891602	145.395126
19449.549468	16979.150333	1133.757813	108.825279
19449.549468	16979.150333	1132.623047	72.970589
19449.549468	16979.150333	1131.488281	152.622940
19449.549468	16979.150333	1130.353516	78.391731
19449.549468	16979.150333	1129.217773	85.607895
19449.549468	16979.150333	1128.083008	153.084229
19449.549468	16979.150333	1126.947266	125.255959
19449.549468	16979.150333	1125.811523	127.180901
19449.549468	16979.150333	1124.674805	65.148796
19449.549468	16979.150333	1123.539063	277.408417
19449.549468	16979.150333	1122.402344	212.570404
19449.549468	16979.150333	1121.265625	162.052185
19449.549468	16979.150333	1120.127930	103.199936
19449.549468	16979.150333	1118.990234	156.696854
19449.549468	16979.150333	1117.853516	142.114975
19449.549468	16979.150333	1116.714844	286.851807
19449.549468	16979.150333	1115.577148	182.191727
19449.549468	16979.150333	1114.439453	118.566765
19449.549468	16979.150333	1113.300781	162.297455
19449.549468	16979.150333	1112.162109	274.698212
19449.549468	16979.150333	1111.022461	114.792549
19449.549468	16979.150333	1109.883789	213.281784
19449.549468	16979.150333	1108.744141	217.509735
19449.549468	16979.150333	1107.604492	160.554688
19449.549468	16979.150333	1106.463867	238.248611
19449.549468	16979.150333	1105.324219	173.666290
19449.549468	16979.150333	1104.183594	243.211670
19449.549468	16979.150333	1103.042969	250.654724
19449.549468	16979.150333	1101.902344	131.628403
19449.549468	16979.150333	1100.760742	-2.291384
19449.549468	16979.150333	1099.619141	5.825613
19449.549468	16979.150333	1098.477539	273.047943
19449.549468	16979.150333	1097.335938	31.959812
19449.549468	16979.150333	1096.193359	-80.816216
19449.549468	16979.150333	1095.051758	7.695990
19449.549468	16979.150333	1093.909180	78.182747
19449.549468	16979.150333	1092.765625	260.601166
19449.549468	16979.150333	1091.623047	352.087830
19449.549468	16979.150333	1090.479492	244.182297
19449.549468	16979.150333	1089.335938	54.809460
19449.549468	16979.150333	1088.192383	121.100418
19449.549468	16979.150333	1087.047852	398.202789
19449.549468	16979.150333	1085.903320	131.799454
19449.549468	16979.150333	1084.758789	231.117203
19449.549468	16979.150333	1083.614258	131.500061
19449.549468	16979.150333	1082.469727	-56.344669
19449.549468	16979.150333	1081.324219	-0.687561
19449.549468	16979.150333	1080.178711	27.425995
19449.549468	16979.150333	1079.033203	250.064636
19449.549468	16979.150333	1077.886719	13.902986
19449.549468	16979.150333	1076.740234	61.114552
19449.549468	16979.150333	1075.593750	201.859772
19449.549468	16979.150333	1074.447266	1.031537
19449.549468	16979.150333	1073.300781	385.161377
19449.549468	16979.150333	1072.153320	566.874878
19449.549468	16979.150333	1071.005859	562.668091
19449.549468	16979.150333	1069.858398	575.933838
19449.549468	16979.150333	1068.709961	618.362061
19449.549468	16979.150333	1067.561523	430.398193
19449.549468	16979.150333	1066.413086	748.642151
19449.549468	16979.150333	1065.264648	836.258240
19449.549468	16979.150333	1064.116211	738.729248
19449.549468	16979.150333	1062.966797	798.539856
19449.549468	16979.150333	1061.817383	566.086792
19449.549468	16979.150333	1060.667969	417.749329
19449.549468	16979.150333	1059.517578	483.691650
19449.549468	16979.150333	1058.368164	489.756226
19449.549468	16979.150333	1057.217773	479.337524
19449.549468	16979.150333	1056.067383	356.361847
19449.549468	16979.150333	1054.916016	16.946362
19449.549468	16979.150333	1053.764648	355.630737
19449.549468	16979.150333	1052.613281	149.470062
19449.549468	16979.150333	1051.461914	114.730247
19449.549468	16979.150333	1050.310547	147.632385
19449.549468	16979.150333	1049.158203	165.758270
19449.549468	16979.150333	1048.005859	142.157593
19449.549468	16979.150333	1046.853516	359.736938
19449.549468	16979.150333	1045.700195	212.083878
19449.549468	16979.150333	1044.547852	283.745026
19449.549468	16979.150333	1043.394531	123.424408
19449.549468	16979.150333	1042.240234	81.876175
19449.549468	16979.150333	1041.086914	208.746780
19449.549468	16979.150333	1039.932617	100.995880
19449.549468	16979.150333	1038.778320	1.443013
19449.549468	16979.150333	1037.624023	200.379547
19449.549468	16979.150333	1036.469727	331.760925
19449.549468	16979.150333	1035.314453	534.527893
19449.549468	16979.150333	1034.159180	587.964966
19449.549468	16979.150333	1033.003906	725.748352
19449.549468	16979.150333	1031.847656	704.545166
19449.549468	16979.150333	1030.692383	991.291626
19449.549468	16979.150333	1029.536133	740.888123
19449.549468	16979.150333	1028.378906	573.051819
19449.549468	16979.150333	1027.222656	541.699463
19449.549468	16979.150333	1026.065430	190.155106
19449.549468	16979.150333	1024.908203	352.000458
19449.549468	16979.150333	1023.750977	37.315975
19449.549468	16979.150333	1022.593750	303.260193
19449.549468	16979.150333	1021.435547	44.873074
19449.549468	16979.150333	1020.277344	61.160248
19449.549468	16979.150333	1019.119141	132.639664
19449.549468	16979.150333	1017.959961	38.298420
19449.549468	16979.150333	1016.800781	414.517273
19449.549468	16979.150333	1015.641602	266.566101
19449.549468	16979.150333	1014.482422	255.146408
19449.549468	16979.150333	1013.323242	-85.534363
19449.549468	16979.150333	1012.163086	184.856415
19449.549468	16979.150333	1011.002930	284.752350
19449.549468	16979.150333	1009.842773	157.907715
19449.549468	16979.150333	1008.681641	-54.897659
19449.549468	16979.150333	1007.520508	206.971100
19449.549468	16979.150333	1006.359375	61.793633
19449.549468	16979.150333	1005.198242	112.945297
19449.549468	16979.150333	1004.037109	182.752594
19449.549468	16979.150333	1002.875000	193.745209
19449.549468	16979.150333	1001.712891	157.798386
19449.549468	16979.150333	1000.550781	155.238647
19449.549468	16979.150333	999.387695	0.851405
19449.549468	16979.150333	998.224609	-163.429398
19449.549468	16979.150333	997.061523	-16.919834
19449.549468	16979.150333	995.898438	89.382362
19449.549468	16979.150333	994.734375	-43.426922
19449.549468	16979.150333	993.571289	-58.790447
19449.549468	16979.150333	992.407227	-79.479713
19449.549468	16979.150333	991.242188	-68.816750
19449.549468	16979.150333	990.078125	-8.212914
19449.549468	16979.150333	988.913086	-48.627365
19449.549468	16979.150333	987.748047	12.446293
19449.549468	16979.150333	986.583008	56.984924
19449.549468	16979.150333	985.416992	125.945511
19449.549468	16979.150333	984.250977	245.672394
19449.549468	16979.150333	983.084961	74.980339
19449.549468	16979.150333	981.918945	269.574707
19449.549468	16979.150333	980.751953	163.687729
19449.549468	16979.150333	979.584961	-134.201355
19449.549468	16979.150333	978.417969	172.124512
19449.549468	16979.150333	977.250977	226.173401
19449.549468	16979.150333	976.083008	-60.101795
19449.549468	16979.150333	974.915039	-1.772612
19449.549468	16979.150333	973.747070	128.395599
19449.549468	16979.150333	972.579102	-20.354721
19449.549468	16979.150333	971.410156	51.794415
19449.549468	16979.150333	970.242188	130.594482
19449.549468	16979.150333	969.072266	255.670761
19449.549468	16979.150333	967.903320	425.660156
19449.549468	16979.150333	966.733398	371.151428
19449.549468	16979.150333	965.563477	392.211853
19449.549468	16979.150333	964.393555	319.701050
19449.549468	16979.150333	963.223633	427.906342
19449.549468	16979.150333	962.052734	154.981461
19449.549468	16979.150333	960.881836	280.308197
19449.549468	16979.150333	959.710938	147.685623
19449.549468	16979.150333	958.540039	66.604164
19449.549468	16979.150333	957.368164	122.803368
19449.549468	16979.150333	956.196289	275.979584
19449.549468	16979.150333	955.024414	7.980628
19449.549468	16979.150333	953.851563	52.729610
19449.549468	16979.150333	952.679688	53.027355
19449.549468	16979.150333	951.506836	-151.147369
19449.549468	16979.150333	950.333984	-182.424332
19449.549468	16979.150333	949.160156	-60.066097
19449.549468	16979.150333	947.986328	-178.581314
19449.549468	16979.150333	946.812500	-203.352631
19449.549468	16979.150333	945.638672	54.661079
19449.549468	16979.150333	944.464844	-128.635727
19449.549468	16979.150333	943.290039	-182.878799
19449.549468	16979.150333	942.115234	-207.408722
19449.549468	16979.150333	940.940430	-118.512512
19449.549468	16979.150333	939.764648	24.256069
19449.549468	16979.150333	938.588867	97.921677
19449.549468	16979.150333	937.413086	-58.513638
19449.549468	16979.150333	936.237305	-56.186497
19449.549468	16979.150333	935.060547	-120.799194
19449.549468	16979.150333	933.883789	-13.537976
19449.549468	16979.150333	932.707031	7.939032
19449.549468	16979.150333	931.530273	-106.860291
19449.549468	16979.150333	930.352539	-116.968399
19449.549468	16979.150333	929.175781	-93.519432
19449.549468	16979.150333	927.998047	-189.383087
19449.549468	16979.150333	926.819336	-105.272263
19449.549468	16979.150333	925.641602	-84.006546
19449.549468	16979.150333	924.462891	-181.955765
19449.549468	16979.150333	923.284180	104.926346
19449.549468	16979.150333	922.104492	-156.164322
19449.549468	16979.150333	920.924805	0.978701
19449.549468	16979.150333	919.746094	11.050190
19449.549468	16979.150333	919.551758	86.535248
19449.549468	16979.150333	918.386719	5.160124
19449.549468	16979.150333	917.220703	5.298961
19449.549468	16979.150333	916.054688	82.716850
19449.549468	16979.150333	914.887695	-42.505703
19449.549468	16979.150333	913.721680	53.649887
19449.549468	16979.150333	912.554688	-271.977631
19449.549468	16979.150333	911.387695	-127.832115
19449.549468	16979.150333	910.220703	-131.935089
19449.549468	16979.150333	909.052734	45.483303
19449.549468	16979.150333	907.885742	135.185913
19449.549468	16979.150333	906.717773	-17.094189
19449.549468	16979.150333	905.548828	-317.376648
19449.549468	16979.150333	904.380859	-142.220764
19449.549468	16979.150333	903.211914	-144.321350
19449.549468	16979.150333	902.042969	-217.294037
19449.549468	16979.150333	900.874023	-188.158432
19449.549468	16979.150333	899.704102	-163.213257
19449.549468	16979.150333	898.535156	-146.634872
19449.549468	16979.150333	897.365234	-94.674896
19449.549468	16979.150333	896.194336	-121.856934
19449.549468	16979.150333	895.024414	-132.404160
19449.549468	16979.150333	893.853516	13.119197
19449.549468	16979.150333	892.682617	64.935463
19449.549468	16979.150333	891.511719	4.386295
19449.549468	16979.150333	890.340820	232.922714
19449.549468	16979.150333	889.168945	-77.185837
19449.549468	16979.150333	887.997070	184.505692
19449.549468	16979.150333	886.825195	94.811577
19449.549468	16979.150333	885.653320	0.977734
19449.549468	16979.150333	884.480469	-207.099533
19449.549468	16979.150333	883.307617	-263.477081
19449.549468	16979.150333	882.134766	170.264816
19449.549468	16979.150333	880.961914	-0.407251
19449.549468	16979.150333	879.788086	-185.554108
19449.549468	16979.150333	878.614258	-304.232574
19449.549468	16979.150333	877.440430	-140.673309
19449.549468	16979.150333	876.266602	16.574606
19449.549468	16979.150333	875.091797	-124.944283
19449.549468	16979.150333	873.916992	-129.558212
19449.549468	16979.150333	872.742188	-34.671715
19449.549468	16979.150333	871.567383	26.988394
19449.549468	16979.150333	870.391602	24.357168
19449.549468	16979.150333	869.215820	104.588852
19449.549468	16979.150333	868.040039	-161.205490
19449.549468	16979.150333	866.864258	134.393799
19449.549468	16979.150333	865.687500	-87.850204
19449.549468	16979.150333	864.510742	68.853516
19449.549468	16979.150333	863.333984	310.338654
19449.549468	16979.150333	862.157227	119.163544
19449.549468	16979.150333	860.979492	-11.945991
19449.549468	16979.150333	859.802734	204.504715
19449.549468	16979.150333	858.625000	172.657089
19449.549468	16979.150333	857.446289	39.477524
19449.549468	16979.150333	856.268555	-23.388786
19449.549468	16979.150333	855.089844	277.543152
19449.549468	16979.150333	853.911133	196.007904
19449.549468	16979.150333	852.731445	422.342438
19449.549468	16979.150333	851.552734	127.985062
19449.549468	16979.150333	850.373047	306.680328
19449.549468	16979.150333	849.193359	53.715626
19449.549468	16979.150333	848.013672	263.262451
19449.549468	16979.150333	846.833008	142.456482
19449.549468	16979.150333	845.652344	9.286308
19449.549468	16979.150333	844.471680	47.386326
19449.549468	16979.150333	843.291016	-30.073891
19449.549468	16979.150333	842.110352	69.827164
19449.549468	16979.150333	840.928711	-90.138298
19449.549468	16979.150333	839.747070	-76.905388
19449.549468	16979.150333	838.564453	-74.008598
19449.549468	16979.150333	837.382813	-100.001205
19449.549468	16979.150333	836.200195	-2.397156
19449.549468	16979.150333	835.017578	-67.590454
19449.549468	16979.150333	833.834961	-101.899857
19449.549468	16979.150333	832.651367	137.618500
19449.549468	16979.150333	831.467773	181.441788
19449.549468	16979.150333	830.284180	-122.606163
19449.549468	16979.150333	829.100586	180.450790
19449.549468	16979.150333	827.916992	57.493118
19449.549468	16979.150333	826.732422	-244.385101
19449.549468	16979.150333	825.547852	39.896946
19449.549468	16979.150333	824.363281	328.137695
19449.549468	16979.150333	823.177734	81.784615
19449.549468	16979.150333	821.992188	80.053398
19449.549468	16979.150333	820.806641	250.881134
19449.549468	16979.150333	819.621094	47.718563
19449.549468	16979.150333	818.434570	109.556007
19449.549468	16979.150333	817.249023	89.183022
19449.549468	16979.150333	816.062500	-15.390084
19449.549468	16979.150333	814.875000	-56.322041
19449.549468	16979.150333	813.688477	-91.129730
19449.549468	16979.150333	812.500977	157.179367
19449.549468	16979.150333	811.313477	-117.739334
19449.549468	16979.150333	810.125977	136.541489
19449.549468	16979.150333	808.937500	7.244256
19449.549468	16979.150333	807.749023	80.909279
19449.549468	16979.150333	806.560547	29.473621
19449.549468	16979.150333	805.372070	299.737640
19449.549468	16979.150333	804.182617	219.509537
19449.549468	16979.150333	802.994141	-0.023766
19449.549468	16979.150333	801.803711	319.104156
19449.549468	16979.150333	800.614258	341.160400
19449.549468	16979.150333	799.424805	131.839859
19449.549468	16979.150333	798.234375	-38.549461
19449.549468	16979.150333	797.043945	-24.754980
19449.549468	16979.150333	795.852539	162.883774
19449.549468	16979.150333	794.662109	84.490799
19449.549468	16979.150333	793.470703	339.415771
19449.549468	16979.150333	792.279297	301.814728
19449.549468	16979.150333	791.087891	356.165771
19449.549468	16979.150333	789.895508	484.020752
19449.549468	16979.150333	788.703125	597.469482
19449.549468	16979.150333	787.510742	459.548584
19449.549468	16979.150333	786.318359	378.820190
19449.549468	16979.150333	785.125000	479.816467
19449.549468	16979.150333	783.931641	546.010193
19449.549468	16979.150333	782.738281	636.617676
19449.549468	16979.150333	781.544922	582.240173
19449.549468	16979.150333	780.350586	556.401794
19449.549468	16979.150333	779.156250	508.079468
19449.549468	16979.150333	777.961914	800.311768
19449.549468	16979.150333	776.767578	715.145264
19449.549468	16979.150333	775.572266	705.390991
19449.549468	16979.150333	774.376953	475.459686
19449.549468	16979.150333	773.181641	329.116516
19449.549468	16979.150333	771.986328	258.156006
19449.549468	16979.150333	770.790039	183.100128
19449.549468	16979.150333	769.593750	277.045197
19449.549468	16979.150333	768.397461	315.916656
19449.549468	16979.150333	767.201172	364.891876
19449.549468	16979.150333	766.003906	334.418304
19449.549468	16979.150333	764.806641	220.471527
19449.549468	16979.150333	763.609375	375.047211
19449.549468	16979.150333	762.412109	383.053253
19449.549468	16979.150333	761.213867	360.497467
19449.549468	16979.150333	760.015625	234.201340
19449.549468	16979.150333	758.817383	609.965271
19449.549468	16979.150333	757.618164	469.322388
19449.549468	16979.150333	756.419922	586.715210
19449.549468	16979.150333	755.220703	381.005188
19449.549468	16979.150333	754.021484	155.006165
19449.549468	16979.150333	752.821289	609.280396
19449.549468	16979.150333	751.621094	409.596985
19449.549468	16979.150333	750.420898	138.890182
19449.549468	16979.150333	749.220703	162.480042
19449.549468	16979.150333	748.020508	216.427795
19449.549468	16979.150333	746.819336	101.930191
19449.549468	16979.150333	745.618164	-176.856659
19449.549468	16979.150333	744.416992	22.921495
19449.549468	16979.150333	743.214844	259.043274
19449.549468	16979.150333	742.012695	369.339783
19449.549468	16979.150333	740.810547	398.469025
19449.549468	16979.150333	739.608398	571.358459
19449.549468	16979.150333	738.406250	960.835999
19449.549468	16979.150333	737.203125	681.814819
19449.549468	16979.150333	736.000000	740.955444
19449.549468	16979.150333	734.795898	619.852539
19449.549468	16979.150333	733.592773	713.249695
19449.549468	16979.150333	732.388672	875.336487
19449.549468	16979.150333	731.184570	735.865479
19449.549468	16979.150333	729.979492	549.870605
19449.549468	16979.150333	728.775391	487.226776
19449.549468	16979.150333	727.570313	479.129028
19449.549468	16979.150333	726.365234	462.879028
19449.549468	16979.150333	725.160156	115.148491
19449.549468	16979.150333	723.954102	490.803192
19449.549468	16979.150333	722.748047	450.111816
19449.549468	16979.150333	721.541992	290.213867
19449.549468	16979.150333	720.334961	310.016998
19449.549468	16979.150333	719.128906	79.416611
19449.549468	16979.150333	717.921875	244.431076
19449.549468	16979.150333	716.714844	306.393860
19449.549468	16979.150333	715.506836	275.458466
19449.549468	16979.150333	714.298828	359.435089
19449.549468	16979.150333	713.090820	296.092194
19449.549468	16979.150333	711.882813	275.044037
19449.549468	16979.150333	710.674805	116.860962
19449.549468	16979.150333	709.465820	236.791916
19449.549468	16979.150333	708.256836	-18.173891
19449.549468	16979.150333	707.047852	174.112976
19449.549468	16979.150333	705.837891	86.292969
19449.549468	16979.150333	704.627930	-57.944309
19449.549468	16979.150333	703.417969	-137.769699
19449.549468	16979.150333	702.208008	203.043411
19449.549468	16979.150333	700.998047	40.545914
19449.549468	16979.150333	699.787109	-69.643478
19449.549468	16979.150333	698.576172	-0.830911
19449.549468	16979.150333	697.364258	43.748737
19449.549468	16979.150333	696.153320	39.980564
19449.549468	16979.150333	694.941406	90.420052
19449.549468	16979.150333	693.729492	66.402924
19449.549468	16979.150333	692.516602	134.759567
19449.549468	16979.150333	691.304688	289.401917
19449.549468	16979.150333	690.091797	391.685883
19449.549468	16979.150333	688.878906	287.015747
19449.549468	16979.150333	687.665039	174.288193
19449.549468	16979.150333	686.451172	202.050232
19449.549468	16979.150333	685.237305	199.626358
19449.549468	16979.150333	684.023438	94.802925
19449.549468	16979.150333	682.809570	328.975708
19449.549468	16979.150333	681.594727	-44.724556
19449.549468	16979.150333	680.379883	219.317917
19449.549468	16979.150333	679.165039	180.457916
19449.549468	16979.150333	677.949219	-34.837997
19449.549468	16979.150333	676.733398	170.715088
19449.549468	16979.150333	675.517578	97.623367
19449.549468	16979.150333	674.301758	168.717255
19449.549468	16979.150333	673.084961	353.865479
19449.549468	16979.150333	671.869141	342.647034
19449.549468	16979.150333	670.651367	23.084219
19449.549468	16979.150333	669.434570	173.920135
19449.549468	16979.150333	668.216797	104.516663
19449.549468	16979.150333	667.000000	-50.948120
19449.549468	16979.150333	665.781250	291.621765
19449.549468	16979.150333	664.563477	342.021820
19449.549468	16979.150333	663.344727	262.381104
19449.549468	16979.150333	662.125977	380.598663
19449.549468	16979.150333	660.907227	252.890747
19449.549468	16979.150333	659.688477	320.980499
19449.549468	16979.150333	658.468750	49.383598
19449.549468	16979.150333	657.249023	374.996368
19449.549468	16979.150333	656.029297	466.788086
19449.549468	16979.150333	654.808594	362.836792
19449.549468	16979.150333	653.587891	358.663055
19449.549468	16979.150333	652.367188	478.151154
19449.549468	16979.150333	651.146484	635.433472
19449.549468	16979.150333	649.924805	639.000061
19449.549468	16979.150333	648.704102	855.888123
19449.549468	16979.150333	647.482422	622.024414
19449.549468	16979.150333	646.259766	519.762817
19449.549468	16979.150333	645.037109	722.409485
19449.549468	16979.150333	643.815430	568.249207
19449.549468	16979.150333	642.591797	641.197571
19449.549468	16979.150333	641.369141	970.988647
19449.549468	16979.150333	640.145508	802.761536
19449.549468	16979.150333	638.921875	608.668396
19449.549468	16979.150333	637.698242	768.903076
19449.549468	16979.150333	636.474609	419.569855
19449.549468	16979.150333	635.250000	599.562622
19449.549468	16979.150333	634.025391	477.070648
19449.549468	16979.150333	632.800781	519.645508
19449.549468	16979.150333	631.575195	190.330322
19449.549468	16979.150333	630.349609	485.309753
19449.549468	16979.150333	629.124023	541.612793
19449.549468	16979.150333	627.898438	234.208893
19449.549468	16979.150333	626.671875	395.732910
19449.549468	16979.150333	625.445313	239.345245
19449.549468	16979.150333	624.218750	293.470428
19449.549468	16979.150333	622.992188	158.914795
19449.549468	16979.150333	621.764648	28.336569
19449.549468	16979.150333	620.537109	30.733194
19449.549468	16979.150333	619.309570	-36.360443
19449.549468	16979.150333	618.081055	-228.445404
19449.549468	16979.150333	616.852539	-51.602283
19449.549468	16979.150333	615.624023	121.155975
19449.549468	16979.150333	614.395508	-59.074203
19449.549468	16979.150333	613.166992	-35.122192
19449.549468	16979.150333	611.937500	-78.598587
19449.549468	16979.150333	610.708008	123.570496
19449.549468	16979.150333	609.477539	-48.751980
19449.549468	16979.150333	608.248047	-80.434380
19449.549468	16979.150333	607.017578	-68.585487
19449.549468	16979.150333	605.787109	0.626501
19449.549468	16979.150333	604.555664	-155.844757
19449.549468	16979.150333	603.325195	-49.122284
19449.549468	16979.150333	602.093750	-444.954773
19449.549468	16979.150333	600.861328	-296.757629
19449.549468	16979.150333	599.629883	-194.136169
19449.549468	16979.150333	598.397461	-95.547256
19449.549468	16979.150333	597.165039	-184.806396
19449.549468	16979.150333	595.932617	-173.277191
19449.549468	16979.150333	594.699219	108.884392
19449.549468	16979.150333	593.465820	-87.124413
19449.549468	16979.150333	592.232422	-164.588135
19449.549468	16979.150333	590.999023	-64.348938
19449.549468	16979.150333	589.764648	-278.054108
19449.549468	16979.150333	588.530273	-272.627502
19449.549468	16979.150333	587.295898	-152.786301
19449.549468	16979.150333	586.061523	-143.499680
19449.549468	16979.150333	584.826172	-88.881851
19449.549468	16979.150333	583.590820	-136.854691
19449.549468	16979.150333	582.355469	-182.862000
19449.549468	16979.150333	581.119141	-86.959557
19449.549468	16979.150333	579.882813	-89.657074
19449.549468	16979.150333	578.646484	155.872070
19449.549468	16979.150333	577.410156	119.587273
19449.549468	16979.150333	576.172852	-281.047821
19449.549468	16979.150333	574.935547	-27.833977
19449.549468	16979.150333	573.698242	69.732094
19449.549468	16979.150333	572.460938	133.775726
19449.549468	16979.150333	571.222656	119.056282
19449.549468	16979.150333	569.984375	234.163589
19449.549468	16979.150333	568.746094	128.907471
19449.549468	16979.150333	567.506836	210.485626
19449.549468	16979.150333	566.267578	-18.627384
19449.549468	16979.150333	565.028320	-178.866943
19449.549468	16979.150333	563.789063	-12.837416
19449.549468	16979.150333	562.548828	-9.979963
19449.549468	16979.150333	561.309570	24.288155
19449.549468	16979.150333	560.068359	76.189064
19449.549468	16979.150333	558.828125	27.909819
19449.549468	16979.150333	557.586914	-43.931229
19449.549468	16979.150333	556.345703	102.094406
19449.549468	16979.150333	555.104492	-52.190178
19449.549468	16979.150333	553.863281	42.723637
19449.549468	16979.150333	552.621094	117.956741
19449.549468	16979.150333	551.378906	-63.756821
19449.549468	16979.150333	550.136719	-243.454483
19449.549468	16979.150333	548.893555	-42.829983
19449.549468	16979.150333	547.650391	77.334984
19449.549468	16979.150333	546.407227	32.840729
19449.549468	16979.150333	545.164063	109.793167
19449.549468	16979.150333	543.919922	18.254145
19449.549468	16979.150333	542.675781	175.403732
19449.549468	16979.150333	541.431641	175.844742
19449.549468	16979.150333	540.186523	172.341904
19449.549468	16979.150333	538.941406	182.510712
19449.549468	16979.150333	537.696289	-2.994436
19449.549468	16979.150333	536.451172	142.109695
19449.549468	16979.150333	535.205078	-88.350998
19449.549468	16979.150333	533.959961	428.120880
19449.549468	16979.150333	532.712891	127.259773
19449.549468	16979.150333	531.466797	78.599373
19449.549468	16979.150333	530.219727	59.228626
19449.549468	16979.150333	528.972656	256.662048
19449.549468	16979.150333	527.725586	86.801529
19449.549468	16979.150333	526.478516	59.513683
19449.549468	16979.150333	525.230469	188.368713
19449.549468	16979.150333	523.982422	231.244232
19449.549468	16979.150333	522.734375	231.125732
19449.549468	16979.150333	521.485352	215.349670
19449.549468	16979.150333	520.236328	29.834497
19449.549468	16979.150333	518.987305	269.469727
19449.549468	16979.150333	517.737305	81.963524
19449.549468	16979.150333	516.488281	344.765106
19449.549468	16979.150333	515.238281	385.222290
19449.549468	16979.150333	513.988281	462.621399
19449.549468	16979.150333	512.737305	458.104584
19449.549468	16979.150333	511.486328	393.145477
19449.549468	16979.150333	510.235352	515.075317
19449.549468	16979.150333	508.984375	518.125549
19449.549468	16979.150333	507.732422	400.424042
19449.549468	16979.150333	506.480469	545.393372
19449.549468	16979.150333	505.228516	404.229645
19449.549468	16979.150333	503.976563	235.810257
19449.549468	16979.150333	502.723633	464.082611
19449.549468	16979.150333	501.470703	542.457458
19449.549468	16979.150333	500.217773	735.386047
19449.549468	16979.150333	498.963867	935.903076
19449.549468	16979.150333	497.709961	914.725647
19449.549468	16979.150333	496.456055	854.599670
19449.549468	16979.150333	495.202148	996.368591
19449.549468	16979.150333	493.947266	846.694946
19449.549468	16979.150333	492.692383	1294.891479
19449.549468	16979.150333	491.437500	1203.195435
19449.549468	16979.150333	490.181641	1551.892090
19449.549468	16979.150333	488.926758	1285.306641
19449.549468	16979.150333	487.670898	1404.677612
19449.549468	16979.150333	486.414063	1529.663330
19449.549468	16979.150333	485.158203	1520.667603
19449.549468	16979.150333	483.901367	1598.740234
19449.549468	16979.150333	482.644531	1581.652100
19449.549468	16979.150333	481.386719	1752.338867
19449.549468	16979.150333	480.128906	1657.383789
19449.549468	16979.150333	478.871094	1899.278564
19449.549468	16979.150333	477.613281	1769.104736
19449.549468	16979.150333	476.355469	1886.585815
19449.549468	16979.150333	475.096680	1876.062012
19449.549468	16979.150333	473.837891	1913.708130
19449.549468	16979.150333	472.578125	1680.261963
19449.549468	16979.150333	471.319336	1789.053955
19449.549468	16979.150333	470.059570	1677.103394
19449.549468	16979.150333	468.799805	1924.567383
19449.549468	16979.150333	467.539063	1949.373657
19449.549468	16979.150333	466.278320	2142.040527
19449.549468	16979.150333	465.017578	2002.030396
19449.549468	16979.150333	463.756836	2423.931885
19449.549468	16979.150333	462.495117	2310.385986
19449.549468	16979.150333	461.233398	2420.574707
19449.549468	16979.150333	459.971680	2341.223145
19449.549468	16979.150333	458.709961	2211.409668
19449.549468	16979.150333	457.447266	2318.659668
19449.549468	16979.150333	456.184570	2705.264893
19449.549468	16979.150333	454.921875	2599.509521
19449.549468	16979.150333	453.658203	2555.140625
19449.549468	16979.150333	452.394531	2855.525879
19449.549468	16979.150333	451.130859	2873.978271
19449.549468	16979.150333	449.867188	2811.090088
19449.549468	16979.150333	448.602539	2657.257568
19449.549468	16979.150333	447.337891	2915.300049
19449.549468	16979.150333	446.073242	2650.888672
19449.549468	16979.150333	444.807617	2634.518066
19449.549468	16979.150333	443.542969	2727.440430
19449.549468	16979.150333	442.276367	3043.081787
19449.549468	16979.150333	441.010742	2830.882080
19449.549468	16979.150333	439.744141	2641.346924
19449.549468	16979.150333	438.478516	2855.304688
19449.549468	16979.150333	437.210938	2797.477051
19449.549468	16979.150333	435.944336	2744.911621
19449.549468	16979.150333	434.676758	2737.926758
19449.549468	16979.150333	433.409180	2542.043457
19449.549468	16979.150333	432.141602	2628.083740
19449.549468	16979.150333	430.873047	2719.225586
19449.549468	16979.150333	429.604492	2525.476074
19449.549468	16979.150333	428.335938	2492.451660
19449.549468	16979.150333	427.067383	2685.299316
19449.549468	16979.150333	425.797852	2443.624756
19449.549468	16979.150333	424.528320	2306.893066
19449.549468	16979.150333	423.258789	2420.814697
19449.549468	16979.150333	421.988281	2265.416748
19449.549468	16979.150333	420.717773	2590.636963
19449.549468	16979.150333	419.447266	2558.356445
19449.549468	16979.150333	418.175781	2358.519531
19449.549468	16979.150333	416.905273	2133.064209
19449.549468	16979.150333	415.633789	2253.623535
19449.549468	16979.150333	414.362305	2252.597656
19449.549468	16979.150333	413.089844	2306.205322
19449.549468	16979.150333	411.817383	2410.581299
19449.549468	16979.150333	410.544922	2468.045166
19449.549468	16979.150333	409.272461	2390.568359
19449.549468	16979.150333	407.999023	2201.146729
19449.549468	16979.150333	406.725586	2456.534668
19449.549468	16979.150333	405.452148	2502.317871
19449.549468	16979.150333	404.177734	2447.572266
19449.549468	16979.150333	402.903320	2271.336670
19449.549468	16979.150333	401.628906	2189.642090
19449.549468	16979.150333	400.354492	2431.710938
19449.549468	16979.150333	399.079102	2343.882813
19449.549468	16979.150333	397.803711	2228.167236
19449.549468	16979.150333	396.528320	2063.548096
19449.549468	16979.150333	395.251953	2050.464844
19449.549468	16979.150333	393.976563	2217.494385
19449.549468	16979.150333	392.700195	2066.316895
19449.549468	16979.150333	391.422852	2098.909668
19449.549468	16979.150333	390.145508	1855.433960
19449.549468	16979.150333	388.869141	2097.039551
19449.549468	16979.150333	387.590820	1991.908691
19449.549468	16979.150333	386.313477	1833.932739
19449.549468	16979.150333	385.035156	1851.743164
19449.549468	16979.150333	383.756836	1868.017456
19449.549468	16979.150333	382.478516	1659.825684
19449.549468	16979.150333	381.199219	1979.583618
19449.549468	16979.150333	379.919922	1606.315918
19449.549468	16979.150333	378.640625	1530.446411
19449.549468	16979.150333	377.360352	1589.900513
19449.549468	16979.150333	376.080078	1476.306641
19449.549468	16979.150333	374.799805	1644.469238
19449.549468	16979.150333	373.519531	1559.643555
19449.549468	16979.150333	372.238281	1282.756958
19449.549468	16979.150333	370.957031	1382.457764
19449.549468	16979.150333	369.675781	1466.864502
19449.549468	16979.150333	368.394531	1480.825195
19449.549468	16979.150333	367.112305	1336.876099
19449.549468	16979.150333	365.830078	1128.224976
19449.549468	16979.150333	364.546875	1151.092651
19449.549468	16979.150333	363.264648	934.491760
19449.549468	16979.150333	361.981445	1302.338623
19449.549468	16979.150333	360.698242	1062.284424
19449.549468	16979.150333	359.414063	975.567444
19449.549468	16979.150333	358.129883	996.572815
19449.549468	16979.150333	356.845703	941.191101
19449.549468	16979.150333	355.561523	644.433105
19449.549468	16979.150333	354.276367	1060.019165
19449.549468	16979.150333	352.991211	934.520020
19449.549468	16979.150333	351.706055	632.115967
19449.549468	16979.150333	350.420898	772.453491
19449.549468	16979.150333	349.134766	701.552246
19449.549468	16979.150333	347.848633	686.627991
19449.549468	16979.150333	346.561523	712.343079
19449.549468	16979.150333	345.275391	400.180420
19449.549468	16979.150333	343.988281	370.920441
19449.549468	16979.150333	342.700195	641.342346
19449.549468	16979.150333	341.413086	747.879089
19449.549468	16979.150333	340.125000	440.707123
19449.549468	16979.150333	338.836914	459.533356
19449.549468	16979.150333	337.548828	318.188965
19449.549468	16979.150333	336.259766	133.800888
19449.549468	16979.150333	334.970703	53.842026
19449.549468	16979.150333	333.681641	127.308662
19449.549468	16979.150333	332.391602	72.451981
19449.549468	16979.150333	331.101563	416.319763
19449.549468	16979.150333	329.811523	-114.039955
19449.549468	16979.150333	328.521484	10.953179
19449.549468	16979.150333	327.230469	182.949524
19449.549468	16979.150333	325.939453	145.351135
19449.549468	16979.150333	324.648438	143.465775
19449.549468	16979.150333	323.356445	11.086224
19449.549468	16979.150333	322.064453	31.207802
19449.549468	16979.150333	320.772461	-45.198872
19449.549468	16979.150333	319.480469	209.714706
19449.549468	16979.150333	318.187500	-276.748077
19449.549468	16979.150333	316.894531	-196.513763
19449.549468	16979.150333	315.601563	-241.321167
19449.549468	16979.150333	314.307617	-202.294235
19449.549468	16979.150333	313.013672	-277.111115
19449.549468	16979.150333	311.719727	-190.951508
19449.549468	16979.150333	310.425781	-100.207115
19449.549468	16979.150333	309.130859	83.289894
19449.549468	16979.150333	307.835938	-56.174477
19449.549468	16979.150333	306.541016	-223.200592
19449.549468	16979.150333	305.245117	110.327377
19449.549468	16979.150333	303.949219	368.915588
19449.549468	16979.150333	302.653320	114.592812
19449.549468	16979.150333	301.356445	431.646759
19449.549468	16979.150333	300.060547	416.348907
19449.549468	16979.150333	298.763672	656.322510
