#X		#Y		#Wave		#Intensity
19335.969309	16901.944667	2000.043945	33.666302
19335.969309	16901.944667	1999.080078	-46.319073
19335.969309	16901.944667	1998.116211	-301.767120
19335.969309	16901.944667	1997.151367	213.596390
19335.969309	16901.944667	1996.186523	158.908127
19335.969309	16901.944667	1995.222656	27.449177
19335.969309	16901.944667	1994.256836	2.555291
19335.969309	16901.944667	1993.291992	361.504608
19335.969309	16901.944667	1992.327148	98.889732
19335.969309	16901.944667	1991.361328	254.727036
19335.969309	16901.944667	1990.395508	-52.298183
19335.969309	16901.944667	1989.429688	212.404160
19335.969309	16901.944667	1988.463867	313.734680
19335.969309	16901.944667	1987.497070	246.836670
19335.969309	16901.944667	1986.531250	254.164337
19335.969309	16901.944667	1985.564453	454.369324
19335.969309	16901.944667	1984.597656	268.849670
19335.969309	16901.944667	1983.630859	362.714905
19335.969309	16901.944667	1982.664063	53.736576
19335.969309	16901.944667	1981.696289	125.395897
19335.969309	16901.944667	1980.728516	407.016571
19335.969309	16901.944667	1979.761719	276.068726
19335.969309	16901.944667	1978.792969	16.776985
19335.969309	16901.944667	1977.825195	-126.368347
19335.969309	16901.944667	1976.857422	229.190033
19335.969309	16901.944667	1975.888672	-140.976913
19335.969309	16901.944667	1974.919922	-74.231140
19335.969309	16901.944667	1973.951172	-113.586372
19335.969309	16901.944667	1972.982422	54.285480
19335.969309	16901.944667	1972.013672	261.565979
19335.969309	16901.944667	1971.043945	320.839813
19335.969309	16901.944667	1970.075195	94.119064
19335.969309	16901.944667	1969.105469	-110.317535
19335.969309	16901.944667	1968.135742	-95.336067
19335.969309	16901.944667	1967.165039	375.482086
19335.969309	16901.944667	1966.195313	-109.698761
19335.969309	16901.944667	1965.224609	58.017326
19335.969309	16901.944667	1964.253906	255.230972
19335.969309	16901.944667	1963.283203	-35.116611
19335.969309	16901.944667	1962.312500	218.677505
19335.969309	16901.944667	1961.341797	154.892395
19335.969309	16901.944667	1960.370117	61.618519
19335.969309	16901.944667	1959.399414	29.887178
19335.969309	16901.944667	1958.427734	167.910721
19335.969309	16901.944667	1957.455078	478.050262
19335.969309	16901.944667	1956.483398	55.323299
19335.969309	16901.944667	1955.511719	70.367149
19335.969309	16901.944667	1954.539063	353.336670
19335.969309	16901.944667	1953.566406	262.664276
19335.969309	16901.944667	1952.593750	46.720741
19335.969309	16901.944667	1951.621094	160.050644
19335.969309	16901.944667	1950.647461	84.224831
19335.969309	16901.944667	1949.674805	229.442337
19335.969309	16901.944667	1948.701172	43.157707
19335.969309	16901.944667	1947.727539	139.246613
19335.969309	16901.944667	1946.753906	237.759445
19335.969309	16901.944667	1945.780273	-245.327652
19335.969309	16901.944667	1944.805664	297.302246
19335.969309	16901.944667	1943.831055	152.903656
19335.969309	16901.944667	1942.856445	315.124573
19335.969309	16901.944667	1941.881836	50.632492
19335.969309	16901.944667	1940.907227	-22.535896
19335.969309	16901.944667	1939.932617	-107.931854
19335.969309	16901.944667	1938.957031	279.693115
19335.969309	16901.944667	1937.981445	110.972359
19335.969309	16901.944667	1937.005859	-25.838749
19335.969309	16901.944667	1936.030273	74.983887
19335.969309	16901.944667	1935.054688	-103.402031
19335.969309	16901.944667	1934.078125	416.078094
19335.969309	16901.944667	1933.101563	49.204082
19335.969309	16901.944667	1932.125000	159.725372
19335.969309	16901.944667	1931.148438	-91.956223
19335.969309	16901.944667	1930.171875	67.475136
19335.969309	16901.944667	1929.194336	-0.642318
19335.969309	16901.944667	1928.217773	-144.559006
19335.969309	16901.944667	1927.240234	80.804405
19335.969309	16901.944667	1926.262695	-65.524254
19335.969309	16901.944667	1925.284180	71.738480
19335.969309	16901.944667	1924.306641	40.312923
19335.969309	16901.944667	1923.328125	160.383804
19335.969309	16901.944667	1922.350586	-86.039513
19335.969309	16901.944667	1921.372070	-132.094589
19335.969309	16901.944667	1920.392578	-60.918816
19335.969309	16901.944667	1919.414063	-4.436353
19335.969309	16901.944667	1918.434570	25.168255
19335.969309	16901.944667	1917.456055	35.220867
19335.969309	16901.944667	1916.476563	255.116974
19335.969309	16901.944667	1915.497070	-34.984745
19335.969309	16901.944667	1914.516602	-285.961121
19335.969309	16901.944667	1913.537109	111.867264
19335.969309	16901.944667	1912.556641	82.819626
19335.969309	16901.944667	1911.576172	136.658203
19335.969309	16901.944667	1910.595703	66.149895
19335.969309	16901.944667	1909.615234	-84.772400
19335.969309	16901.944667	1908.633789	46.990917
19335.969309	16901.944667	1907.653320	-6.462571
19335.969309	16901.944667	1906.671875	130.068909
19335.969309	16901.944667	1905.690430	-145.015610
19335.969309	16901.944667	1904.708984	-6.113313
19335.969309	16901.944667	1903.727539	-303.021759
19335.969309	16901.944667	1902.745117	-18.151316
19335.969309	16901.944667	1901.762695	105.987000
19335.969309	16901.944667	1900.780273	-52.164177
19335.969309	16901.944667	1899.797852	268.915924
19335.969309	16901.944667	1898.815430	164.250031
19335.969309	16901.944667	1897.832031	37.718678
19335.969309	16901.944667	1896.849609	-256.542969
19335.969309	16901.944667	1895.866211	144.445633
19335.969309	16901.944667	1894.882813	-244.552979
19335.969309	16901.944667	1893.898438	76.050583
19335.969309	16901.944667	1892.915039	-55.346554
19335.969309	16901.944667	1891.930664	78.023003
19335.969309	16901.944667	1890.947266	36.464668
19335.969309	16901.944667	1889.962891	111.435181
19335.969309	16901.944667	1888.977539	-44.259644
19335.969309	16901.944667	1887.993164	13.642831
19335.969309	16901.944667	1887.007813	66.640152
19335.969309	16901.944667	1886.023438	-224.926773
19335.969309	16901.944667	1885.038086	-150.144531
19335.969309	16901.944667	1884.051758	104.042702
19335.969309	16901.944667	1883.066406	-269.914612
19335.969309	16901.944667	1882.081055	-64.364830
19335.969309	16901.944667	1881.094727	22.306374
19335.969309	16901.944667	1880.108398	-99.505165
19335.969309	16901.944667	1879.122070	-37.169308
19335.969309	16901.944667	1878.135742	-129.934830
19335.969309	16901.944667	1877.148438	273.808563
19335.969309	16901.944667	1876.162109	166.406403
19335.969309	16901.944667	1875.174805	238.167892
19335.969309	16901.944667	1874.187500	-203.321457
19335.969309	16901.944667	1873.199219	18.448866
19335.969309	16901.944667	1872.211914	0.531808
19335.969309	16901.944667	1871.223633	-169.836075
19335.969309	16901.944667	1870.236328	145.995987
19335.969309	16901.944667	1869.248047	-288.032501
19335.969309	16901.944667	1868.258789	-559.941895
19335.969309	16901.944667	1867.270508	120.682518
19335.969309	16901.944667	1866.282227	-134.385223
19335.969309	16901.944667	1865.292969	142.240021
19335.969309	16901.944667	1864.303711	49.046627
19335.969309	16901.944667	1863.314453	108.020210
19335.969309	16901.944667	1862.324219	145.186417
19335.969309	16901.944667	1861.334961	-1.238598
19335.969309	16901.944667	1860.344727	-121.103325
19335.969309	16901.944667	1859.354492	-163.733597
19335.969309	16901.944667	1858.364258	-10.919124
19335.969309	16901.944667	1857.374023	69.392143
19335.969309	16901.944667	1856.383789	-2.368823
19335.969309	16901.944667	1855.392578	193.577179
19335.969309	16901.944667	1854.401367	-145.980179
19335.969309	16901.944667	1853.410156	184.825684
19335.969309	16901.944667	1852.418945	28.490177
19335.969309	16901.944667	1851.426758	252.970032
19335.969309	16901.944667	1850.435547	26.676012
19335.969309	16901.944667	1849.443359	195.535812
19335.969309	16901.944667	1848.451172	-74.144882
19335.969309	16901.944667	1847.458984	118.627464
19335.969309	16901.944667	1846.466797	135.485046
19335.969309	16901.944667	1845.473633	222.089310
19335.969309	16901.944667	1844.480469	-57.275272
19335.969309	16901.944667	1843.487305	284.300873
19335.969309	16901.944667	1842.494141	40.989037
19335.969309	16901.944667	1841.500977	213.888229
19335.969309	16901.944667	1840.506836	165.372513
19335.969309	16901.944667	1839.513672	-13.054105
19335.969309	16901.944667	1838.519531	97.040596
19335.969309	16901.944667	1837.525391	110.869324
19335.969309	16901.944667	1836.530273	122.219933
19335.969309	16901.944667	1835.536133	-22.697887
19335.969309	16901.944667	1834.541016	161.512375
19335.969309	16901.944667	1833.545898	-33.944061
19335.969309	16901.944667	1832.550781	32.375626
19335.969309	16901.944667	1831.555664	43.371315
19335.969309	16901.944667	1830.560547	15.878439
19335.969309	16901.944667	1829.564453	-131.692535
19335.969309	16901.944667	1828.568359	253.477249
19335.969309	16901.944667	1827.572266	492.065063
19335.969309	16901.944667	1826.576172	123.564537
19335.969309	16901.944667	1825.580078	119.690071
19335.969309	16901.944667	1824.583008	372.328369
19335.969309	16901.944667	1823.585938	-41.726719
19335.969309	16901.944667	1822.588867	-62.577175
19335.969309	16901.944667	1821.591797	69.885933
19335.969309	16901.944667	1820.594727	295.671936
19335.969309	16901.944667	1819.596680	344.009003
19335.969309	16901.944667	1818.599609	255.716827
19335.969309	16901.944667	1817.601563	59.609509
19335.969309	16901.944667	1816.603516	234.626038
19335.969309	16901.944667	1815.604492	83.918137
19335.969309	16901.944667	1814.606445	150.995605
19335.969309	16901.944667	1813.607422	210.783279
19335.969309	16901.944667	1812.608398	83.847458
19335.969309	16901.944667	1811.609375	-19.204781
19335.969309	16901.944667	1810.610352	269.934814
19335.969309	16901.944667	1809.610352	274.325714
19335.969309	16901.944667	1808.611328	106.496338
19335.969309	16901.944667	1807.611328	46.208500
19335.969309	16901.944667	1806.611328	148.368881
19335.969309	16901.944667	1805.610352	-10.039499
19335.969309	16901.944667	1804.610352	177.926514
19335.969309	16901.944667	1803.609375	308.408966
19335.969309	16901.944667	1802.608398	-48.407719
19335.969309	16901.944667	1801.607422	89.060150
19335.969309	16901.944667	1800.606445	109.415863
19335.969309	16901.944667	1799.605469	98.651367
19335.969309	16901.944667	1798.603516	56.782379
19335.969309	16901.944667	1797.601563	315.450775
19335.969309	16901.944667	1796.599609	87.320427
19335.969309	16901.944667	1795.597656	38.057133
19335.969309	16901.944667	1794.595703	-159.110764
19335.969309	16901.944667	1793.592773	-268.087830
19335.969309	16901.944667	1792.589844	142.500671
19335.969309	16901.944667	1791.587891	11.883393
19335.969309	16901.944667	1790.583984	271.975403
19335.969309	16901.944667	1789.581055	324.632843
19335.969309	16901.944667	1788.577148	69.930962
19335.969309	16901.944667	1787.574219	-87.127449
19335.969309	16901.944667	1786.570313	103.382172
19335.969309	16901.944667	1785.566406	-18.100292
19335.969309	16901.944667	1784.561523	-30.151962
19335.969309	16901.944667	1783.557617	14.818574
19335.969309	16901.944667	1782.552734	-6.932741
19335.969309	16901.944667	1781.547852	-4.981267
19335.969309	16901.944667	1780.542969	141.944443
19335.969309	16901.944667	1779.538086	22.422476
19335.969309	16901.944667	1778.532227	375.922150
19335.969309	16901.944667	1777.527344	370.303558
19335.969309	16901.944667	1776.521484	181.618515
19335.969309	16901.944667	1775.515625	23.798140
19335.969309	16901.944667	1774.508789	-84.172951
19335.969309	16901.944667	1773.502930	-49.693718
19335.969309	16901.944667	1772.496094	271.996033
19335.969309	16901.944667	1771.489258	353.691071
19335.969309	16901.944667	1770.482422	-25.219879
19335.969309	16901.944667	1769.475586	542.817932
19335.969309	16901.944667	1768.467773	90.273102
19335.969309	16901.944667	1767.460938	254.605164
19335.969309	16901.944667	1766.453125	108.069435
19335.969309	16901.944667	1765.445313	132.236664
19335.969309	16901.944667	1764.437500	-0.176245
19335.969309	16901.944667	1763.428711	284.568451
19335.969309	16901.944667	1762.420898	189.913605
19335.969309	16901.944667	1761.412109	336.896973
19335.969309	16901.944667	1760.403320	365.275330
19335.969309	16901.944667	1759.393555	272.746979
19335.969309	16901.944667	1758.384766	284.370819
19335.969309	16901.944667	1757.375000	357.455383
19335.969309	16901.944667	1756.366211	54.024754
19335.969309	16901.944667	1755.356445	150.611801
19335.969309	16901.944667	1754.345703	10.427458
19335.969309	16901.944667	1753.335938	28.732634
19335.969309	16901.944667	1752.325195	-54.782059
19335.969309	16901.944667	1751.315430	209.314575
19335.969309	16901.944667	1750.304688	198.919861
19335.969309	16901.944667	1749.292969	79.686195
19335.969309	16901.944667	1748.282227	-164.862900
19335.969309	16901.944667	1747.270508	-43.107906
19335.969309	16901.944667	1746.259766	-23.083548
19335.969309	16901.944667	1745.248047	-237.031921
19335.969309	16901.944667	1744.235352	-330.536926
19335.969309	16901.944667	1743.223633	111.962959
19335.969309	16901.944667	1742.211914	174.086975
19335.969309	16901.944667	1741.199219	-82.581062
19335.969309	16901.944667	1740.186523	-263.714172
19335.969309	16901.944667	1739.173828	-142.829559
19335.969309	16901.944667	1738.160156	-95.218597
19335.969309	16901.944667	1737.147461	60.798401
19335.969309	16901.944667	1736.133789	9.134243
19335.969309	16901.944667	1735.120117	226.200348
19335.969309	16901.944667	1734.106445	-162.750885
19335.969309	16901.944667	1733.091797	96.514206
19335.969309	16901.944667	1732.078125	291.978882
19335.969309	16901.944667	1731.063477	216.334503
19335.969309	16901.944667	1730.048828	281.971466
19335.969309	16901.944667	1729.034180	-114.105804
19335.969309	16901.944667	1728.019531	-43.885098
19335.969309	16901.944667	1727.003906	162.767258
19335.969309	16901.944667	1725.988281	-103.853737
19335.969309	16901.944667	1724.972656	396.738800
19335.969309	16901.944667	1723.957031	167.662613
19335.969309	16901.944667	1722.941406	524.353821
19335.969309	16901.944667	1721.924805	-104.663574
19335.969309	16901.944667	1720.909180	4.872722
19335.969309	16901.944667	1719.892578	15.537381
19335.969309	16901.944667	1718.875977	190.666992
19335.969309	16901.944667	1717.858398	-45.640469
19335.969309	16901.944667	1716.841797	-11.702172
19335.969309	16901.944667	1715.824219	69.122444
19335.969309	16901.944667	1714.806641	79.379265
19335.969309	16901.944667	1713.789063	-84.225960
19335.969309	16901.944667	1712.770508	43.297020
19335.969309	16901.944667	1711.752930	-280.012756
19335.969309	16901.944667	1710.734375	138.386963
19335.969309	16901.944667	1709.715820	382.905762
19335.969309	16901.944667	1708.697266	-146.967361
19335.969309	16901.944667	1707.678711	-59.788349
19335.969309	16901.944667	1706.659180	-45.424690
19335.969309	16901.944667	1705.640625	-218.711548
19335.969309	16901.944667	1704.621094	-129.439346
19335.969309	16901.944667	1703.600586	86.290924
19335.969309	16901.944667	1702.581055	334.689392
19335.969309	16901.944667	1701.561523	55.751820
19335.969309	16901.944667	1700.541016	74.350601
19335.969309	16901.944667	1699.520508	413.747589
19335.969309	16901.944667	1698.500000	347.842010
19335.969309	16901.944667	1697.478516	115.664360
19335.969309	16901.944667	1696.458008	265.068115
19335.969309	16901.944667	1695.436523	70.316582
19335.969309	16901.944667	1694.415039	81.486343
19335.969309	16901.944667	1693.393555	-181.117065
19335.969309	16901.944667	1692.372070	475.528687
19335.969309	16901.944667	1691.349609	388.211670
19335.969309	16901.944667	1690.327148	462.196167
19335.969309	16901.944667	1689.304688	372.461670
19335.969309	16901.944667	1688.282227	303.741394
19335.969309	16901.944667	1687.259766	678.965942
19335.969309	16901.944667	1686.236328	647.473938
19335.969309	16901.944667	1685.213867	109.082977
19335.969309	16901.944667	1684.190430	152.338516
19335.969309	16901.944667	1683.166016	599.454224
19335.969309	16901.944667	1682.142578	710.197266
19335.969309	16901.944667	1681.119141	685.474426
19335.969309	16901.944667	1680.094727	555.690613
19335.969309	16901.944667	1679.070313	640.556152
19335.969309	16901.944667	1678.045898	692.685181
19335.969309	16901.944667	1677.020508	569.822266
19335.969309	16901.944667	1675.996094	614.858154
19335.969309	16901.944667	1674.970703	589.882446
19335.969309	16901.944667	1673.945313	709.387024
19335.969309	16901.944667	1672.919922	626.058350
19335.969309	16901.944667	1671.893555	642.896667
19335.969309	16901.944667	1670.868164	757.539246
19335.969309	16901.944667	1669.841797	592.598816
19335.969309	16901.944667	1668.815430	697.803711
19335.969309	16901.944667	1667.789063	679.537720
19335.969309	16901.944667	1666.761719	686.836243
19335.969309	16901.944667	1665.735352	484.655029
19335.969309	16901.944667	1664.708008	361.616486
19335.969309	16901.944667	1663.680664	641.054504
19335.969309	16901.944667	1662.653320	762.190857
19335.969309	16901.944667	1661.625000	566.972900
19335.969309	16901.944667	1660.597656	941.440735
19335.969309	16901.944667	1659.569336	713.661743
19335.969309	16901.944667	1658.541016	716.028687
19335.969309	16901.944667	1657.512695	674.218323
19335.969309	16901.944667	1656.483398	764.810852
19335.969309	16901.944667	1655.455078	952.910950
19335.969309	16901.944667	1654.425781	820.423828
19335.969309	16901.944667	1653.396484	1240.570313
19335.969309	16901.944667	1652.366211	1258.915039
19335.969309	16901.944667	1651.336914	1096.205322
19335.969309	16901.944667	1650.306641	959.055298
19335.969309	16901.944667	1649.276367	1211.713257
19335.969309	16901.944667	1648.246094	1088.475220
19335.969309	16901.944667	1647.215820	1498.680420
19335.969309	16901.944667	1646.185547	1412.501465
19335.969309	16901.944667	1645.154297	1282.284302
19335.969309	16901.944667	1644.123047	1166.013550
19335.969309	16901.944667	1643.091797	1230.530151
19335.969309	16901.944667	1642.060547	1223.185059
19335.969309	16901.944667	1641.028320	1500.751343
19335.969309	16901.944667	1639.997070	1701.783447
19335.969309	16901.944667	1638.964844	1573.905273
19335.969309	16901.944667	1637.931641	1552.557251
19335.969309	16901.944667	1636.899414	1422.430420
19335.969309	16901.944667	1635.867188	1512.204590
19335.969309	16901.944667	1634.833984	1807.858032
19335.969309	16901.944667	1633.800781	1566.699951
19335.969309	16901.944667	1632.767578	1714.200073
19335.969309	16901.944667	1631.734375	2035.078491
19335.969309	16901.944667	1630.700195	2027.518799
19335.969309	16901.944667	1629.666016	2107.802490
19335.969309	16901.944667	1628.631836	1850.641724
19335.969309	16901.944667	1627.597656	1833.891235
19335.969309	16901.944667	1626.563477	1851.808105
19335.969309	16901.944667	1625.528320	1989.821899
19335.969309	16901.944667	1624.493164	1986.923462
19335.969309	16901.944667	1623.458008	2168.746582
19335.969309	16901.944667	1622.422852	2212.003662
19335.969309	16901.944667	1621.387695	2181.402588
19335.969309	16901.944667	1620.351563	2335.416504
19335.969309	16901.944667	1619.315430	2385.568848
19335.969309	16901.944667	1618.279297	2391.892090
19335.969309	16901.944667	1617.243164	2296.758789
19335.969309	16901.944667	1616.207031	2619.015625
19335.969309	16901.944667	1615.169922	2565.397217
19335.969309	16901.944667	1614.132813	3099.548340
19335.969309	16901.944667	1613.095703	2956.030762
19335.969309	16901.944667	1612.058594	3526.806641
19335.969309	16901.944667	1611.020508	3380.995361
19335.969309	16901.944667	1609.983398	3587.639160
19335.969309	16901.944667	1608.945313	3980.727539
19335.969309	16901.944667	1607.907227	3519.602295
19335.969309	16901.944667	1606.868164	3585.758301
19335.969309	16901.944667	1605.830078	3474.737305
19335.969309	16901.944667	1604.791016	3573.150146
19335.969309	16901.944667	1603.751953	3305.805420
19335.969309	16901.944667	1602.712891	3330.685059
19335.969309	16901.944667	1601.673828	3436.069336
19335.969309	16901.944667	1600.633789	2952.900391
19335.969309	16901.944667	1599.594727	3028.512451
19335.969309	16901.944667	1598.554688	3168.468506
19335.969309	16901.944667	1597.513672	3391.117188
19335.969309	16901.944667	1596.473633	3514.950684
19335.969309	16901.944667	1595.433594	3076.075195
19335.969309	16901.944667	1594.392578	3085.185547
19335.969309	16901.944667	1593.351563	2743.069824
19335.969309	16901.944667	1592.310547	2711.014404
19335.969309	16901.944667	1591.268555	2722.614258
19335.969309	16901.944667	1590.227539	2440.570068
19335.969309	16901.944667	1589.185547	2326.144531
19335.969309	16901.944667	1588.143555	2402.182617
19335.969309	16901.944667	1587.100586	2487.406250
19335.969309	16901.944667	1586.058594	2336.511963
19335.969309	16901.944667	1585.015625	2167.383545
19335.969309	16901.944667	1583.972656	2239.018799
19335.969309	16901.944667	1582.929688	2196.113525
19335.969309	16901.944667	1581.886719	2256.376465
19335.969309	16901.944667	1580.843750	2261.702881
19335.969309	16901.944667	1579.799805	2237.307373
19335.969309	16901.944667	1578.755859	2229.013184
19335.969309	16901.944667	1577.711914	2188.735596
19335.969309	16901.944667	1576.666992	1935.684937
19335.969309	16901.944667	1575.623047	2177.062500
19335.969309	16901.944667	1574.578125	2246.822266
19335.969309	16901.944667	1573.533203	2181.669189
19335.969309	16901.944667	1572.488281	2066.298096
19335.969309	16901.944667	1571.443359	1887.024536
19335.969309	16901.944667	1570.397461	1947.911377
19335.969309	16901.944667	1569.351563	2036.274902
19335.969309	16901.944667	1568.305664	1957.864380
19335.969309	16901.944667	1567.259766	2347.911377
19335.969309	16901.944667	1566.213867	1698.575073
19335.969309	16901.944667	1565.166992	1558.838745
19335.969309	16901.944667	1564.120117	2044.854370
19335.969309	16901.944667	1563.073242	1921.242065
19335.969309	16901.944667	1562.026367	1777.215942
19335.969309	16901.944667	1560.978516	1811.312012
19335.969309	16901.944667	1559.930664	1496.410645
19335.969309	16901.944667	1558.883789	1494.227417
19335.969309	16901.944667	1557.834961	1405.451294
19335.969309	16901.944667	1556.787109	1560.782349
19335.969309	16901.944667	1555.739258	1481.328979
19335.969309	16901.944667	1554.690430	1463.528198
19335.969309	16901.944667	1553.641602	1425.314453
19335.969309	16901.944667	1552.592773	1255.061890
19335.969309	16901.944667	1551.542969	1356.031738
19335.969309	16901.944667	1550.494141	1484.391846
19335.969309	16901.944667	1549.444336	1608.234497
19335.969309	16901.944667	1548.394531	1288.192871
19335.969309	16901.944667	1547.344727	1696.730713
19335.969309	16901.944667	1546.293945	1495.321045
19335.969309	16901.944667	1545.244141	1542.091309
19335.969309	16901.944667	1544.193359	1709.502075
19335.969309	16901.944667	1543.142578	2022.502319
19335.969309	16901.944667	1542.090820	2035.323120
19335.969309	16901.944667	1541.040039	2464.284668
19335.969309	16901.944667	1539.988281	2108.994385
19335.969309	16901.944667	1538.936523	1956.205933
19335.969309	16901.944667	1537.884766	2087.593994
19335.969309	16901.944667	1536.833008	2062.293945
19335.969309	16901.944667	1535.780273	2189.273926
19335.969309	16901.944667	1534.727539	1773.605347
19335.969309	16901.944667	1533.674805	1528.484009
19335.969309	16901.944667	1532.622070	1687.600586
19335.969309	16901.944667	1531.569336	2016.969482
19335.969309	16901.944667	1530.515625	1522.687988
19335.969309	16901.944667	1529.461914	1675.238892
19335.969309	16901.944667	1528.408203	1267.634888
19335.969309	16901.944667	1527.354492	1513.374634
19335.969309	16901.944667	1526.299805	1443.995605
19335.969309	16901.944667	1525.246094	1592.369141
19335.969309	16901.944667	1524.191406	1446.184204
19335.969309	16901.944667	1523.136719	1272.987305
19335.969309	16901.944667	1522.081055	1081.849365
19335.969309	16901.944667	1521.026367	988.304871
19335.969309	16901.944667	1519.970703	922.086731
19335.969309	16901.944667	1518.915039	978.276062
19335.969309	16901.944667	1517.859375	1043.619751
19335.969309	16901.944667	1516.802734	733.380432
19335.969309	16901.944667	1515.747070	887.240173
19335.969309	16901.944667	1514.690430	692.778503
19335.969309	16901.944667	1513.633789	568.634521
19335.969309	16901.944667	1512.577148	713.768005
19335.969309	16901.944667	1511.519531	630.619934
19335.969309	16901.944667	1510.461914	825.666931
19335.969309	16901.944667	1509.405273	428.650757
19335.969309	16901.944667	1508.346680	680.407593
19335.969309	16901.944667	1507.289063	627.221741
19335.969309	16901.944667	1506.231445	632.913391
19335.969309	16901.944667	1505.172852	573.244629
19335.969309	16901.944667	1504.114258	705.642395
19335.969309	16901.944667	1503.055664	910.357422
19335.969309	16901.944667	1501.996094	1282.130493
19335.969309	16901.944667	1500.937500	1123.638184
19335.969309	16901.944667	1499.877930	1351.113647
19335.969309	16901.944667	1498.818359	994.459778
19335.969309	16901.944667	1497.757813	1177.042969
19335.969309	16901.944667	1496.698242	1294.310181
19335.969309	16901.944667	1495.637695	1350.806030
19335.969309	16901.944667	1494.577148	1046.825562
19335.969309	16901.944667	1493.516602	1042.792969
19335.969309	16901.944667	1492.456055	1178.576172
19335.969309	16901.944667	1491.394531	1206.333252
19335.969309	16901.944667	1490.333008	1069.833130
19335.969309	16901.944667	1489.271484	956.043152
19335.969309	16901.944667	1488.209961	966.250854
19335.969309	16901.944667	1487.148438	661.517334
19335.969309	16901.944667	1486.085938	678.817688
19335.969309	16901.944667	1485.023438	844.738525
19335.969309	16901.944667	1483.960938	610.374023
19335.969309	16901.944667	1482.898438	605.627075
19335.969309	16901.944667	1481.834961	457.139221
19335.969309	16901.944667	1480.772461	1163.036743
19335.969309	16901.944667	1479.708984	810.278564
19335.969309	16901.944667	1478.644531	644.299011
19335.969309	16901.944667	1477.581055	260.658966
19335.969309	16901.944667	1476.517578	894.691833
19335.969309	16901.944667	1475.453125	623.729431
19335.969309	16901.944667	1474.388672	786.296448
19335.969309	16901.944667	1473.323242	1005.043274
19335.969309	16901.944667	1472.258789	786.228638
19335.969309	16901.944667	1471.193359	897.499084
19335.969309	16901.944667	1470.127930	892.314087
19335.969309	16901.944667	1469.062500	687.488403
19335.969309	16901.944667	1467.997070	501.493011
19335.969309	16901.944667	1466.930664	555.006592
19335.969309	16901.944667	1465.865234	496.729340
19335.969309	16901.944667	1464.798828	682.358337
19335.969309	16901.944667	1463.731445	553.439148
19335.969309	16901.944667	1462.665039	844.354675
19335.969309	16901.944667	1461.597656	900.621216
19335.969309	16901.944667	1460.530273	1256.948730
19335.969309	16901.944667	1459.462891	863.562134
19335.969309	16901.944667	1458.395508	1077.152832
19335.969309	16901.944667	1457.327148	961.906738
19335.969309	16901.944667	1456.259766	1110.820068
19335.969309	16901.944667	1455.191406	1190.205688
19335.969309	16901.944667	1454.123047	908.757080
19335.969309	16901.944667	1453.053711	719.765930
19335.969309	16901.944667	1451.985352	605.352417
19335.969309	16901.944667	1450.916016	800.351990
19335.969309	16901.944667	1449.846680	481.154724
19335.969309	16901.944667	1448.776367	454.443512
19335.969309	16901.944667	1447.707031	689.163452
19335.969309	16901.944667	1446.636719	224.613968
19335.969309	16901.944667	1445.566406	529.764648
19335.969309	16901.944667	1444.496094	131.627182
19335.969309	16901.944667	1443.425781	-43.040558
19335.969309	16901.944667	1442.354492	-208.801010
19335.969309	16901.944667	1441.283203	36.170242
19335.969309	16901.944667	1440.211914	41.439571
19335.969309	16901.944667	1439.140625	-160.934464
19335.969309	16901.944667	1438.069336	52.382076
19335.969309	16901.944667	1436.997070	79.794228
19335.969309	16901.944667	1435.924805	296.492798
19335.969309	16901.944667	1434.852539	-118.631645
19335.969309	16901.944667	1433.780273	-285.366333
19335.969309	16901.944667	1432.707031	93.670868
19335.969309	16901.944667	1431.633789	152.625229
19335.969309	16901.944667	1430.560547	3.231003
19335.969309	16901.944667	1429.487305	174.667725
19335.969309	16901.944667	1428.413086	447.876648
19335.969309	16901.944667	1427.339844	338.957336
19335.969309	16901.944667	1426.265625	307.698853
19335.969309	16901.944667	1425.191406	-27.283810
19335.969309	16901.944667	1424.116211	-11.384754
19335.969309	16901.944667	1423.041992	305.129120
19335.969309	16901.944667	1421.966797	313.016724
19335.969309	16901.944667	1420.891602	109.044800
19335.969309	16901.944667	1419.816406	-18.511501
19335.969309	16901.944667	1418.740234	-159.213638
19335.969309	16901.944667	1417.665039	-182.242111
19335.969309	16901.944667	1416.588867	207.401657
19335.969309	16901.944667	1415.512695	5.805907
19335.969309	16901.944667	1414.435547	-38.258266
19335.969309	16901.944667	1413.359375	-5.654175
19335.969309	16901.944667	1412.282227	-26.126303
19335.969309	16901.944667	1411.205078	-1.909295
19335.969309	16901.944667	1410.127930	243.838287
19335.969309	16901.944667	1409.049805	135.028824
19335.969309	16901.944667	1407.972656	148.705719
19335.969309	16901.944667	1406.894531	538.065308
19335.969309	16901.944667	1405.816406	423.254974
19335.969309	16901.944667	1404.737305	-78.546738
19335.969309	16901.944667	1403.659180	74.153572
19335.969309	16901.944667	1402.580078	65.369713
19335.969309	16901.944667	1401.500977	215.133240
19335.969309	16901.944667	1400.421875	108.556992
19335.969309	16901.944667	1399.341797	557.898254
19335.969309	16901.944667	1398.262695	425.904785
19335.969309	16901.944667	1397.182617	347.287109
19335.969309	16901.944667	1396.102539	370.577972
19335.969309	16901.944667	1395.021484	519.304688
19335.969309	16901.944667	1393.941406	232.497147
19335.969309	16901.944667	1392.860352	425.183228
19335.969309	16901.944667	1391.779297	419.483032
19335.969309	16901.944667	1390.698242	153.595215
19335.969309	16901.944667	1389.616211	3.774241
19335.969309	16901.944667	1388.535156	164.906052
19335.969309	16901.944667	1387.453125	404.595978
19335.969309	16901.944667	1386.371094	211.326675
19335.969309	16901.944667	1385.288086	445.812073
19335.969309	16901.944667	1384.206055	781.433105
19335.969309	16901.944667	1383.123047	438.604736
19335.969309	16901.944667	1382.040039	564.346130
19335.969309	16901.944667	1380.957031	500.430023
19335.969309	16901.944667	1379.873047	611.551514
19335.969309	16901.944667	1378.789063	968.723389
19335.969309	16901.944667	1377.705078	590.697021
19335.969309	16901.944667	1376.621094	576.266541
19335.969309	16901.944667	1375.537109	731.905884
19335.969309	16901.944667	1374.452148	780.107544
19335.969309	16901.944667	1373.367188	775.582947
19335.969309	16901.944667	1372.282227	553.268799
19335.969309	16901.944667	1371.197266	623.965149
19335.969309	16901.944667	1370.112305	711.464294
19335.969309	16901.944667	1369.026367	727.679077
19335.969309	16901.944667	1367.940430	693.121094
19335.969309	16901.944667	1366.854492	802.588318
19335.969309	16901.944667	1365.767578	515.994141
19335.969309	16901.944667	1364.681641	741.402222
19335.969309	16901.944667	1363.594727	408.093201
19335.969309	16901.944667	1362.507813	600.890442
19335.969309	16901.944667	1361.419922	834.354126
19335.969309	16901.944667	1360.333008	591.554810
19335.969309	16901.944667	1359.245117	527.225159
19335.969309	16901.944667	1358.157227	648.967407
19335.969309	16901.944667	1357.069336	844.602844
19335.969309	16901.944667	1355.981445	619.165833
19335.969309	16901.944667	1354.892578	568.355896
19335.969309	16901.944667	1353.803711	686.784424
19335.969309	16901.944667	1352.714844	601.434875
19335.969309	16901.944667	1351.625000	802.112610
19335.969309	16901.944667	1350.536133	727.868347
19335.969309	16901.944667	1349.446289	806.397827
19335.969309	16901.944667	1348.356445	1283.251221
19335.969309	16901.944667	1347.266602	1205.521362
19335.969309	16901.944667	1346.175781	958.756165
19335.969309	16901.944667	1345.085938	1013.058228
19335.969309	16901.944667	1343.995117	1390.674805
19335.969309	16901.944667	1342.903320	1123.445190
19335.969309	16901.944667	1341.812500	1219.613647
19335.969309	16901.944667	1340.720703	1089.895020
19335.969309	16901.944667	1339.629883	1194.255981
19335.969309	16901.944667	1338.538086	1206.956543
19335.969309	16901.944667	1337.445313	1221.138550
19335.969309	16901.944667	1336.353516	1344.719238
19335.969309	16901.944667	1335.260742	1251.890991
19335.969309	16901.944667	1334.167969	896.591125
19335.969309	16901.944667	1333.075195	1055.570557
19335.969309	16901.944667	1331.981445	1168.452881
19335.969309	16901.944667	1330.888672	1035.443237
19335.969309	16901.944667	1329.794922	925.053101
19335.969309	16901.944667	1328.701172	773.483215
19335.969309	16901.944667	1327.606445	916.355347
19335.969309	16901.944667	1326.512695	961.127930
19335.969309	16901.944667	1325.417969	1191.787842
19335.969309	16901.944667	1324.323242	942.150452
19335.969309	16901.944667	1323.227539	1010.802917
19335.969309	16901.944667	1322.132813	1327.271118
19335.969309	16901.944667	1321.037109	1122.259399
19335.969309	16901.944667	1319.941406	1091.700195
19335.969309	16901.944667	1318.845703	1109.631348
19335.969309	16901.944667	1317.750000	1322.286133
19335.969309	16901.944667	1316.653320	943.251953
19335.969309	16901.944667	1315.556641	1000.583801
19335.969309	16901.944667	1314.459961	1204.321533
19335.969309	16901.944667	1313.363281	1231.380127
19335.969309	16901.944667	1312.265625	1134.319824
19335.969309	16901.944667	1311.167969	1197.826172
19335.969309	16901.944667	1310.070313	1411.622681
19335.969309	16901.944667	1308.972656	1277.446289
19335.969309	16901.944667	1307.874023	1436.385132
19335.969309	16901.944667	1306.776367	1111.308594
19335.969309	16901.944667	1305.677734	1264.817749
19335.969309	16901.944667	1304.579102	854.474426
19335.969309	16901.944667	1303.479492	491.697113
19335.969309	16901.944667	1302.380859	570.788147
19335.969309	16901.944667	1301.281250	532.329590
19335.969309	16901.944667	1300.181641	681.742493
19335.969309	16901.944667	1299.081055	208.693573
19335.969309	16901.944667	1297.981445	77.566582
19335.969309	16901.944667	1296.880859	363.473480
19335.969309	16901.944667	1295.780273	91.426773
19335.969309	16901.944667	1294.679688	131.640137
19335.969309	16901.944667	1293.578125	5.380099
19335.969309	16901.944667	1292.476563	58.487148
19335.969309	16901.944667	1291.375000	252.442474
19335.969309	16901.944667	1290.273438	260.438202
19335.969309	16901.944667	1289.171875	27.359806
19335.969309	16901.944667	1288.069336	-11.193860
19335.969309	16901.944667	1286.966797	264.341980
19335.969309	16901.944667	1285.864258	150.970032
19335.969309	16901.944667	1284.761719	247.767120
19335.969309	16901.944667	1283.658203	535.549133
19335.969309	16901.944667	1282.554688	491.812225
19335.969309	16901.944667	1281.451172	629.607910
19335.969309	16901.944667	1280.347656	507.321655
19335.969309	16901.944667	1279.244141	654.805725
19335.969309	16901.944667	1278.139648	718.577271
19335.969309	16901.944667	1277.035156	570.415588
19335.969309	16901.944667	1275.930664	678.528320
19335.969309	16901.944667	1274.825195	618.245361
19335.969309	16901.944667	1273.720703	644.149292
19335.969309	16901.944667	1272.615234	562.207764
19335.969309	16901.944667	1271.508789	546.656006
19335.969309	16901.944667	1270.403320	612.888916
19335.969309	16901.944667	1269.297852	775.824280
19335.969309	16901.944667	1268.191406	1023.805847
19335.969309	16901.944667	1267.084961	932.713928
19335.969309	16901.944667	1265.977539	822.576050
19335.969309	16901.944667	1264.871094	999.470215
19335.969309	16901.944667	1263.763672	709.962341
19335.969309	16901.944667	1262.656250	850.061584
19335.969309	16901.944667	1261.548828	688.995178
19335.969309	16901.944667	1260.440430	552.593323
19335.969309	16901.944667	1259.333008	577.453552
19335.969309	16901.944667	1258.224609	245.680939
19335.969309	16901.944667	1257.115234	206.799744
19335.969309	16901.944667	1256.006836	256.899384
19335.969309	16901.944667	1254.897461	173.565674
19335.969309	16901.944667	1253.788086	32.926659
19335.969309	16901.944667	1252.678711	61.570938
19335.969309	16901.944667	1251.569336	-45.846512
19335.969309	16901.944667	1250.458984	-156.907333
19335.969309	16901.944667	1249.349609	87.464027
19335.969309	16901.944667	1248.239258	31.304768
19335.969309	16901.944667	1247.127930	-70.827728
19335.969309	16901.944667	1246.017578	-84.338478
19335.969309	16901.944667	1244.906250	-121.711655
19335.969309	16901.944667	1243.794922	-154.893585
19335.969309	16901.944667	1242.683594	-99.168686
19335.969309	16901.944667	1241.571289	-148.323593
19335.969309	16901.944667	1240.459961	-191.425522
19335.969309	16901.944667	1239.347656	-1.026914
19335.969309	16901.944667	1238.234375	44.445236
19335.969309	16901.944667	1237.122070	158.515472
19335.969309	16901.944667	1236.008789	2.297423
19335.969309	16901.944667	1234.896484	147.858582
19335.969309	16901.944667	1233.782227	94.214745
19335.969309	16901.944667	1232.668945	5.814477
19335.969309	16901.944667	1231.555664	132.925903
19335.969309	16901.944667	1230.441406	-16.227798
19335.969309	16901.944667	1229.327148	-100.495285
19335.969309	16901.944667	1228.211914	16.436481
19335.969309	16901.944667	1227.097656	0.230760
19335.969309	16901.944667	1225.982422	29.329288
19335.969309	16901.944667	1224.867188	-8.253297
19335.969309	16901.944667	1223.751953	-102.846313
19335.969309	16901.944667	1222.635742	-156.572296
19335.969309	16901.944667	1221.520508	-389.486633
19335.969309	16901.944667	1220.404297	-179.848801
19335.969309	16901.944667	1219.287109	-295.163940
19335.969309	16901.944667	1218.170898	-239.733444
19335.969309	16901.944667	1217.053711	-244.988754
19335.969309	16901.944667	1215.936523	-154.829163
19335.969309	16901.944667	1214.819336	-152.777344
19335.969309	16901.944667	1213.702148	-253.213333
19335.969309	16901.944667	1212.583984	-39.595703
19335.969309	16901.944667	1211.465820	-99.575630
19335.969309	16901.944667	1210.347656	52.509815
19335.969309	16901.944667	1209.229492	139.811844
19335.969309	16901.944667	1208.110352	347.987061
19335.969309	16901.944667	1206.992188	241.904404
19335.969309	16901.944667	1205.873047	296.233673
19335.969309	16901.944667	1204.752930	261.192444
19335.969309	16901.944667	1203.633789	399.768982
19335.969309	16901.944667	1202.513672	366.728607
19335.969309	16901.944667	1201.393555	288.953613
19335.969309	16901.944667	1200.273438	358.396027
19335.969309	16901.944667	1199.152344	311.759186
19335.969309	16901.944667	1198.032227	191.828537
19335.969309	16901.944667	1196.911133	163.601563
19335.969309	16901.944667	1195.790039	151.919724
19335.969309	16901.944667	1194.667969	109.863152
19335.969309	16901.944667	1193.545898	437.847595
19335.969309	16901.944667	1192.424805	289.773346
19335.969309	16901.944667	1191.301758	336.673737
19335.969309	16901.944667	1190.179688	361.566071
19335.969309	16901.944667	1189.056641	416.181824
19335.969309	16901.944667	1187.933594	504.845123
19335.969309	16901.944667	1186.810547	563.525696
19335.969309	16901.944667	1185.687500	593.982300
19335.969309	16901.944667	1184.563477	515.165894
19335.969309	16901.944667	1183.440430	665.548584
19335.969309	16901.944667	1182.316406	608.509705
19335.969309	16901.944667	1181.191406	533.806030
19335.969309	16901.944667	1180.067383	655.937256
19335.969309	16901.944667	1178.942383	665.807922
19335.969309	16901.944667	1177.817383	804.852051
19335.969309	16901.944667	1176.692383	759.443665
19335.969309	16901.944667	1175.566406	746.097900
19335.969309	16901.944667	1174.440430	799.266541
19335.969309	16901.944667	1173.314453	1074.003174
19335.969309	16901.944667	1172.188477	950.123596
19335.969309	16901.944667	1171.062500	448.443085
19335.969309	16901.944667	1169.935547	745.127014
19335.969309	16901.944667	1168.808594	627.963318
19335.969309	16901.944667	1167.681641	571.767578
19335.969309	16901.944667	1166.553711	519.429504
19335.969309	16901.944667	1165.426758	407.274445
19335.969309	16901.944667	1164.298828	221.160812
19335.969309	16901.944667	1163.170898	163.572220
19335.969309	16901.944667	1162.041992	72.114983
19335.969309	16901.944667	1160.914063	318.310272
19335.969309	16901.944667	1159.785156	253.656708
19335.969309	16901.944667	1158.656250	315.919373
19335.969309	16901.944667	1157.526367	52.561836
19335.969309	16901.944667	1156.397461	124.082352
19335.969309	16901.944667	1155.267578	1.684132
19335.969309	16901.944667	1154.137695	38.849380
19335.969309	16901.944667	1153.006836	244.609787
19335.969309	16901.944667	1151.876953	148.516876
19335.969309	16901.944667	1150.746094	228.789047
19335.969309	16901.944667	1149.615234	43.236893
19335.969309	16901.944667	1148.484375	101.555031
19335.969309	16901.944667	1147.352539	99.685036
19335.969309	16901.944667	1146.220703	146.623276
19335.969309	16901.944667	1145.088867	36.867157
19335.969309	16901.944667	1143.957031	174.041000
19335.969309	16901.944667	1142.825195	96.015259
19335.969309	16901.944667	1141.692383	-44.030518
19335.969309	16901.944667	1140.559570	-113.732361
19335.969309	16901.944667	1139.426758	-110.903389
19335.969309	16901.944667	1138.292969	90.834991
19335.969309	16901.944667	1137.159180	13.927053
19335.969309	16901.944667	1136.025391	-108.700043
19335.969309	16901.944667	1134.891602	-190.419922
19335.969309	16901.944667	1133.757813	196.927002
19335.969309	16901.944667	1132.623047	-181.435303
19335.969309	16901.944667	1131.488281	4.176174
19335.969309	16901.944667	1130.353516	-70.975456
19335.969309	16901.944667	1129.217773	-47.127335
19335.969309	16901.944667	1128.083008	-17.808739
19335.969309	16901.944667	1126.947266	-162.507187
19335.969309	16901.944667	1125.811523	-13.519739
19335.969309	16901.944667	1124.674805	-143.597488
19335.969309	16901.944667	1123.539063	-45.667480
19335.969309	16901.944667	1122.402344	-151.858444
19335.969309	16901.944667	1121.265625	-99.303009
19335.969309	16901.944667	1120.127930	152.739624
19335.969309	16901.944667	1118.990234	-31.968452
19335.969309	16901.944667	1117.853516	55.923023
19335.969309	16901.944667	1116.714844	1.076404
19335.969309	16901.944667	1115.577148	-153.882385
19335.969309	16901.944667	1114.439453	152.611572
19335.969309	16901.944667	1113.300781	4.138557
19335.969309	16901.944667	1112.162109	229.863495
19335.969309	16901.944667	1111.022461	172.764954
19335.969309	16901.944667	1109.883789	10.335869
19335.969309	16901.944667	1108.744141	79.717232
19335.969309	16901.944667	1107.604492	48.672024
19335.969309	16901.944667	1106.463867	216.920685
19335.969309	16901.944667	1105.324219	297.685394
19335.969309	16901.944667	1104.183594	199.047913
19335.969309	16901.944667	1103.042969	231.326294
19335.969309	16901.944667	1101.902344	358.129639
19335.969309	16901.944667	1100.760742	345.330353
19335.969309	16901.944667	1099.619141	369.371796
19335.969309	16901.944667	1098.477539	199.966644
19335.969309	16901.944667	1097.335938	409.184937
19335.969309	16901.944667	1096.193359	280.557037
19335.969309	16901.944667	1095.051758	560.972778
19335.969309	16901.944667	1093.909180	272.379669
19335.969309	16901.944667	1092.765625	703.240173
19335.969309	16901.944667	1091.623047	546.907471
19335.969309	16901.944667	1090.479492	525.018188
19335.969309	16901.944667	1089.335938	433.553558
19335.969309	16901.944667	1088.192383	608.577881
19335.969309	16901.944667	1087.047852	490.152191
19335.969309	16901.944667	1085.903320	301.828369
19335.969309	16901.944667	1084.758789	117.375816
19335.969309	16901.944667	1083.614258	205.538620
19335.969309	16901.944667	1082.469727	71.707329
19335.969309	16901.944667	1081.324219	265.770660
19335.969309	16901.944667	1080.178711	166.605225
19335.969309	16901.944667	1079.033203	111.250031
19335.969309	16901.944667	1077.886719	366.109222
19335.969309	16901.944667	1076.740234	454.247192
19335.969309	16901.944667	1075.593750	373.677582
19335.969309	16901.944667	1074.447266	481.507813
19335.969309	16901.944667	1073.300781	401.532837
19335.969309	16901.944667	1072.153320	460.798981
19335.969309	16901.944667	1071.005859	35.810551
19335.969309	16901.944667	1069.858398	362.872284
19335.969309	16901.944667	1068.709961	246.545914
19335.969309	16901.944667	1067.561523	316.998169
19335.969309	16901.944667	1066.413086	107.924416
19335.969309	16901.944667	1065.264648	291.361877
19335.969309	16901.944667	1064.116211	153.695374
19335.969309	16901.944667	1062.966797	457.992126
19335.969309	16901.944667	1061.817383	120.571686
19335.969309	16901.944667	1060.667969	121.088486
19335.969309	16901.944667	1059.517578	-66.792877
19335.969309	16901.944667	1058.368164	159.192444
19335.969309	16901.944667	1057.217773	211.541458
19335.969309	16901.944667	1056.067383	141.646469
19335.969309	16901.944667	1054.916016	15.576099
19335.969309	16901.944667	1053.764648	216.511902
19335.969309	16901.944667	1052.613281	247.381821
19335.969309	16901.944667	1051.461914	389.127441
19335.969309	16901.944667	1050.310547	425.889618
19335.969309	16901.944667	1049.158203	195.146698
19335.969309	16901.944667	1048.005859	319.809296
19335.969309	16901.944667	1046.853516	279.389313
19335.969309	16901.944667	1045.700195	542.362976
19335.969309	16901.944667	1044.547852	423.333252
19335.969309	16901.944667	1043.394531	267.103760
19335.969309	16901.944667	1042.240234	373.059326
19335.969309	16901.944667	1041.086914	224.725235
19335.969309	16901.944667	1039.932617	165.133240
19335.969309	16901.944667	1038.778320	353.930969
19335.969309	16901.944667	1037.624023	323.376526
19335.969309	16901.944667	1036.469727	588.700684
19335.969309	16901.944667	1035.314453	569.257935
19335.969309	16901.944667	1034.159180	610.098572
19335.969309	16901.944667	1033.003906	851.812805
19335.969309	16901.944667	1031.847656	795.481384
19335.969309	16901.944667	1030.692383	1083.566772
19335.969309	16901.944667	1029.536133	755.070007
19335.969309	16901.944667	1028.378906	819.758789
19335.969309	16901.944667	1027.222656	623.461304
19335.969309	16901.944667	1026.065430	572.808899
19335.969309	16901.944667	1024.908203	410.528473
19335.969309	16901.944667	1023.750977	498.141876
19335.969309	16901.944667	1022.593750	597.405396
19335.969309	16901.944667	1021.435547	345.717560
19335.969309	16901.944667	1020.277344	104.348473
19335.969309	16901.944667	1019.119141	100.661865
19335.969309	16901.944667	1017.959961	139.764999
19335.969309	16901.944667	1016.800781	88.996666
19335.969309	16901.944667	1015.641602	38.288937
19335.969309	16901.944667	1014.482422	92.318069
19335.969309	16901.944667	1013.323242	216.566940
19335.969309	16901.944667	1012.163086	46.124882
19335.969309	16901.944667	1011.002930	433.430695
19335.969309	16901.944667	1009.842773	320.219269
19335.969309	16901.944667	1008.681641	60.546497
19335.969309	16901.944667	1007.520508	158.619019
19335.969309	16901.944667	1006.359375	238.238113
19335.969309	16901.944667	1005.198242	222.568359
19335.969309	16901.944667	1004.037109	403.143463
19335.969309	16901.944667	1002.875000	283.069824
19335.969309	16901.944667	1001.712891	388.001678
19335.969309	16901.944667	1000.550781	380.777496
19335.969309	16901.944667	999.387695	476.280731
19335.969309	16901.944667	998.224609	145.369110
19335.969309	16901.944667	997.061523	30.002115
19335.969309	16901.944667	995.898438	-129.659531
19335.969309	16901.944667	994.734375	99.665840
19335.969309	16901.944667	993.571289	69.773895
19335.969309	16901.944667	992.407227	17.174637
19335.969309	16901.944667	991.242188	-49.139378
19335.969309	16901.944667	990.078125	180.176758
19335.969309	16901.944667	988.913086	-47.412266
19335.969309	16901.944667	987.748047	96.510475
19335.969309	16901.944667	986.583008	-34.003651
19335.969309	16901.944667	985.416992	-118.605118
19335.969309	16901.944667	984.250977	-209.482254
19335.969309	16901.944667	983.084961	-105.361038
19335.969309	16901.944667	981.918945	-227.383453
19335.969309	16901.944667	980.751953	-36.040035
19335.969309	16901.944667	979.584961	-74.680977
19335.969309	16901.944667	978.417969	-158.717758
19335.969309	16901.944667	977.250977	-198.405670
19335.969309	16901.944667	976.083008	-184.212036
19335.969309	16901.944667	974.915039	60.980030
19335.969309	16901.944667	973.747070	-291.143311
19335.969309	16901.944667	972.579102	-156.606857
19335.969309	16901.944667	971.410156	-46.651604
19335.969309	16901.944667	970.242188	19.655502
19335.969309	16901.944667	969.072266	-140.128784
19335.969309	16901.944667	967.903320	83.543549
19335.969309	16901.944667	966.733398	-93.455002
19335.969309	16901.944667	965.563477	195.576950
19335.969309	16901.944667	964.393555	87.864632
19335.969309	16901.944667	963.223633	-6.038586
19335.969309	16901.944667	962.052734	180.969559
19335.969309	16901.944667	960.881836	-127.053848
19335.969309	16901.944667	959.710938	-196.782013
19335.969309	16901.944667	958.540039	127.969299
19335.969309	16901.944667	957.368164	87.782600
19335.969309	16901.944667	956.196289	54.533558
19335.969309	16901.944667	955.024414	-108.275246
19335.969309	16901.944667	953.851563	-156.202072
19335.969309	16901.944667	952.679688	-59.425438
19335.969309	16901.944667	951.506836	74.001907
19335.969309	16901.944667	950.333984	19.723471
19335.969309	16901.944667	949.160156	-39.225468
19335.969309	16901.944667	947.986328	-359.296997
19335.969309	16901.944667	946.812500	-110.662384
19335.969309	16901.944667	945.638672	82.009087
19335.969309	16901.944667	944.464844	349.702423
19335.969309	16901.944667	943.290039	289.358887
19335.969309	16901.944667	942.115234	72.858681
19335.969309	16901.944667	940.940430	209.768799
19335.969309	16901.944667	939.764648	111.083145
19335.969309	16901.944667	938.588867	123.654663
19335.969309	16901.944667	937.413086	57.441013
19335.969309	16901.944667	936.237305	220.825607
19335.969309	16901.944667	935.060547	266.138092
19335.969309	16901.944667	933.883789	468.075317
19335.969309	16901.944667	932.707031	266.979736
19335.969309	16901.944667	931.530273	245.107758
19335.969309	16901.944667	930.352539	499.595490
19335.969309	16901.944667	929.175781	371.785797
19335.969309	16901.944667	927.998047	99.637672
19335.969309	16901.944667	926.819336	16.569571
19335.969309	16901.944667	925.641602	213.877716
19335.969309	16901.944667	924.462891	104.296257
19335.969309	16901.944667	923.284180	51.598610
19335.969309	16901.944667	922.104492	331.910767
19335.969309	16901.944667	920.924805	315.648834
19335.969309	16901.944667	919.746094	323.172363
19335.969309	16901.944667	919.551758	359.445496
19335.969309	16901.944667	918.386719	34.503448
19335.969309	16901.944667	917.220703	-18.439260
19335.969309	16901.944667	916.054688	279.566772
19335.969309	16901.944667	914.887695	301.567200
19335.969309	16901.944667	913.721680	31.493761
19335.969309	16901.944667	912.554688	-126.992531
19335.969309	16901.944667	911.387695	158.475830
19335.969309	16901.944667	910.220703	78.989182
19335.969309	16901.944667	909.052734	-251.752716
19335.969309	16901.944667	907.885742	209.697800
19335.969309	16901.944667	906.717773	75.452576
19335.969309	16901.944667	905.548828	-105.343483
19335.969309	16901.944667	904.380859	205.866852
19335.969309	16901.944667	903.211914	12.898338
19335.969309	16901.944667	902.042969	85.085495
19335.969309	16901.944667	900.874023	177.442444
19335.969309	16901.944667	899.704102	207.020203
19335.969309	16901.944667	898.535156	14.065730
19335.969309	16901.944667	897.365234	142.680542
19335.969309	16901.944667	896.194336	-38.109612
19335.969309	16901.944667	895.024414	-144.077148
19335.969309	16901.944667	893.853516	85.439789
19335.969309	16901.944667	892.682617	137.027878
19335.969309	16901.944667	891.511719	97.658241
19335.969309	16901.944667	890.340820	308.710175
19335.969309	16901.944667	889.168945	117.820282
19335.969309	16901.944667	887.997070	252.006989
19335.969309	16901.944667	886.825195	-126.567230
19335.969309	16901.944667	885.653320	19.662447
19335.969309	16901.944667	884.480469	10.451653
19335.969309	16901.944667	883.307617	122.246597
19335.969309	16901.944667	882.134766	0.020279
19335.969309	16901.944667	880.961914	-19.351961
19335.969309	16901.944667	879.788086	-185.903687
19335.969309	16901.944667	878.614258	-42.022598
19335.969309	16901.944667	877.440430	138.041611
19335.969309	16901.944667	876.266602	31.914253
19335.969309	16901.944667	875.091797	82.924919
19335.969309	16901.944667	873.916992	-240.696854
19335.969309	16901.944667	872.742188	281.443756
19335.969309	16901.944667	871.567383	191.374374
19335.969309	16901.944667	870.391602	129.496719
19335.969309	16901.944667	869.215820	212.499374
19335.969309	16901.944667	868.040039	156.624802
19335.969309	16901.944667	866.864258	-229.122879
19335.969309	16901.944667	865.687500	-95.898697
19335.969309	16901.944667	864.510742	-17.039394
19335.969309	16901.944667	863.333984	61.761887
19335.969309	16901.944667	862.157227	-146.891129
19335.969309	16901.944667	860.979492	199.102234
19335.969309	16901.944667	859.802734	8.537250
19335.969309	16901.944667	858.625000	47.001789
19335.969309	16901.944667	857.446289	-2.925925
19335.969309	16901.944667	856.268555	-171.317719
19335.969309	16901.944667	855.089844	-54.624928
19335.969309	16901.944667	853.911133	112.167374
19335.969309	16901.944667	852.731445	-158.539551
19335.969309	16901.944667	851.552734	116.485344
19335.969309	16901.944667	850.373047	152.704559
19335.969309	16901.944667	849.193359	22.449493
19335.969309	16901.944667	848.013672	-89.730934
19335.969309	16901.944667	846.833008	170.935471
19335.969309	16901.944667	845.652344	-81.551880
19335.969309	16901.944667	844.471680	-119.577698
19335.969309	16901.944667	843.291016	-41.427090
19335.969309	16901.944667	842.110352	-139.574615
19335.969309	16901.944667	840.928711	110.706841
19335.969309	16901.944667	839.747070	92.602295
19335.969309	16901.944667	838.564453	-33.596741
19335.969309	16901.944667	837.382813	-65.719391
19335.969309	16901.944667	836.200195	-79.840866
19335.969309	16901.944667	835.017578	86.044182
19335.969309	16901.944667	833.834961	15.851745
19335.969309	16901.944667	832.651367	-148.306488
19335.969309	16901.944667	831.467773	-194.475937
19335.969309	16901.944667	830.284180	-108.740608
19335.969309	16901.944667	829.100586	16.899420
19335.969309	16901.944667	827.916992	-89.284447
19335.969309	16901.944667	826.732422	48.239246
19335.969309	16901.944667	825.547852	-67.934219
19335.969309	16901.944667	824.363281	197.259506
19335.969309	16901.944667	823.177734	-32.724373
19335.969309	16901.944667	821.992188	-254.655792
19335.969309	16901.944667	820.806641	46.260029
19335.969309	16901.944667	819.621094	-119.789536
19335.969309	16901.944667	818.434570	-84.343559
19335.969309	16901.944667	817.249023	-44.955250
19335.969309	16901.944667	816.062500	116.012207
19335.969309	16901.944667	814.875000	7.796848
19335.969309	16901.944667	813.688477	290.201050
19335.969309	16901.944667	812.500977	50.439564
19335.969309	16901.944667	811.313477	-155.385330
19335.969309	16901.944667	810.125977	-62.405697
19335.969309	16901.944667	808.937500	-43.161839
19335.969309	16901.944667	807.749023	-19.973330
19335.969309	16901.944667	806.560547	-32.649014
19335.969309	16901.944667	805.372070	-61.265316
19335.969309	16901.944667	804.182617	13.562138
19335.969309	16901.944667	802.994141	38.596985
19335.969309	16901.944667	801.803711	23.826757
19335.969309	16901.944667	800.614258	74.642258
19335.969309	16901.944667	799.424805	121.433670
19335.969309	16901.944667	798.234375	58.866428
19335.969309	16901.944667	797.043945	41.997082
19335.969309	16901.944667	795.852539	112.522255
19335.969309	16901.944667	794.662109	-47.424980
19335.969309	16901.944667	793.470703	148.140732
19335.969309	16901.944667	792.279297	442.865814
19335.969309	16901.944667	791.087891	298.738220
19335.969309	16901.944667	789.895508	378.907532
19335.969309	16901.944667	788.703125	403.451874
19335.969309	16901.944667	787.510742	348.599396
19335.969309	16901.944667	786.318359	698.353577
19335.969309	16901.944667	785.125000	538.299500
19335.969309	16901.944667	783.931641	386.208649
19335.969309	16901.944667	782.738281	341.184204
19335.969309	16901.944667	781.544922	343.704224
19335.969309	16901.944667	780.350586	148.056671
19335.969309	16901.944667	779.156250	259.499573
19335.969309	16901.944667	777.961914	444.139893
19335.969309	16901.944667	776.767578	345.508423
19335.969309	16901.944667	775.572266	213.227036
19335.969309	16901.944667	774.376953	480.784241
19335.969309	16901.944667	773.181641	338.558472
19335.969309	16901.944667	771.986328	683.060974
19335.969309	16901.944667	770.790039	673.308044
19335.969309	16901.944667	769.593750	422.245209
19335.969309	16901.944667	768.397461	293.836945
19335.969309	16901.944667	767.201172	331.492889
19335.969309	16901.944667	766.003906	155.643112
19335.969309	16901.944667	764.806641	222.872116
19335.969309	16901.944667	763.609375	131.982132
19335.969309	16901.944667	762.412109	27.260719
19335.969309	16901.944667	761.213867	118.045059
19335.969309	16901.944667	760.015625	86.336731
19335.969309	16901.944667	758.817383	-136.877487
19335.969309	16901.944667	757.618164	48.482632
19335.969309	16901.944667	756.419922	66.001137
19335.969309	16901.944667	755.220703	20.339914
19335.969309	16901.944667	754.021484	162.022186
19335.969309	16901.944667	752.821289	122.183655
19335.969309	16901.944667	751.621094	206.517563
19335.969309	16901.944667	750.420898	52.266502
19335.969309	16901.944667	749.220703	-21.171604
19335.969309	16901.944667	748.020508	72.842339
19335.969309	16901.944667	746.819336	105.703590
19335.969309	16901.944667	745.618164	280.299896
19335.969309	16901.944667	744.416992	192.889496
19335.969309	16901.944667	743.214844	162.557953
19335.969309	16901.944667	742.012695	112.501717
19335.969309	16901.944667	740.810547	125.382362
19335.969309	16901.944667	739.608398	195.257919
19335.969309	16901.944667	738.406250	428.309479
19335.969309	16901.944667	737.203125	521.583313
19335.969309	16901.944667	736.000000	486.961670
19335.969309	16901.944667	734.795898	605.629395
19335.969309	16901.944667	733.592773	737.943542
19335.969309	16901.944667	732.388672	724.745117
19335.969309	16901.944667	731.184570	870.615662
19335.969309	16901.944667	729.979492	800.320007
19335.969309	16901.944667	728.775391	645.553467
19335.969309	16901.944667	727.570313	559.506287
19335.969309	16901.944667	726.365234	606.910583
19335.969309	16901.944667	725.160156	312.765869
19335.969309	16901.944667	723.954102	218.813202
19335.969309	16901.944667	722.748047	-67.403496
19335.969309	16901.944667	721.541992	46.525387
19335.969309	16901.944667	720.334961	152.502899
19335.969309	16901.944667	719.128906	-6.285485
19335.969309	16901.944667	717.921875	-143.509781
19335.969309	16901.944667	716.714844	42.588066
19335.969309	16901.944667	715.506836	-88.842033
19335.969309	16901.944667	714.298828	-61.623962
19335.969309	16901.944667	713.090820	-212.693756
19335.969309	16901.944667	711.882813	-107.277489
19335.969309	16901.944667	710.674805	84.156593
19335.969309	16901.944667	709.465820	-137.507462
19335.969309	16901.944667	708.256836	-44.119610
19335.969309	16901.944667	707.047852	-72.129524
19335.969309	16901.944667	705.837891	-29.786098
19335.969309	16901.944667	704.627930	-89.215477
19335.969309	16901.944667	703.417969	-74.397591
19335.969309	16901.944667	702.208008	-145.663910
19335.969309	16901.944667	700.998047	144.564224
19335.969309	16901.944667	699.787109	61.414635
19335.969309	16901.944667	698.576172	-17.865444
19335.969309	16901.944667	697.364258	4.371229
19335.969309	16901.944667	696.153320	-278.081207
19335.969309	16901.944667	694.941406	62.259556
19335.969309	16901.944667	693.729492	105.712349
19335.969309	16901.944667	692.516602	180.293335
19335.969309	16901.944667	691.304688	172.826477
19335.969309	16901.944667	690.091797	139.930374
19335.969309	16901.944667	688.878906	-207.002640
19335.969309	16901.944667	687.665039	99.295372
19335.969309	16901.944667	686.451172	194.860428
19335.969309	16901.944667	685.237305	245.481323
19335.969309	16901.944667	684.023438	231.703659
19335.969309	16901.944667	682.809570	252.919754
19335.969309	16901.944667	681.594727	562.304565
19335.969309	16901.944667	680.379883	707.909119
19335.969309	16901.944667	679.165039	356.922577
19335.969309	16901.944667	677.949219	650.281555
19335.969309	16901.944667	676.733398	669.043091
19335.969309	16901.944667	675.517578	607.947266
19335.969309	16901.944667	674.301758	492.331848
19335.969309	16901.944667	673.084961	588.666321
19335.969309	16901.944667	671.869141	575.995544
19335.969309	16901.944667	670.651367	384.400024
19335.969309	16901.944667	669.434570	507.666260
19335.969309	16901.944667	668.216797	487.002655
19335.969309	16901.944667	667.000000	398.271057
19335.969309	16901.944667	665.781250	488.191956
19335.969309	16901.944667	664.563477	541.095581
19335.969309	16901.944667	663.344727	560.889160
19335.969309	16901.944667	662.125977	561.181519
19335.969309	16901.944667	660.907227	433.304718
19335.969309	16901.944667	659.688477	425.698242
19335.969309	16901.944667	658.468750	431.592773
19335.969309	16901.944667	657.249023	425.765472
19335.969309	16901.944667	656.029297	441.191010
19335.969309	16901.944667	654.808594	417.750305
19335.969309	16901.944667	653.587891	411.683685
19335.969309	16901.944667	652.367188	517.934631
19335.969309	16901.944667	651.146484	335.380280
19335.969309	16901.944667	649.924805	174.125977
19335.969309	16901.944667	648.704102	427.299408
19335.969309	16901.944667	647.482422	424.702911
19335.969309	16901.944667	646.259766	404.602142
19335.969309	16901.944667	645.037109	647.642273
19335.969309	16901.944667	643.815430	671.849609
19335.969309	16901.944667	642.591797	703.699158
19335.969309	16901.944667	641.369141	445.333771
19335.969309	16901.944667	640.145508	376.504272
19335.969309	16901.944667	638.921875	412.024231
19335.969309	16901.944667	637.698242	472.579620
19335.969309	16901.944667	636.474609	531.098572
19335.969309	16901.944667	635.250000	334.473022
19335.969309	16901.944667	634.025391	317.499329
19335.969309	16901.944667	632.800781	341.015839
19335.969309	16901.944667	631.575195	225.416351
19335.969309	16901.944667	630.349609	98.208382
19335.969309	16901.944667	629.124023	291.369019
19335.969309	16901.944667	627.898438	221.939850
19335.969309	16901.944667	626.671875	274.003998
19335.969309	16901.944667	625.445313	283.538025
19335.969309	16901.944667	624.218750	246.710510
19335.969309	16901.944667	622.992188	315.867828
19335.969309	16901.944667	621.764648	-54.576977
19335.969309	16901.944667	620.537109	236.097137
19335.969309	16901.944667	619.309570	129.654541
19335.969309	16901.944667	618.081055	341.037506
19335.969309	16901.944667	616.852539	161.287582
19335.969309	16901.944667	615.624023	172.177048
19335.969309	16901.944667	614.395508	329.304352
19335.969309	16901.944667	613.166992	255.328506
19335.969309	16901.944667	611.937500	129.355728
19335.969309	16901.944667	610.708008	318.896667
19335.969309	16901.944667	609.477539	269.768372
19335.969309	16901.944667	608.248047	82.138222
19335.969309	16901.944667	607.017578	-9.344959
19335.969309	16901.944667	605.787109	147.124710
19335.969309	16901.944667	604.555664	-69.384834
19335.969309	16901.944667	603.325195	121.498299
19335.969309	16901.944667	602.093750	62.493973
19335.969309	16901.944667	600.861328	-86.819771
19335.969309	16901.944667	599.629883	-178.514069
19335.969309	16901.944667	598.397461	-287.509888
19335.969309	16901.944667	597.165039	-120.114212
19335.969309	16901.944667	595.932617	-146.667709
19335.969309	16901.944667	594.699219	49.293850
19335.969309	16901.944667	593.465820	-205.662292
19335.969309	16901.944667	592.232422	-234.259613
19335.969309	16901.944667	590.999023	-99.914886
19335.969309	16901.944667	589.764648	-34.694237
19335.969309	16901.944667	588.530273	-80.710876
19335.969309	16901.944667	587.295898	39.954380
19335.969309	16901.944667	586.061523	-163.243134
19335.969309	16901.944667	584.826172	49.230980
19335.969309	16901.944667	583.590820	43.266628
19335.969309	16901.944667	582.355469	-179.081207
19335.969309	16901.944667	581.119141	-248.248886
19335.969309	16901.944667	579.882813	-80.123695
19335.969309	16901.944667	578.646484	-134.052979
19335.969309	16901.944667	577.410156	95.115952
19335.969309	16901.944667	576.172852	-50.704700
19335.969309	16901.944667	574.935547	103.700455
19335.969309	16901.944667	573.698242	-44.038338
19335.969309	16901.944667	572.460938	75.834167
19335.969309	16901.944667	571.222656	-29.863625
19335.969309	16901.944667	569.984375	21.113087
19335.969309	16901.944667	568.746094	180.914093
19335.969309	16901.944667	567.506836	310.060883
19335.969309	16901.944667	566.267578	219.563965
19335.969309	16901.944667	565.028320	77.543816
19335.969309	16901.944667	563.789063	197.017441
19335.969309	16901.944667	562.548828	268.715240
19335.969309	16901.944667	561.309570	187.756653
19335.969309	16901.944667	560.068359	40.052773
19335.969309	16901.944667	558.828125	166.978394
19335.969309	16901.944667	557.586914	-18.817644
19335.969309	16901.944667	556.345703	-76.846237
19335.969309	16901.944667	555.104492	-1.475198
19335.969309	16901.944667	553.863281	230.076080
19335.969309	16901.944667	552.621094	-73.723824
19335.969309	16901.944667	551.378906	37.746994
19335.969309	16901.944667	550.136719	-54.560978
19335.969309	16901.944667	548.893555	157.725082
19335.969309	16901.944667	547.650391	-5.001474
19335.969309	16901.944667	546.407227	93.012527
19335.969309	16901.944667	545.164063	-37.298111
19335.969309	16901.944667	543.919922	15.023337
19335.969309	16901.944667	542.675781	40.702168
19335.969309	16901.944667	541.431641	-3.969475
19335.969309	16901.944667	540.186523	80.619370
19335.969309	16901.944667	538.941406	-64.757256
19335.969309	16901.944667	537.696289	8.417303
19335.969309	16901.944667	536.451172	-53.297352
19335.969309	16901.944667	535.205078	33.143238
19335.969309	16901.944667	533.959961	104.367882
19335.969309	16901.944667	532.712891	-38.941269
19335.969309	16901.944667	531.466797	-24.654074
19335.969309	16901.944667	530.219727	167.989166
19335.969309	16901.944667	528.972656	-34.021103
19335.969309	16901.944667	527.725586	128.218185
19335.969309	16901.944667	526.478516	38.201817
19335.969309	16901.944667	525.230469	221.227875
19335.969309	16901.944667	523.982422	-128.418503
19335.969309	16901.944667	522.734375	11.005349
19335.969309	16901.944667	521.485352	-183.067856
19335.969309	16901.944667	520.236328	41.568645
19335.969309	16901.944667	518.987305	-112.629768
19335.969309	16901.944667	517.737305	155.466736
19335.969309	16901.944667	516.488281	111.130356
19335.969309	16901.944667	515.238281	17.616478
19335.969309	16901.944667	513.988281	84.990814
19335.969309	16901.944667	512.737305	-84.122925
19335.969309	16901.944667	511.486328	359.643494
19335.969309	16901.944667	510.235352	67.662880
19335.969309	16901.944667	508.984375	144.473923
19335.969309	16901.944667	507.732422	-137.860519
19335.969309	16901.944667	506.480469	275.349640
19335.969309	16901.944667	505.228516	376.662354
19335.969309	16901.944667	503.976563	357.053406
19335.969309	16901.944667	502.723633	312.907562
19335.969309	16901.944667	501.470703	502.914429
19335.969309	16901.944667	500.217773	271.895142
19335.969309	16901.944667	498.963867	354.265411
19335.969309	16901.944667	497.709961	457.362885
19335.969309	16901.944667	496.456055	537.781799
19335.969309	16901.944667	495.202148	580.450134
19335.969309	16901.944667	493.947266	685.322266
19335.969309	16901.944667	492.692383	673.262573
19335.969309	16901.944667	491.437500	915.659607
19335.969309	16901.944667	490.181641	961.961304
19335.969309	16901.944667	488.926758	887.665466
19335.969309	16901.944667	487.670898	920.751953
19335.969309	16901.944667	486.414063	893.544189
19335.969309	16901.944667	485.158203	1005.666504
19335.969309	16901.944667	483.901367	795.828552
19335.969309	16901.944667	482.644531	851.418884
19335.969309	16901.944667	481.386719	1328.431030
19335.969309	16901.944667	480.128906	1171.253174
19335.969309	16901.944667	478.871094	1021.633423
19335.969309	16901.944667	477.613281	1338.372559
19335.969309	16901.944667	476.355469	1324.064209
19335.969309	16901.944667	475.096680	1512.702515
19335.969309	16901.944667	473.837891	1659.870117
19335.969309	16901.944667	472.578125	1156.867676
19335.969309	16901.944667	471.319336	1196.870239
19335.969309	16901.944667	470.059570	1212.371826
19335.969309	16901.944667	468.799805	1355.468018
19335.969309	16901.944667	467.539063	1338.868164
19335.969309	16901.944667	466.278320	1658.124390
19335.969309	16901.944667	465.017578	1967.773315
19335.969309	16901.944667	463.756836	1624.376831
19335.969309	16901.944667	462.495117	1601.732788
19335.969309	16901.944667	461.233398	1794.626831
19335.969309	16901.944667	459.971680	1745.485107
19335.969309	16901.944667	458.709961	1769.337158
19335.969309	16901.944667	457.447266	1551.309570
19335.969309	16901.944667	456.184570	1578.661499
19335.969309	16901.944667	454.921875	1684.520996
19335.969309	16901.944667	453.658203	1604.775146
19335.969309	16901.944667	452.394531	1472.473633
19335.969309	16901.944667	451.130859	1459.848999
19335.969309	16901.944667	449.867188	1360.955688
19335.969309	16901.944667	448.602539	1394.745117
19335.969309	16901.944667	447.337891	1372.191895
19335.969309	16901.944667	446.073242	1424.235962
19335.969309	16901.944667	444.807617	1320.821533
19335.969309	16901.944667	443.542969	1338.730591
19335.969309	16901.944667	442.276367	1541.390991
19335.969309	16901.944667	441.010742	1401.746704
19335.969309	16901.944667	439.744141	1267.473633
19335.969309	16901.944667	438.478516	1457.973145
19335.969309	16901.944667	437.210938	1788.117920
19335.969309	16901.944667	435.944336	1456.882080
19335.969309	16901.944667	434.676758	1272.901001
19335.969309	16901.944667	433.409180	1331.250000
19335.969309	16901.944667	432.141602	1415.323730
19335.969309	16901.944667	430.873047	1618.347534
19335.969309	16901.944667	429.604492	1125.238159
19335.969309	16901.944667	428.335938	1327.408081
19335.969309	16901.944667	427.067383	1551.419434
19335.969309	16901.944667	425.797852	1674.217285
19335.969309	16901.944667	424.528320	1503.933960
19335.969309	16901.944667	423.258789	1741.216309
19335.969309	16901.944667	421.988281	1596.037476
19335.969309	16901.944667	420.717773	1537.902588
19335.969309	16901.944667	419.447266	1553.702393
19335.969309	16901.944667	418.175781	1328.780396
19335.969309	16901.944667	416.905273	1412.282104
19335.969309	16901.944667	415.633789	1601.152588
19335.969309	16901.944667	414.362305	1612.575439
19335.969309	16901.944667	413.089844	1794.393311
19335.969309	16901.944667	411.817383	1713.260254
19335.969309	16901.944667	410.544922	1614.701660
19335.969309	16901.944667	409.272461	1665.968384
19335.969309	16901.944667	407.999023	1731.275146
19335.969309	16901.944667	406.725586	1587.673950
19335.969309	16901.944667	405.452148	1578.876465
19335.969309	16901.944667	404.177734	1556.192871
19335.969309	16901.944667	402.903320	1519.617920
19335.969309	16901.944667	401.628906	1708.570313
19335.969309	16901.944667	400.354492	1645.953979
19335.969309	16901.944667	399.079102	1779.002686
19335.969309	16901.944667	397.803711	1769.988281
19335.969309	16901.944667	396.528320	1680.165771
19335.969309	16901.944667	395.251953	1989.736816
19335.969309	16901.944667	393.976563	1888.391724
19335.969309	16901.944667	392.700195	1717.315552
19335.969309	16901.944667	391.422852	1635.858887
19335.969309	16901.944667	390.145508	2045.941284
19335.969309	16901.944667	388.869141	1808.202393
19335.969309	16901.944667	387.590820	1885.806152
19335.969309	16901.944667	386.313477	1793.562012
19335.969309	16901.944667	385.035156	1810.952271
19335.969309	16901.944667	383.756836	1608.513672
19335.969309	16901.944667	382.478516	1499.002930
19335.969309	16901.944667	381.199219	1632.099976
19335.969309	16901.944667	379.919922	1554.564331
19335.969309	16901.944667	378.640625	1499.442749
19335.969309	16901.944667	377.360352	1546.112793
19335.969309	16901.944667	376.080078	1156.711548
19335.969309	16901.944667	374.799805	1552.772461
19335.969309	16901.944667	373.519531	1420.331543
19335.969309	16901.944667	372.238281	1361.709717
19335.969309	16901.944667	370.957031	1308.525024
19335.969309	16901.944667	369.675781	1443.475952
19335.969309	16901.944667	368.394531	1210.844116
19335.969309	16901.944667	367.112305	1186.473999
19335.969309	16901.944667	365.830078	1346.234985
19335.969309	16901.944667	364.546875	1025.889526
19335.969309	16901.944667	363.264648	1177.323975
19335.969309	16901.944667	361.981445	961.197632
19335.969309	16901.944667	360.698242	1107.658203
19335.969309	16901.944667	359.414063	969.506287
19335.969309	16901.944667	358.129883	849.077942
19335.969309	16901.944667	356.845703	578.663818
19335.969309	16901.944667	355.561523	1040.432129
19335.969309	16901.944667	354.276367	1059.056152
19335.969309	16901.944667	352.991211	1076.614014
19335.969309	16901.944667	351.706055	1083.832031
19335.969309	16901.944667	350.420898	885.593018
19335.969309	16901.944667	349.134766	612.484497
19335.969309	16901.944667	347.848633	610.325500
19335.969309	16901.944667	346.561523	702.242249
19335.969309	16901.944667	345.275391	562.856140
19335.969309	16901.944667	343.988281	574.365845
19335.969309	16901.944667	342.700195	909.314148
19335.969309	16901.944667	341.413086	481.785919
19335.969309	16901.944667	340.125000	603.487915
19335.969309	16901.944667	338.836914	550.510132
19335.969309	16901.944667	337.548828	453.230133
19335.969309	16901.944667	336.259766	507.880249
19335.969309	16901.944667	334.970703	224.362030
19335.969309	16901.944667	333.681641	404.609711
19335.969309	16901.944667	332.391602	251.961456
19335.969309	16901.944667	331.101563	296.671600
19335.969309	16901.944667	329.811523	92.934067
19335.969309	16901.944667	328.521484	-7.221317
19335.969309	16901.944667	327.230469	142.519653
19335.969309	16901.944667	325.939453	58.248398
19335.969309	16901.944667	324.648438	66.095810
19335.969309	16901.944667	323.356445	-88.850677
19335.969309	16901.944667	322.064453	287.557343
19335.969309	16901.944667	320.772461	255.641327
19335.969309	16901.944667	319.480469	-142.355560
19335.969309	16901.944667	318.187500	41.464642
19335.969309	16901.944667	316.894531	104.170898
19335.969309	16901.944667	315.601563	-181.114029
19335.969309	16901.944667	314.307617	-42.711876
19335.969309	16901.944667	313.013672	-173.839294
19335.969309	16901.944667	311.719727	-97.355530
19335.969309	16901.944667	310.425781	363.744873
19335.969309	16901.944667	309.130859	-137.787445
19335.969309	16901.944667	307.835938	70.247269
19335.969309	16901.944667	306.541016	106.901314
19335.969309	16901.944667	305.245117	-22.598228
19335.969309	16901.944667	303.949219	12.336032
19335.969309	16901.944667	302.653320	-67.822159
19335.969309	16901.944667	301.356445	-26.159721
19335.969309	16901.944667	300.060547	420.308044
19335.969309	16901.944667	298.763672	276.600494
