#X		#Y		#Wave		#Intensity
19438.157819	16880.644167	2000.043945	-50.321861
19438.157819	16880.644167	1999.080078	101.302002
19438.157819	16880.644167	1998.116211	53.141006
19438.157819	16880.644167	1997.151367	39.803543
19438.157819	16880.644167	1996.186523	31.537632
19438.157819	16880.644167	1995.222656	28.340857
19438.157819	16880.644167	1994.256836	-56.484009
19438.157819	16880.644167	1993.291992	94.080460
19438.157819	16880.644167	1992.327148	19.388105
19438.157819	16880.644167	1991.361328	43.841091
19438.157819	16880.644167	1990.395508	125.307991
19438.157819	16880.644167	1989.429688	-90.094933
19438.157819	16880.644167	1988.463867	23.724176
19438.157819	16880.644167	1987.497070	80.702126
19438.157819	16880.644167	1986.531250	51.193218
19438.157819	16880.644167	1985.564453	199.817215
19438.157819	16880.644167	1984.597656	-111.352699
19438.157819	16880.644167	1983.630859	22.591858
19438.157819	16880.644167	1982.664063	228.239944
19438.157819	16880.644167	1981.696289	-129.449493
19438.157819	16880.644167	1980.728516	-22.498262
19438.157819	16880.644167	1979.761719	114.134003
19438.157819	16880.644167	1978.792969	45.831116
19438.157819	16880.644167	1977.825195	-131.004044
19438.157819	16880.644167	1976.857422	57.643406
19438.157819	16880.644167	1975.888672	48.850193
19438.157819	16880.644167	1974.919922	59.874393
19438.157819	16880.644167	1973.951172	-42.522888
19438.157819	16880.644167	1972.982422	-43.678177
19438.157819	16880.644167	1972.013672	-128.616470
19438.157819	16880.644167	1971.043945	94.765785
19438.157819	16880.644167	1970.075195	46.945461
19438.157819	16880.644167	1969.105469	-42.694908
19438.157819	16880.644167	1968.135742	84.626801
19438.157819	16880.644167	1967.165039	-81.245323
19438.157819	16880.644167	1966.195313	-69.626831
19438.157819	16880.644167	1965.224609	-80.119972
19438.157819	16880.644167	1964.253906	10.412651
19438.157819	16880.644167	1963.283203	194.527252
19438.157819	16880.644167	1962.312500	11.842557
19438.157819	16880.644167	1961.341797	132.003693
19438.157819	16880.644167	1960.370117	111.911880
19438.157819	16880.644167	1959.399414	-38.517654
19438.157819	16880.644167	1958.427734	86.658638
19438.157819	16880.644167	1957.455078	-245.604355
19438.157819	16880.644167	1956.483398	167.349548
19438.157819	16880.644167	1955.511719	-71.294075
19438.157819	16880.644167	1954.539063	-152.491043
19438.157819	16880.644167	1953.566406	-125.484245
19438.157819	16880.644167	1952.593750	68.635223
19438.157819	16880.644167	1951.621094	12.147404
19438.157819	16880.644167	1950.647461	12.213868
19438.157819	16880.644167	1949.674805	167.025452
19438.157819	16880.644167	1948.701172	-112.760399
19438.157819	16880.644167	1947.727539	-43.827171
19438.157819	16880.644167	1946.753906	-92.691658
19438.157819	16880.644167	1945.780273	-107.150894
19438.157819	16880.644167	1944.805664	-23.434618
19438.157819	16880.644167	1943.831055	-79.535980
19438.157819	16880.644167	1942.856445	99.853470
19438.157819	16880.644167	1941.881836	-27.300558
19438.157819	16880.644167	1940.907227	-36.702274
19438.157819	16880.644167	1939.932617	74.032021
19438.157819	16880.644167	1938.957031	3.401352
19438.157819	16880.644167	1937.981445	50.433933
19438.157819	16880.644167	1937.005859	99.922676
19438.157819	16880.644167	1936.030273	102.878273
19438.157819	16880.644167	1935.054688	125.446205
19438.157819	16880.644167	1934.078125	-6.221030
19438.157819	16880.644167	1933.101563	133.902786
19438.157819	16880.644167	1932.125000	-127.395264
19438.157819	16880.644167	1931.148438	-16.628820
19438.157819	16880.644167	1930.171875	37.842751
19438.157819	16880.644167	1929.194336	129.003159
19438.157819	16880.644167	1928.217773	61.175137
19438.157819	16880.644167	1927.240234	-106.865295
19438.157819	16880.644167	1926.262695	20.986137
19438.157819	16880.644167	1925.284180	14.367528
19438.157819	16880.644167	1924.306641	85.963860
19438.157819	16880.644167	1923.328125	-1.272946
19438.157819	16880.644167	1922.350586	38.561806
19438.157819	16880.644167	1921.372070	46.641785
19438.157819	16880.644167	1920.392578	27.865572
19438.157819	16880.644167	1919.414063	53.050911
19438.157819	16880.644167	1918.434570	29.412567
19438.157819	16880.644167	1917.456055	-23.501251
19438.157819	16880.644167	1916.476563	-42.225742
19438.157819	16880.644167	1915.497070	-63.378315
19438.157819	16880.644167	1914.516602	-8.899794
19438.157819	16880.644167	1913.537109	155.305878
19438.157819	16880.644167	1912.556641	-158.467804
19438.157819	16880.644167	1911.576172	-40.611202
19438.157819	16880.644167	1910.595703	-56.858948
19438.157819	16880.644167	1909.615234	-9.739638
19438.157819	16880.644167	1908.633789	185.993454
19438.157819	16880.644167	1907.653320	91.752838
19438.157819	16880.644167	1906.671875	116.893089
19438.157819	16880.644167	1905.690430	-77.146500
19438.157819	16880.644167	1904.708984	116.005440
19438.157819	16880.644167	1903.727539	16.966352
19438.157819	16880.644167	1902.745117	73.725174
19438.157819	16880.644167	1901.762695	276.458557
19438.157819	16880.644167	1900.780273	46.050621
19438.157819	16880.644167	1899.797852	80.859047
19438.157819	16880.644167	1898.815430	137.533585
19438.157819	16880.644167	1897.832031	167.433258
19438.157819	16880.644167	1896.849609	0.391732
19438.157819	16880.644167	1895.866211	64.314270
19438.157819	16880.644167	1894.882813	72.308311
19438.157819	16880.644167	1893.898438	-80.073753
19438.157819	16880.644167	1892.915039	-120.665161
19438.157819	16880.644167	1891.930664	-83.530418
19438.157819	16880.644167	1890.947266	-114.420166
19438.157819	16880.644167	1889.962891	41.639606
19438.157819	16880.644167	1888.977539	238.894852
19438.157819	16880.644167	1887.993164	35.602848
19438.157819	16880.644167	1887.007813	28.924557
19438.157819	16880.644167	1886.023438	51.342430
19438.157819	16880.644167	1885.038086	-30.566599
19438.157819	16880.644167	1884.051758	-39.703537
19438.157819	16880.644167	1883.066406	36.007946
19438.157819	16880.644167	1882.081055	5.003005
19438.157819	16880.644167	1881.094727	92.760658
19438.157819	16880.644167	1880.108398	110.187508
19438.157819	16880.644167	1879.122070	45.207821
19438.157819	16880.644167	1878.135742	-102.131538
19438.157819	16880.644167	1877.148438	43.627388
19438.157819	16880.644167	1876.162109	0.426011
19438.157819	16880.644167	1875.174805	-11.305067
19438.157819	16880.644167	1874.187500	95.557701
19438.157819	16880.644167	1873.199219	78.927795
19438.157819	16880.644167	1872.211914	33.241451
19438.157819	16880.644167	1871.223633	64.966705
19438.157819	16880.644167	1870.236328	263.552612
19438.157819	16880.644167	1869.248047	75.099922
19438.157819	16880.644167	1868.258789	109.142303
19438.157819	16880.644167	1867.270508	99.629944
19438.157819	16880.644167	1866.282227	-21.089167
19438.157819	16880.644167	1865.292969	148.199066
19438.157819	16880.644167	1864.303711	160.348969
19438.157819	16880.644167	1863.314453	-28.034399
19438.157819	16880.644167	1862.324219	-32.817097
19438.157819	16880.644167	1861.334961	-71.436256
19438.157819	16880.644167	1860.344727	8.231897
19438.157819	16880.644167	1859.354492	280.948090
19438.157819	16880.644167	1858.364258	41.892643
19438.157819	16880.644167	1857.374023	41.776066
19438.157819	16880.644167	1856.383789	22.329445
19438.157819	16880.644167	1855.392578	-26.084925
19438.157819	16880.644167	1854.401367	0.246034
19438.157819	16880.644167	1853.410156	185.669617
19438.157819	16880.644167	1852.418945	60.013599
19438.157819	16880.644167	1851.426758	42.832550
19438.157819	16880.644167	1850.435547	56.949844
19438.157819	16880.644167	1849.443359	220.407578
19438.157819	16880.644167	1848.451172	60.982533
19438.157819	16880.644167	1847.458984	55.720276
19438.157819	16880.644167	1846.466797	129.888062
19438.157819	16880.644167	1845.473633	131.767853
19438.157819	16880.644167	1844.480469	30.109224
19438.157819	16880.644167	1843.487305	330.354279
19438.157819	16880.644167	1842.494141	204.562241
19438.157819	16880.644167	1841.500977	184.632278
19438.157819	16880.644167	1840.506836	200.751465
19438.157819	16880.644167	1839.513672	214.422668
19438.157819	16880.644167	1838.519531	-31.616394
19438.157819	16880.644167	1837.525391	-92.501610
19438.157819	16880.644167	1836.530273	139.817245
19438.157819	16880.644167	1835.536133	83.652000
19438.157819	16880.644167	1834.541016	94.741028
19438.157819	16880.644167	1833.545898	24.116602
19438.157819	16880.644167	1832.550781	114.387856
19438.157819	16880.644167	1831.555664	-160.392227
19438.157819	16880.644167	1830.560547	-101.408440
19438.157819	16880.644167	1829.564453	34.322800
19438.157819	16880.644167	1828.568359	4.374999
19438.157819	16880.644167	1827.572266	130.355850
19438.157819	16880.644167	1826.576172	-0.434059
19438.157819	16880.644167	1825.580078	-73.652176
19438.157819	16880.644167	1824.583008	-82.137833
19438.157819	16880.644167	1823.585938	103.539642
19438.157819	16880.644167	1822.588867	181.236984
19438.157819	16880.644167	1821.591797	290.018951
19438.157819	16880.644167	1820.594727	-75.728897
19438.157819	16880.644167	1819.596680	25.789196
19438.157819	16880.644167	1818.599609	-2.119396
19438.157819	16880.644167	1817.601563	-101.904556
19438.157819	16880.644167	1816.603516	162.251419
19438.157819	16880.644167	1815.604492	-16.612711
19438.157819	16880.644167	1814.606445	194.684814
19438.157819	16880.644167	1813.607422	279.028748
19438.157819	16880.644167	1812.608398	40.298508
19438.157819	16880.644167	1811.609375	162.826981
19438.157819	16880.644167	1810.610352	-219.378647
19438.157819	16880.644167	1809.610352	-29.981983
19438.157819	16880.644167	1808.611328	192.770554
19438.157819	16880.644167	1807.611328	-5.302654
19438.157819	16880.644167	1806.611328	-2.595360
19438.157819	16880.644167	1805.610352	19.179850
19438.157819	16880.644167	1804.610352	134.072815
19438.157819	16880.644167	1803.609375	0.471904
19438.157819	16880.644167	1802.608398	-82.973961
19438.157819	16880.644167	1801.607422	275.274200
19438.157819	16880.644167	1800.606445	43.713406
19438.157819	16880.644167	1799.605469	134.400208
19438.157819	16880.644167	1798.603516	-39.866543
19438.157819	16880.644167	1797.601563	-140.153961
19438.157819	16880.644167	1796.599609	-85.400597
19438.157819	16880.644167	1795.597656	47.988232
19438.157819	16880.644167	1794.595703	83.518341
19438.157819	16880.644167	1793.592773	197.659790
19438.157819	16880.644167	1792.589844	-60.120632
19438.157819	16880.644167	1791.587891	22.934090
19438.157819	16880.644167	1790.583984	5.837955
19438.157819	16880.644167	1789.581055	50.641369
19438.157819	16880.644167	1788.577148	45.363308
19438.157819	16880.644167	1787.574219	70.998528
19438.157819	16880.644167	1786.570313	29.914469
19438.157819	16880.644167	1785.566406	3.081196
19438.157819	16880.644167	1784.561523	-45.208344
19438.157819	16880.644167	1783.557617	32.587368
19438.157819	16880.644167	1782.552734	43.694328
19438.157819	16880.644167	1781.547852	61.885036
19438.157819	16880.644167	1780.542969	11.057960
19438.157819	16880.644167	1779.538086	45.800037
19438.157819	16880.644167	1778.532227	156.551926
19438.157819	16880.644167	1777.527344	-32.256107
19438.157819	16880.644167	1776.521484	125.902702
19438.157819	16880.644167	1775.515625	-20.157352
19438.157819	16880.644167	1774.508789	-75.943512
19438.157819	16880.644167	1773.502930	-58.128670
19438.157819	16880.644167	1772.496094	-7.124861
19438.157819	16880.644167	1771.489258	-155.609299
19438.157819	16880.644167	1770.482422	44.838997
19438.157819	16880.644167	1769.475586	-8.763795
19438.157819	16880.644167	1768.467773	-5.449564
19438.157819	16880.644167	1767.460938	42.892551
19438.157819	16880.644167	1766.453125	3.410566
19438.157819	16880.644167	1765.445313	-69.300468
19438.157819	16880.644167	1764.437500	-78.015343
19438.157819	16880.644167	1763.428711	100.491653
19438.157819	16880.644167	1762.420898	22.926081
19438.157819	16880.644167	1761.412109	-26.223141
19438.157819	16880.644167	1760.403320	268.121704
19438.157819	16880.644167	1759.393555	109.892723
19438.157819	16880.644167	1758.384766	8.518009
19438.157819	16880.644167	1757.375000	-118.911797
19438.157819	16880.644167	1756.366211	-21.441090
19438.157819	16880.644167	1755.356445	9.673933
19438.157819	16880.644167	1754.345703	-103.622375
19438.157819	16880.644167	1753.335938	-160.134888
19438.157819	16880.644167	1752.325195	152.345795
19438.157819	16880.644167	1751.315430	-10.710627
19438.157819	16880.644167	1750.304688	24.874811
19438.157819	16880.644167	1749.292969	-166.558990
19438.157819	16880.644167	1748.282227	10.776324
19438.157819	16880.644167	1747.270508	50.928600
19438.157819	16880.644167	1746.259766	-38.929852
19438.157819	16880.644167	1745.248047	-119.350937
19438.157819	16880.644167	1744.235352	100.173218
19438.157819	16880.644167	1743.223633	151.909897
19438.157819	16880.644167	1742.211914	135.114944
19438.157819	16880.644167	1741.199219	-75.285080
19438.157819	16880.644167	1740.186523	-73.238884
19438.157819	16880.644167	1739.173828	-208.095383
19438.157819	16880.644167	1738.160156	46.321423
19438.157819	16880.644167	1737.147461	-175.865723
19438.157819	16880.644167	1736.133789	42.988365
19438.157819	16880.644167	1735.120117	30.648079
19438.157819	16880.644167	1734.106445	32.415413
19438.157819	16880.644167	1733.091797	8.209825
19438.157819	16880.644167	1732.078125	59.383492
19438.157819	16880.644167	1731.063477	-0.241533
19438.157819	16880.644167	1730.048828	-128.196533
19438.157819	16880.644167	1729.034180	-32.404106
19438.157819	16880.644167	1728.019531	72.729744
19438.157819	16880.644167	1727.003906	-43.520245
19438.157819	16880.644167	1725.988281	-4.415663
19438.157819	16880.644167	1724.972656	152.302536
19438.157819	16880.644167	1723.957031	-124.012817
19438.157819	16880.644167	1722.941406	-122.672997
19438.157819	16880.644167	1721.924805	66.784081
19438.157819	16880.644167	1720.909180	110.336441
19438.157819	16880.644167	1719.892578	10.413781
19438.157819	16880.644167	1718.875977	2.165920
19438.157819	16880.644167	1717.858398	-133.032104
19438.157819	16880.644167	1716.841797	-7.389477
19438.157819	16880.644167	1715.824219	87.622849
19438.157819	16880.644167	1714.806641	107.398026
19438.157819	16880.644167	1713.789063	37.888493
19438.157819	16880.644167	1712.770508	111.591217
19438.157819	16880.644167	1711.752930	187.579590
19438.157819	16880.644167	1710.734375	-62.740692
19438.157819	16880.644167	1709.715820	36.642826
19438.157819	16880.644167	1708.697266	77.297859
19438.157819	16880.644167	1707.678711	92.100716
19438.157819	16880.644167	1706.659180	83.404625
19438.157819	16880.644167	1705.640625	102.820503
19438.157819	16880.644167	1704.621094	19.038820
19438.157819	16880.644167	1703.600586	26.662378
19438.157819	16880.644167	1702.581055	-19.645958
19438.157819	16880.644167	1701.561523	-0.365031
19438.157819	16880.644167	1700.541016	128.970535
19438.157819	16880.644167	1699.520508	26.355968
19438.157819	16880.644167	1698.500000	90.005508
19438.157819	16880.644167	1697.478516	162.958664
19438.157819	16880.644167	1696.458008	-61.419167
19438.157819	16880.644167	1695.436523	294.648895
19438.157819	16880.644167	1694.415039	70.265694
19438.157819	16880.644167	1693.393555	91.575142
19438.157819	16880.644167	1692.372070	183.015121
19438.157819	16880.644167	1691.349609	246.322266
19438.157819	16880.644167	1690.327148	21.996021
19438.157819	16880.644167	1689.304688	319.012360
19438.157819	16880.644167	1688.282227	176.499573
19438.157819	16880.644167	1687.259766	192.910233
19438.157819	16880.644167	1686.236328	321.421295
19438.157819	16880.644167	1685.213867	139.198563
19438.157819	16880.644167	1684.190430	181.207855
19438.157819	16880.644167	1683.166016	122.767845
19438.157819	16880.644167	1682.142578	260.423401
19438.157819	16880.644167	1681.119141	138.924713
19438.157819	16880.644167	1680.094727	320.804077
19438.157819	16880.644167	1679.070313	259.945984
19438.157819	16880.644167	1678.045898	220.079346
19438.157819	16880.644167	1677.020508	380.768677
19438.157819	16880.644167	1675.996094	434.115784
19438.157819	16880.644167	1674.970703	373.179779
19438.157819	16880.644167	1673.945313	9.232056
19438.157819	16880.644167	1672.919922	318.890198
19438.157819	16880.644167	1671.893555	316.186432
19438.157819	16880.644167	1670.868164	238.922867
19438.157819	16880.644167	1669.841797	159.333359
19438.157819	16880.644167	1668.815430	296.314362
19438.157819	16880.644167	1667.789063	51.402412
19438.157819	16880.644167	1666.761719	307.017334
19438.157819	16880.644167	1665.735352	346.084534
19438.157819	16880.644167	1664.708008	292.038849
19438.157819	16880.644167	1663.680664	207.752380
19438.157819	16880.644167	1662.653320	209.538116
19438.157819	16880.644167	1661.625000	339.200531
19438.157819	16880.644167	1660.597656	182.824356
19438.157819	16880.644167	1659.569336	212.449814
19438.157819	16880.644167	1658.541016	260.641449
19438.157819	16880.644167	1657.512695	352.947601
19438.157819	16880.644167	1656.483398	305.802582
19438.157819	16880.644167	1655.455078	251.698517
19438.157819	16880.644167	1654.425781	192.949875
19438.157819	16880.644167	1653.396484	243.337128
19438.157819	16880.644167	1652.366211	305.292633
19438.157819	16880.644167	1651.336914	360.253876
19438.157819	16880.644167	1650.306641	292.186676
19438.157819	16880.644167	1649.276367	528.063904
19438.157819	16880.644167	1648.246094	350.942657
19438.157819	16880.644167	1647.215820	371.009033
19438.157819	16880.644167	1646.185547	384.101379
19438.157819	16880.644167	1645.154297	211.708618
19438.157819	16880.644167	1644.123047	424.132813
19438.157819	16880.644167	1643.091797	434.852997
19438.157819	16880.644167	1642.060547	528.969238
19438.157819	16880.644167	1641.028320	463.196075
19438.157819	16880.644167	1639.997070	462.296387
19438.157819	16880.644167	1638.964844	486.853973
19438.157819	16880.644167	1637.931641	393.317505
19438.157819	16880.644167	1636.899414	436.382599
19438.157819	16880.644167	1635.867188	555.794006
19438.157819	16880.644167	1634.833984	369.728119
19438.157819	16880.644167	1633.800781	428.943115
19438.157819	16880.644167	1632.767578	573.707092
19438.157819	16880.644167	1631.734375	355.356476
19438.157819	16880.644167	1630.700195	636.472961
19438.157819	16880.644167	1629.666016	531.448547
19438.157819	16880.644167	1628.631836	578.993652
19438.157819	16880.644167	1627.597656	450.909637
19438.157819	16880.644167	1626.563477	496.138367
19438.157819	16880.644167	1625.528320	532.103333
19438.157819	16880.644167	1624.493164	607.311707
19438.157819	16880.644167	1623.458008	573.974060
19438.157819	16880.644167	1622.422852	734.556702
19438.157819	16880.644167	1621.387695	625.045471
19438.157819	16880.644167	1620.351563	750.939026
19438.157819	16880.644167	1619.315430	685.299316
19438.157819	16880.644167	1618.279297	707.338806
19438.157819	16880.644167	1617.243164	597.920227
19438.157819	16880.644167	1616.207031	652.254089
19438.157819	16880.644167	1615.169922	699.648743
19438.157819	16880.644167	1614.132813	779.296875
19438.157819	16880.644167	1613.095703	976.442139
19438.157819	16880.644167	1612.058594	655.133972
19438.157819	16880.644167	1611.020508	730.147400
19438.157819	16880.644167	1609.983398	952.537292
19438.157819	16880.644167	1608.945313	951.493042
19438.157819	16880.644167	1607.907227	837.651672
19438.157819	16880.644167	1606.868164	774.494446
19438.157819	16880.644167	1605.830078	916.184448
19438.157819	16880.644167	1604.791016	961.190430
19438.157819	16880.644167	1603.751953	937.178772
19438.157819	16880.644167	1602.712891	959.184082
19438.157819	16880.644167	1601.673828	1036.376831
19438.157819	16880.644167	1600.633789	1097.453247
19438.157819	16880.644167	1599.594727	963.147461
19438.157819	16880.644167	1598.554688	1021.939148
19438.157819	16880.644167	1597.513672	1057.739136
19438.157819	16880.644167	1596.473633	983.278625
19438.157819	16880.644167	1595.433594	1097.194214
19438.157819	16880.644167	1594.392578	1103.147949
19438.157819	16880.644167	1593.351563	1150.438721
19438.157819	16880.644167	1592.310547	954.414856
19438.157819	16880.644167	1591.268555	1155.503906
19438.157819	16880.644167	1590.227539	1127.086548
19438.157819	16880.644167	1589.185547	1130.807617
19438.157819	16880.644167	1588.143555	1047.387817
19438.157819	16880.644167	1587.100586	1138.293213
19438.157819	16880.644167	1586.058594	1032.014404
19438.157819	16880.644167	1585.015625	1017.480652
19438.157819	16880.644167	1583.972656	1041.933105
19438.157819	16880.644167	1582.929688	1153.467163
19438.157819	16880.644167	1581.886719	978.614502
19438.157819	16880.644167	1580.843750	1255.072876
19438.157819	16880.644167	1579.799805	1158.166626
19438.157819	16880.644167	1578.755859	1130.007080
19438.157819	16880.644167	1577.711914	1252.962891
19438.157819	16880.644167	1576.666992	1314.093750
19438.157819	16880.644167	1575.623047	1407.265991
19438.157819	16880.644167	1574.578125	1283.081299
19438.157819	16880.644167	1573.533203	1110.935669
19438.157819	16880.644167	1572.488281	1153.850342
19438.157819	16880.644167	1571.443359	1228.782715
19438.157819	16880.644167	1570.397461	1152.831787
19438.157819	16880.644167	1569.351563	871.240540
19438.157819	16880.644167	1568.305664	854.856018
19438.157819	16880.644167	1567.259766	827.083008
19438.157819	16880.644167	1566.213867	730.823303
19438.157819	16880.644167	1565.166992	865.281677
19438.157819	16880.644167	1564.120117	983.734863
19438.157819	16880.644167	1563.073242	780.289795
19438.157819	16880.644167	1562.026367	862.253662
19438.157819	16880.644167	1560.978516	608.765747
19438.157819	16880.644167	1559.930664	715.884949
19438.157819	16880.644167	1558.883789	752.286316
19438.157819	16880.644167	1557.834961	1048.683960
19438.157819	16880.644167	1556.787109	900.373596
19438.157819	16880.644167	1555.739258	1258.248291
19438.157819	16880.644167	1554.690430	1187.511230
19438.157819	16880.644167	1553.641602	1221.661499
19438.157819	16880.644167	1552.592773	1148.749390
19438.157819	16880.644167	1551.542969	1271.797241
19438.157819	16880.644167	1550.494141	1167.090820
19438.157819	16880.644167	1549.444336	1342.528931
19438.157819	16880.644167	1548.394531	1301.661499
19438.157819	16880.644167	1547.344727	1340.511230
19438.157819	16880.644167	1546.293945	1272.422119
19438.157819	16880.644167	1545.244141	1286.310181
19438.157819	16880.644167	1544.193359	1327.523193
19438.157819	16880.644167	1543.142578	1186.813477
19438.157819	16880.644167	1542.090820	1280.404297
19438.157819	16880.644167	1541.040039	1242.141968
19438.157819	16880.644167	1539.988281	1297.124390
19438.157819	16880.644167	1538.936523	1052.150879
19438.157819	16880.644167	1537.884766	1018.618408
19438.157819	16880.644167	1536.833008	1023.758728
19438.157819	16880.644167	1535.780273	831.341980
19438.157819	16880.644167	1534.727539	1086.379272
19438.157819	16880.644167	1533.674805	971.301758
19438.157819	16880.644167	1532.622070	922.138000
19438.157819	16880.644167	1531.569336	838.995972
19438.157819	16880.644167	1530.515625	710.549133
19438.157819	16880.644167	1529.461914	711.501770
19438.157819	16880.644167	1528.408203	630.849487
19438.157819	16880.644167	1527.354492	568.415771
19438.157819	16880.644167	1526.299805	782.641052
19438.157819	16880.644167	1525.246094	695.360718
19438.157819	16880.644167	1524.191406	576.429626
19438.157819	16880.644167	1523.136719	407.745178
19438.157819	16880.644167	1522.081055	418.135559
19438.157819	16880.644167	1521.026367	621.090027
19438.157819	16880.644167	1519.970703	493.398499
19438.157819	16880.644167	1518.915039	621.639709
19438.157819	16880.644167	1517.859375	478.250580
19438.157819	16880.644167	1516.802734	667.644470
19438.157819	16880.644167	1515.747070	748.407837
19438.157819	16880.644167	1514.690430	607.489197
19438.157819	16880.644167	1513.633789	464.414368
19438.157819	16880.644167	1512.577148	511.399475
19438.157819	16880.644167	1511.519531	558.413818
19438.157819	16880.644167	1510.461914	625.806274
19438.157819	16880.644167	1509.405273	684.187256
19438.157819	16880.644167	1508.346680	455.630188
19438.157819	16880.644167	1507.289063	518.643372
19438.157819	16880.644167	1506.231445	482.303497
19438.157819	16880.644167	1505.172852	461.837006
19438.157819	16880.644167	1504.114258	391.762390
19438.157819	16880.644167	1503.055664	267.594604
19438.157819	16880.644167	1501.996094	283.453705
19438.157819	16880.644167	1500.937500	328.697174
19438.157819	16880.644167	1499.877930	58.141090
19438.157819	16880.644167	1498.818359	193.741180
19438.157819	16880.644167	1497.757813	209.822769
19438.157819	16880.644167	1496.698242	0.494885
19438.157819	16880.644167	1495.637695	88.855232
19438.157819	16880.644167	1494.577148	224.565353
19438.157819	16880.644167	1493.516602	200.296432
19438.157819	16880.644167	1492.456055	99.499893
19438.157819	16880.644167	1491.394531	86.642014
19438.157819	16880.644167	1490.333008	49.076488
19438.157819	16880.644167	1489.271484	29.596540
19438.157819	16880.644167	1488.209961	174.508087
19438.157819	16880.644167	1487.148438	290.164886
19438.157819	16880.644167	1486.085938	192.069580
19438.157819	16880.644167	1485.023438	100.822678
19438.157819	16880.644167	1483.960938	92.894104
19438.157819	16880.644167	1482.898438	186.225510
19438.157819	16880.644167	1481.834961	95.221130
19438.157819	16880.644167	1480.772461	-4.672890
19438.157819	16880.644167	1479.708984	43.853718
19438.157819	16880.644167	1478.644531	137.355042
19438.157819	16880.644167	1477.581055	44.415543
19438.157819	16880.644167	1476.517578	9.940528
19438.157819	16880.644167	1475.453125	-55.811916
19438.157819	16880.644167	1474.388672	-296.604248
19438.157819	16880.644167	1473.323242	-146.773026
19438.157819	16880.644167	1472.258789	-106.767570
19438.157819	16880.644167	1471.193359	74.425407
19438.157819	16880.644167	1470.127930	-98.554459
19438.157819	16880.644167	1469.062500	-58.561485
19438.157819	16880.644167	1467.997070	-56.509579
19438.157819	16880.644167	1466.930664	-76.696854
19438.157819	16880.644167	1465.865234	28.586744
19438.157819	16880.644167	1464.798828	-112.831306
19438.157819	16880.644167	1463.731445	25.941887
19438.157819	16880.644167	1462.665039	124.450981
19438.157819	16880.644167	1461.597656	84.735710
19438.157819	16880.644167	1460.530273	178.344299
19438.157819	16880.644167	1459.462891	174.543488
19438.157819	16880.644167	1458.395508	121.203499
19438.157819	16880.644167	1457.327148	76.557968
19438.157819	16880.644167	1456.259766	132.933014
19438.157819	16880.644167	1455.191406	218.570251
19438.157819	16880.644167	1454.123047	243.719650
19438.157819	16880.644167	1453.053711	200.066238
19438.157819	16880.644167	1451.985352	278.443451
19438.157819	16880.644167	1450.916016	395.505463
19438.157819	16880.644167	1449.846680	436.246124
19438.157819	16880.644167	1448.776367	318.943481
19438.157819	16880.644167	1447.707031	203.351349
19438.157819	16880.644167	1446.636719	342.388031
19438.157819	16880.644167	1445.566406	163.807892
19438.157819	16880.644167	1444.496094	173.713516
19438.157819	16880.644167	1443.425781	96.770966
19438.157819	16880.644167	1442.354492	300.322083
19438.157819	16880.644167	1441.283203	277.378784
19438.157819	16880.644167	1440.211914	251.019180
19438.157819	16880.644167	1439.140625	256.260925
19438.157819	16880.644167	1438.069336	314.857941
19438.157819	16880.644167	1436.997070	264.851563
19438.157819	16880.644167	1435.924805	-24.007401
19438.157819	16880.644167	1434.852539	40.476391
19438.157819	16880.644167	1433.780273	98.618362
19438.157819	16880.644167	1432.707031	-9.432486
19438.157819	16880.644167	1431.633789	-10.665847
19438.157819	16880.644167	1430.560547	-121.866890
19438.157819	16880.644167	1429.487305	49.014183
19438.157819	16880.644167	1428.413086	107.717415
19438.157819	16880.644167	1427.339844	145.951187
19438.157819	16880.644167	1426.265625	-13.781864
19438.157819	16880.644167	1425.191406	-0.312669
19438.157819	16880.644167	1424.116211	174.453537
19438.157819	16880.644167	1423.041992	39.334019
19438.157819	16880.644167	1421.966797	-64.652519
19438.157819	16880.644167	1420.891602	25.208635
19438.157819	16880.644167	1419.816406	-157.910690
19438.157819	16880.644167	1418.740234	61.566967
19438.157819	16880.644167	1417.665039	-54.186321
19438.157819	16880.644167	1416.588867	-40.072132
19438.157819	16880.644167	1415.512695	-67.377068
19438.157819	16880.644167	1414.435547	-100.173820
19438.157819	16880.644167	1413.359375	-112.769348
19438.157819	16880.644167	1412.282227	35.193050
19438.157819	16880.644167	1411.205078	-155.162354
19438.157819	16880.644167	1410.127930	18.556906
19438.157819	16880.644167	1409.049805	-110.814346
19438.157819	16880.644167	1407.972656	-135.027069
19438.157819	16880.644167	1406.894531	83.629539
19438.157819	16880.644167	1405.816406	105.129021
19438.157819	16880.644167	1404.737305	148.696075
19438.157819	16880.644167	1403.659180	-29.011585
19438.157819	16880.644167	1402.580078	92.279808
19438.157819	16880.644167	1401.500977	287.988861
19438.157819	16880.644167	1400.421875	385.035309
19438.157819	16880.644167	1399.341797	276.053345
19438.157819	16880.644167	1398.262695	90.734200
19438.157819	16880.644167	1397.182617	296.613953
19438.157819	16880.644167	1396.102539	68.327698
19438.157819	16880.644167	1395.021484	203.793945
19438.157819	16880.644167	1393.941406	292.172211
19438.157819	16880.644167	1392.860352	278.547852
19438.157819	16880.644167	1391.779297	209.572311
19438.157819	16880.644167	1390.698242	299.015869
19438.157819	16880.644167	1389.616211	490.272919
19438.157819	16880.644167	1388.535156	302.592224
19438.157819	16880.644167	1387.453125	415.790192
19438.157819	16880.644167	1386.371094	566.716125
19438.157819	16880.644167	1385.288086	536.267578
19438.157819	16880.644167	1384.206055	470.876404
19438.157819	16880.644167	1383.123047	484.752991
19438.157819	16880.644167	1382.040039	471.914368
19438.157819	16880.644167	1380.957031	562.859375
19438.157819	16880.644167	1379.873047	544.170349
19438.157819	16880.644167	1378.789063	538.357300
19438.157819	16880.644167	1377.705078	828.825317
19438.157819	16880.644167	1376.621094	628.256714
19438.157819	16880.644167	1375.537109	874.653137
19438.157819	16880.644167	1374.452148	832.388367
19438.157819	16880.644167	1373.367188	760.144836
19438.157819	16880.644167	1372.282227	773.991699
19438.157819	16880.644167	1371.197266	1011.769470
19438.157819	16880.644167	1370.112305	750.962219
19438.157819	16880.644167	1369.026367	756.886292
19438.157819	16880.644167	1367.940430	834.424072
19438.157819	16880.644167	1366.854492	584.606567
19438.157819	16880.644167	1365.767578	612.658447
19438.157819	16880.644167	1364.681641	461.144165
19438.157819	16880.644167	1363.594727	638.872742
19438.157819	16880.644167	1362.507813	608.979309
19438.157819	16880.644167	1361.419922	662.755127
19438.157819	16880.644167	1360.333008	473.293427
19438.157819	16880.644167	1359.245117	617.129333
19438.157819	16880.644167	1358.157227	731.228760
19438.157819	16880.644167	1357.069336	659.494690
19438.157819	16880.644167	1355.981445	765.509705
19438.157819	16880.644167	1354.892578	809.412109
19438.157819	16880.644167	1353.803711	600.616821
19438.157819	16880.644167	1352.714844	515.127319
19438.157819	16880.644167	1351.625000	597.755859
19438.157819	16880.644167	1350.536133	563.590942
19438.157819	16880.644167	1349.446289	511.755280
19438.157819	16880.644167	1348.356445	555.655762
19438.157819	16880.644167	1347.266602	392.215820
19438.157819	16880.644167	1346.175781	416.311401
19438.157819	16880.644167	1345.085938	334.069427
19438.157819	16880.644167	1343.995117	179.571304
19438.157819	16880.644167	1342.903320	351.484711
19438.157819	16880.644167	1341.812500	265.167786
19438.157819	16880.644167	1340.720703	272.145508
19438.157819	16880.644167	1339.629883	354.380310
19438.157819	16880.644167	1338.538086	336.369019
19438.157819	16880.644167	1337.445313	251.446320
19438.157819	16880.644167	1336.353516	330.512848
19438.157819	16880.644167	1335.260742	539.550049
19438.157819	16880.644167	1334.167969	634.040222
19438.157819	16880.644167	1333.075195	644.718323
19438.157819	16880.644167	1331.981445	530.798706
19438.157819	16880.644167	1330.888672	494.218628
19438.157819	16880.644167	1329.794922	582.774414
19438.157819	16880.644167	1328.701172	562.894409
19438.157819	16880.644167	1327.606445	547.234558
19438.157819	16880.644167	1326.512695	615.824585
19438.157819	16880.644167	1325.417969	794.030396
19438.157819	16880.644167	1324.323242	795.628845
19438.157819	16880.644167	1323.227539	658.647095
19438.157819	16880.644167	1322.132813	699.498291
19438.157819	16880.644167	1321.037109	680.885620
19438.157819	16880.644167	1319.941406	808.006592
19438.157819	16880.644167	1318.845703	833.712402
19438.157819	16880.644167	1317.750000	793.757385
19438.157819	16880.644167	1316.653320	643.715881
19438.157819	16880.644167	1315.556641	681.046814
19438.157819	16880.644167	1314.459961	543.268433
19438.157819	16880.644167	1313.363281	666.643799
19438.157819	16880.644167	1312.265625	575.250366
19438.157819	16880.644167	1311.167969	606.858459
19438.157819	16880.644167	1310.070313	625.814270
19438.157819	16880.644167	1308.972656	487.666229
19438.157819	16880.644167	1307.874023	568.198792
19438.157819	16880.644167	1306.776367	510.714539
19438.157819	16880.644167	1305.677734	483.447083
19438.157819	16880.644167	1304.579102	582.293579
19438.157819	16880.644167	1303.479492	531.746582
19438.157819	16880.644167	1302.380859	417.314606
19438.157819	16880.644167	1301.281250	253.104446
19438.157819	16880.644167	1300.181641	326.125427
19438.157819	16880.644167	1299.081055	378.877106
19438.157819	16880.644167	1297.981445	296.169434
19438.157819	16880.644167	1296.880859	373.798920
19438.157819	16880.644167	1295.780273	269.552124
19438.157819	16880.644167	1294.679688	356.376709
19438.157819	16880.644167	1293.578125	256.039093
19438.157819	16880.644167	1292.476563	294.884186
19438.157819	16880.644167	1291.375000	250.880295
19438.157819	16880.644167	1290.273438	318.223145
19438.157819	16880.644167	1289.171875	274.052826
19438.157819	16880.644167	1288.069336	242.794998
19438.157819	16880.644167	1286.966797	222.581619
19438.157819	16880.644167	1285.864258	141.448303
19438.157819	16880.644167	1284.761719	-30.653362
19438.157819	16880.644167	1283.658203	225.135010
19438.157819	16880.644167	1282.554688	-17.494223
19438.157819	16880.644167	1281.451172	74.316826
19438.157819	16880.644167	1280.347656	146.727768
19438.157819	16880.644167	1279.244141	176.036896
19438.157819	16880.644167	1278.139648	65.843887
19438.157819	16880.644167	1277.035156	77.223816
19438.157819	16880.644167	1275.930664	74.656609
19438.157819	16880.644167	1274.825195	101.346497
19438.157819	16880.644167	1273.720703	45.904884
19438.157819	16880.644167	1272.615234	160.058197
19438.157819	16880.644167	1271.508789	139.357712
19438.157819	16880.644167	1270.403320	17.563122
19438.157819	16880.644167	1269.297852	98.589653
19438.157819	16880.644167	1268.191406	233.927795
19438.157819	16880.644167	1267.084961	257.713928
19438.157819	16880.644167	1265.977539	256.144623
19438.157819	16880.644167	1264.871094	277.759674
19438.157819	16880.644167	1263.763672	284.303375
19438.157819	16880.644167	1262.656250	313.909119
19438.157819	16880.644167	1261.548828	382.859528
19438.157819	16880.644167	1260.440430	400.124756
19438.157819	16880.644167	1259.333008	369.335144
19438.157819	16880.644167	1258.224609	626.885620
19438.157819	16880.644167	1257.115234	444.058899
19438.157819	16880.644167	1256.006836	509.467682
19438.157819	16880.644167	1254.897461	450.401459
19438.157819	16880.644167	1253.788086	468.175140
19438.157819	16880.644167	1252.678711	512.716858
19438.157819	16880.644167	1251.569336	405.939148
19438.157819	16880.644167	1250.458984	472.503632
19438.157819	16880.644167	1249.349609	471.242676
19438.157819	16880.644167	1248.239258	326.766144
19438.157819	16880.644167	1247.127930	414.447632
19438.157819	16880.644167	1246.017578	414.870300
19438.157819	16880.644167	1244.906250	334.938171
19438.157819	16880.644167	1243.794922	536.082153
19438.157819	16880.644167	1242.683594	472.427734
19438.157819	16880.644167	1241.571289	322.874878
19438.157819	16880.644167	1240.459961	255.302628
19438.157819	16880.644167	1239.347656	211.072052
19438.157819	16880.644167	1238.234375	187.688477
19438.157819	16880.644167	1237.122070	220.905930
19438.157819	16880.644167	1236.008789	214.351135
19438.157819	16880.644167	1234.896484	205.462662
19438.157819	16880.644167	1233.782227	130.483643
19438.157819	16880.644167	1232.668945	157.062424
19438.157819	16880.644167	1231.555664	249.422272
19438.157819	16880.644167	1230.441406	55.769859
19438.157819	16880.644167	1229.327148	63.975548
19438.157819	16880.644167	1228.211914	172.833908
19438.157819	16880.644167	1227.097656	109.205353
19438.157819	16880.644167	1225.982422	118.001823
19438.157819	16880.644167	1224.867188	66.913025
19438.157819	16880.644167	1223.751953	46.875912
19438.157819	16880.644167	1222.635742	-74.185051
19438.157819	16880.644167	1221.520508	-59.089630
19438.157819	16880.644167	1220.404297	-94.298920
19438.157819	16880.644167	1219.287109	-24.298819
19438.157819	16880.644167	1218.170898	-69.509651
19438.157819	16880.644167	1217.053711	88.459038
19438.157819	16880.644167	1215.936523	-40.744045
19438.157819	16880.644167	1214.819336	-58.879204
19438.157819	16880.644167	1213.702148	-83.895683
19438.157819	16880.644167	1212.583984	-119.101471
19438.157819	16880.644167	1211.465820	-42.883488
19438.157819	16880.644167	1210.347656	77.927666
19438.157819	16880.644167	1209.229492	51.446228
19438.157819	16880.644167	1208.110352	-36.556217
19438.157819	16880.644167	1206.992188	-22.060438
19438.157819	16880.644167	1205.873047	64.349327
19438.157819	16880.644167	1204.752930	37.713570
19438.157819	16880.644167	1203.633789	2.013965
19438.157819	16880.644167	1202.513672	-40.936298
19438.157819	16880.644167	1201.393555	-140.239883
19438.157819	16880.644167	1200.273438	62.461094
19438.157819	16880.644167	1199.152344	48.341019
19438.157819	16880.644167	1198.032227	-86.531410
19438.157819	16880.644167	1196.911133	-85.063316
19438.157819	16880.644167	1195.790039	-26.044306
19438.157819	16880.644167	1194.667969	42.209717
19438.157819	16880.644167	1193.545898	-26.884298
19438.157819	16880.644167	1192.424805	-52.782883
19438.157819	16880.644167	1191.301758	-20.817102
19438.157819	16880.644167	1190.179688	22.810925
19438.157819	16880.644167	1189.056641	31.485920
19438.157819	16880.644167	1187.933594	9.232336
19438.157819	16880.644167	1186.810547	88.468643
19438.157819	16880.644167	1185.687500	93.898483
19438.157819	16880.644167	1184.563477	42.908493
19438.157819	16880.644167	1183.440430	-66.227669
19438.157819	16880.644167	1182.316406	28.074759
19438.157819	16880.644167	1181.191406	51.554043
19438.157819	16880.644167	1180.067383	-14.632257
19438.157819	16880.644167	1178.942383	48.146427
19438.157819	16880.644167	1177.817383	22.148108
19438.157819	16880.644167	1176.692383	-17.015839
19438.157819	16880.644167	1175.566406	56.652924
19438.157819	16880.644167	1174.440430	-50.576302
19438.157819	16880.644167	1173.314453	46.134434
19438.157819	16880.644167	1172.188477	16.187536
19438.157819	16880.644167	1171.062500	-14.859806
19438.157819	16880.644167	1169.935547	-175.118225
19438.157819	16880.644167	1168.808594	19.544008
19438.157819	16880.644167	1167.681641	39.588390
19438.157819	16880.644167	1166.553711	-116.356018
19438.157819	16880.644167	1165.426758	-102.615486
19438.157819	16880.644167	1164.298828	-96.021820
19438.157819	16880.644167	1163.170898	-137.804520
19438.157819	16880.644167	1162.041992	-91.164162
19438.157819	16880.644167	1160.914063	16.589766
19438.157819	16880.644167	1159.785156	-11.942588
19438.157819	16880.644167	1158.656250	-70.036003
19438.157819	16880.644167	1157.526367	73.137634
19438.157819	16880.644167	1156.397461	40.532249
19438.157819	16880.644167	1155.267578	-111.124741
19438.157819	16880.644167	1154.137695	-116.877060
19438.157819	16880.644167	1153.006836	-35.308292
19438.157819	16880.644167	1151.876953	-154.415466
19438.157819	16880.644167	1150.746094	-54.180840
19438.157819	16880.644167	1149.615234	-184.726608
19438.157819	16880.644167	1148.484375	-69.935959
19438.157819	16880.644167	1147.352539	16.737322
19438.157819	16880.644167	1146.220703	-46.914837
19438.157819	16880.644167	1145.088867	-194.560242
19438.157819	16880.644167	1143.957031	-74.389175
19438.157819	16880.644167	1142.825195	-151.134872
19438.157819	16880.644167	1141.692383	-61.760052
19438.157819	16880.644167	1140.559570	-206.637161
19438.157819	16880.644167	1139.426758	-65.565331
19438.157819	16880.644167	1138.292969	-96.085014
19438.157819	16880.644167	1137.159180	-57.596874
19438.157819	16880.644167	1136.025391	-14.129034
19438.157819	16880.644167	1134.891602	-7.866853
19438.157819	16880.644167	1133.757813	-119.832100
19438.157819	16880.644167	1132.623047	40.762283
19438.157819	16880.644167	1131.488281	57.918652
19438.157819	16880.644167	1130.353516	218.056152
19438.157819	16880.644167	1129.217773	52.357285
19438.157819	16880.644167	1128.083008	36.740391
19438.157819	16880.644167	1126.947266	68.027260
19438.157819	16880.644167	1125.811523	61.600780
19438.157819	16880.644167	1124.674805	-106.571503
19438.157819	16880.644167	1123.539063	57.030594
19438.157819	16880.644167	1122.402344	-30.527248
19438.157819	16880.644167	1121.265625	16.994459
19438.157819	16880.644167	1120.127930	80.869789
19438.157819	16880.644167	1118.990234	180.082428
19438.157819	16880.644167	1117.853516	68.837921
19438.157819	16880.644167	1116.714844	203.656006
19438.157819	16880.644167	1115.577148	146.434464
19438.157819	16880.644167	1114.439453	53.499565
19438.157819	16880.644167	1113.300781	170.847382
19438.157819	16880.644167	1112.162109	148.824646
19438.157819	16880.644167	1111.022461	41.123623
19438.157819	16880.644167	1109.883789	121.759041
19438.157819	16880.644167	1108.744141	86.895439
19438.157819	16880.644167	1107.604492	25.153124
19438.157819	16880.644167	1106.463867	73.664711
19438.157819	16880.644167	1105.324219	50.825565
19438.157819	16880.644167	1104.183594	34.907394
19438.157819	16880.644167	1103.042969	29.629801
19438.157819	16880.644167	1101.902344	147.764114
19438.157819	16880.644167	1100.760742	31.751856
19438.157819	16880.644167	1099.619141	170.792252
19438.157819	16880.644167	1098.477539	207.287994
19438.157819	16880.644167	1097.335938	205.967957
19438.157819	16880.644167	1096.193359	97.742294
19438.157819	16880.644167	1095.051758	162.272202
19438.157819	16880.644167	1093.909180	179.349777
19438.157819	16880.644167	1092.765625	282.576355
19438.157819	16880.644167	1091.623047	149.225204
19438.157819	16880.644167	1090.479492	198.079910
19438.157819	16880.644167	1089.335938	103.977257
19438.157819	16880.644167	1088.192383	147.518723
19438.157819	16880.644167	1087.047852	224.707947
19438.157819	16880.644167	1085.903320	178.385788
19438.157819	16880.644167	1084.758789	204.500870
19438.157819	16880.644167	1083.614258	285.712311
19438.157819	16880.644167	1082.469727	186.932648
19438.157819	16880.644167	1081.324219	199.033997
19438.157819	16880.644167	1080.178711	308.346680
19438.157819	16880.644167	1079.033203	173.338440
19438.157819	16880.644167	1077.886719	208.377853
19438.157819	16880.644167	1076.740234	194.655243
19438.157819	16880.644167	1075.593750	106.529449
19438.157819	16880.644167	1074.447266	128.571747
19438.157819	16880.644167	1073.300781	264.441254
19438.157819	16880.644167	1072.153320	227.328735
19438.157819	16880.644167	1071.005859	122.477890
19438.157819	16880.644167	1069.858398	184.064514
19438.157819	16880.644167	1068.709961	84.857819
19438.157819	16880.644167	1067.561523	179.890259
19438.157819	16880.644167	1066.413086	87.464081
19438.157819	16880.644167	1065.264648	282.189636
19438.157819	16880.644167	1064.116211	77.853104
19438.157819	16880.644167	1062.966797	96.012581
19438.157819	16880.644167	1061.817383	166.382858
19438.157819	16880.644167	1060.667969	195.685165
19438.157819	16880.644167	1059.517578	131.602997
19438.157819	16880.644167	1058.368164	166.138077
19438.157819	16880.644167	1057.217773	231.221313
19438.157819	16880.644167	1056.067383	192.278671
19438.157819	16880.644167	1054.916016	246.591156
19438.157819	16880.644167	1053.764648	107.415382
19438.157819	16880.644167	1052.613281	320.690857
19438.157819	16880.644167	1051.461914	103.237503
19438.157819	16880.644167	1050.310547	245.311218
19438.157819	16880.644167	1049.158203	207.186539
19438.157819	16880.644167	1048.005859	112.303368
19438.157819	16880.644167	1046.853516	95.727730
19438.157819	16880.644167	1045.700195	253.638824
19438.157819	16880.644167	1044.547852	222.230225
19438.157819	16880.644167	1043.394531	80.953514
19438.157819	16880.644167	1042.240234	62.995678
19438.157819	16880.644167	1041.086914	112.856697
19438.157819	16880.644167	1039.932617	156.691040
19438.157819	16880.644167	1038.778320	266.362305
19438.157819	16880.644167	1037.624023	96.834000
19438.157819	16880.644167	1036.469727	238.629669
19438.157819	16880.644167	1035.314453	318.141632
19438.157819	16880.644167	1034.159180	488.570068
19438.157819	16880.644167	1033.003906	388.249115
19438.157819	16880.644167	1031.847656	536.761353
19438.157819	16880.644167	1030.692383	388.957642
19438.157819	16880.644167	1029.536133	572.938049
19438.157819	16880.644167	1028.378906	586.353027
19438.157819	16880.644167	1027.222656	650.472046
19438.157819	16880.644167	1026.065430	401.127960
19438.157819	16880.644167	1024.908203	481.267365
19438.157819	16880.644167	1023.750977	418.950043
19438.157819	16880.644167	1022.593750	342.462738
19438.157819	16880.644167	1021.435547	200.359009
19438.157819	16880.644167	1020.277344	267.341003
19438.157819	16880.644167	1019.119141	253.056351
19438.157819	16880.644167	1017.959961	190.039963
19438.157819	16880.644167	1016.800781	110.089302
19438.157819	16880.644167	1015.641602	69.733856
19438.157819	16880.644167	1014.482422	18.227755
19438.157819	16880.644167	1013.323242	28.300686
19438.157819	16880.644167	1012.163086	130.653412
19438.157819	16880.644167	1011.002930	0.752527
19438.157819	16880.644167	1009.842773	7.566034
19438.157819	16880.644167	1008.681641	107.323891
19438.157819	16880.644167	1007.520508	76.318497
19438.157819	16880.644167	1006.359375	84.812286
19438.157819	16880.644167	1005.198242	96.660973
19438.157819	16880.644167	1004.037109	163.929733
19438.157819	16880.644167	1002.875000	125.972397
19438.157819	16880.644167	1001.712891	76.987320
19438.157819	16880.644167	1000.550781	145.729141
19438.157819	16880.644167	999.387695	162.360184
19438.157819	16880.644167	998.224609	202.786453
19438.157819	16880.644167	997.061523	317.299683
19438.157819	16880.644167	995.898438	360.381134
19438.157819	16880.644167	994.734375	384.618256
19438.157819	16880.644167	993.571289	421.105408
19438.157819	16880.644167	992.407227	452.672546
19438.157819	16880.644167	991.242188	416.626526
19438.157819	16880.644167	990.078125	446.769836
19438.157819	16880.644167	988.913086	339.332672
19438.157819	16880.644167	987.748047	468.925964
19438.157819	16880.644167	986.583008	309.332672
19438.157819	16880.644167	985.416992	330.686462
19438.157819	16880.644167	984.250977	359.659424
19438.157819	16880.644167	983.084961	426.895294
19438.157819	16880.644167	981.918945	348.646881
19438.157819	16880.644167	980.751953	300.345123
19438.157819	16880.644167	979.584961	293.676788
19438.157819	16880.644167	978.417969	314.949280
19438.157819	16880.644167	977.250977	234.705902
19438.157819	16880.644167	976.083008	213.067429
19438.157819	16880.644167	974.915039	271.266663
19438.157819	16880.644167	973.747070	366.684265
19438.157819	16880.644167	972.579102	107.501701
19438.157819	16880.644167	971.410156	28.747885
19438.157819	16880.644167	970.242188	170.812210
19438.157819	16880.644167	969.072266	150.340240
19438.157819	16880.644167	967.903320	-15.556110
19438.157819	16880.644167	966.733398	-19.954752
19438.157819	16880.644167	965.563477	133.335831
19438.157819	16880.644167	964.393555	141.607483
19438.157819	16880.644167	963.223633	154.147125
19438.157819	16880.644167	962.052734	60.996647
19438.157819	16880.644167	960.881836	-32.571262
19438.157819	16880.644167	959.710938	218.570663
19438.157819	16880.644167	958.540039	56.532631
19438.157819	16880.644167	957.368164	11.076641
19438.157819	16880.644167	956.196289	-42.186638
19438.157819	16880.644167	955.024414	90.471153
19438.157819	16880.644167	953.851563	66.991653
19438.157819	16880.644167	952.679688	55.520386
19438.157819	16880.644167	951.506836	136.545746
19438.157819	16880.644167	950.333984	-1.907907
19438.157819	16880.644167	949.160156	-70.818947
19438.157819	16880.644167	947.986328	-81.532593
19438.157819	16880.644167	946.812500	-61.708675
19438.157819	16880.644167	945.638672	-66.947922
19438.157819	16880.644167	944.464844	55.926746
19438.157819	16880.644167	943.290039	-136.383926
19438.157819	16880.644167	942.115234	-122.707993
19438.157819	16880.644167	940.940430	-74.216476
19438.157819	16880.644167	939.764648	56.467545
19438.157819	16880.644167	938.588867	51.611809
19438.157819	16880.644167	937.413086	178.335800
19438.157819	16880.644167	936.237305	113.557312
19438.157819	16880.644167	935.060547	100.358803
19438.157819	16880.644167	933.883789	68.515388
19438.157819	16880.644167	932.707031	65.500549
19438.157819	16880.644167	931.530273	58.343433
19438.157819	16880.644167	930.352539	42.893002
19438.157819	16880.644167	929.175781	157.009918
19438.157819	16880.644167	927.998047	151.793121
19438.157819	16880.644167	926.819336	29.385977
19438.157819	16880.644167	925.641602	65.296692
19438.157819	16880.644167	924.462891	-100.269432
19438.157819	16880.644167	923.284180	-49.988289
19438.157819	16880.644167	922.104492	-88.103806
19438.157819	16880.644167	920.924805	-44.030132
19438.157819	16880.644167	919.746094	-41.832230
19438.157819	16880.644167	919.551758	-14.007407
19438.157819	16880.644167	918.386719	181.962738
19438.157819	16880.644167	917.220703	160.172150
19438.157819	16880.644167	916.054688	132.216034
19438.157819	16880.644167	914.887695	169.941162
19438.157819	16880.644167	913.721680	-135.084412
19438.157819	16880.644167	912.554688	-23.485754
19438.157819	16880.644167	911.387695	182.415833
19438.157819	16880.644167	910.220703	135.952179
19438.157819	16880.644167	909.052734	13.624809
19438.157819	16880.644167	907.885742	-22.563044
19438.157819	16880.644167	906.717773	-52.598431
19438.157819	16880.644167	905.548828	-27.302870
19438.157819	16880.644167	904.380859	-198.723358
19438.157819	16880.644167	903.211914	-62.817215
19438.157819	16880.644167	902.042969	54.588966
19438.157819	16880.644167	900.874023	-28.731085
19438.157819	16880.644167	899.704102	-81.319916
19438.157819	16880.644167	898.535156	-84.777153
19438.157819	16880.644167	897.365234	-125.077339
19438.157819	16880.644167	896.194336	-30.338400
19438.157819	16880.644167	895.024414	99.124268
19438.157819	16880.644167	893.853516	120.133904
19438.157819	16880.644167	892.682617	100.230705
19438.157819	16880.644167	891.511719	4.687381
19438.157819	16880.644167	890.340820	189.182907
19438.157819	16880.644167	889.168945	-28.964027
19438.157819	16880.644167	887.997070	-59.072598
19438.157819	16880.644167	886.825195	10.910181
19438.157819	16880.644167	885.653320	-19.211731
19438.157819	16880.644167	884.480469	-79.955147
19438.157819	16880.644167	883.307617	34.874950
19438.157819	16880.644167	882.134766	59.848618
19438.157819	16880.644167	880.961914	-13.141329
19438.157819	16880.644167	879.788086	5.697826
19438.157819	16880.644167	878.614258	36.759842
19438.157819	16880.644167	877.440430	-119.811012
19438.157819	16880.644167	876.266602	-21.468134
19438.157819	16880.644167	875.091797	60.522076
19438.157819	16880.644167	873.916992	-28.721514
19438.157819	16880.644167	872.742188	71.562042
19438.157819	16880.644167	871.567383	-3.399990
19438.157819	16880.644167	870.391602	43.871059
19438.157819	16880.644167	869.215820	15.771410
19438.157819	16880.644167	868.040039	-10.286147
19438.157819	16880.644167	866.864258	-107.581696
19438.157819	16880.644167	865.687500	-48.138062
19438.157819	16880.644167	864.510742	-45.695248
19438.157819	16880.644167	863.333984	-173.451324
19438.157819	16880.644167	862.157227	-162.857773
19438.157819	16880.644167	860.979492	-95.335411
19438.157819	16880.644167	859.802734	57.539906
19438.157819	16880.644167	858.625000	-35.594612
19438.157819	16880.644167	857.446289	-4.730522
19438.157819	16880.644167	856.268555	-20.615070
19438.157819	16880.644167	855.089844	-160.407944
19438.157819	16880.644167	853.911133	-162.043503
19438.157819	16880.644167	852.731445	-84.489960
19438.157819	16880.644167	851.552734	-98.328056
19438.157819	16880.644167	850.373047	-207.557373
19438.157819	16880.644167	849.193359	18.084528
19438.157819	16880.644167	848.013672	-74.899323
19438.157819	16880.644167	846.833008	4.570665
19438.157819	16880.644167	845.652344	27.220781
19438.157819	16880.644167	844.471680	92.438332
19438.157819	16880.644167	843.291016	113.028595
19438.157819	16880.644167	842.110352	188.330521
19438.157819	16880.644167	840.928711	14.359212
19438.157819	16880.644167	839.747070	-52.168335
19438.157819	16880.644167	838.564453	-1.189668
19438.157819	16880.644167	837.382813	-185.146851
19438.157819	16880.644167	836.200195	-45.080124
19438.157819	16880.644167	835.017578	-69.038597
19438.157819	16880.644167	833.834961	-88.941666
19438.157819	16880.644167	832.651367	-42.063820
19438.157819	16880.644167	831.467773	-175.255478
19438.157819	16880.644167	830.284180	3.085946
19438.157819	16880.644167	829.100586	-95.686981
19438.157819	16880.644167	827.916992	-97.376480
19438.157819	16880.644167	826.732422	26.258055
19438.157819	16880.644167	825.547852	-23.960466
19438.157819	16880.644167	824.363281	6.660836
19438.157819	16880.644167	823.177734	-92.017334
19438.157819	16880.644167	821.992188	-87.653046
19438.157819	16880.644167	820.806641	-14.637409
19438.157819	16880.644167	819.621094	-76.916237
19438.157819	16880.644167	818.434570	-48.340782
19438.157819	16880.644167	817.249023	22.598038
19438.157819	16880.644167	816.062500	89.472145
19438.157819	16880.644167	814.875000	109.922134
19438.157819	16880.644167	813.688477	45.656765
19438.157819	16880.644167	812.500977	302.016998
19438.157819	16880.644167	811.313477	261.926758
19438.157819	16880.644167	810.125977	32.392326
19438.157819	16880.644167	808.937500	123.352455
19438.157819	16880.644167	807.749023	173.979599
19438.157819	16880.644167	806.560547	21.142344
19438.157819	16880.644167	805.372070	43.570576
19438.157819	16880.644167	804.182617	35.786995
19438.157819	16880.644167	802.994141	-66.609024
19438.157819	16880.644167	801.803711	28.272028
19438.157819	16880.644167	800.614258	-51.950279
19438.157819	16880.644167	799.424805	42.881485
19438.157819	16880.644167	798.234375	-85.587479
19438.157819	16880.644167	797.043945	81.600914
19438.157819	16880.644167	795.852539	-56.881298
19438.157819	16880.644167	794.662109	98.164864
19438.157819	16880.644167	793.470703	-10.124888
19438.157819	16880.644167	792.279297	154.887680
19438.157819	16880.644167	791.087891	106.889420
19438.157819	16880.644167	789.895508	20.747665
19438.157819	16880.644167	788.703125	-31.226030
19438.157819	16880.644167	787.510742	155.722565
19438.157819	16880.644167	786.318359	75.633331
19438.157819	16880.644167	785.125000	87.884758
19438.157819	16880.644167	783.931641	31.910486
19438.157819	16880.644167	782.738281	70.233765
19438.157819	16880.644167	781.544922	-118.088959
19438.157819	16880.644167	780.350586	100.699684
19438.157819	16880.644167	779.156250	114.913208
19438.157819	16880.644167	777.961914	173.209122
19438.157819	16880.644167	776.767578	99.220009
19438.157819	16880.644167	775.572266	175.514252
19438.157819	16880.644167	774.376953	233.743729
19438.157819	16880.644167	773.181641	107.701180
19438.157819	16880.644167	771.986328	252.001114
19438.157819	16880.644167	770.790039	142.008728
19438.157819	16880.644167	769.593750	266.213806
19438.157819	16880.644167	768.397461	124.233757
19438.157819	16880.644167	767.201172	318.394012
19438.157819	16880.644167	766.003906	194.447449
19438.157819	16880.644167	764.806641	252.517105
19438.157819	16880.644167	763.609375	330.546570
19438.157819	16880.644167	762.412109	316.586365
19438.157819	16880.644167	761.213867	334.598755
19438.157819	16880.644167	760.015625	310.635071
19438.157819	16880.644167	758.817383	480.441071
19438.157819	16880.644167	757.618164	414.496582
19438.157819	16880.644167	756.419922	510.307892
19438.157819	16880.644167	755.220703	462.330505
19438.157819	16880.644167	754.021484	228.737839
19438.157819	16880.644167	752.821289	37.138023
19438.157819	16880.644167	751.621094	71.055573
19438.157819	16880.644167	750.420898	55.079506
19438.157819	16880.644167	749.220703	-20.731899
19438.157819	16880.644167	748.020508	3.169369
19438.157819	16880.644167	746.819336	-108.506546
19438.157819	16880.644167	745.618164	-52.734146
19438.157819	16880.644167	744.416992	46.839249
19438.157819	16880.644167	743.214844	106.513588
19438.157819	16880.644167	742.012695	148.222092
19438.157819	16880.644167	740.810547	86.346260
19438.157819	16880.644167	739.608398	135.975067
19438.157819	16880.644167	738.406250	201.491974
19438.157819	16880.644167	737.203125	147.558151
19438.157819	16880.644167	736.000000	189.136658
19438.157819	16880.644167	734.795898	340.093750
19438.157819	16880.644167	733.592773	347.769501
19438.157819	16880.644167	732.388672	257.990082
19438.157819	16880.644167	731.184570	225.883575
19438.157819	16880.644167	729.979492	338.870850
19438.157819	16880.644167	728.775391	342.493774
19438.157819	16880.644167	727.570313	240.796127
19438.157819	16880.644167	726.365234	176.862595
19438.157819	16880.644167	725.160156	87.118095
19438.157819	16880.644167	723.954102	189.990707
19438.157819	16880.644167	722.748047	215.379166
19438.157819	16880.644167	721.541992	139.514023
19438.157819	16880.644167	720.334961	95.408768
19438.157819	16880.644167	719.128906	178.268616
19438.157819	16880.644167	717.921875	-8.681825
19438.157819	16880.644167	716.714844	153.443542
19438.157819	16880.644167	715.506836	75.576576
19438.157819	16880.644167	714.298828	39.345612
19438.157819	16880.644167	713.090820	26.887434
19438.157819	16880.644167	711.882813	56.019512
19438.157819	16880.644167	710.674805	45.494358
19438.157819	16880.644167	709.465820	38.909740
19438.157819	16880.644167	708.256836	-96.408653
19438.157819	16880.644167	707.047852	55.366390
19438.157819	16880.644167	705.837891	19.015192
19438.157819	16880.644167	704.627930	-31.200470
19438.157819	16880.644167	703.417969	43.222897
19438.157819	16880.644167	702.208008	-12.967083
19438.157819	16880.644167	700.998047	-71.139961
19438.157819	16880.644167	699.787109	28.863853
19438.157819	16880.644167	698.576172	-78.772362
19438.157819	16880.644167	697.364258	31.013775
19438.157819	16880.644167	696.153320	-112.206017
19438.157819	16880.644167	694.941406	-79.568306
19438.157819	16880.644167	693.729492	35.981865
19438.157819	16880.644167	692.516602	125.780701
19438.157819	16880.644167	691.304688	65.458237
19438.157819	16880.644167	690.091797	76.190689
19438.157819	16880.644167	688.878906	77.017975
19438.157819	16880.644167	687.665039	12.698577
19438.157819	16880.644167	686.451172	3.608398
19438.157819	16880.644167	685.237305	69.433556
19438.157819	16880.644167	684.023438	-10.720881
19438.157819	16880.644167	682.809570	102.324860
19438.157819	16880.644167	681.594727	122.648445
19438.157819	16880.644167	680.379883	93.662567
19438.157819	16880.644167	679.165039	178.923950
19438.157819	16880.644167	677.949219	69.103447
19438.157819	16880.644167	676.733398	152.290115
19438.157819	16880.644167	675.517578	8.974269
19438.157819	16880.644167	674.301758	190.490005
19438.157819	16880.644167	673.084961	151.460220
19438.157819	16880.644167	671.869141	25.828873
19438.157819	16880.644167	670.651367	18.248032
19438.157819	16880.644167	669.434570	-18.871655
19438.157819	16880.644167	668.216797	65.904327
19438.157819	16880.644167	667.000000	81.792641
19438.157819	16880.644167	665.781250	81.906937
19438.157819	16880.644167	664.563477	146.833038
19438.157819	16880.644167	663.344727	78.082382
19438.157819	16880.644167	662.125977	19.140409
19438.157819	16880.644167	660.907227	262.634216
19438.157819	16880.644167	659.688477	325.333954
19438.157819	16880.644167	658.468750	305.510651
19438.157819	16880.644167	657.249023	234.621078
19438.157819	16880.644167	656.029297	206.888535
19438.157819	16880.644167	654.808594	261.522888
19438.157819	16880.644167	653.587891	280.782837
19438.157819	16880.644167	652.367188	174.480057
19438.157819	16880.644167	651.146484	248.558090
19438.157819	16880.644167	649.924805	222.585098
19438.157819	16880.644167	648.704102	129.943863
19438.157819	16880.644167	647.482422	84.320297
19438.157819	16880.644167	646.259766	54.340462
19438.157819	16880.644167	645.037109	235.854614
19438.157819	16880.644167	643.815430	158.765930
19438.157819	16880.644167	642.591797	38.589451
19438.157819	16880.644167	641.369141	29.985884
19438.157819	16880.644167	640.145508	183.762283
19438.157819	16880.644167	638.921875	163.294525
19438.157819	16880.644167	637.698242	29.332373
19438.157819	16880.644167	636.474609	180.909790
19438.157819	16880.644167	635.250000	27.347965
19438.157819	16880.644167	634.025391	168.987320
19438.157819	16880.644167	632.800781	13.439449
19438.157819	16880.644167	631.575195	57.218346
19438.157819	16880.644167	630.349609	-121.785156
19438.157819	16880.644167	629.124023	39.095757
19438.157819	16880.644167	627.898438	29.964430
19438.157819	16880.644167	626.671875	42.260986
19438.157819	16880.644167	625.445313	29.125475
19438.157819	16880.644167	624.218750	25.701799
19438.157819	16880.644167	622.992188	-46.061451
19438.157819	16880.644167	621.764648	-67.128578
19438.157819	16880.644167	620.537109	-119.443810
19438.157819	16880.644167	619.309570	3.702224
19438.157819	16880.644167	618.081055	109.196678
19438.157819	16880.644167	616.852539	121.038841
19438.157819	16880.644167	615.624023	58.774525
19438.157819	16880.644167	614.395508	86.103851
19438.157819	16880.644167	613.166992	171.803619
19438.157819	16880.644167	611.937500	163.936600
19438.157819	16880.644167	610.708008	185.225006
19438.157819	16880.644167	609.477539	66.294525
19438.157819	16880.644167	608.248047	227.613815
19438.157819	16880.644167	607.017578	-39.258545
19438.157819	16880.644167	605.787109	-33.721760
19438.157819	16880.644167	604.555664	-57.416344
19438.157819	16880.644167	603.325195	16.073973
19438.157819	16880.644167	602.093750	33.098984
19438.157819	16880.644167	600.861328	-19.911713
19438.157819	16880.644167	599.629883	115.547302
19438.157819	16880.644167	598.397461	54.663490
19438.157819	16880.644167	597.165039	86.990646
19438.157819	16880.644167	595.932617	150.323776
19438.157819	16880.644167	594.699219	46.593876
19438.157819	16880.644167	593.465820	67.093185
19438.157819	16880.644167	592.232422	15.720718
19438.157819	16880.644167	590.999023	12.827673
19438.157819	16880.644167	589.764648	15.699913
19438.157819	16880.644167	588.530273	-6.695813
19438.157819	16880.644167	587.295898	63.944347
19438.157819	16880.644167	586.061523	51.136169
19438.157819	16880.644167	584.826172	-41.192505
19438.157819	16880.644167	583.590820	-52.142117
19438.157819	16880.644167	582.355469	55.047771
19438.157819	16880.644167	581.119141	14.919167
19438.157819	16880.644167	579.882813	-11.687789
19438.157819	16880.644167	578.646484	-78.996033
19438.157819	16880.644167	577.410156	-185.044403
19438.157819	16880.644167	576.172852	-33.688957
19438.157819	16880.644167	574.935547	-68.211433
19438.157819	16880.644167	573.698242	-4.104756
19438.157819	16880.644167	572.460938	3.832026
19438.157819	16880.644167	571.222656	54.255428
19438.157819	16880.644167	569.984375	131.673950
19438.157819	16880.644167	568.746094	160.685516
19438.157819	16880.644167	567.506836	147.115509
19438.157819	16880.644167	566.267578	125.773361
19438.157819	16880.644167	565.028320	239.611511
19438.157819	16880.644167	563.789063	270.306061
19438.157819	16880.644167	562.548828	198.597809
19438.157819	16880.644167	561.309570	70.891846
19438.157819	16880.644167	560.068359	72.499161
19438.157819	16880.644167	558.828125	58.625076
19438.157819	16880.644167	557.586914	31.200893
19438.157819	16880.644167	556.345703	-102.344475
19438.157819	16880.644167	555.104492	-35.324146
19438.157819	16880.644167	553.863281	-33.930618
19438.157819	16880.644167	552.621094	-63.429184
19438.157819	16880.644167	551.378906	-146.922028
19438.157819	16880.644167	550.136719	-30.041077
19438.157819	16880.644167	548.893555	-129.010208
19438.157819	16880.644167	547.650391	-158.648300
19438.157819	16880.644167	546.407227	-115.147804
19438.157819	16880.644167	545.164063	-104.436539
19438.157819	16880.644167	543.919922	-30.262428
19438.157819	16880.644167	542.675781	66.928383
19438.157819	16880.644167	541.431641	-166.872986
19438.157819	16880.644167	540.186523	101.404823
19438.157819	16880.644167	538.941406	-65.085625
19438.157819	16880.644167	537.696289	-177.712067
19438.157819	16880.644167	536.451172	-5.841285
19438.157819	16880.644167	535.205078	-62.785839
19438.157819	16880.644167	533.959961	-6.378830
19438.157819	16880.644167	532.712891	-144.066223
19438.157819	16880.644167	531.466797	-103.115097
19438.157819	16880.644167	530.219727	-131.351349
19438.157819	16880.644167	528.972656	-150.016205
19438.157819	16880.644167	527.725586	-19.001823
19438.157819	16880.644167	526.478516	-43.515820
19438.157819	16880.644167	525.230469	-29.691805
19438.157819	16880.644167	523.982422	-37.009674
19438.157819	16880.644167	522.734375	-101.893356
19438.157819	16880.644167	521.485352	-109.271484
19438.157819	16880.644167	520.236328	-204.859238
19438.157819	16880.644167	518.987305	0.443354
19438.157819	16880.644167	517.737305	-116.280228
19438.157819	16880.644167	516.488281	-114.214439
19438.157819	16880.644167	515.238281	56.351700
19438.157819	16880.644167	513.988281	83.197708
19438.157819	16880.644167	512.737305	-71.876762
19438.157819	16880.644167	511.486328	-71.884155
19438.157819	16880.644167	510.235352	-89.147911
19438.157819	16880.644167	508.984375	-146.615005
19438.157819	16880.644167	507.732422	-121.846313
19438.157819	16880.644167	506.480469	-53.137432
19438.157819	16880.644167	505.228516	-227.308441
19438.157819	16880.644167	503.976563	5.719495
19438.157819	16880.644167	502.723633	11.186122
19438.157819	16880.644167	501.470703	108.331505
19438.157819	16880.644167	500.217773	86.964386
19438.157819	16880.644167	498.963867	33.100761
19438.157819	16880.644167	497.709961	-22.680929
19438.157819	16880.644167	496.456055	15.073011
19438.157819	16880.644167	495.202148	69.956879
19438.157819	16880.644167	493.947266	-10.705911
19438.157819	16880.644167	492.692383	93.693832
19438.157819	16880.644167	491.437500	-86.189629
19438.157819	16880.644167	490.181641	60.066101
19438.157819	16880.644167	488.926758	63.236130
19438.157819	16880.644167	487.670898	335.140778
19438.157819	16880.644167	486.414063	153.313538
19438.157819	16880.644167	485.158203	93.481194
19438.157819	16880.644167	483.901367	60.305138
19438.157819	16880.644167	482.644531	63.296318
19438.157819	16880.644167	481.386719	252.852783
19438.157819	16880.644167	480.128906	67.258377
19438.157819	16880.644167	478.871094	199.563980
19438.157819	16880.644167	477.613281	242.340439
19438.157819	16880.644167	476.355469	161.400238
19438.157819	16880.644167	475.096680	211.697723
19438.157819	16880.644167	473.837891	170.655304
19438.157819	16880.644167	472.578125	44.031345
19438.157819	16880.644167	471.319336	113.216766
19438.157819	16880.644167	470.059570	151.921188
19438.157819	16880.644167	468.799805	239.969772
19438.157819	16880.644167	467.539063	219.654694
19438.157819	16880.644167	466.278320	39.772724
19438.157819	16880.644167	465.017578	21.324316
19438.157819	16880.644167	463.756836	-25.635927
19438.157819	16880.644167	462.495117	90.599838
19438.157819	16880.644167	461.233398	51.137775
19438.157819	16880.644167	459.971680	197.567429
19438.157819	16880.644167	458.709961	-14.601795
19438.157819	16880.644167	457.447266	114.606056
19438.157819	16880.644167	456.184570	65.488388
19438.157819	16880.644167	454.921875	39.084633
19438.157819	16880.644167	453.658203	-25.271698
19438.157819	16880.644167	452.394531	118.760597
19438.157819	16880.644167	451.130859	122.493645
19438.157819	16880.644167	449.867188	-15.878199
19438.157819	16880.644167	448.602539	25.621595
19438.157819	16880.644167	447.337891	93.541061
19438.157819	16880.644167	446.073242	-67.648399
19438.157819	16880.644167	444.807617	111.760277
19438.157819	16880.644167	443.542969	-19.236183
19438.157819	16880.644167	442.276367	137.233749
19438.157819	16880.644167	441.010742	259.526276
19438.157819	16880.644167	439.744141	96.195763
19438.157819	16880.644167	438.478516	129.440643
19438.157819	16880.644167	437.210938	175.799225
19438.157819	16880.644167	435.944336	4.775413
19438.157819	16880.644167	434.676758	81.182373
19438.157819	16880.644167	433.409180	163.124619
19438.157819	16880.644167	432.141602	76.885742
19438.157819	16880.644167	430.873047	224.654175
19438.157819	16880.644167	429.604492	72.163132
19438.157819	16880.644167	428.335938	217.762207
19438.157819	16880.644167	427.067383	112.274475
19438.157819	16880.644167	425.797852	89.693611
19438.157819	16880.644167	424.528320	142.426865
19438.157819	16880.644167	423.258789	136.563477
19438.157819	16880.644167	421.988281	13.697404
19438.157819	16880.644167	420.717773	186.609238
19438.157819	16880.644167	419.447266	195.387711
19438.157819	16880.644167	418.175781	234.143555
19438.157819	16880.644167	416.905273	216.237625
19438.157819	16880.644167	415.633789	358.212982
19438.157819	16880.644167	414.362305	159.239014
19438.157819	16880.644167	413.089844	210.480377
19438.157819	16880.644167	411.817383	188.137100
19438.157819	16880.644167	410.544922	131.756592
19438.157819	16880.644167	409.272461	141.036942
19438.157819	16880.644167	407.999023	167.028671
19438.157819	16880.644167	406.725586	70.604355
19438.157819	16880.644167	405.452148	178.882843
19438.157819	16880.644167	404.177734	20.041946
19438.157819	16880.644167	402.903320	116.553146
19438.157819	16880.644167	401.628906	143.287079
19438.157819	16880.644167	400.354492	34.552086
19438.157819	16880.644167	399.079102	132.130783
19438.157819	16880.644167	397.803711	137.425064
19438.157819	16880.644167	396.528320	230.652710
19438.157819	16880.644167	395.251953	274.764404
19438.157819	16880.644167	393.976563	174.133545
19438.157819	16880.644167	392.700195	230.778091
19438.157819	16880.644167	391.422852	133.318436
19438.157819	16880.644167	390.145508	183.681961
19438.157819	16880.644167	388.869141	179.350494
19438.157819	16880.644167	387.590820	90.330925
19438.157819	16880.644167	386.313477	-19.598131
19438.157819	16880.644167	385.035156	16.241695
19438.157819	16880.644167	383.756836	14.237049
19438.157819	16880.644167	382.478516	187.836014
19438.157819	16880.644167	381.199219	149.427063
19438.157819	16880.644167	379.919922	35.763393
19438.157819	16880.644167	378.640625	-68.922234
19438.157819	16880.644167	377.360352	52.327000
19438.157819	16880.644167	376.080078	12.230496
19438.157819	16880.644167	374.799805	-17.098677
19438.157819	16880.644167	373.519531	82.090378
19438.157819	16880.644167	372.238281	-26.736181
19438.157819	16880.644167	370.957031	60.171738
19438.157819	16880.644167	369.675781	45.630806
19438.157819	16880.644167	368.394531	56.699509
19438.157819	16880.644167	367.112305	42.907738
19438.157819	16880.644167	365.830078	-3.196092
19438.157819	16880.644167	364.546875	-31.229799
19438.157819	16880.644167	363.264648	11.066237
19438.157819	16880.644167	361.981445	-5.146156
19438.157819	16880.644167	360.698242	-122.731590
19438.157819	16880.644167	359.414063	-140.250992
19438.157819	16880.644167	358.129883	-33.531353
19438.157819	16880.644167	356.845703	-45.008736
19438.157819	16880.644167	355.561523	-94.486374
19438.157819	16880.644167	354.276367	19.252512
19438.157819	16880.644167	352.991211	109.812294
19438.157819	16880.644167	351.706055	35.637806
19438.157819	16880.644167	350.420898	44.470257
19438.157819	16880.644167	349.134766	22.645060
19438.157819	16880.644167	347.848633	171.199020
19438.157819	16880.644167	346.561523	82.442200
19438.157819	16880.644167	345.275391	56.091850
19438.157819	16880.644167	343.988281	82.725403
19438.157819	16880.644167	342.700195	218.071411
19438.157819	16880.644167	341.413086	0.998087
19438.157819	16880.644167	340.125000	-66.465157
19438.157819	16880.644167	338.836914	-25.300709
19438.157819	16880.644167	337.548828	128.109436
19438.157819	16880.644167	336.259766	-11.331761
19438.157819	16880.644167	334.970703	-34.842556
19438.157819	16880.644167	333.681641	-35.370262
19438.157819	16880.644167	332.391602	-185.641464
19438.157819	16880.644167	331.101563	-173.748825
19438.157819	16880.644167	329.811523	3.880851
19438.157819	16880.644167	328.521484	-216.869370
19438.157819	16880.644167	327.230469	-179.219864
19438.157819	16880.644167	325.939453	-11.288713
19438.157819	16880.644167	324.648438	-65.450783
19438.157819	16880.644167	323.356445	-198.914185
19438.157819	16880.644167	322.064453	-142.913330
19438.157819	16880.644167	320.772461	30.130766
19438.157819	16880.644167	319.480469	-130.016159
19438.157819	16880.644167	318.187500	-82.454529
19438.157819	16880.644167	316.894531	-40.241661
19438.157819	16880.644167	315.601563	103.951286
19438.157819	16880.644167	314.307617	-10.927596
19438.157819	16880.644167	313.013672	138.939560
19438.157819	16880.644167	311.719727	37.209209
19438.157819	16880.644167	310.425781	79.799652
19438.157819	16880.644167	309.130859	125.981255
19438.157819	16880.644167	307.835938	275.590302
19438.157819	16880.644167	306.541016	195.817825
19438.157819	16880.644167	305.245117	186.064819
19438.157819	16880.644167	303.949219	189.024490
19438.157819	16880.644167	302.653320	287.757263
19438.157819	16880.644167	301.356445	465.463074
19438.157819	16880.644167	300.060547	544.926636
19438.157819	16880.644167	298.763672	577.711304
