#X		#Y		#Wave		#Intensity
19480.093670	16934.017833	2000.043945	-101.481880
19480.093670	16934.017833	1999.080078	313.682220
19480.093670	16934.017833	1998.116211	172.600693
19480.093670	16934.017833	1997.151367	318.803436
19480.093670	16934.017833	1996.186523	68.287994
19480.093670	16934.017833	1995.222656	-105.576202
19480.093670	16934.017833	1994.256836	-128.500595
19480.093670	16934.017833	1993.291992	-10.490559
19480.093670	16934.017833	1992.327148	-38.810104
19480.093670	16934.017833	1991.361328	66.351967
19480.093670	16934.017833	1990.395508	37.628750
19480.093670	16934.017833	1989.429688	-162.017288
19480.093670	16934.017833	1988.463867	76.120338
19480.093670	16934.017833	1987.497070	12.218894
19480.093670	16934.017833	1986.531250	121.271347
19480.093670	16934.017833	1985.564453	89.173477
19480.093670	16934.017833	1984.597656	365.939911
19480.093670	16934.017833	1983.630859	-7.625691
19480.093670	16934.017833	1982.664063	117.983467
19480.093670	16934.017833	1981.696289	-376.777618
19480.093670	16934.017833	1980.728516	227.797424
19480.093670	16934.017833	1979.761719	53.981873
19480.093670	16934.017833	1978.792969	13.446609
19480.093670	16934.017833	1977.825195	-12.403997
19480.093670	16934.017833	1976.857422	77.642159
19480.093670	16934.017833	1975.888672	253.909836
19480.093670	16934.017833	1974.919922	-16.648096
19480.093670	16934.017833	1973.951172	-144.135025
19480.093670	16934.017833	1972.982422	229.044846
19480.093670	16934.017833	1972.013672	165.448120
19480.093670	16934.017833	1971.043945	59.851719
19480.093670	16934.017833	1970.075195	99.636925
19480.093670	16934.017833	1969.105469	279.802704
19480.093670	16934.017833	1968.135742	238.005310
19480.093670	16934.017833	1967.165039	-348.398926
19480.093670	16934.017833	1966.195313	321.694427
19480.093670	16934.017833	1965.224609	594.902405
19480.093670	16934.017833	1964.253906	151.318863
19480.093670	16934.017833	1963.283203	-63.209152
19480.093670	16934.017833	1962.312500	436.139862
19480.093670	16934.017833	1961.341797	-76.322449
19480.093670	16934.017833	1960.370117	65.888077
19480.093670	16934.017833	1959.399414	340.825775
19480.093670	16934.017833	1958.427734	229.404907
19480.093670	16934.017833	1957.455078	253.227661
19480.093670	16934.017833	1956.483398	36.002937
19480.093670	16934.017833	1955.511719	-50.904766
19480.093670	16934.017833	1954.539063	366.052338
19480.093670	16934.017833	1953.566406	551.790527
19480.093670	16934.017833	1952.593750	125.593582
19480.093670	16934.017833	1951.621094	294.008820
19480.093670	16934.017833	1950.647461	332.136322
19480.093670	16934.017833	1949.674805	151.646255
19480.093670	16934.017833	1948.701172	263.353424
19480.093670	16934.017833	1947.727539	409.345917
19480.093670	16934.017833	1946.753906	302.448151
19480.093670	16934.017833	1945.780273	266.714935
19480.093670	16934.017833	1944.805664	314.378540
19480.093670	16934.017833	1943.831055	241.794647
19480.093670	16934.017833	1942.856445	232.970978
19480.093670	16934.017833	1941.881836	346.723846
19480.093670	16934.017833	1940.907227	416.277740
19480.093670	16934.017833	1939.932617	-58.373398
19480.093670	16934.017833	1938.957031	148.420197
19480.093670	16934.017833	1937.981445	288.955383
19480.093670	16934.017833	1937.005859	233.436920
19480.093670	16934.017833	1936.030273	239.151505
19480.093670	16934.017833	1935.054688	93.016617
19480.093670	16934.017833	1934.078125	174.621185
19480.093670	16934.017833	1933.101563	99.511917
19480.093670	16934.017833	1932.125000	66.024162
19480.093670	16934.017833	1931.148438	-102.049774
19480.093670	16934.017833	1930.171875	-111.048462
19480.093670	16934.017833	1929.194336	-39.328625
19480.093670	16934.017833	1928.217773	-129.059982
19480.093670	16934.017833	1927.240234	62.433353
19480.093670	16934.017833	1926.262695	226.955704
19480.093670	16934.017833	1925.284180	-117.000244
19480.093670	16934.017833	1924.306641	-28.276201
19480.093670	16934.017833	1923.328125	67.742958
19480.093670	16934.017833	1922.350586	320.068970
19480.093670	16934.017833	1921.372070	159.521927
19480.093670	16934.017833	1920.392578	-479.602417
19480.093670	16934.017833	1919.414063	-10.018980
19480.093670	16934.017833	1918.434570	159.133209
19480.093670	16934.017833	1917.456055	167.139145
19480.093670	16934.017833	1916.476563	-205.526978
19480.093670	16934.017833	1915.497070	-138.899124
19480.093670	16934.017833	1914.516602	169.198547
19480.093670	16934.017833	1913.537109	60.142635
19480.093670	16934.017833	1912.556641	-63.499004
19480.093670	16934.017833	1911.576172	-31.061304
19480.093670	16934.017833	1910.595703	-108.319199
19480.093670	16934.017833	1909.615234	-83.188293
19480.093670	16934.017833	1908.633789	-350.446014
19480.093670	16934.017833	1907.653320	171.696060
19480.093670	16934.017833	1906.671875	352.661133
19480.093670	16934.017833	1905.690430	85.489052
19480.093670	16934.017833	1904.708984	42.420280
19480.093670	16934.017833	1903.727539	-149.117203
19480.093670	16934.017833	1902.745117	175.395905
19480.093670	16934.017833	1901.762695	163.989517
19480.093670	16934.017833	1900.780273	184.222351
19480.093670	16934.017833	1899.797852	26.887522
19480.093670	16934.017833	1898.815430	25.264391
19480.093670	16934.017833	1897.832031	-17.682531
19480.093670	16934.017833	1896.849609	163.051498
19480.093670	16934.017833	1895.866211	-13.575320
19480.093670	16934.017833	1894.882813	-168.257919
19480.093670	16934.017833	1893.898438	-167.369751
19480.093670	16934.017833	1892.915039	176.050781
19480.093670	16934.017833	1891.930664	-70.850632
19480.093670	16934.017833	1890.947266	-62.676945
19480.093670	16934.017833	1889.962891	115.457748
19480.093670	16934.017833	1888.977539	70.207619
19480.093670	16934.017833	1887.993164	240.983261
19480.093670	16934.017833	1887.007813	300.082703
19480.093670	16934.017833	1886.023438	-152.743713
19480.093670	16934.017833	1885.038086	107.749290
19480.093670	16934.017833	1884.051758	115.930603
19480.093670	16934.017833	1883.066406	196.855209
19480.093670	16934.017833	1882.081055	139.571320
19480.093670	16934.017833	1881.094727	55.652569
19480.093670	16934.017833	1880.108398	-6.418678
19480.093670	16934.017833	1879.122070	1.800577
19480.093670	16934.017833	1878.135742	-227.379501
19480.093670	16934.017833	1877.148438	187.786545
19480.093670	16934.017833	1876.162109	106.378883
19480.093670	16934.017833	1875.174805	-347.843628
19480.093670	16934.017833	1874.187500	200.255493
19480.093670	16934.017833	1873.199219	-173.941574
19480.093670	16934.017833	1872.211914	73.873718
19480.093670	16934.017833	1871.223633	-19.520262
19480.093670	16934.017833	1870.236328	-49.990742
19480.093670	16934.017833	1869.248047	-157.835571
19480.093670	16934.017833	1868.258789	-168.924408
19480.093670	16934.017833	1867.270508	141.514145
19480.093670	16934.017833	1866.282227	-120.999207
19480.093670	16934.017833	1865.292969	213.476151
19480.093670	16934.017833	1864.303711	96.010208
19480.093670	16934.017833	1863.314453	-176.016785
19480.093670	16934.017833	1862.324219	-8.377139
19480.093670	16934.017833	1861.334961	-58.133480
19480.093670	16934.017833	1860.344727	-180.304474
19480.093670	16934.017833	1859.354492	-41.740128
19480.093670	16934.017833	1858.364258	-84.239891
19480.093670	16934.017833	1857.374023	124.217079
19480.093670	16934.017833	1856.383789	23.788334
19480.093670	16934.017833	1855.392578	268.310852
19480.093670	16934.017833	1854.401367	230.577164
19480.093670	16934.017833	1853.410156	84.348343
19480.093670	16934.017833	1852.418945	292.531921
19480.093670	16934.017833	1851.426758	-80.234444
19480.093670	16934.017833	1850.435547	50.765999
19480.093670	16934.017833	1849.443359	10.645177
19480.093670	16934.017833	1848.451172	-7.794552
19480.093670	16934.017833	1847.458984	277.219543
19480.093670	16934.017833	1846.466797	328.538330
19480.093670	16934.017833	1845.473633	346.119659
19480.093670	16934.017833	1844.480469	-57.556328
19480.093670	16934.017833	1843.487305	181.462769
19480.093670	16934.017833	1842.494141	199.010208
19480.093670	16934.017833	1841.500977	170.825485
19480.093670	16934.017833	1840.506836	178.712112
19480.093670	16934.017833	1839.513672	-128.454727
19480.093670	16934.017833	1838.519531	35.725613
19480.093670	16934.017833	1837.525391	615.694275
19480.093670	16934.017833	1836.530273	36.971474
19480.093670	16934.017833	1835.536133	-27.321367
19480.093670	16934.017833	1834.541016	199.091232
19480.093670	16934.017833	1833.545898	487.851685
19480.093670	16934.017833	1832.550781	67.996323
19480.093670	16934.017833	1831.555664	-164.432587
19480.093670	16934.017833	1830.560547	342.616943
19480.093670	16934.017833	1829.564453	126.971573
19480.093670	16934.017833	1828.568359	141.762115
19480.093670	16934.017833	1827.572266	36.548359
19480.093670	16934.017833	1826.576172	27.300293
19480.093670	16934.017833	1825.580078	123.558197
19480.093670	16934.017833	1824.583008	13.521649
19480.093670	16934.017833	1823.585938	-130.070984
19480.093670	16934.017833	1822.588867	-0.374736
19480.093670	16934.017833	1821.591797	191.553040
19480.093670	16934.017833	1820.594727	40.719448
19480.093670	16934.017833	1819.596680	218.122742
19480.093670	16934.017833	1818.599609	345.123596
19480.093670	16934.017833	1817.601563	237.346176
19480.093670	16934.017833	1816.603516	74.501740
19480.093670	16934.017833	1815.604492	445.527893
19480.093670	16934.017833	1814.606445	280.234802
19480.093670	16934.017833	1813.607422	356.662415
19480.093670	16934.017833	1812.608398	112.414711
19480.093670	16934.017833	1811.609375	30.881620
19480.093670	16934.017833	1810.610352	-246.777359
19480.093670	16934.017833	1809.610352	-471.767426
19480.093670	16934.017833	1808.611328	-261.594269
19480.093670	16934.017833	1807.611328	479.105743
19480.093670	16934.017833	1806.611328	-68.654854
19480.093670	16934.017833	1805.610352	81.453728
19480.093670	16934.017833	1804.610352	305.519867
19480.093670	16934.017833	1803.609375	-122.610596
19480.093670	16934.017833	1802.608398	149.076920
19480.093670	16934.017833	1801.607422	-4.381089
19480.093670	16934.017833	1800.606445	145.338989
19480.093670	16934.017833	1799.605469	82.539307
19480.093670	16934.017833	1798.603516	158.113846
19480.093670	16934.017833	1797.601563	424.475952
19480.093670	16934.017833	1796.599609	10.859378
19480.093670	16934.017833	1795.597656	188.804596
19480.093670	16934.017833	1794.595703	35.191906
19480.093670	16934.017833	1793.592773	-49.280201
19480.093670	16934.017833	1792.589844	316.717896
19480.093670	16934.017833	1791.587891	172.541351
19480.093670	16934.017833	1790.583984	85.548256
19480.093670	16934.017833	1789.581055	-361.179108
19480.093670	16934.017833	1788.577148	-136.139938
19480.093670	16934.017833	1787.574219	-49.359364
19480.093670	16934.017833	1786.570313	-195.987213
19480.093670	16934.017833	1785.566406	131.078049
19480.093670	16934.017833	1784.561523	10.534495
19480.093670	16934.017833	1783.557617	-362.246002
19480.093670	16934.017833	1782.552734	269.006287
19480.093670	16934.017833	1781.547852	17.506363
19480.093670	16934.017833	1780.542969	229.779205
19480.093670	16934.017833	1779.538086	-190.552551
19480.093670	16934.017833	1778.532227	16.802681
19480.093670	16934.017833	1777.527344	79.037788
19480.093670	16934.017833	1776.521484	260.000000
19480.093670	16934.017833	1775.515625	155.728973
19480.093670	16934.017833	1774.508789	-171.854996
19480.093670	16934.017833	1773.502930	113.365341
19480.093670	16934.017833	1772.496094	184.707474
19480.093670	16934.017833	1771.489258	168.117599
19480.093670	16934.017833	1770.482422	355.601227
19480.093670	16934.017833	1769.475586	137.138565
19480.093670	16934.017833	1768.467773	94.274597
19480.093670	16934.017833	1767.460938	105.924210
19480.093670	16934.017833	1766.453125	-98.330109
19480.093670	16934.017833	1765.445313	143.243408
19480.093670	16934.017833	1764.437500	185.501938
19480.093670	16934.017833	1763.428711	161.304688
19480.093670	16934.017833	1762.420898	-88.098785
19480.093670	16934.017833	1761.412109	46.392967
19480.093670	16934.017833	1760.403320	138.121460
19480.093670	16934.017833	1759.393555	26.043362
19480.093670	16934.017833	1758.384766	-57.640068
19480.093670	16934.017833	1757.375000	322.721008
19480.093670	16934.017833	1756.366211	312.263672
19480.093670	16934.017833	1755.356445	422.451996
19480.093670	16934.017833	1754.345703	118.406731
19480.093670	16934.017833	1753.335938	-8.142813
19480.093670	16934.017833	1752.325195	480.315918
19480.093670	16934.017833	1751.315430	152.580826
19480.093670	16934.017833	1750.304688	326.193542
19480.093670	16934.017833	1749.292969	71.757355
19480.093670	16934.017833	1748.282227	242.818619
19480.093670	16934.017833	1747.270508	309.760437
19480.093670	16934.017833	1746.259766	390.787628
19480.093670	16934.017833	1745.248047	81.923737
19480.093670	16934.017833	1744.235352	65.981026
19480.093670	16934.017833	1743.223633	359.326904
19480.093670	16934.017833	1742.211914	-166.774033
19480.093670	16934.017833	1741.199219	128.725800
19480.093670	16934.017833	1740.186523	74.747520
19480.093670	16934.017833	1739.173828	-116.138489
19480.093670	16934.017833	1738.160156	-113.570358
19480.093670	16934.017833	1737.147461	-231.365402
19480.093670	16934.017833	1736.133789	87.098442
19480.093670	16934.017833	1735.120117	72.914566
19480.093670	16934.017833	1734.106445	-47.416904
19480.093670	16934.017833	1733.091797	51.422684
19480.093670	16934.017833	1732.078125	117.167480
19480.093670	16934.017833	1731.063477	6.112826
19480.093670	16934.017833	1730.048828	111.745064
19480.093670	16934.017833	1729.034180	80.669853
19480.093670	16934.017833	1728.019531	209.658875
19480.093670	16934.017833	1727.003906	34.829323
19480.093670	16934.017833	1725.988281	-443.642700
19480.093670	16934.017833	1724.972656	-246.589005
19480.093670	16934.017833	1723.957031	383.256317
19480.093670	16934.017833	1722.941406	8.295856
19480.093670	16934.017833	1721.924805	-140.798767
19480.093670	16934.017833	1720.909180	-68.854362
19480.093670	16934.017833	1719.892578	-112.211624
19480.093670	16934.017833	1718.875977	241.642029
19480.093670	16934.017833	1717.858398	-130.922745
19480.093670	16934.017833	1716.841797	-409.415863
19480.093670	16934.017833	1715.824219	85.046219
19480.093670	16934.017833	1714.806641	-69.029518
19480.093670	16934.017833	1713.789063	-246.593872
19480.093670	16934.017833	1712.770508	85.346634
19480.093670	16934.017833	1711.752930	205.823776
19480.093670	16934.017833	1710.734375	213.529114
19480.093670	16934.017833	1709.715820	-133.168640
19480.093670	16934.017833	1708.697266	123.162582
19480.093670	16934.017833	1707.678711	290.197052
19480.093670	16934.017833	1706.659180	-0.222404
19480.093670	16934.017833	1705.640625	133.819534
19480.093670	16934.017833	1704.621094	291.189636
19480.093670	16934.017833	1703.600586	207.009338
19480.093670	16934.017833	1702.581055	-144.346695
19480.093670	16934.017833	1701.561523	92.466278
19480.093670	16934.017833	1700.541016	87.839622
19480.093670	16934.017833	1699.520508	-33.947144
19480.093670	16934.017833	1698.500000	464.790131
19480.093670	16934.017833	1697.478516	125.122398
19480.093670	16934.017833	1696.458008	31.311754
19480.093670	16934.017833	1695.436523	82.573738
19480.093670	16934.017833	1694.415039	646.188171
19480.093670	16934.017833	1693.393555	357.987732
19480.093670	16934.017833	1692.372070	224.213211
19480.093670	16934.017833	1691.349609	233.077972
19480.093670	16934.017833	1690.327148	351.776123
19480.093670	16934.017833	1689.304688	84.667702
19480.093670	16934.017833	1688.282227	170.520950
19480.093670	16934.017833	1687.259766	527.348267
19480.093670	16934.017833	1686.236328	612.974121
19480.093670	16934.017833	1685.213867	513.993835
19480.093670	16934.017833	1684.190430	459.366089
19480.093670	16934.017833	1683.166016	94.161858
19480.093670	16934.017833	1682.142578	616.150513
19480.093670	16934.017833	1681.119141	701.429993
19480.093670	16934.017833	1680.094727	375.916290
19480.093670	16934.017833	1679.070313	344.452606
19480.093670	16934.017833	1678.045898	711.842468
19480.093670	16934.017833	1677.020508	377.040863
19480.093670	16934.017833	1675.996094	371.110748
19480.093670	16934.017833	1674.970703	521.330566
19480.093670	16934.017833	1673.945313	885.887512
19480.093670	16934.017833	1672.919922	763.208130
19480.093670	16934.017833	1671.893555	353.940735
19480.093670	16934.017833	1670.868164	543.482605
19480.093670	16934.017833	1669.841797	702.629456
19480.093670	16934.017833	1668.815430	260.890991
19480.093670	16934.017833	1667.789063	243.012177
19480.093670	16934.017833	1666.761719	497.440002
19480.093670	16934.017833	1665.735352	1044.974487
19480.093670	16934.017833	1664.708008	719.700195
19480.093670	16934.017833	1663.680664	892.357300
19480.093670	16934.017833	1662.653320	1078.872681
19480.093670	16934.017833	1661.625000	1169.929443
19480.093670	16934.017833	1660.597656	1112.126709
19480.093670	16934.017833	1659.569336	1005.492310
19480.093670	16934.017833	1658.541016	1003.454041
19480.093670	16934.017833	1657.512695	850.346924
19480.093670	16934.017833	1656.483398	1208.375610
19480.093670	16934.017833	1655.455078	1287.512573
19480.093670	16934.017833	1654.425781	999.656250
19480.093670	16934.017833	1653.396484	797.797485
19480.093670	16934.017833	1652.366211	1450.269531
19480.093670	16934.017833	1651.336914	1111.414551
19480.093670	16934.017833	1650.306641	812.111023
19480.093670	16934.017833	1649.276367	942.115601
19480.093670	16934.017833	1648.246094	1413.036743
19480.093670	16934.017833	1647.215820	1227.427979
19480.093670	16934.017833	1646.185547	981.583435
19480.093670	16934.017833	1645.154297	1248.151001
19480.093670	16934.017833	1644.123047	1375.529785
19480.093670	16934.017833	1643.091797	1375.386719
19480.093670	16934.017833	1642.060547	1294.137085
19480.093670	16934.017833	1641.028320	1335.672729
19480.093670	16934.017833	1639.997070	1495.304565
19480.093670	16934.017833	1638.964844	1678.011108
19480.093670	16934.017833	1637.931641	1872.205322
19480.093670	16934.017833	1636.899414	1575.608398
19480.093670	16934.017833	1635.867188	1739.653320
19480.093670	16934.017833	1634.833984	1632.906006
19480.093670	16934.017833	1633.800781	1616.414185
19480.093670	16934.017833	1632.767578	1990.803711
19480.093670	16934.017833	1631.734375	1800.808350
19480.093670	16934.017833	1630.700195	1645.554321
19480.093670	16934.017833	1629.666016	2010.460571
19480.093670	16934.017833	1628.631836	2084.024170
19480.093670	16934.017833	1627.597656	1917.252197
19480.093670	16934.017833	1626.563477	2134.040039
19480.093670	16934.017833	1625.528320	2244.491211
19480.093670	16934.017833	1624.493164	2274.080566
19480.093670	16934.017833	1623.458008	2278.262695
19480.093670	16934.017833	1622.422852	2180.882568
19480.093670	16934.017833	1621.387695	2286.644043
19480.093670	16934.017833	1620.351563	2413.135010
19480.093670	16934.017833	1619.315430	2274.277832
19480.093670	16934.017833	1618.279297	2516.073730
19480.093670	16934.017833	1617.243164	2487.965576
19480.093670	16934.017833	1616.207031	2307.707764
19480.093670	16934.017833	1615.169922	1876.249756
19480.093670	16934.017833	1614.132813	2060.363525
19480.093670	16934.017833	1613.095703	2486.380127
19480.093670	16934.017833	1612.058594	2276.365479
19480.093670	16934.017833	1611.020508	2114.821289
19480.093670	16934.017833	1609.983398	2234.333496
19480.093670	16934.017833	1608.945313	2146.583984
19480.093670	16934.017833	1607.907227	2314.424805
19480.093670	16934.017833	1606.868164	2323.401123
19480.093670	16934.017833	1605.830078	2162.118164
19480.093670	16934.017833	1604.791016	2127.457031
19480.093670	16934.017833	1603.751953	2079.035889
19480.093670	16934.017833	1602.712891	1699.480591
19480.093670	16934.017833	1601.673828	2292.761230
19480.093670	16934.017833	1600.633789	2200.739014
19480.093670	16934.017833	1599.594727	2035.237793
19480.093670	16934.017833	1598.554688	2258.201904
19480.093670	16934.017833	1597.513672	2101.999512
19480.093670	16934.017833	1596.473633	2118.188965
19480.093670	16934.017833	1595.433594	2060.912842
19480.093670	16934.017833	1594.392578	2040.434814
19480.093670	16934.017833	1593.351563	2242.696777
19480.093670	16934.017833	1592.310547	2061.590332
19480.093670	16934.017833	1591.268555	1747.483154
19480.093670	16934.017833	1590.227539	2305.458008
19480.093670	16934.017833	1589.185547	2030.512695
19480.093670	16934.017833	1588.143555	2285.539795
19480.093670	16934.017833	1587.100586	2483.178467
19480.093670	16934.017833	1586.058594	2199.329590
19480.093670	16934.017833	1585.015625	1945.430542
19480.093670	16934.017833	1583.972656	2186.711670
19480.093670	16934.017833	1582.929688	2290.471191
19480.093670	16934.017833	1581.886719	2410.276367
19480.093670	16934.017833	1580.843750	2138.417480
19480.093670	16934.017833	1579.799805	2397.999268
19480.093670	16934.017833	1578.755859	2286.626221
19480.093670	16934.017833	1577.711914	2136.440674
19480.093670	16934.017833	1576.666992	2107.663818
19480.093670	16934.017833	1575.623047	2154.473145
19480.093670	16934.017833	1574.578125	2038.889282
19480.093670	16934.017833	1573.533203	2003.469849
19480.093670	16934.017833	1572.488281	2132.782471
19480.093670	16934.017833	1571.443359	1907.710815
19480.093670	16934.017833	1570.397461	1838.235352
19480.093670	16934.017833	1569.351563	1807.706421
19480.093670	16934.017833	1568.305664	1768.120972
19480.093670	16934.017833	1567.259766	1696.630737
19480.093670	16934.017833	1566.213867	1659.502319
19480.093670	16934.017833	1565.166992	1448.892090
19480.093670	16934.017833	1564.120117	1927.989624
19480.093670	16934.017833	1563.073242	1964.103027
19480.093670	16934.017833	1562.026367	1714.975220
19480.093670	16934.017833	1560.978516	1570.987549
19480.093670	16934.017833	1559.930664	1477.325562
19480.093670	16934.017833	1558.883789	1511.522339
19480.093670	16934.017833	1557.834961	1333.680176
19480.093670	16934.017833	1556.787109	1292.802490
19480.093670	16934.017833	1555.739258	1361.446289
19480.093670	16934.017833	1554.690430	1250.082642
19480.093670	16934.017833	1553.641602	1291.525879
19480.093670	16934.017833	1552.592773	1196.335571
19480.093670	16934.017833	1551.542969	1126.321167
19480.093670	16934.017833	1550.494141	1106.531006
19480.093670	16934.017833	1549.444336	1059.508911
19480.093670	16934.017833	1548.394531	1174.228516
19480.093670	16934.017833	1547.344727	1079.593384
19480.093670	16934.017833	1546.293945	948.671021
19480.093670	16934.017833	1545.244141	1181.930786
19480.093670	16934.017833	1544.193359	955.686829
19480.093670	16934.017833	1543.142578	847.890991
19480.093670	16934.017833	1542.090820	1210.921875
19480.093670	16934.017833	1541.040039	1173.785156
19480.093670	16934.017833	1539.988281	1182.219360
19480.093670	16934.017833	1538.936523	1174.840088
19480.093670	16934.017833	1537.884766	1519.738159
19480.093670	16934.017833	1536.833008	1551.113770
19480.093670	16934.017833	1535.780273	1344.101929
19480.093670	16934.017833	1534.727539	1128.190552
19480.093670	16934.017833	1533.674805	1016.902344
19480.093670	16934.017833	1532.622070	1237.159912
19480.093670	16934.017833	1531.569336	1464.245361
19480.093670	16934.017833	1530.515625	1369.155640
19480.093670	16934.017833	1529.461914	1092.729736
19480.093670	16934.017833	1528.408203	655.490234
19480.093670	16934.017833	1527.354492	803.574585
19480.093670	16934.017833	1526.299805	879.161560
19480.093670	16934.017833	1525.246094	1152.035034
19480.093670	16934.017833	1524.191406	722.371948
19480.093670	16934.017833	1523.136719	442.534363
19480.093670	16934.017833	1522.081055	566.154602
19480.093670	16934.017833	1521.026367	334.251923
19480.093670	16934.017833	1519.970703	625.646729
19480.093670	16934.017833	1518.915039	319.343201
19480.093670	16934.017833	1517.859375	255.482666
19480.093670	16934.017833	1516.802734	390.918671
19480.093670	16934.017833	1515.747070	510.581421
19480.093670	16934.017833	1514.690430	-70.973183
19480.093670	16934.017833	1513.633789	-242.792404
19480.093670	16934.017833	1512.577148	44.628376
19480.093670	16934.017833	1511.519531	47.186180
19480.093670	16934.017833	1510.461914	682.788391
19480.093670	16934.017833	1509.405273	289.970917
19480.093670	16934.017833	1508.346680	161.798920
19480.093670	16934.017833	1507.289063	390.741791
19480.093670	16934.017833	1506.231445	497.753357
19480.093670	16934.017833	1505.172852	146.436325
19480.093670	16934.017833	1504.114258	39.224705
19480.093670	16934.017833	1503.055664	56.335949
19480.093670	16934.017833	1501.996094	-111.490173
19480.093670	16934.017833	1500.937500	88.675056
19480.093670	16934.017833	1499.877930	135.488403
19480.093670	16934.017833	1498.818359	-160.423462
19480.093670	16934.017833	1497.757813	-102.037071
19480.093670	16934.017833	1496.698242	-50.307579
19480.093670	16934.017833	1495.637695	258.512573
19480.093670	16934.017833	1494.577148	-169.618408
19480.093670	16934.017833	1493.516602	15.442588
19480.093670	16934.017833	1492.456055	83.422668
19480.093670	16934.017833	1491.394531	23.127207
19480.093670	16934.017833	1490.333008	-73.036934
19480.093670	16934.017833	1489.271484	-27.180567
19480.093670	16934.017833	1488.209961	-174.793442
19480.093670	16934.017833	1487.148438	312.456970
19480.093670	16934.017833	1486.085938	-377.166382
19480.093670	16934.017833	1485.023438	143.959534
19480.093670	16934.017833	1483.960938	-169.450027
19480.093670	16934.017833	1482.898438	-48.576279
19480.093670	16934.017833	1481.834961	169.074738
19480.093670	16934.017833	1480.772461	-44.813545
19480.093670	16934.017833	1479.708984	44.924171
19480.093670	16934.017833	1478.644531	-42.689835
19480.093670	16934.017833	1477.581055	-44.853832
19480.093670	16934.017833	1476.517578	4.926339
19480.093670	16934.017833	1475.453125	-80.008949
19480.093670	16934.017833	1474.388672	-27.792082
19480.093670	16934.017833	1473.323242	62.706631
19480.093670	16934.017833	1472.258789	-169.761307
19480.093670	16934.017833	1471.193359	-195.405472
19480.093670	16934.017833	1470.127930	312.455597
19480.093670	16934.017833	1469.062500	150.081940
19480.093670	16934.017833	1467.997070	153.760956
19480.093670	16934.017833	1466.930664	179.730499
19480.093670	16934.017833	1465.865234	436.849731
19480.093670	16934.017833	1464.798828	73.781723
19480.093670	16934.017833	1463.731445	136.304443
19480.093670	16934.017833	1462.665039	140.856293
19480.093670	16934.017833	1461.597656	389.206573
19480.093670	16934.017833	1460.530273	512.990540
19480.093670	16934.017833	1459.462891	483.761047
19480.093670	16934.017833	1458.395508	538.268311
19480.093670	16934.017833	1457.327148	596.985596
19480.093670	16934.017833	1456.259766	746.964905
19480.093670	16934.017833	1455.191406	534.211487
19480.093670	16934.017833	1454.123047	808.115479
19480.093670	16934.017833	1453.053711	324.023834
19480.093670	16934.017833	1451.985352	596.704041
19480.093670	16934.017833	1450.916016	555.914429
19480.093670	16934.017833	1449.846680	393.513336
19480.093670	16934.017833	1448.776367	414.555115
19480.093670	16934.017833	1447.707031	212.687103
19480.093670	16934.017833	1446.636719	616.746704
19480.093670	16934.017833	1445.566406	737.406128
19480.093670	16934.017833	1444.496094	1069.417358
19480.093670	16934.017833	1443.425781	695.830994
19480.093670	16934.017833	1442.354492	241.876251
19480.093670	16934.017833	1441.283203	462.134796
19480.093670	16934.017833	1440.211914	502.430756
19480.093670	16934.017833	1439.140625	385.469177
19480.093670	16934.017833	1438.069336	227.488220
19480.093670	16934.017833	1436.997070	56.008606
19480.093670	16934.017833	1435.924805	491.660095
19480.093670	16934.017833	1434.852539	105.733620
19480.093670	16934.017833	1433.780273	113.139175
19480.093670	16934.017833	1432.707031	154.058105
19480.093670	16934.017833	1431.633789	208.432083
19480.093670	16934.017833	1430.560547	410.634003
19480.093670	16934.017833	1429.487305	197.103149
19480.093670	16934.017833	1428.413086	227.232285
19480.093670	16934.017833	1427.339844	-70.694298
19480.093670	16934.017833	1426.265625	-347.043060
19480.093670	16934.017833	1425.191406	99.935333
19480.093670	16934.017833	1424.116211	-43.680260
19480.093670	16934.017833	1423.041992	185.283936
19480.093670	16934.017833	1421.966797	-94.660576
19480.093670	16934.017833	1420.891602	11.461557
19480.093670	16934.017833	1419.816406	262.362915
19480.093670	16934.017833	1418.740234	253.742111
19480.093670	16934.017833	1417.665039	433.583954
19480.093670	16934.017833	1416.588867	258.245056
19480.093670	16934.017833	1415.512695	260.926544
19480.093670	16934.017833	1414.435547	179.569702
19480.093670	16934.017833	1413.359375	60.369171
19480.093670	16934.017833	1412.282227	256.465759
19480.093670	16934.017833	1411.205078	160.079559
19480.093670	16934.017833	1410.127930	21.997282
19480.093670	16934.017833	1409.049805	124.848305
19480.093670	16934.017833	1407.972656	-123.199516
19480.093670	16934.017833	1406.894531	-11.986519
19480.093670	16934.017833	1405.816406	142.519165
19480.093670	16934.017833	1404.737305	123.119270
19480.093670	16934.017833	1403.659180	-63.738205
19480.093670	16934.017833	1402.580078	255.013657
19480.093670	16934.017833	1401.500977	296.210846
19480.093670	16934.017833	1400.421875	-344.985046
19480.093670	16934.017833	1399.341797	-232.771683
19480.093670	16934.017833	1398.262695	-186.487610
19480.093670	16934.017833	1397.182617	99.689262
19480.093670	16934.017833	1396.102539	240.375458
19480.093670	16934.017833	1395.021484	160.084686
19480.093670	16934.017833	1393.941406	-116.573410
19480.093670	16934.017833	1392.860352	-324.705475
19480.093670	16934.017833	1391.779297	-218.617416
19480.093670	16934.017833	1390.698242	-49.817661
19480.093670	16934.017833	1389.616211	-32.983318
19480.093670	16934.017833	1388.535156	-12.410381
19480.093670	16934.017833	1387.453125	-239.204269
19480.093670	16934.017833	1386.371094	142.861603
19480.093670	16934.017833	1385.288086	135.926987
19480.093670	16934.017833	1384.206055	-86.717232
19480.093670	16934.017833	1383.123047	-56.072041
19480.093670	16934.017833	1382.040039	92.492920
19480.093670	16934.017833	1380.957031	194.642960
19480.093670	16934.017833	1379.873047	299.116028
19480.093670	16934.017833	1378.789063	429.268677
19480.093670	16934.017833	1377.705078	475.316956
19480.093670	16934.017833	1376.621094	250.527649
19480.093670	16934.017833	1375.537109	400.878540
19480.093670	16934.017833	1374.452148	174.612045
19480.093670	16934.017833	1373.367188	-51.492149
19480.093670	16934.017833	1372.282227	387.967499
19480.093670	16934.017833	1371.197266	65.617180
19480.093670	16934.017833	1370.112305	264.102539
19480.093670	16934.017833	1369.026367	72.057106
19480.093670	16934.017833	1367.940430	68.388908
19480.093670	16934.017833	1366.854492	-69.223236
19480.093670	16934.017833	1365.767578	-92.139587
19480.093670	16934.017833	1364.681641	202.537628
19480.093670	16934.017833	1363.594727	3.122004
19480.093670	16934.017833	1362.507813	79.479904
19480.093670	16934.017833	1361.419922	58.966286
19480.093670	16934.017833	1360.333008	-59.418453
19480.093670	16934.017833	1359.245117	-136.621613
19480.093670	16934.017833	1358.157227	190.902390
19480.093670	16934.017833	1357.069336	235.599884
19480.093670	16934.017833	1355.981445	172.620331
19480.093670	16934.017833	1354.892578	351.352478
19480.093670	16934.017833	1353.803711	335.109009
19480.093670	16934.017833	1352.714844	401.291290
19480.093670	16934.017833	1351.625000	265.436829
19480.093670	16934.017833	1350.536133	239.465942
19480.093670	16934.017833	1349.446289	193.036591
19480.093670	16934.017833	1348.356445	-8.539069
19480.093670	16934.017833	1347.266602	85.927422
19480.093670	16934.017833	1346.175781	247.442719
19480.093670	16934.017833	1345.085938	282.531616
19480.093670	16934.017833	1343.995117	369.767059
19480.093670	16934.017833	1342.903320	504.579956
19480.093670	16934.017833	1341.812500	477.691772
19480.093670	16934.017833	1340.720703	248.472900
19480.093670	16934.017833	1339.629883	64.732300
19480.093670	16934.017833	1338.538086	238.901260
19480.093670	16934.017833	1337.445313	90.982918
19480.093670	16934.017833	1336.353516	504.039551
19480.093670	16934.017833	1335.260742	815.682678
19480.093670	16934.017833	1334.167969	206.541458
19480.093670	16934.017833	1333.075195	92.903885
19480.093670	16934.017833	1331.981445	228.353851
19480.093670	16934.017833	1330.888672	287.630524
19480.093670	16934.017833	1329.794922	434.551239
19480.093670	16934.017833	1328.701172	568.496765
19480.093670	16934.017833	1327.606445	564.201599
19480.093670	16934.017833	1326.512695	243.554688
19480.093670	16934.017833	1325.417969	454.961884
19480.093670	16934.017833	1324.323242	240.149246
19480.093670	16934.017833	1323.227539	439.195374
19480.093670	16934.017833	1322.132813	351.640869
19480.093670	16934.017833	1321.037109	50.628532
19480.093670	16934.017833	1319.941406	351.741486
19480.093670	16934.017833	1318.845703	518.441467
19480.093670	16934.017833	1317.750000	408.770294
19480.093670	16934.017833	1316.653320	461.896820
19480.093670	16934.017833	1315.556641	248.630402
19480.093670	16934.017833	1314.459961	400.153473
19480.093670	16934.017833	1313.363281	346.605469
19480.093670	16934.017833	1312.265625	416.698456
19480.093670	16934.017833	1311.167969	166.194687
19480.093670	16934.017833	1310.070313	228.393707
19480.093670	16934.017833	1308.972656	5.391967
19480.093670	16934.017833	1307.874023	359.216278
19480.093670	16934.017833	1306.776367	156.178589
19480.093670	16934.017833	1305.677734	30.277149
19480.093670	16934.017833	1304.579102	79.531540
19480.093670	16934.017833	1303.479492	290.750031
19480.093670	16934.017833	1302.380859	503.160126
19480.093670	16934.017833	1301.281250	59.344463
19480.093670	16934.017833	1300.181641	199.244293
19480.093670	16934.017833	1299.081055	153.578232
19480.093670	16934.017833	1297.981445	113.354607
19480.093670	16934.017833	1296.880859	262.443573
19480.093670	16934.017833	1295.780273	109.875969
19480.093670	16934.017833	1294.679688	-161.380676
19480.093670	16934.017833	1293.578125	233.570221
19480.093670	16934.017833	1292.476563	-103.320740
19480.093670	16934.017833	1291.375000	-84.918068
19480.093670	16934.017833	1290.273438	-144.639053
19480.093670	16934.017833	1289.171875	-25.606022
19480.093670	16934.017833	1288.069336	36.892265
19480.093670	16934.017833	1286.966797	-1.176234
19480.093670	16934.017833	1285.864258	50.771210
19480.093670	16934.017833	1284.761719	133.424744
19480.093670	16934.017833	1283.658203	147.691086
19480.093670	16934.017833	1282.554688	142.653244
19480.093670	16934.017833	1281.451172	-3.660726
19480.093670	16934.017833	1280.347656	168.394394
19480.093670	16934.017833	1279.244141	164.188416
19480.093670	16934.017833	1278.139648	-216.108078
19480.093670	16934.017833	1277.035156	81.574066
19480.093670	16934.017833	1275.930664	6.944522
19480.093670	16934.017833	1274.825195	215.332138
19480.093670	16934.017833	1273.720703	225.831329
19480.093670	16934.017833	1272.615234	96.073723
19480.093670	16934.017833	1271.508789	25.862831
19480.093670	16934.017833	1270.403320	419.876892
19480.093670	16934.017833	1269.297852	160.739685
19480.093670	16934.017833	1268.191406	92.288078
19480.093670	16934.017833	1267.084961	28.620262
19480.093670	16934.017833	1265.977539	17.164885
19480.093670	16934.017833	1264.871094	118.553085
19480.093670	16934.017833	1263.763672	29.211803
19480.093670	16934.017833	1262.656250	-118.698334
19480.093670	16934.017833	1261.548828	-60.721539
19480.093670	16934.017833	1260.440430	-158.016968
19480.093670	16934.017833	1259.333008	63.249485
19480.093670	16934.017833	1258.224609	-56.176723
19480.093670	16934.017833	1257.115234	56.025467
19480.093670	16934.017833	1256.006836	187.277985
19480.093670	16934.017833	1254.897461	43.027523
19480.093670	16934.017833	1253.788086	-36.631771
19480.093670	16934.017833	1252.678711	-111.019501
19480.093670	16934.017833	1251.569336	138.894348
19480.093670	16934.017833	1250.458984	41.722229
19480.093670	16934.017833	1249.349609	10.762927
19480.093670	16934.017833	1248.239258	-31.515265
19480.093670	16934.017833	1247.127930	-44.816681
19480.093670	16934.017833	1246.017578	-23.287836
19480.093670	16934.017833	1244.906250	-253.065887
19480.093670	16934.017833	1243.794922	-21.431740
19480.093670	16934.017833	1242.683594	-61.812363
19480.093670	16934.017833	1241.571289	-266.655853
19480.093670	16934.017833	1240.459961	77.045616
19480.093670	16934.017833	1239.347656	243.301346
19480.093670	16934.017833	1238.234375	-30.180870
19480.093670	16934.017833	1237.122070	152.304092
19480.093670	16934.017833	1236.008789	-31.931746
19480.093670	16934.017833	1234.896484	-100.743752
19480.093670	16934.017833	1233.782227	-99.749306
19480.093670	16934.017833	1232.668945	117.211563
19480.093670	16934.017833	1231.555664	-117.850258
19480.093670	16934.017833	1230.441406	-75.261818
19480.093670	16934.017833	1229.327148	-40.893711
19480.093670	16934.017833	1228.211914	-128.221451
19480.093670	16934.017833	1227.097656	-69.518135
19480.093670	16934.017833	1225.982422	-44.960243
19480.093670	16934.017833	1224.867188	40.640331
19480.093670	16934.017833	1223.751953	-57.119877
19480.093670	16934.017833	1222.635742	-3.952781
19480.093670	16934.017833	1221.520508	-94.394943
19480.093670	16934.017833	1220.404297	-32.857368
19480.093670	16934.017833	1219.287109	-34.610744
19480.093670	16934.017833	1218.170898	-44.603592
19480.093670	16934.017833	1217.053711	-78.157196
19480.093670	16934.017833	1215.936523	127.510513
19480.093670	16934.017833	1214.819336	81.697281
19480.093670	16934.017833	1213.702148	193.366898
19480.093670	16934.017833	1212.583984	168.240860
19480.093670	16934.017833	1211.465820	-39.988461
19480.093670	16934.017833	1210.347656	11.746240
19480.093670	16934.017833	1209.229492	-7.401774
19480.093670	16934.017833	1208.110352	17.042814
19480.093670	16934.017833	1206.992188	77.741516
19480.093670	16934.017833	1205.873047	40.886189
19480.093670	16934.017833	1204.752930	24.217922
19480.093670	16934.017833	1203.633789	-90.093735
19480.093670	16934.017833	1202.513672	35.117500
19480.093670	16934.017833	1201.393555	-68.801361
19480.093670	16934.017833	1200.273438	53.084255
19480.093670	16934.017833	1199.152344	5.628332
19480.093670	16934.017833	1198.032227	-103.671028
19480.093670	16934.017833	1196.911133	-14.819759
19480.093670	16934.017833	1195.790039	183.054764
19480.093670	16934.017833	1194.667969	60.909908
19480.093670	16934.017833	1193.545898	245.641846
19480.093670	16934.017833	1192.424805	73.818810
19480.093670	16934.017833	1191.301758	154.478561
19480.093670	16934.017833	1190.179688	-10.744625
19480.093670	16934.017833	1189.056641	26.820484
19480.093670	16934.017833	1187.933594	-300.425751
19480.093670	16934.017833	1186.810547	-34.160015
19480.093670	16934.017833	1185.687500	-147.642883
19480.093670	16934.017833	1184.563477	-175.741592
19480.093670	16934.017833	1183.440430	-180.818039
19480.093670	16934.017833	1182.316406	-168.174194
19480.093670	16934.017833	1181.191406	-59.232887
19480.093670	16934.017833	1180.067383	118.675537
19480.093670	16934.017833	1178.942383	-11.044135
19480.093670	16934.017833	1177.817383	-137.074997
19480.093670	16934.017833	1176.692383	-118.941261
19480.093670	16934.017833	1175.566406	66.468025
19480.093670	16934.017833	1174.440430	-232.721451
19480.093670	16934.017833	1173.314453	3.919243
19480.093670	16934.017833	1172.188477	-136.952423
19480.093670	16934.017833	1171.062500	-8.526610
19480.093670	16934.017833	1169.935547	90.809326
19480.093670	16934.017833	1168.808594	-143.347870
19480.093670	16934.017833	1167.681641	27.311630
19480.093670	16934.017833	1166.553711	-75.238304
19480.093670	16934.017833	1165.426758	-103.595917
19480.093670	16934.017833	1164.298828	98.021111
19480.093670	16934.017833	1163.170898	-22.713961
19480.093670	16934.017833	1162.041992	218.893204
19480.093670	16934.017833	1160.914063	101.598427
19480.093670	16934.017833	1159.785156	162.833954
19480.093670	16934.017833	1158.656250	-77.287193
19480.093670	16934.017833	1157.526367	33.075573
19480.093670	16934.017833	1156.397461	77.645447
19480.093670	16934.017833	1155.267578	-140.518860
19480.093670	16934.017833	1154.137695	-176.899719
19480.093670	16934.017833	1153.006836	-173.982956
19480.093670	16934.017833	1151.876953	-31.027193
19480.093670	16934.017833	1150.746094	-76.751564
19480.093670	16934.017833	1149.615234	-153.921356
19480.093670	16934.017833	1148.484375	-142.749954
19480.093670	16934.017833	1147.352539	68.923035
19480.093670	16934.017833	1146.220703	29.307184
19480.093670	16934.017833	1145.088867	-221.758148
19480.093670	16934.017833	1143.957031	-310.816376
19480.093670	16934.017833	1142.825195	-104.549599
19480.093670	16934.017833	1141.692383	81.680794
19480.093670	16934.017833	1140.559570	-213.842941
19480.093670	16934.017833	1139.426758	199.245956
19480.093670	16934.017833	1138.292969	-36.609379
19480.093670	16934.017833	1137.159180	66.426277
19480.093670	16934.017833	1136.025391	21.077152
19480.093670	16934.017833	1134.891602	109.671005
19480.093670	16934.017833	1133.757813	47.807079
19480.093670	16934.017833	1132.623047	-215.478058
19480.093670	16934.017833	1131.488281	-141.544067
19480.093670	16934.017833	1130.353516	23.960306
19480.093670	16934.017833	1129.217773	290.842896
19480.093670	16934.017833	1128.083008	250.324905
19480.093670	16934.017833	1126.947266	61.539867
19480.093670	16934.017833	1125.811523	125.105133
19480.093670	16934.017833	1124.674805	353.554840
19480.093670	16934.017833	1123.539063	167.331573
19480.093670	16934.017833	1122.402344	-123.390709
19480.093670	16934.017833	1121.265625	160.226410
19480.093670	16934.017833	1120.127930	15.156272
19480.093670	16934.017833	1118.990234	27.555817
19480.093670	16934.017833	1117.853516	10.111606
19480.093670	16934.017833	1116.714844	129.927261
19480.093670	16934.017833	1115.577148	240.197632
19480.093670	16934.017833	1114.439453	236.681137
19480.093670	16934.017833	1113.300781	251.962051
19480.093670	16934.017833	1112.162109	162.498611
19480.093670	16934.017833	1111.022461	368.402313
19480.093670	16934.017833	1109.883789	263.512268
19480.093670	16934.017833	1108.744141	201.836655
19480.093670	16934.017833	1107.604492	199.052841
19480.093670	16934.017833	1106.463867	239.295486
19480.093670	16934.017833	1105.324219	132.535248
19480.093670	16934.017833	1104.183594	55.150784
19480.093670	16934.017833	1103.042969	213.897980
19480.093670	16934.017833	1101.902344	220.151810
19480.093670	16934.017833	1100.760742	151.493835
19480.093670	16934.017833	1099.619141	66.648956
19480.093670	16934.017833	1098.477539	297.583954
19480.093670	16934.017833	1097.335938	298.490295
19480.093670	16934.017833	1096.193359	230.705109
19480.093670	16934.017833	1095.051758	451.102936
19480.093670	16934.017833	1093.909180	397.631409
19480.093670	16934.017833	1092.765625	362.925171
19480.093670	16934.017833	1091.623047	319.744019
19480.093670	16934.017833	1090.479492	134.542984
19480.093670	16934.017833	1089.335938	230.428619
19480.093670	16934.017833	1088.192383	693.901062
19480.093670	16934.017833	1087.047852	376.082062
19480.093670	16934.017833	1085.903320	625.582336
19480.093670	16934.017833	1084.758789	403.648193
19480.093670	16934.017833	1083.614258	379.560974
19480.093670	16934.017833	1082.469727	442.191986
19480.093670	16934.017833	1081.324219	303.240723
19480.093670	16934.017833	1080.178711	466.791077
19480.093670	16934.017833	1079.033203	401.095215
19480.093670	16934.017833	1077.886719	453.602448
19480.093670	16934.017833	1076.740234	467.412506
19480.093670	16934.017833	1075.593750	363.814728
19480.093670	16934.017833	1074.447266	303.395294
19480.093670	16934.017833	1073.300781	699.593872
19480.093670	16934.017833	1072.153320	505.548920
19480.093670	16934.017833	1071.005859	338.175110
19480.093670	16934.017833	1069.858398	50.777382
19480.093670	16934.017833	1068.709961	350.355347
19480.093670	16934.017833	1067.561523	254.816116
19480.093670	16934.017833	1066.413086	437.101379
19480.093670	16934.017833	1065.264648	404.361847
19480.093670	16934.017833	1064.116211	230.574402
19480.093670	16934.017833	1062.966797	216.072311
19480.093670	16934.017833	1061.817383	476.897858
19480.093670	16934.017833	1060.667969	306.479126
19480.093670	16934.017833	1059.517578	428.727295
19480.093670	16934.017833	1058.368164	433.408936
19480.093670	16934.017833	1057.217773	322.560822
19480.093670	16934.017833	1056.067383	216.965912
19480.093670	16934.017833	1054.916016	364.687469
19480.093670	16934.017833	1053.764648	412.916779
19480.093670	16934.017833	1052.613281	397.544891
19480.093670	16934.017833	1051.461914	413.451172
19480.093670	16934.017833	1050.310547	289.833313
19480.093670	16934.017833	1049.158203	197.824554
19480.093670	16934.017833	1048.005859	80.210381
19480.093670	16934.017833	1046.853516	72.026405
19480.093670	16934.017833	1045.700195	133.808044
19480.093670	16934.017833	1044.547852	114.136215
19480.093670	16934.017833	1043.394531	168.965988
19480.093670	16934.017833	1042.240234	290.926575
19480.093670	16934.017833	1041.086914	266.097321
19480.093670	16934.017833	1039.932617	263.181000
19480.093670	16934.017833	1038.778320	502.282043
19480.093670	16934.017833	1037.624023	210.029922
19480.093670	16934.017833	1036.469727	416.649719
19480.093670	16934.017833	1035.314453	209.578690
19480.093670	16934.017833	1034.159180	375.845428
19480.093670	16934.017833	1033.003906	404.007080
19480.093670	16934.017833	1031.847656	723.561279
19480.093670	16934.017833	1030.692383	434.541748
19480.093670	16934.017833	1029.536133	558.800537
19480.093670	16934.017833	1028.378906	389.308777
19480.093670	16934.017833	1027.222656	481.159149
19480.093670	16934.017833	1026.065430	245.931854
19480.093670	16934.017833	1024.908203	374.997833
19480.093670	16934.017833	1023.750977	391.687775
19480.093670	16934.017833	1022.593750	133.334305
19480.093670	16934.017833	1021.435547	351.270447
19480.093670	16934.017833	1020.277344	180.435776
19480.093670	16934.017833	1019.119141	344.086792
19480.093670	16934.017833	1017.959961	326.943054
19480.093670	16934.017833	1016.800781	290.161163
19480.093670	16934.017833	1015.641602	226.183136
19480.093670	16934.017833	1014.482422	98.341660
19480.093670	16934.017833	1013.323242	326.637390
19480.093670	16934.017833	1012.163086	98.447830
19480.093670	16934.017833	1011.002930	107.283401
19480.093670	16934.017833	1009.842773	236.685760
19480.093670	16934.017833	1008.681641	235.452209
19480.093670	16934.017833	1007.520508	221.028885
19480.093670	16934.017833	1006.359375	12.248464
19480.093670	16934.017833	1005.198242	70.150711
19480.093670	16934.017833	1004.037109	103.140602
19480.093670	16934.017833	1002.875000	368.243683
19480.093670	16934.017833	1001.712891	435.068481
19480.093670	16934.017833	1000.550781	295.264130
19480.093670	16934.017833	999.387695	89.139229
19480.093670	16934.017833	998.224609	318.620850
19480.093670	16934.017833	997.061523	90.860062
19480.093670	16934.017833	995.898438	244.920074
19480.093670	16934.017833	994.734375	265.160095
19480.093670	16934.017833	993.571289	154.232925
19480.093670	16934.017833	992.407227	147.602295
19480.093670	16934.017833	991.242188	0.835207
19480.093670	16934.017833	990.078125	-153.923096
19480.093670	16934.017833	988.913086	-53.025513
19480.093670	16934.017833	987.748047	-80.767212
19480.093670	16934.017833	986.583008	26.959946
19480.093670	16934.017833	985.416992	160.251144
19480.093670	16934.017833	984.250977	90.311371
19480.093670	16934.017833	983.084961	199.131577
19480.093670	16934.017833	981.918945	129.075745
19480.093670	16934.017833	980.751953	30.215481
19480.093670	16934.017833	979.584961	-160.970642
19480.093670	16934.017833	978.417969	78.752472
19480.093670	16934.017833	977.250977	-294.034363
19480.093670	16934.017833	976.083008	-87.580086
19480.093670	16934.017833	974.915039	221.289413
19480.093670	16934.017833	973.747070	-1.157584
19480.093670	16934.017833	972.579102	3.026895
19480.093670	16934.017833	971.410156	-76.527283
19480.093670	16934.017833	970.242188	76.828491
19480.093670	16934.017833	969.072266	166.197128
19480.093670	16934.017833	967.903320	-135.694748
19480.093670	16934.017833	966.733398	37.177341
19480.093670	16934.017833	965.563477	-95.957581
19480.093670	16934.017833	964.393555	177.073074
19480.093670	16934.017833	963.223633	-34.079617
19480.093670	16934.017833	962.052734	351.042053
19480.093670	16934.017833	960.881836	19.386003
19480.093670	16934.017833	959.710938	476.765411
19480.093670	16934.017833	958.540039	225.128250
19480.093670	16934.017833	957.368164	-1.593320
19480.093670	16934.017833	956.196289	98.017487
19480.093670	16934.017833	955.024414	133.943756
19480.093670	16934.017833	953.851563	229.430099
19480.093670	16934.017833	952.679688	366.333069
19480.093670	16934.017833	951.506836	281.506348
19480.093670	16934.017833	950.333984	81.259415
19480.093670	16934.017833	949.160156	-217.305817
19480.093670	16934.017833	947.986328	-306.151337
19480.093670	16934.017833	946.812500	104.723526
19480.093670	16934.017833	945.638672	19.891665
19480.093670	16934.017833	944.464844	38.580280
19480.093670	16934.017833	943.290039	93.459473
19480.093670	16934.017833	942.115234	-41.680668
19480.093670	16934.017833	940.940430	191.599930
19480.093670	16934.017833	939.764648	140.432236
19480.093670	16934.017833	938.588867	7.096615
19480.093670	16934.017833	937.413086	209.714767
19480.093670	16934.017833	936.237305	-56.765450
19480.093670	16934.017833	935.060547	129.001663
19480.093670	16934.017833	933.883789	48.062164
19480.093670	16934.017833	932.707031	96.172493
19480.093670	16934.017833	931.530273	-136.602325
19480.093670	16934.017833	930.352539	-132.176483
19480.093670	16934.017833	929.175781	-121.647682
19480.093670	16934.017833	927.998047	36.758644
19480.093670	16934.017833	926.819336	3.695325
19480.093670	16934.017833	925.641602	74.576431
19480.093670	16934.017833	924.462891	14.461574
19480.093670	16934.017833	923.284180	126.924255
19480.093670	16934.017833	922.104492	-132.791641
19480.093670	16934.017833	920.924805	-59.854813
19480.093670	16934.017833	919.746094	-49.035423
19480.093670	16934.017833	919.551758	31.448313
19480.093670	16934.017833	918.386719	43.918610
19480.093670	16934.017833	917.220703	-203.281494
19480.093670	16934.017833	916.054688	-190.785522
19480.093670	16934.017833	914.887695	-24.640762
19480.093670	16934.017833	913.721680	33.463520
19480.093670	16934.017833	912.554688	162.113907
19480.093670	16934.017833	911.387695	33.378059
19480.093670	16934.017833	910.220703	76.889214
19480.093670	16934.017833	909.052734	-120.241829
19480.093670	16934.017833	907.885742	-14.518727
19480.093670	16934.017833	906.717773	-4.220286
19480.093670	16934.017833	905.548828	97.290550
19480.093670	16934.017833	904.380859	-182.624619
19480.093670	16934.017833	903.211914	5.897908
19480.093670	16934.017833	902.042969	-118.507790
19480.093670	16934.017833	900.874023	-27.444899
19480.093670	16934.017833	899.704102	71.867165
19480.093670	16934.017833	898.535156	-17.297853
19480.093670	16934.017833	897.365234	-21.547100
19480.093670	16934.017833	896.194336	-214.136169
19480.093670	16934.017833	895.024414	-5.222949
19480.093670	16934.017833	893.853516	-19.824808
19480.093670	16934.017833	892.682617	93.813416
19480.093670	16934.017833	891.511719	157.770081
19480.093670	16934.017833	890.340820	240.303238
19480.093670	16934.017833	889.168945	167.769485
19480.093670	16934.017833	887.997070	-37.009621
19480.093670	16934.017833	886.825195	-200.385468
19480.093670	16934.017833	885.653320	105.261299
19480.093670	16934.017833	884.480469	-117.972572
19480.093670	16934.017833	883.307617	-35.492115
19480.093670	16934.017833	882.134766	-54.217094
19480.093670	16934.017833	880.961914	139.676849
19480.093670	16934.017833	879.788086	92.034439
19480.093670	16934.017833	878.614258	114.561974
19480.093670	16934.017833	877.440430	-89.847878
19480.093670	16934.017833	876.266602	-108.548538
19480.093670	16934.017833	875.091797	118.152321
19480.093670	16934.017833	873.916992	-7.787103
19480.093670	16934.017833	872.742188	-129.558151
19480.093670	16934.017833	871.567383	-212.123688
19480.093670	16934.017833	870.391602	14.409723
19480.093670	16934.017833	869.215820	-45.489971
19480.093670	16934.017833	868.040039	14.087380
19480.093670	16934.017833	866.864258	-101.389481
19480.093670	16934.017833	865.687500	32.291183
19480.093670	16934.017833	864.510742	120.632423
19480.093670	16934.017833	863.333984	-58.590424
19480.093670	16934.017833	862.157227	-85.490692
19480.093670	16934.017833	860.979492	292.862030
19480.093670	16934.017833	859.802734	8.817642
19480.093670	16934.017833	858.625000	37.436207
19480.093670	16934.017833	857.446289	-90.188644
19480.093670	16934.017833	856.268555	135.744141
19480.093670	16934.017833	855.089844	104.724266
19480.093670	16934.017833	853.911133	-72.155449
19480.093670	16934.017833	852.731445	83.802856
19480.093670	16934.017833	851.552734	102.089684
19480.093670	16934.017833	850.373047	-99.324898
19480.093670	16934.017833	849.193359	-5.053178
19480.093670	16934.017833	848.013672	-50.390282
19480.093670	16934.017833	846.833008	-116.222427
19480.093670	16934.017833	845.652344	-337.952942
19480.093670	16934.017833	844.471680	-18.097679
19480.093670	16934.017833	843.291016	283.163391
19480.093670	16934.017833	842.110352	26.617096
19480.093670	16934.017833	840.928711	-190.874817
19480.093670	16934.017833	839.747070	-29.137581
19480.093670	16934.017833	838.564453	-94.905212
19480.093670	16934.017833	837.382813	62.635063
19480.093670	16934.017833	836.200195	-97.355598
19480.093670	16934.017833	835.017578	-72.989563
19480.093670	16934.017833	833.834961	33.250393
19480.093670	16934.017833	832.651367	280.682892
19480.093670	16934.017833	831.467773	352.008026
19480.093670	16934.017833	830.284180	-210.989410
19480.093670	16934.017833	829.100586	58.815151
19480.093670	16934.017833	827.916992	-221.668564
19480.093670	16934.017833	826.732422	-103.301743
19480.093670	16934.017833	825.547852	47.717300
19480.093670	16934.017833	824.363281	31.054110
19480.093670	16934.017833	823.177734	-8.082262
19480.093670	16934.017833	821.992188	204.086426
19480.093670	16934.017833	820.806641	-119.032127
19480.093670	16934.017833	819.621094	21.565468
19480.093670	16934.017833	818.434570	-64.546600
19480.093670	16934.017833	817.249023	208.647720
19480.093670	16934.017833	816.062500	181.691803
19480.093670	16934.017833	814.875000	275.133881
19480.093670	16934.017833	813.688477	97.169739
19480.093670	16934.017833	812.500977	176.280136
19480.093670	16934.017833	811.313477	153.372238
19480.093670	16934.017833	810.125977	87.638794
19480.093670	16934.017833	808.937500	-133.004440
19480.093670	16934.017833	807.749023	-184.415894
19480.093670	16934.017833	806.560547	-190.996613
19480.093670	16934.017833	805.372070	-26.471840
19480.093670	16934.017833	804.182617	-6.638841
19480.093670	16934.017833	802.994141	192.354645
19480.093670	16934.017833	801.803711	39.039986
19480.093670	16934.017833	800.614258	223.653976
19480.093670	16934.017833	799.424805	17.426643
19480.093670	16934.017833	798.234375	-44.269493
19480.093670	16934.017833	797.043945	-193.439285
19480.093670	16934.017833	795.852539	-82.233711
19480.093670	16934.017833	794.662109	28.889160
19480.093670	16934.017833	793.470703	239.565536
19480.093670	16934.017833	792.279297	149.300400
19480.093670	16934.017833	791.087891	91.557816
19480.093670	16934.017833	789.895508	27.721785
19480.093670	16934.017833	788.703125	-101.120644
19480.093670	16934.017833	787.510742	294.029724
19480.093670	16934.017833	786.318359	-169.909912
19480.093670	16934.017833	785.125000	-152.559631
19480.093670	16934.017833	783.931641	-183.961212
19480.093670	16934.017833	782.738281	-158.568604
19480.093670	16934.017833	781.544922	41.254093
19480.093670	16934.017833	780.350586	-2.441478
19480.093670	16934.017833	779.156250	132.303009
19480.093670	16934.017833	777.961914	-63.534786
19480.093670	16934.017833	776.767578	-62.701813
19480.093670	16934.017833	775.572266	17.138575
19480.093670	16934.017833	774.376953	137.429184
19480.093670	16934.017833	773.181641	16.551937
19480.093670	16934.017833	771.986328	-128.624893
19480.093670	16934.017833	770.790039	42.121883
19480.093670	16934.017833	769.593750	-50.442547
19480.093670	16934.017833	768.397461	73.571548
19480.093670	16934.017833	767.201172	21.419123
19480.093670	16934.017833	766.003906	-59.079151
19480.093670	16934.017833	764.806641	238.691666
19480.093670	16934.017833	763.609375	-60.345528
19480.093670	16934.017833	762.412109	221.023224
19480.093670	16934.017833	761.213867	91.835167
19480.093670	16934.017833	760.015625	-27.243803
19480.093670	16934.017833	758.817383	243.685776
19480.093670	16934.017833	757.618164	130.582886
19480.093670	16934.017833	756.419922	-51.215466
19480.093670	16934.017833	755.220703	53.785755
19480.093670	16934.017833	754.021484	3.215534
19480.093670	16934.017833	752.821289	-15.088421
19480.093670	16934.017833	751.621094	113.889679
19480.093670	16934.017833	750.420898	170.111786
19480.093670	16934.017833	749.220703	175.811356
19480.093670	16934.017833	748.020508	433.573364
19480.093670	16934.017833	746.819336	515.725525
19480.093670	16934.017833	745.618164	242.934204
19480.093670	16934.017833	744.416992	42.755184
19480.093670	16934.017833	743.214844	130.793304
19480.093670	16934.017833	742.012695	55.519829
19480.093670	16934.017833	740.810547	151.439713
19480.093670	16934.017833	739.608398	315.727783
19480.093670	16934.017833	738.406250	447.658539
19480.093670	16934.017833	737.203125	241.244736
19480.093670	16934.017833	736.000000	721.213806
19480.093670	16934.017833	734.795898	567.012085
19480.093670	16934.017833	733.592773	436.937500
19480.093670	16934.017833	732.388672	510.014343
19480.093670	16934.017833	731.184570	490.470337
19480.093670	16934.017833	729.979492	589.495605
19480.093670	16934.017833	728.775391	585.871155
19480.093670	16934.017833	727.570313	533.937134
19480.093670	16934.017833	726.365234	180.526962
19480.093670	16934.017833	725.160156	251.087067
19480.093670	16934.017833	723.954102	172.904953
19480.093670	16934.017833	722.748047	128.810364
19480.093670	16934.017833	721.541992	201.101273
19480.093670	16934.017833	720.334961	24.371677
19480.093670	16934.017833	719.128906	20.220060
19480.093670	16934.017833	717.921875	30.032436
19480.093670	16934.017833	716.714844	-96.659882
19480.093670	16934.017833	715.506836	151.676270
19480.093670	16934.017833	714.298828	-103.495987
19480.093670	16934.017833	713.090820	-31.866915
19480.093670	16934.017833	711.882813	-162.804474
19480.093670	16934.017833	710.674805	103.010857
19480.093670	16934.017833	709.465820	-36.095078
19480.093670	16934.017833	708.256836	-211.291580
19480.093670	16934.017833	707.047852	-34.030556
19480.093670	16934.017833	705.837891	-27.130911
19480.093670	16934.017833	704.627930	-52.361279
19480.093670	16934.017833	703.417969	-199.765335
19480.093670	16934.017833	702.208008	-61.058605
19480.093670	16934.017833	700.998047	13.473068
19480.093670	16934.017833	699.787109	-130.143845
19480.093670	16934.017833	698.576172	188.148651
19480.093670	16934.017833	697.364258	20.365177
19480.093670	16934.017833	696.153320	310.306549
19480.093670	16934.017833	694.941406	80.408859
19480.093670	16934.017833	693.729492	120.251945
19480.093670	16934.017833	692.516602	-91.731880
19480.093670	16934.017833	691.304688	143.653488
19480.093670	16934.017833	690.091797	247.046616
19480.093670	16934.017833	688.878906	-41.009327
19480.093670	16934.017833	687.665039	161.970428
19480.093670	16934.017833	686.451172	23.515554
19480.093670	16934.017833	685.237305	52.602158
19480.093670	16934.017833	684.023438	73.593063
19480.093670	16934.017833	682.809570	128.368698
19480.093670	16934.017833	681.594727	278.724060
19480.093670	16934.017833	680.379883	74.064308
19480.093670	16934.017833	679.165039	80.648880
19480.093670	16934.017833	677.949219	447.790100
19480.093670	16934.017833	676.733398	103.442360
19480.093670	16934.017833	675.517578	127.611176
19480.093670	16934.017833	674.301758	187.505249
19480.093670	16934.017833	673.084961	64.094849
19480.093670	16934.017833	671.869141	219.299866
19480.093670	16934.017833	670.651367	125.564682
19480.093670	16934.017833	669.434570	123.280411
19480.093670	16934.017833	668.216797	329.762543
19480.093670	16934.017833	667.000000	-74.540924
19480.093670	16934.017833	665.781250	173.426712
19480.093670	16934.017833	664.563477	276.049927
19480.093670	16934.017833	663.344727	112.176750
19480.093670	16934.017833	662.125977	321.850800
19480.093670	16934.017833	660.907227	294.896240
19480.093670	16934.017833	659.688477	283.729065
19480.093670	16934.017833	658.468750	204.932022
19480.093670	16934.017833	657.249023	415.939789
19480.093670	16934.017833	656.029297	-20.397957
19480.093670	16934.017833	654.808594	79.198601
19480.093670	16934.017833	653.587891	345.314880
19480.093670	16934.017833	652.367188	268.001770
19480.093670	16934.017833	651.146484	162.837555
19480.093670	16934.017833	649.924805	-5.851302
19480.093670	16934.017833	648.704102	263.567932
19480.093670	16934.017833	647.482422	221.558472
19480.093670	16934.017833	646.259766	387.538300
19480.093670	16934.017833	645.037109	416.620941
19480.093670	16934.017833	643.815430	178.156693
19480.093670	16934.017833	642.591797	333.795227
19480.093670	16934.017833	641.369141	465.496948
19480.093670	16934.017833	640.145508	387.185089
19480.093670	16934.017833	638.921875	263.272644
19480.093670	16934.017833	637.698242	260.008087
19480.093670	16934.017833	636.474609	163.647766
19480.093670	16934.017833	635.250000	435.120880
19480.093670	16934.017833	634.025391	298.991272
19480.093670	16934.017833	632.800781	504.855194
19480.093670	16934.017833	631.575195	4.833068
19480.093670	16934.017833	630.349609	255.905106
19480.093670	16934.017833	629.124023	208.403946
19480.093670	16934.017833	627.898438	121.306831
19480.093670	16934.017833	626.671875	440.997650
19480.093670	16934.017833	625.445313	260.865204
19480.093670	16934.017833	624.218750	-49.595592
19480.093670	16934.017833	622.992188	-38.301949
19480.093670	16934.017833	621.764648	205.737213
19480.093670	16934.017833	620.537109	70.762733
19480.093670	16934.017833	619.309570	-269.400330
19480.093670	16934.017833	618.081055	-88.888000
19480.093670	16934.017833	616.852539	-13.050926
19480.093670	16934.017833	615.624023	29.139164
19480.093670	16934.017833	614.395508	-212.592178
19480.093670	16934.017833	613.166992	140.754074
19480.093670	16934.017833	611.937500	170.764267
19480.093670	16934.017833	610.708008	3.707438
19480.093670	16934.017833	609.477539	-9.783288
19480.093670	16934.017833	608.248047	-29.266031
19480.093670	16934.017833	607.017578	-11.440422
19480.093670	16934.017833	605.787109	2.349663
19480.093670	16934.017833	604.555664	-330.243286
19480.093670	16934.017833	603.325195	-233.958405
19480.093670	16934.017833	602.093750	-253.839523
19480.093670	16934.017833	600.861328	-240.377853
19480.093670	16934.017833	599.629883	46.244625
19480.093670	16934.017833	598.397461	26.050117
19480.093670	16934.017833	597.165039	-45.312439
19480.093670	16934.017833	595.932617	-214.957001
19480.093670	16934.017833	594.699219	-199.983414
19480.093670	16934.017833	593.465820	25.021179
19480.093670	16934.017833	592.232422	-95.695786
19480.093670	16934.017833	590.999023	-80.998215
19480.093670	16934.017833	589.764648	49.396683
19480.093670	16934.017833	588.530273	-136.232681
19480.093670	16934.017833	587.295898	-161.004059
19480.093670	16934.017833	586.061523	104.423767
19480.093670	16934.017833	584.826172	124.561951
19480.093670	16934.017833	583.590820	95.609085
19480.093670	16934.017833	582.355469	-60.800579
19480.093670	16934.017833	581.119141	-46.734173
19480.093670	16934.017833	579.882813	-97.391335
19480.093670	16934.017833	578.646484	-238.196396
19480.093670	16934.017833	577.410156	-65.673294
19480.093670	16934.017833	576.172852	55.802074
19480.093670	16934.017833	574.935547	-177.139618
19480.093670	16934.017833	573.698242	38.126118
19480.093670	16934.017833	572.460938	-112.651199
19480.093670	16934.017833	571.222656	-202.783188
19480.093670	16934.017833	569.984375	90.405930
19480.093670	16934.017833	568.746094	-187.558975
19480.093670	16934.017833	567.506836	-172.216187
19480.093670	16934.017833	566.267578	3.340636
19480.093670	16934.017833	565.028320	63.478142
19480.093670	16934.017833	563.789063	-15.173339
19480.093670	16934.017833	562.548828	89.769600
19480.093670	16934.017833	561.309570	61.827522
19480.093670	16934.017833	560.068359	61.178955
19480.093670	16934.017833	558.828125	66.347336
19480.093670	16934.017833	557.586914	163.191589
19480.093670	16934.017833	556.345703	205.321350
19480.093670	16934.017833	555.104492	-80.340218
19480.093670	16934.017833	553.863281	-120.170738
19480.093670	16934.017833	552.621094	-202.925888
19480.093670	16934.017833	551.378906	-49.785065
19480.093670	16934.017833	550.136719	-0.049829
19480.093670	16934.017833	548.893555	152.906815
19480.093670	16934.017833	547.650391	229.782349
19480.093670	16934.017833	546.407227	244.261490
19480.093670	16934.017833	545.164063	-27.572716
19480.093670	16934.017833	543.919922	74.508057
19480.093670	16934.017833	542.675781	180.408264
19480.093670	16934.017833	541.431641	-48.511814
19480.093670	16934.017833	540.186523	174.057983
19480.093670	16934.017833	538.941406	93.025917
19480.093670	16934.017833	537.696289	56.740402
19480.093670	16934.017833	536.451172	-197.344742
19480.093670	16934.017833	535.205078	63.842045
19480.093670	16934.017833	533.959961	-155.196030
19480.093670	16934.017833	532.712891	88.328529
19480.093670	16934.017833	531.466797	104.414299
19480.093670	16934.017833	530.219727	215.648773
19480.093670	16934.017833	528.972656	-127.626587
19480.093670	16934.017833	527.725586	-74.685020
19480.093670	16934.017833	526.478516	116.038040
19480.093670	16934.017833	525.230469	124.218925
19480.093670	16934.017833	523.982422	235.212494
19480.093670	16934.017833	522.734375	291.819366
19480.093670	16934.017833	521.485352	84.596420
19480.093670	16934.017833	520.236328	-229.213089
19480.093670	16934.017833	518.987305	67.782982
19480.093670	16934.017833	517.737305	87.445801
19480.093670	16934.017833	516.488281	145.838257
19480.093670	16934.017833	515.238281	4.616665
19480.093670	16934.017833	513.988281	165.609741
19480.093670	16934.017833	512.737305	142.519913
19480.093670	16934.017833	511.486328	367.247955
19480.093670	16934.017833	510.235352	119.515221
19480.093670	16934.017833	508.984375	297.640533
19480.093670	16934.017833	507.732422	376.968353
19480.093670	16934.017833	506.480469	332.414490
19480.093670	16934.017833	505.228516	322.658752
19480.093670	16934.017833	503.976563	488.837708
19480.093670	16934.017833	502.723633	616.232544
19480.093670	16934.017833	501.470703	563.768372
19480.093670	16934.017833	500.217773	623.366516
19480.093670	16934.017833	498.963867	947.574951
19480.093670	16934.017833	497.709961	995.367310
19480.093670	16934.017833	496.456055	873.136902
19480.093670	16934.017833	495.202148	905.366699
19480.093670	16934.017833	493.947266	1165.299316
19480.093670	16934.017833	492.692383	1243.637939
19480.093670	16934.017833	491.437500	1319.943115
19480.093670	16934.017833	490.181641	1176.214478
19480.093670	16934.017833	488.926758	1294.779907
19480.093670	16934.017833	487.670898	1461.415771
19480.093670	16934.017833	486.414063	1774.403809
19480.093670	16934.017833	485.158203	1738.296753
19480.093670	16934.017833	483.901367	1413.041138
19480.093670	16934.017833	482.644531	1663.889771
19480.093670	16934.017833	481.386719	1735.373047
19480.093670	16934.017833	480.128906	1766.268677
19480.093670	16934.017833	478.871094	2049.255859
19480.093670	16934.017833	477.613281	2104.841309
19480.093670	16934.017833	476.355469	2069.811523
19480.093670	16934.017833	475.096680	2234.758789
19480.093670	16934.017833	473.837891	2220.573730
19480.093670	16934.017833	472.578125	2006.201538
19480.093670	16934.017833	471.319336	1895.599976
19480.093670	16934.017833	470.059570	2107.839111
19480.093670	16934.017833	468.799805	2392.841553
19480.093670	16934.017833	467.539063	2464.212891
19480.093670	16934.017833	466.278320	2375.881104
19480.093670	16934.017833	465.017578	2333.474365
19480.093670	16934.017833	463.756836	2254.371582
19480.093670	16934.017833	462.495117	2484.177979
19480.093670	16934.017833	461.233398	2527.435547
19480.093670	16934.017833	459.971680	2514.760010
19480.093670	16934.017833	458.709961	2662.992432
19480.093670	16934.017833	457.447266	2538.461182
19480.093670	16934.017833	456.184570	2532.597900
19480.093670	16934.017833	454.921875	2468.900635
19480.093670	16934.017833	453.658203	2633.031250
19480.093670	16934.017833	452.394531	2744.999023
19480.093670	16934.017833	451.130859	2563.373535
19480.093670	16934.017833	449.867188	2906.402588
19480.093670	16934.017833	448.602539	2953.907715
19480.093670	16934.017833	447.337891	2727.138916
19480.093670	16934.017833	446.073242	2869.569824
19480.093670	16934.017833	444.807617	2760.729980
19480.093670	16934.017833	443.542969	2997.890869
19480.093670	16934.017833	442.276367	2702.528320
19480.093670	16934.017833	441.010742	3018.965332
19480.093670	16934.017833	439.744141	2816.434082
19480.093670	16934.017833	438.478516	3009.287354
19480.093670	16934.017833	437.210938	3016.033936
19480.093670	16934.017833	435.944336	2955.320557
19480.093670	16934.017833	434.676758	2873.001953
19480.093670	16934.017833	433.409180	2755.706787
19480.093670	16934.017833	432.141602	2991.181885
19480.093670	16934.017833	430.873047	2933.690674
19480.093670	16934.017833	429.604492	2850.711426
19480.093670	16934.017833	428.335938	2578.072510
19480.093670	16934.017833	427.067383	2955.575928
19480.093670	16934.017833	425.797852	3036.381104
19480.093670	16934.017833	424.528320	2858.826660
19480.093670	16934.017833	423.258789	3292.724365
19480.093670	16934.017833	421.988281	3231.699707
19480.093670	16934.017833	420.717773	3194.593018
19480.093670	16934.017833	419.447266	3006.012451
19480.093670	16934.017833	418.175781	3058.540283
19480.093670	16934.017833	416.905273	2955.766357
19480.093670	16934.017833	415.633789	3170.079590
19480.093670	16934.017833	414.362305	3230.902832
19480.093670	16934.017833	413.089844	2907.905762
19480.093670	16934.017833	411.817383	3177.800049
19480.093670	16934.017833	410.544922	2987.782227
19480.093670	16934.017833	409.272461	3097.257813
19480.093670	16934.017833	407.999023	3064.653320
19480.093670	16934.017833	406.725586	2990.843750
19480.093670	16934.017833	405.452148	3263.697754
19480.093670	16934.017833	404.177734	3078.800781
19480.093670	16934.017833	402.903320	3352.512939
19480.093670	16934.017833	401.628906	3031.802490
19480.093670	16934.017833	400.354492	3139.076904
19480.093670	16934.017833	399.079102	3014.905029
19480.093670	16934.017833	397.803711	3024.016113
19480.093670	16934.017833	396.528320	3230.823486
19480.093670	16934.017833	395.251953	3166.280273
19480.093670	16934.017833	393.976563	3424.568359
19480.093670	16934.017833	392.700195	3083.265625
19480.093670	16934.017833	391.422852	2956.460205
19480.093670	16934.017833	390.145508	2837.286133
19480.093670	16934.017833	388.869141	2837.596191
19480.093670	16934.017833	387.590820	2940.048340
19480.093670	16934.017833	386.313477	2708.768311
19480.093670	16934.017833	385.035156	2829.728760
19480.093670	16934.017833	383.756836	2724.898193
19480.093670	16934.017833	382.478516	2820.506592
19480.093670	16934.017833	381.199219	3078.428955
19480.093670	16934.017833	379.919922	2781.046875
19480.093670	16934.017833	378.640625	2634.644775
19480.093670	16934.017833	377.360352	2724.148193
19480.093670	16934.017833	376.080078	2559.387207
19480.093670	16934.017833	374.799805	2535.780029
19480.093670	16934.017833	373.519531	2653.161621
19480.093670	16934.017833	372.238281	2429.168457
19480.093670	16934.017833	370.957031	2380.059326
19480.093670	16934.017833	369.675781	2473.516113
19480.093670	16934.017833	368.394531	2401.385010
19480.093670	16934.017833	367.112305	2224.060303
19480.093670	16934.017833	365.830078	2245.672119
19480.093670	16934.017833	364.546875	2037.297607
19480.093670	16934.017833	363.264648	2088.108643
19480.093670	16934.017833	361.981445	2222.145996
19480.093670	16934.017833	360.698242	2273.299072
19480.093670	16934.017833	359.414063	1879.208984
19480.093670	16934.017833	358.129883	1609.783569
19480.093670	16934.017833	356.845703	1945.710693
19480.093670	16934.017833	355.561523	1885.385010
19480.093670	16934.017833	354.276367	2088.578613
19480.093670	16934.017833	352.991211	1831.468628
19480.093670	16934.017833	351.706055	1519.332886
19480.093670	16934.017833	350.420898	1581.583252
19480.093670	16934.017833	349.134766	1746.550903
19480.093670	16934.017833	347.848633	1524.628296
19480.093670	16934.017833	346.561523	1431.621216
19480.093670	16934.017833	345.275391	1441.233154
19480.093670	16934.017833	343.988281	1473.990234
19480.093670	16934.017833	342.700195	1063.204102
19480.093670	16934.017833	341.413086	1066.970703
19480.093670	16934.017833	340.125000	1153.659302
19480.093670	16934.017833	338.836914	841.947144
19480.093670	16934.017833	337.548828	677.048279
19480.093670	16934.017833	336.259766	713.068054
19480.093670	16934.017833	334.970703	1041.953979
19480.093670	16934.017833	333.681641	831.266235
19480.093670	16934.017833	332.391602	539.258972
19480.093670	16934.017833	331.101563	479.562622
19480.093670	16934.017833	329.811523	342.149445
19480.093670	16934.017833	328.521484	369.018494
19480.093670	16934.017833	327.230469	355.204407
19480.093670	16934.017833	325.939453	124.427689
19480.093670	16934.017833	324.648438	485.009094
19480.093670	16934.017833	323.356445	108.636810
19480.093670	16934.017833	322.064453	64.391434
19480.093670	16934.017833	320.772461	-114.797745
19480.093670	16934.017833	319.480469	159.372665
19480.093670	16934.017833	318.187500	170.550522
19480.093670	16934.017833	316.894531	-92.281075
19480.093670	16934.017833	315.601563	-80.447060
19480.093670	16934.017833	314.307617	57.537830
19480.093670	16934.017833	313.013672	-275.462036
19480.093670	16934.017833	311.719727	-27.599516
19480.093670	16934.017833	310.425781	-217.263123
19480.093670	16934.017833	309.130859	30.789705
19480.093670	16934.017833	307.835938	-179.466644
19480.093670	16934.017833	306.541016	-236.532394
19480.093670	16934.017833	305.245117	-152.218292
19480.093670	16934.017833	303.949219	45.417179
19480.093670	16934.017833	302.653320	8.542832
19480.093670	16934.017833	301.356445	257.982208
19480.093670	16934.017833	300.060547	698.705505
19480.093670	16934.017833	298.763672	569.722107
