#X		#Y		#Wave		#Intensity
19467.320106	16934.017833	2000.043945	-184.241913
19467.320106	16934.017833	1999.080078	168.046463
19467.320106	16934.017833	1998.116211	-82.130821
19467.320106	16934.017833	1997.151367	165.730057
19467.320106	16934.017833	1996.186523	4.509225
19467.320106	16934.017833	1995.222656	-154.351944
19467.320106	16934.017833	1994.256836	-365.311554
19467.320106	16934.017833	1993.291992	-6.810688
19467.320106	16934.017833	1992.327148	-7.598051
19467.320106	16934.017833	1991.361328	88.008568
19467.320106	16934.017833	1990.395508	-180.385300
19467.320106	16934.017833	1989.429688	6.477588
19467.320106	16934.017833	1988.463867	173.332962
19467.320106	16934.017833	1987.497070	149.530228
19467.320106	16934.017833	1986.531250	-190.967514
19467.320106	16934.017833	1985.564453	86.697182
19467.320106	16934.017833	1984.597656	-66.035515
19467.320106	16934.017833	1983.630859	-6.269940
19467.320106	16934.017833	1982.664063	157.139511
19467.320106	16934.017833	1981.696289	226.480667
19467.320106	16934.017833	1980.728516	90.639359
19467.320106	16934.017833	1979.761719	115.265549
19467.320106	16934.017833	1978.792969	-94.815369
19467.320106	16934.017833	1977.825195	-97.542244
19467.320106	16934.017833	1976.857422	35.391830
19467.320106	16934.017833	1975.888672	-98.372757
19467.320106	16934.017833	1974.919922	4.696790
19467.320106	16934.017833	1973.951172	275.392181
19467.320106	16934.017833	1972.982422	161.085175
19467.320106	16934.017833	1972.013672	303.211914
19467.320106	16934.017833	1971.043945	324.376984
19467.320106	16934.017833	1970.075195	96.439240
19467.320106	16934.017833	1969.105469	203.722275
19467.320106	16934.017833	1968.135742	163.017120
19467.320106	16934.017833	1967.165039	134.566452
19467.320106	16934.017833	1966.195313	115.893814
19467.320106	16934.017833	1965.224609	296.657837
19467.320106	16934.017833	1964.253906	-172.840469
19467.320106	16934.017833	1963.283203	61.922550
19467.320106	16934.017833	1962.312500	6.050644
19467.320106	16934.017833	1961.341797	260.237335
19467.320106	16934.017833	1960.370117	-135.367279
19467.320106	16934.017833	1959.399414	249.009171
19467.320106	16934.017833	1958.427734	187.955643
19467.320106	16934.017833	1957.455078	28.491484
19467.320106	16934.017833	1956.483398	46.063210
19467.320106	16934.017833	1955.511719	277.451447
19467.320106	16934.017833	1954.539063	216.200150
19467.320106	16934.017833	1953.566406	181.948624
19467.320106	16934.017833	1952.593750	61.655632
19467.320106	16934.017833	1951.621094	172.279984
19467.320106	16934.017833	1950.647461	-112.626884
19467.320106	16934.017833	1949.674805	61.733643
19467.320106	16934.017833	1948.701172	235.988037
19467.320106	16934.017833	1947.727539	-14.548567
19467.320106	16934.017833	1946.753906	-208.587494
19467.320106	16934.017833	1945.780273	71.001686
19467.320106	16934.017833	1944.805664	203.244553
19467.320106	16934.017833	1943.831055	4.247291
19467.320106	16934.017833	1942.856445	109.396103
19467.320106	16934.017833	1941.881836	354.233398
19467.320106	16934.017833	1940.907227	388.108185
19467.320106	16934.017833	1939.932617	144.955353
19467.320106	16934.017833	1938.957031	-267.233124
19467.320106	16934.017833	1937.981445	-257.862732
19467.320106	16934.017833	1937.005859	-128.486969
19467.320106	16934.017833	1936.030273	-50.626110
19467.320106	16934.017833	1935.054688	144.721008
19467.320106	16934.017833	1934.078125	332.628021
19467.320106	16934.017833	1933.101563	211.996109
19467.320106	16934.017833	1932.125000	-79.941269
19467.320106	16934.017833	1931.148438	-68.362755
19467.320106	16934.017833	1930.171875	77.750214
19467.320106	16934.017833	1929.194336	238.467117
19467.320106	16934.017833	1928.217773	-87.590340
19467.320106	16934.017833	1927.240234	293.122009
19467.320106	16934.017833	1926.262695	390.079468
19467.320106	16934.017833	1925.284180	232.779053
19467.320106	16934.017833	1924.306641	97.510513
19467.320106	16934.017833	1923.328125	267.700500
19467.320106	16934.017833	1922.350586	332.759888
19467.320106	16934.017833	1921.372070	-112.693405
19467.320106	16934.017833	1920.392578	164.843262
19467.320106	16934.017833	1919.414063	119.972122
19467.320106	16934.017833	1918.434570	341.187927
19467.320106	16934.017833	1917.456055	-233.348480
19467.320106	16934.017833	1916.476563	0.023547
19467.320106	16934.017833	1915.497070	-78.990303
19467.320106	16934.017833	1914.516602	-89.682549
19467.320106	16934.017833	1913.537109	-107.702896
19467.320106	16934.017833	1912.556641	-37.943642
19467.320106	16934.017833	1911.576172	280.447357
19467.320106	16934.017833	1910.595703	233.089630
19467.320106	16934.017833	1909.615234	-84.768326
19467.320106	16934.017833	1908.633789	-185.661438
19467.320106	16934.017833	1907.653320	-89.204292
19467.320106	16934.017833	1906.671875	150.913681
19467.320106	16934.017833	1905.690430	186.378510
19467.320106	16934.017833	1904.708984	-80.084915
19467.320106	16934.017833	1903.727539	152.568604
19467.320106	16934.017833	1902.745117	93.073471
19467.320106	16934.017833	1901.762695	-119.708557
19467.320106	16934.017833	1900.780273	-30.738228
19467.320106	16934.017833	1899.797852	121.435814
19467.320106	16934.017833	1898.815430	-86.391350
19467.320106	16934.017833	1897.832031	180.008682
19467.320106	16934.017833	1896.849609	-10.748244
19467.320106	16934.017833	1895.866211	182.606995
19467.320106	16934.017833	1894.882813	310.266113
19467.320106	16934.017833	1893.898438	-94.237885
19467.320106	16934.017833	1892.915039	-12.742320
19467.320106	16934.017833	1891.930664	231.449539
19467.320106	16934.017833	1890.947266	-53.845360
19467.320106	16934.017833	1889.962891	153.831390
19467.320106	16934.017833	1888.977539	-150.768311
19467.320106	16934.017833	1887.993164	117.510353
19467.320106	16934.017833	1887.007813	-310.735626
19467.320106	16934.017833	1886.023438	-49.818237
19467.320106	16934.017833	1885.038086	184.314514
19467.320106	16934.017833	1884.051758	-134.587524
19467.320106	16934.017833	1883.066406	-133.316788
19467.320106	16934.017833	1882.081055	-37.504639
19467.320106	16934.017833	1881.094727	118.862061
19467.320106	16934.017833	1880.108398	-144.081757
19467.320106	16934.017833	1879.122070	-123.453514
19467.320106	16934.017833	1878.135742	129.715332
19467.320106	16934.017833	1877.148438	276.217133
19467.320106	16934.017833	1876.162109	90.896141
19467.320106	16934.017833	1875.174805	239.753265
19467.320106	16934.017833	1874.187500	73.860870
19467.320106	16934.017833	1873.199219	38.714340
19467.320106	16934.017833	1872.211914	-354.554932
19467.320106	16934.017833	1871.223633	-302.534088
19467.320106	16934.017833	1870.236328	-107.835808
19467.320106	16934.017833	1869.248047	137.567902
19467.320106	16934.017833	1868.258789	-269.967834
19467.320106	16934.017833	1867.270508	-63.329208
19467.320106	16934.017833	1866.282227	-158.905701
19467.320106	16934.017833	1865.292969	-232.707993
19467.320106	16934.017833	1864.303711	171.894852
19467.320106	16934.017833	1863.314453	-34.828045
19467.320106	16934.017833	1862.324219	-65.176483
19467.320106	16934.017833	1861.334961	85.578705
19467.320106	16934.017833	1860.344727	69.676193
19467.320106	16934.017833	1859.354492	283.082886
19467.320106	16934.017833	1858.364258	-65.930229
19467.320106	16934.017833	1857.374023	130.497742
19467.320106	16934.017833	1856.383789	129.012787
19467.320106	16934.017833	1855.392578	527.910645
19467.320106	16934.017833	1854.401367	227.283188
19467.320106	16934.017833	1853.410156	6.315526
19467.320106	16934.017833	1852.418945	241.032501
19467.320106	16934.017833	1851.426758	140.622330
19467.320106	16934.017833	1850.435547	35.408176
19467.320106	16934.017833	1849.443359	-62.555325
19467.320106	16934.017833	1848.451172	58.702721
19467.320106	16934.017833	1847.458984	16.123171
19467.320106	16934.017833	1846.466797	288.978912
19467.320106	16934.017833	1845.473633	313.739227
19467.320106	16934.017833	1844.480469	30.365282
19467.320106	16934.017833	1843.487305	-38.739162
19467.320106	16934.017833	1842.494141	164.052261
19467.320106	16934.017833	1841.500977	-27.790331
19467.320106	16934.017833	1840.506836	1.698298
19467.320106	16934.017833	1839.513672	31.146454
19467.320106	16934.017833	1838.519531	180.776154
19467.320106	16934.017833	1837.525391	426.478424
19467.320106	16934.017833	1836.530273	270.689056
19467.320106	16934.017833	1835.536133	23.614714
19467.320106	16934.017833	1834.541016	24.066996
19467.320106	16934.017833	1833.545898	43.704601
19467.320106	16934.017833	1832.550781	128.148010
19467.320106	16934.017833	1831.555664	315.779419
19467.320106	16934.017833	1830.560547	23.164648
19467.320106	16934.017833	1829.564453	42.665024
19467.320106	16934.017833	1828.568359	162.915939
19467.320106	16934.017833	1827.572266	136.727341
19467.320106	16934.017833	1826.576172	72.133743
19467.320106	16934.017833	1825.580078	300.138428
19467.320106	16934.017833	1824.583008	72.403389
19467.320106	16934.017833	1823.585938	137.220398
19467.320106	16934.017833	1822.588867	94.104469
19467.320106	16934.017833	1821.591797	276.254181
19467.320106	16934.017833	1820.594727	395.995117
19467.320106	16934.017833	1819.596680	-4.221919
19467.320106	16934.017833	1818.599609	184.910446
19467.320106	16934.017833	1817.601563	270.956573
19467.320106	16934.017833	1816.603516	24.108938
19467.320106	16934.017833	1815.604492	-256.201324
19467.320106	16934.017833	1814.606445	253.401825
19467.320106	16934.017833	1813.607422	4.179705
19467.320106	16934.017833	1812.608398	288.553436
19467.320106	16934.017833	1811.609375	53.682602
19467.320106	16934.017833	1810.610352	12.582176
19467.320106	16934.017833	1809.610352	-71.586433
19467.320106	16934.017833	1808.611328	200.451736
19467.320106	16934.017833	1807.611328	324.143097
19467.320106	16934.017833	1806.611328	282.838715
19467.320106	16934.017833	1805.610352	150.705643
19467.320106	16934.017833	1804.610352	85.464584
19467.320106	16934.017833	1803.609375	29.752970
19467.320106	16934.017833	1802.608398	-381.806458
19467.320106	16934.017833	1801.607422	290.711517
19467.320106	16934.017833	1800.606445	184.712585
19467.320106	16934.017833	1799.605469	-148.036270
19467.320106	16934.017833	1798.603516	-67.887802
19467.320106	16934.017833	1797.601563	9.790775
19467.320106	16934.017833	1796.599609	564.457886
19467.320106	16934.017833	1795.597656	234.064163
19467.320106	16934.017833	1794.595703	235.177414
19467.320106	16934.017833	1793.592773	55.052052
19467.320106	16934.017833	1792.589844	96.610229
19467.320106	16934.017833	1791.587891	-43.022602
19467.320106	16934.017833	1790.583984	165.210602
19467.320106	16934.017833	1789.581055	-10.226766
19467.320106	16934.017833	1788.577148	107.299362
19467.320106	16934.017833	1787.574219	60.411842
19467.320106	16934.017833	1786.570313	106.336311
19467.320106	16934.017833	1785.566406	-109.658989
19467.320106	16934.017833	1784.561523	9.939707
19467.320106	16934.017833	1783.557617	39.009636
19467.320106	16934.017833	1782.552734	122.727180
19467.320106	16934.017833	1781.547852	-105.242676
19467.320106	16934.017833	1780.542969	92.496109
19467.320106	16934.017833	1779.538086	247.298553
19467.320106	16934.017833	1778.532227	390.092133
19467.320106	16934.017833	1777.527344	-301.479492
19467.320106	16934.017833	1776.521484	-47.076542
19467.320106	16934.017833	1775.515625	-9.037564
19467.320106	16934.017833	1774.508789	-11.460645
19467.320106	16934.017833	1773.502930	-40.074684
19467.320106	16934.017833	1772.496094	0.117835
19467.320106	16934.017833	1771.489258	175.550156
19467.320106	16934.017833	1770.482422	531.245361
19467.320106	16934.017833	1769.475586	-53.037174
19467.320106	16934.017833	1768.467773	283.447876
19467.320106	16934.017833	1767.460938	311.343536
19467.320106	16934.017833	1766.453125	-237.193237
19467.320106	16934.017833	1765.445313	-0.668233
19467.320106	16934.017833	1764.437500	57.881134
19467.320106	16934.017833	1763.428711	159.004593
19467.320106	16934.017833	1762.420898	366.670044
19467.320106	16934.017833	1761.412109	164.252640
19467.320106	16934.017833	1760.403320	191.645386
19467.320106	16934.017833	1759.393555	133.682938
19467.320106	16934.017833	1758.384766	224.870895
19467.320106	16934.017833	1757.375000	-53.420013
19467.320106	16934.017833	1756.366211	371.413727
19467.320106	16934.017833	1755.356445	-91.558174
19467.320106	16934.017833	1754.345703	-301.220917
19467.320106	16934.017833	1753.335938	109.004059
19467.320106	16934.017833	1752.325195	275.350128
19467.320106	16934.017833	1751.315430	363.515350
19467.320106	16934.017833	1750.304688	-87.556244
19467.320106	16934.017833	1749.292969	-84.617004
19467.320106	16934.017833	1748.282227	-81.747742
19467.320106	16934.017833	1747.270508	-322.373932
19467.320106	16934.017833	1746.259766	-69.152275
19467.320106	16934.017833	1745.248047	44.516888
19467.320106	16934.017833	1744.235352	117.912521
19467.320106	16934.017833	1743.223633	77.858856
19467.320106	16934.017833	1742.211914	101.492500
19467.320106	16934.017833	1741.199219	54.223225
19467.320106	16934.017833	1740.186523	-120.548485
19467.320106	16934.017833	1739.173828	278.064026
19467.320106	16934.017833	1738.160156	60.698875
19467.320106	16934.017833	1737.147461	355.188995
19467.320106	16934.017833	1736.133789	-107.523338
19467.320106	16934.017833	1735.120117	5.179525
19467.320106	16934.017833	1734.106445	98.903069
19467.320106	16934.017833	1733.091797	95.878853
19467.320106	16934.017833	1732.078125	-91.024254
19467.320106	16934.017833	1731.063477	247.465424
19467.320106	16934.017833	1730.048828	215.919098
19467.320106	16934.017833	1729.034180	174.887604
19467.320106	16934.017833	1728.019531	-144.056702
19467.320106	16934.017833	1727.003906	-241.659195
19467.320106	16934.017833	1725.988281	-202.781906
19467.320106	16934.017833	1724.972656	-62.799747
19467.320106	16934.017833	1723.957031	194.699524
19467.320106	16934.017833	1722.941406	230.891785
19467.320106	16934.017833	1721.924805	-27.007626
19467.320106	16934.017833	1720.909180	265.383514
19467.320106	16934.017833	1719.892578	-25.490688
19467.320106	16934.017833	1718.875977	-1.341326
19467.320106	16934.017833	1717.858398	-456.720917
19467.320106	16934.017833	1716.841797	-33.191887
19467.320106	16934.017833	1715.824219	-25.728651
19467.320106	16934.017833	1714.806641	-175.715790
19467.320106	16934.017833	1713.789063	14.798101
19467.320106	16934.017833	1712.770508	113.590309
19467.320106	16934.017833	1711.752930	303.825684
19467.320106	16934.017833	1710.734375	228.695221
19467.320106	16934.017833	1709.715820	-236.017288
19467.320106	16934.017833	1708.697266	-39.010761
19467.320106	16934.017833	1707.678711	26.488518
19467.320106	16934.017833	1706.659180	143.480179
19467.320106	16934.017833	1705.640625	185.325241
19467.320106	16934.017833	1704.621094	-220.692261
19467.320106	16934.017833	1703.600586	329.679779
19467.320106	16934.017833	1702.581055	94.716881
19467.320106	16934.017833	1701.561523	176.076797
19467.320106	16934.017833	1700.541016	163.629913
19467.320106	16934.017833	1699.520508	12.930309
19467.320106	16934.017833	1698.500000	28.476448
19467.320106	16934.017833	1697.478516	46.283085
19467.320106	16934.017833	1696.458008	178.714478
19467.320106	16934.017833	1695.436523	240.811432
19467.320106	16934.017833	1694.415039	478.304169
19467.320106	16934.017833	1693.393555	161.200958
19467.320106	16934.017833	1692.372070	-22.530899
19467.320106	16934.017833	1691.349609	72.017570
19467.320106	16934.017833	1690.327148	271.674561
19467.320106	16934.017833	1689.304688	363.657410
19467.320106	16934.017833	1688.282227	270.904114
19467.320106	16934.017833	1687.259766	551.993347
19467.320106	16934.017833	1686.236328	524.517395
19467.320106	16934.017833	1685.213867	410.568573
19467.320106	16934.017833	1684.190430	420.366180
19467.320106	16934.017833	1683.166016	308.676208
19467.320106	16934.017833	1682.142578	486.444855
19467.320106	16934.017833	1681.119141	325.651123
19467.320106	16934.017833	1680.094727	346.867523
19467.320106	16934.017833	1679.070313	202.364441
19467.320106	16934.017833	1678.045898	524.386658
19467.320106	16934.017833	1677.020508	71.924538
19467.320106	16934.017833	1675.996094	337.766785
19467.320106	16934.017833	1674.970703	589.452087
19467.320106	16934.017833	1673.945313	405.110474
19467.320106	16934.017833	1672.919922	863.977051
19467.320106	16934.017833	1671.893555	476.825195
19467.320106	16934.017833	1670.868164	658.172668
19467.320106	16934.017833	1669.841797	599.495178
19467.320106	16934.017833	1668.815430	429.012939
19467.320106	16934.017833	1667.789063	870.847839
19467.320106	16934.017833	1666.761719	697.933167
19467.320106	16934.017833	1665.735352	436.603638
19467.320106	16934.017833	1664.708008	845.440063
19467.320106	16934.017833	1663.680664	744.592590
19467.320106	16934.017833	1662.653320	418.116699
19467.320106	16934.017833	1661.625000	919.578369
19467.320106	16934.017833	1660.597656	839.549194
19467.320106	16934.017833	1659.569336	631.642700
19467.320106	16934.017833	1658.541016	558.565979
19467.320106	16934.017833	1657.512695	680.661682
19467.320106	16934.017833	1656.483398	1160.431152
19467.320106	16934.017833	1655.455078	1012.829285
19467.320106	16934.017833	1654.425781	881.486816
19467.320106	16934.017833	1653.396484	754.796631
19467.320106	16934.017833	1652.366211	1203.818604
19467.320106	16934.017833	1651.336914	1049.177734
19467.320106	16934.017833	1650.306641	920.072998
19467.320106	16934.017833	1649.276367	1292.114258
19467.320106	16934.017833	1648.246094	1160.612915
19467.320106	16934.017833	1647.215820	1054.634521
19467.320106	16934.017833	1646.185547	1046.045044
19467.320106	16934.017833	1645.154297	1106.964722
19467.320106	16934.017833	1644.123047	1557.220459
19467.320106	16934.017833	1643.091797	1736.131592
19467.320106	16934.017833	1642.060547	1388.994019
19467.320106	16934.017833	1641.028320	1655.820435
19467.320106	16934.017833	1639.997070	1568.164307
19467.320106	16934.017833	1638.964844	1531.444824
19467.320106	16934.017833	1637.931641	1439.139404
19467.320106	16934.017833	1636.899414	1541.282349
19467.320106	16934.017833	1635.867188	1388.790405
19467.320106	16934.017833	1634.833984	1754.609985
19467.320106	16934.017833	1633.800781	1470.212891
19467.320106	16934.017833	1632.767578	1518.957397
19467.320106	16934.017833	1631.734375	1465.909058
19467.320106	16934.017833	1630.700195	1644.051270
19467.320106	16934.017833	1629.666016	1616.373291
19467.320106	16934.017833	1628.631836	1727.350952
19467.320106	16934.017833	1627.597656	2000.010498
19467.320106	16934.017833	1626.563477	1692.683228
19467.320106	16934.017833	1625.528320	2057.588623
19467.320106	16934.017833	1624.493164	1925.833496
19467.320106	16934.017833	1623.458008	1717.920776
19467.320106	16934.017833	1622.422852	1759.380859
19467.320106	16934.017833	1621.387695	1770.808594
19467.320106	16934.017833	1620.351563	1738.366943
19467.320106	16934.017833	1619.315430	2001.229126
19467.320106	16934.017833	1618.279297	1717.312256
19467.320106	16934.017833	1617.243164	1873.972778
19467.320106	16934.017833	1616.207031	1622.452148
19467.320106	16934.017833	1615.169922	1472.444580
19467.320106	16934.017833	1614.132813	1910.216919
19467.320106	16934.017833	1613.095703	1896.159180
19467.320106	16934.017833	1612.058594	2020.336792
19467.320106	16934.017833	1611.020508	1980.906982
19467.320106	16934.017833	1609.983398	1982.955322
19467.320106	16934.017833	1608.945313	2044.859253
19467.320106	16934.017833	1607.907227	2272.491455
19467.320106	16934.017833	1606.868164	1906.196533
19467.320106	16934.017833	1605.830078	2435.233887
19467.320106	16934.017833	1604.791016	2306.035889
19467.320106	16934.017833	1603.751953	2241.303223
19467.320106	16934.017833	1602.712891	2459.486084
19467.320106	16934.017833	1601.673828	2197.011475
19467.320106	16934.017833	1600.633789	2392.136230
19467.320106	16934.017833	1599.594727	2481.469482
19467.320106	16934.017833	1598.554688	2083.576172
19467.320106	16934.017833	1597.513672	2023.594482
19467.320106	16934.017833	1596.473633	1692.588379
19467.320106	16934.017833	1595.433594	2020.890747
19467.320106	16934.017833	1594.392578	2397.295898
19467.320106	16934.017833	1593.351563	2073.335938
19467.320106	16934.017833	1592.310547	2034.151245
19467.320106	16934.017833	1591.268555	2398.902832
19467.320106	16934.017833	1590.227539	2329.879150
19467.320106	16934.017833	1589.185547	2107.194580
19467.320106	16934.017833	1588.143555	2123.155029
19467.320106	16934.017833	1587.100586	2081.796875
19467.320106	16934.017833	1586.058594	2324.781494
19467.320106	16934.017833	1585.015625	1797.491089
19467.320106	16934.017833	1583.972656	2196.326904
19467.320106	16934.017833	1582.929688	1964.909546
19467.320106	16934.017833	1581.886719	2331.541016
19467.320106	16934.017833	1580.843750	1811.649902
19467.320106	16934.017833	1579.799805	2203.413818
19467.320106	16934.017833	1578.755859	1917.347168
19467.320106	16934.017833	1577.711914	2430.326172
19467.320106	16934.017833	1576.666992	2087.172852
19467.320106	16934.017833	1575.623047	2021.073242
19467.320106	16934.017833	1574.578125	1888.683472
19467.320106	16934.017833	1573.533203	2177.254395
19467.320106	16934.017833	1572.488281	2047.253906
19467.320106	16934.017833	1571.443359	1953.927490
19467.320106	16934.017833	1570.397461	1584.071899
19467.320106	16934.017833	1569.351563	1765.218872
19467.320106	16934.017833	1568.305664	1852.652954
19467.320106	16934.017833	1567.259766	1720.773560
19467.320106	16934.017833	1566.213867	1611.835938
19467.320106	16934.017833	1565.166992	1370.525635
19467.320106	16934.017833	1564.120117	1599.718140
19467.320106	16934.017833	1563.073242	1566.348145
19467.320106	16934.017833	1562.026367	1309.368042
19467.320106	16934.017833	1560.978516	1294.420776
19467.320106	16934.017833	1559.930664	1256.721191
19467.320106	16934.017833	1558.883789	1324.029053
19467.320106	16934.017833	1557.834961	926.111023
19467.320106	16934.017833	1556.787109	1346.989868
19467.320106	16934.017833	1555.739258	885.519592
19467.320106	16934.017833	1554.690430	1117.177368
19467.320106	16934.017833	1553.641602	984.197327
19467.320106	16934.017833	1552.592773	1286.500610
19467.320106	16934.017833	1551.542969	987.377197
19467.320106	16934.017833	1550.494141	1171.264282
19467.320106	16934.017833	1549.444336	956.662476
19467.320106	16934.017833	1548.394531	1042.719727
19467.320106	16934.017833	1547.344727	878.441162
19467.320106	16934.017833	1546.293945	1082.948975
19467.320106	16934.017833	1545.244141	666.320313
19467.320106	16934.017833	1544.193359	1066.566284
19467.320106	16934.017833	1543.142578	1005.041565
19467.320106	16934.017833	1542.090820	729.866699
19467.320106	16934.017833	1541.040039	582.192444
19467.320106	16934.017833	1539.988281	764.233704
19467.320106	16934.017833	1538.936523	455.414917
19467.320106	16934.017833	1537.884766	946.569275
19467.320106	16934.017833	1536.833008	1019.633362
19467.320106	16934.017833	1535.780273	1208.573975
19467.320106	16934.017833	1534.727539	895.692200
19467.320106	16934.017833	1533.674805	978.047729
19467.320106	16934.017833	1532.622070	747.217834
19467.320106	16934.017833	1531.569336	716.273804
19467.320106	16934.017833	1530.515625	907.782471
19467.320106	16934.017833	1529.461914	747.687012
19467.320106	16934.017833	1528.408203	764.652649
19467.320106	16934.017833	1527.354492	586.690125
19467.320106	16934.017833	1526.299805	810.171143
19467.320106	16934.017833	1525.246094	593.919861
19467.320106	16934.017833	1524.191406	332.520599
19467.320106	16934.017833	1523.136719	417.990326
19467.320106	16934.017833	1522.081055	172.773407
19467.320106	16934.017833	1521.026367	392.066193
19467.320106	16934.017833	1519.970703	581.926453
19467.320106	16934.017833	1518.915039	531.825806
19467.320106	16934.017833	1517.859375	427.521118
19467.320106	16934.017833	1516.802734	327.882904
19467.320106	16934.017833	1515.747070	210.288208
19467.320106	16934.017833	1514.690430	15.924601
19467.320106	16934.017833	1513.633789	246.958527
19467.320106	16934.017833	1512.577148	346.847931
19467.320106	16934.017833	1511.519531	284.020477
19467.320106	16934.017833	1510.461914	137.689224
19467.320106	16934.017833	1509.405273	194.926071
19467.320106	16934.017833	1508.346680	428.489471
19467.320106	16934.017833	1507.289063	15.972341
19467.320106	16934.017833	1506.231445	355.861145
19467.320106	16934.017833	1505.172852	76.978714
19467.320106	16934.017833	1504.114258	304.056854
19467.320106	16934.017833	1503.055664	34.553478
19467.320106	16934.017833	1501.996094	51.889317
19467.320106	16934.017833	1500.937500	-14.149542
19467.320106	16934.017833	1499.877930	64.336273
19467.320106	16934.017833	1498.818359	-111.964943
19467.320106	16934.017833	1497.757813	-109.926941
19467.320106	16934.017833	1496.698242	18.489338
19467.320106	16934.017833	1495.637695	149.229034
19467.320106	16934.017833	1494.577148	-130.139160
19467.320106	16934.017833	1493.516602	-168.173096
19467.320106	16934.017833	1492.456055	-10.073210
19467.320106	16934.017833	1491.394531	-7.325891
19467.320106	16934.017833	1490.333008	126.156563
19467.320106	16934.017833	1489.271484	203.425644
19467.320106	16934.017833	1488.209961	204.257462
19467.320106	16934.017833	1487.148438	468.531586
19467.320106	16934.017833	1486.085938	147.795395
19467.320106	16934.017833	1485.023438	153.520691
19467.320106	16934.017833	1483.960938	-117.284042
19467.320106	16934.017833	1482.898438	1.192403
19467.320106	16934.017833	1481.834961	47.808350
19467.320106	16934.017833	1480.772461	114.765182
19467.320106	16934.017833	1479.708984	33.517303
19467.320106	16934.017833	1478.644531	-218.336639
19467.320106	16934.017833	1477.581055	-85.859718
19467.320106	16934.017833	1476.517578	-303.584045
19467.320106	16934.017833	1475.453125	-114.642769
19467.320106	16934.017833	1474.388672	-239.971649
19467.320106	16934.017833	1473.323242	34.247524
19467.320106	16934.017833	1472.258789	-48.135544
19467.320106	16934.017833	1471.193359	-7.031723
19467.320106	16934.017833	1470.127930	215.927368
19467.320106	16934.017833	1469.062500	254.812561
19467.320106	16934.017833	1467.997070	139.302063
19467.320106	16934.017833	1466.930664	19.937483
19467.320106	16934.017833	1465.865234	1.121558
19467.320106	16934.017833	1464.798828	170.847260
19467.320106	16934.017833	1463.731445	65.476761
19467.320106	16934.017833	1462.665039	-83.056770
19467.320106	16934.017833	1461.597656	-87.806488
19467.320106	16934.017833	1460.530273	483.235352
19467.320106	16934.017833	1459.462891	498.186310
19467.320106	16934.017833	1458.395508	404.226501
19467.320106	16934.017833	1457.327148	116.140724
19467.320106	16934.017833	1456.259766	368.837097
19467.320106	16934.017833	1455.191406	333.322571
19467.320106	16934.017833	1454.123047	176.498550
19467.320106	16934.017833	1453.053711	251.107391
19467.320106	16934.017833	1451.985352	169.522858
19467.320106	16934.017833	1450.916016	309.098633
19467.320106	16934.017833	1449.846680	383.069489
19467.320106	16934.017833	1448.776367	132.529907
19467.320106	16934.017833	1447.707031	204.036057
19467.320106	16934.017833	1446.636719	38.614552
19467.320106	16934.017833	1445.566406	78.552315
19467.320106	16934.017833	1444.496094	55.126907
19467.320106	16934.017833	1443.425781	80.416664
19467.320106	16934.017833	1442.354492	-50.864082
19467.320106	16934.017833	1441.283203	-324.534485
19467.320106	16934.017833	1440.211914	176.251328
19467.320106	16934.017833	1439.140625	-62.795547
19467.320106	16934.017833	1438.069336	19.834791
19467.320106	16934.017833	1436.997070	-1.900511
19467.320106	16934.017833	1435.924805	55.836849
19467.320106	16934.017833	1434.852539	172.230560
19467.320106	16934.017833	1433.780273	-109.330605
19467.320106	16934.017833	1432.707031	-2.180022
19467.320106	16934.017833	1431.633789	-131.425308
19467.320106	16934.017833	1430.560547	74.874985
19467.320106	16934.017833	1429.487305	30.082232
19467.320106	16934.017833	1428.413086	-66.224327
19467.320106	16934.017833	1427.339844	-232.861191
19467.320106	16934.017833	1426.265625	-94.052582
19467.320106	16934.017833	1425.191406	50.026543
19467.320106	16934.017833	1424.116211	408.930542
19467.320106	16934.017833	1423.041992	407.207031
19467.320106	16934.017833	1421.966797	91.697220
19467.320106	16934.017833	1420.891602	-68.586891
19467.320106	16934.017833	1419.816406	95.104591
19467.320106	16934.017833	1418.740234	147.867691
19467.320106	16934.017833	1417.665039	-51.272995
19467.320106	16934.017833	1416.588867	53.898216
19467.320106	16934.017833	1415.512695	-39.498127
19467.320106	16934.017833	1414.435547	98.351280
19467.320106	16934.017833	1413.359375	270.239441
19467.320106	16934.017833	1412.282227	85.547112
19467.320106	16934.017833	1411.205078	33.646206
19467.320106	16934.017833	1410.127930	72.548241
19467.320106	16934.017833	1409.049805	234.512466
19467.320106	16934.017833	1407.972656	144.402679
19467.320106	16934.017833	1406.894531	227.671280
19467.320106	16934.017833	1405.816406	-58.576195
19467.320106	16934.017833	1404.737305	109.011787
19467.320106	16934.017833	1403.659180	-36.022442
19467.320106	16934.017833	1402.580078	19.477701
19467.320106	16934.017833	1401.500977	-15.738332
19467.320106	16934.017833	1400.421875	-548.086853
19467.320106	16934.017833	1399.341797	-109.375946
19467.320106	16934.017833	1398.262695	-249.148605
19467.320106	16934.017833	1397.182617	-73.475494
19467.320106	16934.017833	1396.102539	-56.104004
19467.320106	16934.017833	1395.021484	-130.687363
19467.320106	16934.017833	1393.941406	-203.974838
19467.320106	16934.017833	1392.860352	-86.723564
19467.320106	16934.017833	1391.779297	-481.808472
19467.320106	16934.017833	1390.698242	-221.917480
19467.320106	16934.017833	1389.616211	-420.136810
19467.320106	16934.017833	1388.535156	10.696904
19467.320106	16934.017833	1387.453125	214.023148
19467.320106	16934.017833	1386.371094	173.044357
19467.320106	16934.017833	1385.288086	19.780298
19467.320106	16934.017833	1384.206055	337.195953
19467.320106	16934.017833	1383.123047	71.128281
19467.320106	16934.017833	1382.040039	137.804565
19467.320106	16934.017833	1380.957031	61.021107
19467.320106	16934.017833	1379.873047	494.677155
19467.320106	16934.017833	1378.789063	259.966339
19467.320106	16934.017833	1377.705078	-88.662697
19467.320106	16934.017833	1376.621094	67.484749
19467.320106	16934.017833	1375.537109	-37.832165
19467.320106	16934.017833	1374.452148	252.048080
19467.320106	16934.017833	1373.367188	16.558666
19467.320106	16934.017833	1372.282227	-247.754196
19467.320106	16934.017833	1371.197266	12.423308
19467.320106	16934.017833	1370.112305	15.973303
19467.320106	16934.017833	1369.026367	16.280542
19467.320106	16934.017833	1367.940430	260.459137
19467.320106	16934.017833	1366.854492	134.266220
19467.320106	16934.017833	1365.767578	273.293884
19467.320106	16934.017833	1364.681641	352.232788
19467.320106	16934.017833	1363.594727	222.609833
19467.320106	16934.017833	1362.507813	292.161469
19467.320106	16934.017833	1361.419922	379.134521
19467.320106	16934.017833	1360.333008	92.220657
19467.320106	16934.017833	1359.245117	146.377304
19467.320106	16934.017833	1358.157227	245.858002
19467.320106	16934.017833	1357.069336	76.091637
19467.320106	16934.017833	1355.981445	385.977783
19467.320106	16934.017833	1354.892578	216.685776
19467.320106	16934.017833	1353.803711	46.542885
19467.320106	16934.017833	1352.714844	334.934967
19467.320106	16934.017833	1351.625000	236.629349
19467.320106	16934.017833	1350.536133	157.868195
19467.320106	16934.017833	1349.446289	208.855072
19467.320106	16934.017833	1348.356445	391.102173
19467.320106	16934.017833	1347.266602	386.284332
19467.320106	16934.017833	1346.175781	255.948685
19467.320106	16934.017833	1345.085938	260.308929
19467.320106	16934.017833	1343.995117	369.430939
19467.320106	16934.017833	1342.903320	-15.816702
19467.320106	16934.017833	1341.812500	228.282883
19467.320106	16934.017833	1340.720703	114.700531
19467.320106	16934.017833	1339.629883	257.349976
19467.320106	16934.017833	1338.538086	271.147766
19467.320106	16934.017833	1337.445313	210.319809
19467.320106	16934.017833	1336.353516	239.560394
19467.320106	16934.017833	1335.260742	375.989807
19467.320106	16934.017833	1334.167969	547.800354
19467.320106	16934.017833	1333.075195	399.594513
19467.320106	16934.017833	1331.981445	680.561218
19467.320106	16934.017833	1330.888672	460.083282
19467.320106	16934.017833	1329.794922	212.770111
19467.320106	16934.017833	1328.701172	527.860352
19467.320106	16934.017833	1327.606445	376.975006
19467.320106	16934.017833	1326.512695	634.232300
19467.320106	16934.017833	1325.417969	329.574432
19467.320106	16934.017833	1324.323242	553.849060
19467.320106	16934.017833	1323.227539	333.183350
19467.320106	16934.017833	1322.132813	245.003326
19467.320106	16934.017833	1321.037109	316.429688
19467.320106	16934.017833	1319.941406	267.352600
19467.320106	16934.017833	1318.845703	496.993561
19467.320106	16934.017833	1317.750000	540.494080
19467.320106	16934.017833	1316.653320	737.762939
19467.320106	16934.017833	1315.556641	703.963379
19467.320106	16934.017833	1314.459961	525.414551
19467.320106	16934.017833	1313.363281	333.093781
19467.320106	16934.017833	1312.265625	238.093842
19467.320106	16934.017833	1311.167969	401.671356
19467.320106	16934.017833	1310.070313	225.332916
19467.320106	16934.017833	1308.972656	253.473831
19467.320106	16934.017833	1307.874023	451.345306
19467.320106	16934.017833	1306.776367	281.142517
19467.320106	16934.017833	1305.677734	355.353577
19467.320106	16934.017833	1304.579102	8.769754
19467.320106	16934.017833	1303.479492	172.486267
19467.320106	16934.017833	1302.380859	177.799255
19467.320106	16934.017833	1301.281250	29.041126
19467.320106	16934.017833	1300.181641	0.377820
19467.320106	16934.017833	1299.081055	-126.599068
19467.320106	16934.017833	1297.981445	75.550545
19467.320106	16934.017833	1296.880859	-70.281822
19467.320106	16934.017833	1295.780273	159.467911
19467.320106	16934.017833	1294.679688	-116.289391
19467.320106	16934.017833	1293.578125	-171.893509
19467.320106	16934.017833	1292.476563	220.639374
19467.320106	16934.017833	1291.375000	-119.258423
19467.320106	16934.017833	1290.273438	174.312180
19467.320106	16934.017833	1289.171875	-69.103218
19467.320106	16934.017833	1288.069336	62.081669
19467.320106	16934.017833	1286.966797	148.582748
19467.320106	16934.017833	1285.864258	111.769821
19467.320106	16934.017833	1284.761719	-106.780312
19467.320106	16934.017833	1283.658203	-16.600298
19467.320106	16934.017833	1282.554688	56.002106
19467.320106	16934.017833	1281.451172	129.586121
19467.320106	16934.017833	1280.347656	57.390671
19467.320106	16934.017833	1279.244141	-33.823860
19467.320106	16934.017833	1278.139648	122.904243
19467.320106	16934.017833	1277.035156	114.571648
19467.320106	16934.017833	1275.930664	-70.664780
19467.320106	16934.017833	1274.825195	-5.601016
19467.320106	16934.017833	1273.720703	-79.572899
19467.320106	16934.017833	1272.615234	70.289932
19467.320106	16934.017833	1271.508789	-90.121178
19467.320106	16934.017833	1270.403320	-123.300499
19467.320106	16934.017833	1269.297852	120.090813
19467.320106	16934.017833	1268.191406	-32.836746
19467.320106	16934.017833	1267.084961	-120.588860
19467.320106	16934.017833	1265.977539	-52.113579
19467.320106	16934.017833	1264.871094	-11.634054
19467.320106	16934.017833	1263.763672	83.925705
19467.320106	16934.017833	1262.656250	10.971979
19467.320106	16934.017833	1261.548828	107.966309
19467.320106	16934.017833	1260.440430	143.486191
19467.320106	16934.017833	1259.333008	170.542526
19467.320106	16934.017833	1258.224609	136.358093
19467.320106	16934.017833	1257.115234	250.601517
19467.320106	16934.017833	1256.006836	-64.925400
19467.320106	16934.017833	1254.897461	142.343979
19467.320106	16934.017833	1253.788086	136.979797
19467.320106	16934.017833	1252.678711	215.791229
19467.320106	16934.017833	1251.569336	271.567963
19467.320106	16934.017833	1250.458984	353.100525
19467.320106	16934.017833	1249.349609	435.524536
19467.320106	16934.017833	1248.239258	387.287659
19467.320106	16934.017833	1247.127930	561.540955
19467.320106	16934.017833	1246.017578	496.607391
19467.320106	16934.017833	1244.906250	685.669128
19467.320106	16934.017833	1243.794922	744.227844
19467.320106	16934.017833	1242.683594	768.680603
19467.320106	16934.017833	1241.571289	533.886475
19467.320106	16934.017833	1240.459961	465.814728
19467.320106	16934.017833	1239.347656	172.645767
19467.320106	16934.017833	1238.234375	380.339203
19467.320106	16934.017833	1237.122070	212.071381
19467.320106	16934.017833	1236.008789	291.268768
19467.320106	16934.017833	1234.896484	153.969070
19467.320106	16934.017833	1233.782227	91.084122
19467.320106	16934.017833	1232.668945	-103.562271
19467.320106	16934.017833	1231.555664	163.324509
19467.320106	16934.017833	1230.441406	-16.138689
19467.320106	16934.017833	1229.327148	143.764603
19467.320106	16934.017833	1228.211914	375.916870
19467.320106	16934.017833	1227.097656	90.918396
19467.320106	16934.017833	1225.982422	124.599869
19467.320106	16934.017833	1224.867188	27.242250
19467.320106	16934.017833	1223.751953	90.385269
19467.320106	16934.017833	1222.635742	49.262943
19467.320106	16934.017833	1221.520508	53.317459
19467.320106	16934.017833	1220.404297	44.709530
19467.320106	16934.017833	1219.287109	123.213226
19467.320106	16934.017833	1218.170898	153.903671
19467.320106	16934.017833	1217.053711	-0.396418
19467.320106	16934.017833	1215.936523	39.496395
19467.320106	16934.017833	1214.819336	352.063293
19467.320106	16934.017833	1213.702148	133.578415
19467.320106	16934.017833	1212.583984	382.771759
19467.320106	16934.017833	1211.465820	267.551453
19467.320106	16934.017833	1210.347656	339.871368
19467.320106	16934.017833	1209.229492	69.091621
19467.320106	16934.017833	1208.110352	182.746780
19467.320106	16934.017833	1206.992188	22.814827
19467.320106	16934.017833	1205.873047	99.086823
19467.320106	16934.017833	1204.752930	87.975571
19467.320106	16934.017833	1203.633789	117.211159
19467.320106	16934.017833	1202.513672	-155.573700
19467.320106	16934.017833	1201.393555	20.199369
19467.320106	16934.017833	1200.273438	-105.900497
19467.320106	16934.017833	1199.152344	44.913055
19467.320106	16934.017833	1198.032227	-305.203735
19467.320106	16934.017833	1196.911133	-59.718052
19467.320106	16934.017833	1195.790039	-55.979076
19467.320106	16934.017833	1194.667969	192.180283
19467.320106	16934.017833	1193.545898	110.145302
19467.320106	16934.017833	1192.424805	117.723328
19467.320106	16934.017833	1191.301758	-95.617531
19467.320106	16934.017833	1190.179688	-75.652267
19467.320106	16934.017833	1189.056641	-125.018486
19467.320106	16934.017833	1187.933594	-175.625595
19467.320106	16934.017833	1186.810547	35.124977
19467.320106	16934.017833	1185.687500	-148.556915
19467.320106	16934.017833	1184.563477	-194.684174
19467.320106	16934.017833	1183.440430	40.972900
19467.320106	16934.017833	1182.316406	38.131660
19467.320106	16934.017833	1181.191406	22.408123
19467.320106	16934.017833	1180.067383	-28.737211
19467.320106	16934.017833	1178.942383	36.752583
19467.320106	16934.017833	1177.817383	124.363152
19467.320106	16934.017833	1176.692383	-105.443596
19467.320106	16934.017833	1175.566406	16.916740
19467.320106	16934.017833	1174.440430	101.224907
19467.320106	16934.017833	1173.314453	15.319801
19467.320106	16934.017833	1172.188477	160.317673
19467.320106	16934.017833	1171.062500	11.633601
19467.320106	16934.017833	1169.935547	123.597847
19467.320106	16934.017833	1168.808594	49.352814
19467.320106	16934.017833	1167.681641	-103.971535
19467.320106	16934.017833	1166.553711	29.376785
19467.320106	16934.017833	1165.426758	-32.562023
19467.320106	16934.017833	1164.298828	-39.322224
19467.320106	16934.017833	1163.170898	-329.380188
19467.320106	16934.017833	1162.041992	-98.495872
19467.320106	16934.017833	1160.914063	-187.179291
19467.320106	16934.017833	1159.785156	-278.771820
19467.320106	16934.017833	1158.656250	-184.944870
19467.320106	16934.017833	1157.526367	-5.071864
19467.320106	16934.017833	1156.397461	-148.244293
19467.320106	16934.017833	1155.267578	-126.333313
19467.320106	16934.017833	1154.137695	-207.289307
19467.320106	16934.017833	1153.006836	-67.970314
19467.320106	16934.017833	1151.876953	-326.836395
19467.320106	16934.017833	1150.746094	-155.559952
19467.320106	16934.017833	1149.615234	-105.848869
19467.320106	16934.017833	1148.484375	-120.190186
19467.320106	16934.017833	1147.352539	-290.319214
19467.320106	16934.017833	1146.220703	-268.988464
19467.320106	16934.017833	1145.088867	-189.364655
19467.320106	16934.017833	1143.957031	-20.528500
19467.320106	16934.017833	1142.825195	-85.404480
19467.320106	16934.017833	1141.692383	-77.650093
19467.320106	16934.017833	1140.559570	-31.687361
19467.320106	16934.017833	1139.426758	-29.358692
19467.320106	16934.017833	1138.292969	57.461422
19467.320106	16934.017833	1137.159180	-181.576508
19467.320106	16934.017833	1136.025391	-39.314854
19467.320106	16934.017833	1134.891602	65.050514
19467.320106	16934.017833	1133.757813	-211.244614
19467.320106	16934.017833	1132.623047	35.647606
19467.320106	16934.017833	1131.488281	-13.563292
19467.320106	16934.017833	1130.353516	100.106575
19467.320106	16934.017833	1129.217773	254.684525
19467.320106	16934.017833	1128.083008	376.813599
19467.320106	16934.017833	1126.947266	380.552765
19467.320106	16934.017833	1125.811523	363.424530
19467.320106	16934.017833	1124.674805	6.016538
19467.320106	16934.017833	1123.539063	276.277191
19467.320106	16934.017833	1122.402344	66.188675
19467.320106	16934.017833	1121.265625	36.180164
19467.320106	16934.017833	1120.127930	30.579191
19467.320106	16934.017833	1118.990234	363.891266
19467.320106	16934.017833	1117.853516	330.842987
19467.320106	16934.017833	1116.714844	292.573517
19467.320106	16934.017833	1115.577148	279.347290
19467.320106	16934.017833	1114.439453	262.454651
19467.320106	16934.017833	1113.300781	259.890656
19467.320106	16934.017833	1112.162109	420.149719
19467.320106	16934.017833	1111.022461	281.006042
19467.320106	16934.017833	1109.883789	234.086090
19467.320106	16934.017833	1108.744141	133.770523
19467.320106	16934.017833	1107.604492	290.204559
19467.320106	16934.017833	1106.463867	495.912079
19467.320106	16934.017833	1105.324219	433.465607
19467.320106	16934.017833	1104.183594	249.415115
19467.320106	16934.017833	1103.042969	409.617126
19467.320106	16934.017833	1101.902344	412.430878
19467.320106	16934.017833	1100.760742	299.100555
19467.320106	16934.017833	1099.619141	315.604156
19467.320106	16934.017833	1098.477539	311.787201
19467.320106	16934.017833	1097.335938	536.009033
19467.320106	16934.017833	1096.193359	332.804504
19467.320106	16934.017833	1095.051758	473.576050
19467.320106	16934.017833	1093.909180	625.524475
19467.320106	16934.017833	1092.765625	541.401367
19467.320106	16934.017833	1091.623047	799.275757
19467.320106	16934.017833	1090.479492	659.859619
19467.320106	16934.017833	1089.335938	695.905273
19467.320106	16934.017833	1088.192383	311.373627
19467.320106	16934.017833	1087.047852	850.978760
19467.320106	16934.017833	1085.903320	529.164734
19467.320106	16934.017833	1084.758789	645.450989
19467.320106	16934.017833	1083.614258	327.140350
19467.320106	16934.017833	1082.469727	556.408691
19467.320106	16934.017833	1081.324219	658.551758
19467.320106	16934.017833	1080.178711	680.576416
19467.320106	16934.017833	1079.033203	605.039612
19467.320106	16934.017833	1077.886719	738.459290
19467.320106	16934.017833	1076.740234	427.731567
19467.320106	16934.017833	1075.593750	640.071350
19467.320106	16934.017833	1074.447266	640.031616
19467.320106	16934.017833	1073.300781	585.510864
19467.320106	16934.017833	1072.153320	772.444885
19467.320106	16934.017833	1071.005859	528.392334
19467.320106	16934.017833	1069.858398	694.345459
19467.320106	16934.017833	1068.709961	671.933289
19467.320106	16934.017833	1067.561523	659.843567
19467.320106	16934.017833	1066.413086	354.513977
19467.320106	16934.017833	1065.264648	443.259338
19467.320106	16934.017833	1064.116211	703.536865
19467.320106	16934.017833	1062.966797	545.648987
19467.320106	16934.017833	1061.817383	584.561218
19467.320106	16934.017833	1060.667969	604.725159
19467.320106	16934.017833	1059.517578	315.720184
19467.320106	16934.017833	1058.368164	642.872681
19467.320106	16934.017833	1057.217773	427.860718
19467.320106	16934.017833	1056.067383	388.152374
19467.320106	16934.017833	1054.916016	393.711548
19467.320106	16934.017833	1053.764648	440.008514
19467.320106	16934.017833	1052.613281	477.422607
19467.320106	16934.017833	1051.461914	383.385834
19467.320106	16934.017833	1050.310547	414.957184
19467.320106	16934.017833	1049.158203	287.588531
19467.320106	16934.017833	1048.005859	344.623627
19467.320106	16934.017833	1046.853516	297.000458
19467.320106	16934.017833	1045.700195	481.447937
19467.320106	16934.017833	1044.547852	447.167725
19467.320106	16934.017833	1043.394531	150.251923
19467.320106	16934.017833	1042.240234	291.884399
19467.320106	16934.017833	1041.086914	352.403992
19467.320106	16934.017833	1039.932617	423.113342
19467.320106	16934.017833	1038.778320	383.731995
19467.320106	16934.017833	1037.624023	486.537842
19467.320106	16934.017833	1036.469727	400.806793
19467.320106	16934.017833	1035.314453	280.025024
19467.320106	16934.017833	1034.159180	472.685822
19467.320106	16934.017833	1033.003906	342.508575
19467.320106	16934.017833	1031.847656	713.733093
19467.320106	16934.017833	1030.692383	689.041565
19467.320106	16934.017833	1029.536133	634.559509
19467.320106	16934.017833	1028.378906	605.750183
19467.320106	16934.017833	1027.222656	632.298157
19467.320106	16934.017833	1026.065430	509.977081
19467.320106	16934.017833	1024.908203	540.025024
19467.320106	16934.017833	1023.750977	160.770874
19467.320106	16934.017833	1022.593750	255.514023
19467.320106	16934.017833	1021.435547	266.523071
19467.320106	16934.017833	1020.277344	435.114624
19467.320106	16934.017833	1019.119141	280.049164
19467.320106	16934.017833	1017.959961	300.513031
19467.320106	16934.017833	1016.800781	420.129730
19467.320106	16934.017833	1015.641602	410.987885
19467.320106	16934.017833	1014.482422	207.474884
19467.320106	16934.017833	1013.323242	318.152039
19467.320106	16934.017833	1012.163086	117.947594
19467.320106	16934.017833	1011.002930	36.333069
19467.320106	16934.017833	1009.842773	148.719391
19467.320106	16934.017833	1008.681641	263.788483
19467.320106	16934.017833	1007.520508	77.508278
19467.320106	16934.017833	1006.359375	317.930298
19467.320106	16934.017833	1005.198242	475.725220
19467.320106	16934.017833	1004.037109	402.518860
19467.320106	16934.017833	1002.875000	297.088593
19467.320106	16934.017833	1001.712891	311.683868
19467.320106	16934.017833	1000.550781	396.871948
19467.320106	16934.017833	999.387695	177.955368
19467.320106	16934.017833	998.224609	154.676056
19467.320106	16934.017833	997.061523	118.515266
19467.320106	16934.017833	995.898438	122.833229
19467.320106	16934.017833	994.734375	136.244797
19467.320106	16934.017833	993.571289	59.274632
19467.320106	16934.017833	992.407227	163.594955
19467.320106	16934.017833	991.242188	249.718170
19467.320106	16934.017833	990.078125	155.796204
19467.320106	16934.017833	988.913086	196.948257
19467.320106	16934.017833	987.748047	345.879669
19467.320106	16934.017833	986.583008	-35.656754
19467.320106	16934.017833	985.416992	200.154648
19467.320106	16934.017833	984.250977	13.079913
19467.320106	16934.017833	983.084961	169.274231
19467.320106	16934.017833	981.918945	38.019726
19467.320106	16934.017833	980.751953	291.719757
19467.320106	16934.017833	979.584961	-56.341850
19467.320106	16934.017833	978.417969	-89.418083
19467.320106	16934.017833	977.250977	-283.566650
19467.320106	16934.017833	976.083008	14.994489
19467.320106	16934.017833	974.915039	215.930298
19467.320106	16934.017833	973.747070	107.768990
19467.320106	16934.017833	972.579102	68.148193
19467.320106	16934.017833	971.410156	44.716995
19467.320106	16934.017833	970.242188	-4.062339
19467.320106	16934.017833	969.072266	82.103218
19467.320106	16934.017833	967.903320	140.272049
19467.320106	16934.017833	966.733398	401.940460
19467.320106	16934.017833	965.563477	409.355743
19467.320106	16934.017833	964.393555	252.253235
19467.320106	16934.017833	963.223633	321.067383
19467.320106	16934.017833	962.052734	40.888359
19467.320106	16934.017833	960.881836	541.502747
19467.320106	16934.017833	959.710938	470.053986
19467.320106	16934.017833	958.540039	384.216827
19467.320106	16934.017833	957.368164	54.180901
19467.320106	16934.017833	956.196289	454.447754
19467.320106	16934.017833	955.024414	368.115906
19467.320106	16934.017833	953.851563	426.593689
19467.320106	16934.017833	952.679688	489.762451
19467.320106	16934.017833	951.506836	626.469116
19467.320106	16934.017833	950.333984	402.820801
19467.320106	16934.017833	949.160156	407.864380
19467.320106	16934.017833	947.986328	419.824249
19467.320106	16934.017833	946.812500	266.957153
19467.320106	16934.017833	945.638672	583.133057
19467.320106	16934.017833	944.464844	212.380280
19467.320106	16934.017833	943.290039	251.186813
19467.320106	16934.017833	942.115234	263.701050
19467.320106	16934.017833	940.940430	608.089844
19467.320106	16934.017833	939.764648	318.679169
19467.320106	16934.017833	938.588867	491.714996
19467.320106	16934.017833	937.413086	267.608398
19467.320106	16934.017833	936.237305	267.483246
19467.320106	16934.017833	935.060547	204.567688
19467.320106	16934.017833	933.883789	230.853943
19467.320106	16934.017833	932.707031	251.217850
19467.320106	16934.017833	931.530273	181.869202
19467.320106	16934.017833	930.352539	12.631770
19467.320106	16934.017833	929.175781	165.403442
19467.320106	16934.017833	927.998047	153.000778
19467.320106	16934.017833	926.819336	275.153046
19467.320106	16934.017833	925.641602	108.017990
19467.320106	16934.017833	924.462891	75.304649
19467.320106	16934.017833	923.284180	-71.383316
19467.320106	16934.017833	922.104492	105.576530
19467.320106	16934.017833	920.924805	-43.116428
19467.320106	16934.017833	919.746094	-35.409210
19467.320106	16934.017833	919.551758	31.263060
19467.320106	16934.017833	918.386719	179.502899
19467.320106	16934.017833	917.220703	-1.776011
19467.320106	16934.017833	916.054688	48.797604
19467.320106	16934.017833	914.887695	16.002260
19467.320106	16934.017833	913.721680	-51.349823
19467.320106	16934.017833	912.554688	-197.923035
19467.320106	16934.017833	911.387695	4.987889
19467.320106	16934.017833	910.220703	-129.366394
19467.320106	16934.017833	909.052734	-62.621498
19467.320106	16934.017833	907.885742	-58.857765
19467.320106	16934.017833	906.717773	-57.126415
19467.320106	16934.017833	905.548828	-150.780365
19467.320106	16934.017833	904.380859	-323.542511
19467.320106	16934.017833	903.211914	-39.774673
19467.320106	16934.017833	902.042969	-72.539200
19467.320106	16934.017833	900.874023	-46.483944
19467.320106	16934.017833	899.704102	-22.463400
19467.320106	16934.017833	898.535156	76.539764
19467.320106	16934.017833	897.365234	49.856983
19467.320106	16934.017833	896.194336	55.609871
19467.320106	16934.017833	895.024414	-1.445969
19467.320106	16934.017833	893.853516	-62.522125
19467.320106	16934.017833	892.682617	123.473312
19467.320106	16934.017833	891.511719	3.687314
19467.320106	16934.017833	890.340820	230.081299
19467.320106	16934.017833	889.168945	39.499893
19467.320106	16934.017833	887.997070	318.413849
19467.320106	16934.017833	886.825195	297.823608
19467.320106	16934.017833	885.653320	198.368286
19467.320106	16934.017833	884.480469	96.941284
19467.320106	16934.017833	883.307617	151.230087
19467.320106	16934.017833	882.134766	254.012466
19467.320106	16934.017833	880.961914	269.861053
19467.320106	16934.017833	879.788086	-261.824982
19467.320106	16934.017833	878.614258	26.845022
19467.320106	16934.017833	877.440430	206.342041
19467.320106	16934.017833	876.266602	-22.103094
19467.320106	16934.017833	875.091797	18.055260
19467.320106	16934.017833	873.916992	66.277924
19467.320106	16934.017833	872.742188	-143.809814
19467.320106	16934.017833	871.567383	-39.067066
19467.320106	16934.017833	870.391602	-4.952104
19467.320106	16934.017833	869.215820	160.245804
19467.320106	16934.017833	868.040039	-190.791458
19467.320106	16934.017833	866.864258	14.709746
19467.320106	16934.017833	865.687500	-23.728428
19467.320106	16934.017833	864.510742	-17.813288
19467.320106	16934.017833	863.333984	119.064705
19467.320106	16934.017833	862.157227	62.526802
19467.320106	16934.017833	860.979492	267.827545
19467.320106	16934.017833	859.802734	315.999268
19467.320106	16934.017833	858.625000	122.609467
19467.320106	16934.017833	857.446289	319.755951
19467.320106	16934.017833	856.268555	35.916225
19467.320106	16934.017833	855.089844	-36.557003
19467.320106	16934.017833	853.911133	-24.511877
19467.320106	16934.017833	852.731445	104.181084
19467.320106	16934.017833	851.552734	90.075485
19467.320106	16934.017833	850.373047	17.699772
19467.320106	16934.017833	849.193359	-94.829437
19467.320106	16934.017833	848.013672	-167.117645
19467.320106	16934.017833	846.833008	1.706755
19467.320106	16934.017833	845.652344	-297.499451
19467.320106	16934.017833	844.471680	-48.376942
19467.320106	16934.017833	843.291016	172.548752
19467.320106	16934.017833	842.110352	-210.783035
19467.320106	16934.017833	840.928711	-56.113987
19467.320106	16934.017833	839.747070	-41.946835
19467.320106	16934.017833	838.564453	62.500141
19467.320106	16934.017833	837.382813	34.537991
19467.320106	16934.017833	836.200195	-199.927917
19467.320106	16934.017833	835.017578	-169.662109
19467.320106	16934.017833	833.834961	16.938698
19467.320106	16934.017833	832.651367	3.083885
19467.320106	16934.017833	831.467773	-8.750901
19467.320106	16934.017833	830.284180	-176.817902
19467.320106	16934.017833	829.100586	-22.373285
19467.320106	16934.017833	827.916992	-198.360733
19467.320106	16934.017833	826.732422	-128.033798
19467.320106	16934.017833	825.547852	172.438507
19467.320106	16934.017833	824.363281	70.585121
19467.320106	16934.017833	823.177734	176.849686
19467.320106	16934.017833	821.992188	41.049488
19467.320106	16934.017833	820.806641	-138.683105
19467.320106	16934.017833	819.621094	-272.352417
19467.320106	16934.017833	818.434570	-26.149633
19467.320106	16934.017833	817.249023	-217.736771
19467.320106	16934.017833	816.062500	-63.556293
19467.320106	16934.017833	814.875000	-49.270798
19467.320106	16934.017833	813.688477	-144.849030
19467.320106	16934.017833	812.500977	-24.713936
19467.320106	16934.017833	811.313477	83.394928
19467.320106	16934.017833	810.125977	-107.952705
19467.320106	16934.017833	808.937500	-67.717659
19467.320106	16934.017833	807.749023	126.133911
19467.320106	16934.017833	806.560547	-180.800964
19467.320106	16934.017833	805.372070	-62.796368
19467.320106	16934.017833	804.182617	-136.264374
19467.320106	16934.017833	802.994141	-217.685562
19467.320106	16934.017833	801.803711	-147.580063
19467.320106	16934.017833	800.614258	-33.675217
19467.320106	16934.017833	799.424805	147.919540
19467.320106	16934.017833	798.234375	18.692419
19467.320106	16934.017833	797.043945	-62.691994
19467.320106	16934.017833	795.852539	234.273987
19467.320106	16934.017833	794.662109	246.428116
19467.320106	16934.017833	793.470703	89.395889
19467.320106	16934.017833	792.279297	272.693420
19467.320106	16934.017833	791.087891	272.870636
19467.320106	16934.017833	789.895508	74.134315
19467.320106	16934.017833	788.703125	149.902939
19467.320106	16934.017833	787.510742	-92.492378
19467.320106	16934.017833	786.318359	-48.554462
19467.320106	16934.017833	785.125000	19.206554
19467.320106	16934.017833	783.931641	-193.245972
19467.320106	16934.017833	782.738281	-121.545807
19467.320106	16934.017833	781.544922	-73.725128
19467.320106	16934.017833	780.350586	83.278069
19467.320106	16934.017833	779.156250	-25.840431
19467.320106	16934.017833	777.961914	4.010170
19467.320106	16934.017833	776.767578	144.959732
19467.320106	16934.017833	775.572266	83.452950
19467.320106	16934.017833	774.376953	43.769604
19467.320106	16934.017833	773.181641	154.807083
19467.320106	16934.017833	771.986328	130.935455
19467.320106	16934.017833	770.790039	21.806265
19467.320106	16934.017833	769.593750	140.630997
19467.320106	16934.017833	768.397461	192.000336
19467.320106	16934.017833	767.201172	74.911247
19467.320106	16934.017833	766.003906	108.388199
19467.320106	16934.017833	764.806641	133.896606
19467.320106	16934.017833	763.609375	-46.560753
19467.320106	16934.017833	762.412109	30.368483
19467.320106	16934.017833	761.213867	73.589485
19467.320106	16934.017833	760.015625	249.331421
19467.320106	16934.017833	758.817383	304.280609
19467.320106	16934.017833	757.618164	266.211243
19467.320106	16934.017833	756.419922	-9.196251
19467.320106	16934.017833	755.220703	83.218979
19467.320106	16934.017833	754.021484	268.457672
19467.320106	16934.017833	752.821289	372.551666
19467.320106	16934.017833	751.621094	85.327942
19467.320106	16934.017833	750.420898	236.734467
19467.320106	16934.017833	749.220703	204.346161
19467.320106	16934.017833	748.020508	-53.189766
19467.320106	16934.017833	746.819336	-50.064423
19467.320106	16934.017833	745.618164	294.479034
19467.320106	16934.017833	744.416992	427.667847
19467.320106	16934.017833	743.214844	33.959190
19467.320106	16934.017833	742.012695	243.971359
19467.320106	16934.017833	740.810547	175.759720
19467.320106	16934.017833	739.608398	267.229187
19467.320106	16934.017833	738.406250	305.372650
19467.320106	16934.017833	737.203125	428.195801
19467.320106	16934.017833	736.000000	558.783936
19467.320106	16934.017833	734.795898	685.318542
19467.320106	16934.017833	733.592773	628.544067
19467.320106	16934.017833	732.388672	1034.515991
19467.320106	16934.017833	731.184570	861.395935
19467.320106	16934.017833	729.979492	684.345642
19467.320106	16934.017833	728.775391	479.738953
19467.320106	16934.017833	727.570313	452.238220
19467.320106	16934.017833	726.365234	446.313995
19467.320106	16934.017833	725.160156	452.117249
19467.320106	16934.017833	723.954102	371.321075
19467.320106	16934.017833	722.748047	298.345306
19467.320106	16934.017833	721.541992	329.495300
19467.320106	16934.017833	720.334961	407.719269
19467.320106	16934.017833	719.128906	568.345215
19467.320106	16934.017833	717.921875	412.558014
19467.320106	16934.017833	716.714844	211.582504
19467.320106	16934.017833	715.506836	462.220215
19467.320106	16934.017833	714.298828	162.987213
19467.320106	16934.017833	713.090820	83.614594
19467.320106	16934.017833	711.882813	45.394028
19467.320106	16934.017833	710.674805	62.027344
19467.320106	16934.017833	709.465820	4.028549
19467.320106	16934.017833	708.256836	153.830124
19467.320106	16934.017833	707.047852	-212.180557
19467.320106	16934.017833	705.837891	64.828674
19467.320106	16934.017833	704.627930	325.942871
19467.320106	16934.017833	703.417969	-30.370455
19467.320106	16934.017833	702.208008	77.647179
19467.320106	16934.017833	700.998047	60.166424
19467.320106	16934.017833	699.787109	128.751465
19467.320106	16934.017833	698.576172	-180.650848
19467.320106	16934.017833	697.364258	240.072342
19467.320106	16934.017833	696.153320	263.242371
19467.320106	16934.017833	694.941406	264.775543
19467.320106	16934.017833	693.729492	332.703125
19467.320106	16934.017833	692.516602	343.776306
19467.320106	16934.017833	691.304688	327.354279
19467.320106	16934.017833	690.091797	338.196442
19467.320106	16934.017833	688.878906	264.871552
19467.320106	16934.017833	687.665039	500.208649
19467.320106	16934.017833	686.451172	203.928986
19467.320106	16934.017833	685.237305	372.529510
19467.320106	16934.017833	684.023438	210.905670
19467.320106	16934.017833	682.809570	599.816162
19467.320106	16934.017833	681.594727	547.282898
19467.320106	16934.017833	680.379883	623.451660
19467.320106	16934.017833	679.165039	672.147461
19467.320106	16934.017833	677.949219	552.927368
19467.320106	16934.017833	676.733398	732.040771
19467.320106	16934.017833	675.517578	815.398865
19467.320106	16934.017833	674.301758	604.207764
19467.320106	16934.017833	673.084961	617.127502
19467.320106	16934.017833	671.869141	840.374207
19467.320106	16934.017833	670.651367	439.927612
19467.320106	16934.017833	669.434570	715.444946
19467.320106	16934.017833	668.216797	663.527954
19467.320106	16934.017833	667.000000	813.997314
19467.320106	16934.017833	665.781250	787.116638
19467.320106	16934.017833	664.563477	676.419556
19467.320106	16934.017833	663.344727	594.817566
19467.320106	16934.017833	662.125977	787.421265
19467.320106	16934.017833	660.907227	435.190735
19467.320106	16934.017833	659.688477	504.951538
19467.320106	16934.017833	658.468750	306.239685
19467.320106	16934.017833	657.249023	369.882874
19467.320106	16934.017833	656.029297	441.130585
19467.320106	16934.017833	654.808594	533.577087
19467.320106	16934.017833	653.587891	462.659912
19467.320106	16934.017833	652.367188	323.653992
19467.320106	16934.017833	651.146484	431.164307
19467.320106	16934.017833	649.924805	425.882477
19467.320106	16934.017833	648.704102	556.322266
19467.320106	16934.017833	647.482422	360.550812
19467.320106	16934.017833	646.259766	515.872192
19467.320106	16934.017833	645.037109	523.562805
19467.320106	16934.017833	643.815430	288.690674
19467.320106	16934.017833	642.591797	445.419800
19467.320106	16934.017833	641.369141	423.595428
19467.320106	16934.017833	640.145508	659.390930
19467.320106	16934.017833	638.921875	431.837494
19467.320106	16934.017833	637.698242	390.204468
19467.320106	16934.017833	636.474609	484.015198
19467.320106	16934.017833	635.250000	447.893799
19467.320106	16934.017833	634.025391	411.637695
19467.320106	16934.017833	632.800781	562.996826
19467.320106	16934.017833	631.575195	267.108826
19467.320106	16934.017833	630.349609	305.912109
19467.320106	16934.017833	629.124023	365.826660
19467.320106	16934.017833	627.898438	520.327271
19467.320106	16934.017833	626.671875	386.508209
19467.320106	16934.017833	625.445313	563.831970
19467.320106	16934.017833	624.218750	371.775330
19467.320106	16934.017833	622.992188	256.942139
19467.320106	16934.017833	621.764648	337.125519
19467.320106	16934.017833	620.537109	349.523010
19467.320106	16934.017833	619.309570	284.521667
19467.320106	16934.017833	618.081055	323.648865
19467.320106	16934.017833	616.852539	242.932587
19467.320106	16934.017833	615.624023	430.353821
19467.320106	16934.017833	614.395508	289.538116
19467.320106	16934.017833	613.166992	353.113007
19467.320106	16934.017833	611.937500	212.072205
19467.320106	16934.017833	610.708008	3.456244
19467.320106	16934.017833	609.477539	132.145432
19467.320106	16934.017833	608.248047	29.347960
19467.320106	16934.017833	607.017578	59.407696
19467.320106	16934.017833	605.787109	172.154831
19467.320106	16934.017833	604.555664	-270.038422
19467.320106	16934.017833	603.325195	60.052780
19467.320106	16934.017833	602.093750	164.589966
19467.320106	16934.017833	600.861328	145.735855
19467.320106	16934.017833	599.629883	94.040337
19467.320106	16934.017833	598.397461	238.480774
19467.320106	16934.017833	597.165039	188.423553
19467.320106	16934.017833	595.932617	-117.550133
19467.320106	16934.017833	594.699219	-229.322525
19467.320106	16934.017833	593.465820	87.531815
19467.320106	16934.017833	592.232422	140.791443
19467.320106	16934.017833	590.999023	-55.923195
19467.320106	16934.017833	589.764648	-39.432121
19467.320106	16934.017833	588.530273	-40.367935
19467.320106	16934.017833	587.295898	25.784431
19467.320106	16934.017833	586.061523	30.336948
19467.320106	16934.017833	584.826172	-139.932968
19467.320106	16934.017833	583.590820	16.014488
19467.320106	16934.017833	582.355469	-223.508591
19467.320106	16934.017833	581.119141	-263.543335
19467.320106	16934.017833	579.882813	-115.717468
19467.320106	16934.017833	578.646484	-140.660233
19467.320106	16934.017833	577.410156	265.657379
19467.320106	16934.017833	576.172852	-27.946564
19467.320106	16934.017833	574.935547	-13.003634
19467.320106	16934.017833	573.698242	231.734039
19467.320106	16934.017833	572.460938	110.385468
19467.320106	16934.017833	571.222656	84.727448
19467.320106	16934.017833	569.984375	340.437897
19467.320106	16934.017833	568.746094	276.241364
19467.320106	16934.017833	567.506836	66.504356
19467.320106	16934.017833	566.267578	358.088715
19467.320106	16934.017833	565.028320	316.572601
19467.320106	16934.017833	563.789063	336.178711
19467.320106	16934.017833	562.548828	267.708923
19467.320106	16934.017833	561.309570	308.157379
19467.320106	16934.017833	560.068359	180.269165
19467.320106	16934.017833	558.828125	16.045557
19467.320106	16934.017833	557.586914	-79.423706
19467.320106	16934.017833	556.345703	180.366562
19467.320106	16934.017833	555.104492	98.100174
19467.320106	16934.017833	553.863281	-49.130852
19467.320106	16934.017833	552.621094	196.865646
19467.320106	16934.017833	551.378906	51.415482
19467.320106	16934.017833	550.136719	-166.559189
19467.320106	16934.017833	548.893555	-14.413198
19467.320106	16934.017833	547.650391	-247.693573
19467.320106	16934.017833	546.407227	-42.341404
19467.320106	16934.017833	545.164063	119.006905
19467.320106	16934.017833	543.919922	-85.771217
19467.320106	16934.017833	542.675781	-191.425674
19467.320106	16934.017833	541.431641	36.338779
19467.320106	16934.017833	540.186523	-82.758743
19467.320106	16934.017833	538.941406	7.635496
19467.320106	16934.017833	537.696289	63.664413
19467.320106	16934.017833	536.451172	-38.390415
19467.320106	16934.017833	535.205078	25.127459
19467.320106	16934.017833	533.959961	-202.562714
19467.320106	16934.017833	532.712891	-26.892689
19467.320106	16934.017833	531.466797	112.528854
19467.320106	16934.017833	530.219727	-98.063789
19467.320106	16934.017833	528.972656	-103.269821
19467.320106	16934.017833	527.725586	134.797714
19467.320106	16934.017833	526.478516	95.265999
19467.320106	16934.017833	525.230469	-14.591679
19467.320106	16934.017833	523.982422	40.836449
19467.320106	16934.017833	522.734375	-21.539339
19467.320106	16934.017833	521.485352	-49.746647
19467.320106	16934.017833	520.236328	-74.165947
19467.320106	16934.017833	518.987305	206.978180
19467.320106	16934.017833	517.737305	-197.054932
19467.320106	16934.017833	516.488281	57.397533
19467.320106	16934.017833	515.238281	269.985077
19467.320106	16934.017833	513.988281	154.397369
19467.320106	16934.017833	512.737305	-126.112312
19467.320106	16934.017833	511.486328	-2.760649
19467.320106	16934.017833	510.235352	52.305542
19467.320106	16934.017833	508.984375	-8.240315
19467.320106	16934.017833	507.732422	-38.467468
19467.320106	16934.017833	506.480469	236.235275
19467.320106	16934.017833	505.228516	107.498169
19467.320106	16934.017833	503.976563	56.431831
19467.320106	16934.017833	502.723633	135.972580
19467.320106	16934.017833	501.470703	134.110184
19467.320106	16934.017833	500.217773	247.654221
19467.320106	16934.017833	498.963867	385.732178
19467.320106	16934.017833	497.709961	448.108887
19467.320106	16934.017833	496.456055	389.460815
19467.320106	16934.017833	495.202148	601.145996
19467.320106	16934.017833	493.947266	553.828613
19467.320106	16934.017833	492.692383	604.784729
19467.320106	16934.017833	491.437500	787.957886
19467.320106	16934.017833	490.181641	850.174133
19467.320106	16934.017833	488.926758	831.185974
19467.320106	16934.017833	487.670898	604.539490
19467.320106	16934.017833	486.414063	708.283203
19467.320106	16934.017833	485.158203	623.296082
19467.320106	16934.017833	483.901367	726.998901
19467.320106	16934.017833	482.644531	585.453613
19467.320106	16934.017833	481.386719	534.481262
19467.320106	16934.017833	480.128906	656.983337
19467.320106	16934.017833	478.871094	613.556152
19467.320106	16934.017833	477.613281	494.762756
19467.320106	16934.017833	476.355469	922.421692
19467.320106	16934.017833	475.096680	895.898071
19467.320106	16934.017833	473.837891	711.176392
19467.320106	16934.017833	472.578125	920.047058
19467.320106	16934.017833	471.319336	855.859558
19467.320106	16934.017833	470.059570	863.194763
19467.320106	16934.017833	468.799805	1260.022583
19467.320106	16934.017833	467.539063	1195.728149
19467.320106	16934.017833	466.278320	1046.794556
19467.320106	16934.017833	465.017578	1059.620605
19467.320106	16934.017833	463.756836	1021.645508
19467.320106	16934.017833	462.495117	991.157776
19467.320106	16934.017833	461.233398	1116.621948
19467.320106	16934.017833	459.971680	995.853455
19467.320106	16934.017833	458.709961	1384.150024
19467.320106	16934.017833	457.447266	1156.208984
19467.320106	16934.017833	456.184570	1119.823730
19467.320106	16934.017833	454.921875	1023.312561
19467.320106	16934.017833	453.658203	1078.781738
19467.320106	16934.017833	452.394531	1404.354126
19467.320106	16934.017833	451.130859	1104.977661
19467.320106	16934.017833	449.867188	1297.047485
19467.320106	16934.017833	448.602539	1076.371094
19467.320106	16934.017833	447.337891	1225.017578
19467.320106	16934.017833	446.073242	1444.706909
19467.320106	16934.017833	444.807617	1360.569458
19467.320106	16934.017833	443.542969	1326.928589
19467.320106	16934.017833	442.276367	1323.100586
19467.320106	16934.017833	441.010742	1133.721924
19467.320106	16934.017833	439.744141	1238.206787
19467.320106	16934.017833	438.478516	1177.742676
19467.320106	16934.017833	437.210938	1395.955322
19467.320106	16934.017833	435.944336	1211.576416
19467.320106	16934.017833	434.676758	1317.017456
19467.320106	16934.017833	433.409180	1530.663696
19467.320106	16934.017833	432.141602	1452.259766
19467.320106	16934.017833	430.873047	1502.616943
19467.320106	16934.017833	429.604492	1442.401001
19467.320106	16934.017833	428.335938	1426.772827
19467.320106	16934.017833	427.067383	1558.447266
19467.320106	16934.017833	425.797852	1402.068604
19467.320106	16934.017833	424.528320	1409.762085
19467.320106	16934.017833	423.258789	1454.440063
19467.320106	16934.017833	421.988281	1312.041138
19467.320106	16934.017833	420.717773	1369.005981
19467.320106	16934.017833	419.447266	1518.832886
19467.320106	16934.017833	418.175781	1802.461426
19467.320106	16934.017833	416.905273	1527.868408
19467.320106	16934.017833	415.633789	1700.431274
19467.320106	16934.017833	414.362305	1622.608521
19467.320106	16934.017833	413.089844	1635.614746
19467.320106	16934.017833	411.817383	1571.669189
19467.320106	16934.017833	410.544922	1661.820313
19467.320106	16934.017833	409.272461	1416.060791
19467.320106	16934.017833	407.999023	1560.846802
19467.320106	16934.017833	406.725586	1613.694946
19467.320106	16934.017833	405.452148	1301.000122
19467.320106	16934.017833	404.177734	1387.849121
19467.320106	16934.017833	402.903320	1152.034790
19467.320106	16934.017833	401.628906	1293.193848
19467.320106	16934.017833	400.354492	1426.061157
19467.320106	16934.017833	399.079102	1465.053955
19467.320106	16934.017833	397.803711	1419.516357
19467.320106	16934.017833	396.528320	1573.839355
19467.320106	16934.017833	395.251953	1466.995239
19467.320106	16934.017833	393.976563	1532.038574
19467.320106	16934.017833	392.700195	1387.998657
19467.320106	16934.017833	391.422852	1417.519531
19467.320106	16934.017833	390.145508	1568.486938
19467.320106	16934.017833	388.869141	1683.034790
19467.320106	16934.017833	387.590820	1605.171997
19467.320106	16934.017833	386.313477	1533.593384
19467.320106	16934.017833	385.035156	1423.675049
19467.320106	16934.017833	383.756836	1230.916748
19467.320106	16934.017833	382.478516	1352.121338
19467.320106	16934.017833	381.199219	1288.335693
19467.320106	16934.017833	379.919922	1221.294922
19467.320106	16934.017833	378.640625	1123.159912
19467.320106	16934.017833	377.360352	1216.171387
19467.320106	16934.017833	376.080078	1137.161621
19467.320106	16934.017833	374.799805	1128.770020
19467.320106	16934.017833	373.519531	1177.939209
19467.320106	16934.017833	372.238281	1040.202637
19467.320106	16934.017833	370.957031	1398.526855
19467.320106	16934.017833	369.675781	1247.889404
19467.320106	16934.017833	368.394531	1054.702148
19467.320106	16934.017833	367.112305	1214.645386
19467.320106	16934.017833	365.830078	841.820068
19467.320106	16934.017833	364.546875	951.316223
19467.320106	16934.017833	363.264648	1101.145508
19467.320106	16934.017833	361.981445	1074.919800
19467.320106	16934.017833	360.698242	1066.710571
19467.320106	16934.017833	359.414063	1174.262695
19467.320106	16934.017833	358.129883	858.294495
19467.320106	16934.017833	356.845703	1143.611938
19467.320106	16934.017833	355.561523	1090.271484
19467.320106	16934.017833	354.276367	921.630371
19467.320106	16934.017833	352.991211	896.040161
19467.320106	16934.017833	351.706055	672.085144
19467.320106	16934.017833	350.420898	926.607605
19467.320106	16934.017833	349.134766	737.273010
19467.320106	16934.017833	347.848633	622.328552
19467.320106	16934.017833	346.561523	389.890137
19467.320106	16934.017833	345.275391	506.258820
19467.320106	16934.017833	343.988281	527.002869
19467.320106	16934.017833	342.700195	479.705048
19467.320106	16934.017833	341.413086	640.683411
19467.320106	16934.017833	340.125000	436.998047
19467.320106	16934.017833	338.836914	467.043671
19467.320106	16934.017833	337.548828	607.271484
19467.320106	16934.017833	336.259766	474.743073
19467.320106	16934.017833	334.970703	341.843262
19467.320106	16934.017833	333.681641	355.573090
19467.320106	16934.017833	332.391602	6.347018
19467.320106	16934.017833	331.101563	93.963989
19467.320106	16934.017833	329.811523	134.705170
19467.320106	16934.017833	328.521484	-145.275635
19467.320106	16934.017833	327.230469	117.324600
19467.320106	16934.017833	325.939453	103.064240
19467.320106	16934.017833	324.648438	13.968486
19467.320106	16934.017833	323.356445	35.221588
19467.320106	16934.017833	322.064453	-66.333702
19467.320106	16934.017833	320.772461	70.718353
19467.320106	16934.017833	319.480469	47.999836
19467.320106	16934.017833	318.187500	116.587509
19467.320106	16934.017833	316.894531	54.545948
19467.320106	16934.017833	315.601563	-48.356884
19467.320106	16934.017833	314.307617	-130.091858
19467.320106	16934.017833	313.013672	-91.717049
19467.320106	16934.017833	311.719727	-56.215511
19467.320106	16934.017833	310.425781	-254.541992
19467.320106	16934.017833	309.130859	-414.029236
19467.320106	16934.017833	307.835938	67.669861
19467.320106	16934.017833	306.541016	-98.699821
19467.320106	16934.017833	305.245117	-20.006588
19467.320106	16934.017833	303.949219	30.983309
19467.320106	16934.017833	302.653320	50.444290
19467.320106	16934.017833	301.356445	308.672089
19467.320106	16934.017833	300.060547	529.657471
19467.320106	16934.017833	298.763672	398.352692
