#X		#Y		#Wave		#Intensity
19494.618457	16961.277500	2000.043945	-130.156097
19494.618457	16961.277500	1999.080078	0.634389
19494.618457	16961.277500	1998.116211	-52.199554
19494.618457	16961.277500	1997.151367	-77.900513
19494.618457	16961.277500	1996.186523	-143.385757
19494.618457	16961.277500	1995.222656	-77.708733
19494.618457	16961.277500	1994.256836	54.692051
19494.618457	16961.277500	1993.291992	95.268982
19494.618457	16961.277500	1992.327148	630.868652
19494.618457	16961.277500	1991.361328	507.690643
19494.618457	16961.277500	1990.395508	72.585693
19494.618457	16961.277500	1989.429688	-238.756927
19494.618457	16961.277500	1988.463867	174.783615
19494.618457	16961.277500	1987.497070	115.609192
19494.618457	16961.277500	1986.531250	78.594559
19494.618457	16961.277500	1985.564453	115.668579
19494.618457	16961.277500	1984.597656	127.899216
19494.618457	16961.277500	1983.630859	167.211670
19494.618457	16961.277500	1982.664063	213.820145
19494.618457	16961.277500	1981.696289	-194.306137
19494.618457	16961.277500	1980.728516	30.031858
19494.618457	16961.277500	1979.761719	-101.474327
19494.618457	16961.277500	1978.792969	-50.269859
19494.618457	16961.277500	1977.825195	-110.282494
19494.618457	16961.277500	1976.857422	64.155739
19494.618457	16961.277500	1975.888672	310.026855
19494.618457	16961.277500	1974.919922	-48.831242
19494.618457	16961.277500	1973.951172	-40.027126
19494.618457	16961.277500	1972.982422	111.768044
19494.618457	16961.277500	1972.013672	-136.091537
19494.618457	16961.277500	1971.043945	18.000515
19494.618457	16961.277500	1970.075195	450.546051
19494.618457	16961.277500	1969.105469	101.514870
19494.618457	16961.277500	1968.135742	132.069244
19494.618457	16961.277500	1967.165039	36.901020
19494.618457	16961.277500	1966.195313	114.151054
19494.618457	16961.277500	1965.224609	223.343109
19494.618457	16961.277500	1964.253906	270.879761
19494.618457	16961.277500	1963.283203	-80.510284
19494.618457	16961.277500	1962.312500	131.899704
19494.618457	16961.277500	1961.341797	112.834442
19494.618457	16961.277500	1960.370117	-4.690689
19494.618457	16961.277500	1959.399414	77.065125
19494.618457	16961.277500	1958.427734	6.247684
19494.618457	16961.277500	1957.455078	122.335320
19494.618457	16961.277500	1956.483398	-123.118576
19494.618457	16961.277500	1955.511719	98.588593
19494.618457	16961.277500	1954.539063	165.334991
19494.618457	16961.277500	1953.566406	-124.316704
19494.618457	16961.277500	1952.593750	224.951599
19494.618457	16961.277500	1951.621094	-76.942505
19494.618457	16961.277500	1950.647461	380.210938
19494.618457	16961.277500	1949.674805	19.414646
19494.618457	16961.277500	1948.701172	-34.358494
19494.618457	16961.277500	1947.727539	520.655273
19494.618457	16961.277500	1946.753906	71.619545
19494.618457	16961.277500	1945.780273	54.615673
19494.618457	16961.277500	1944.805664	91.581764
19494.618457	16961.277500	1943.831055	-111.872765
19494.618457	16961.277500	1942.856445	-65.107994
19494.618457	16961.277500	1941.881836	114.033546
19494.618457	16961.277500	1940.907227	-155.542679
19494.618457	16961.277500	1939.932617	111.767967
19494.618457	16961.277500	1938.957031	234.383743
19494.618457	16961.277500	1937.981445	55.568218
19494.618457	16961.277500	1937.005859	283.472839
19494.618457	16961.277500	1936.030273	-12.868235
19494.618457	16961.277500	1935.054688	109.651459
19494.618457	16961.277500	1934.078125	210.088608
19494.618457	16961.277500	1933.101563	-120.353882
19494.618457	16961.277500	1932.125000	-19.919268
19494.618457	16961.277500	1931.148438	7.067091
19494.618457	16961.277500	1930.171875	193.066925
19494.618457	16961.277500	1929.194336	151.511780
19494.618457	16961.277500	1928.217773	246.925613
19494.618457	16961.277500	1927.240234	-7.354743
19494.618457	16961.277500	1926.262695	-26.843353
19494.618457	16961.277500	1925.284180	400.986908
19494.618457	16961.277500	1924.306641	53.958672
19494.618457	16961.277500	1923.328125	-58.366673
19494.618457	16961.277500	1922.350586	198.231903
19494.618457	16961.277500	1921.372070	-204.725327
19494.618457	16961.277500	1920.392578	-4.345251
19494.618457	16961.277500	1919.414063	159.337204
19494.618457	16961.277500	1918.434570	349.822723
19494.618457	16961.277500	1917.456055	-69.925613
19494.618457	16961.277500	1916.476563	135.184647
19494.618457	16961.277500	1915.497070	101.131271
19494.618457	16961.277500	1914.516602	86.614983
19494.618457	16961.277500	1913.537109	289.163147
19494.618457	16961.277500	1912.556641	177.098602
19494.618457	16961.277500	1911.576172	-42.182961
19494.618457	16961.277500	1910.595703	48.181965
19494.618457	16961.277500	1909.615234	38.603764
19494.618457	16961.277500	1908.633789	-92.783348
19494.618457	16961.277500	1907.653320	-263.094818
19494.618457	16961.277500	1906.671875	-60.675797
19494.618457	16961.277500	1905.690430	131.935608
19494.618457	16961.277500	1904.708984	46.925064
19494.618457	16961.277500	1903.727539	86.105164
19494.618457	16961.277500	1902.745117	149.621765
19494.618457	16961.277500	1901.762695	79.290123
19494.618457	16961.277500	1900.780273	-81.022530
19494.618457	16961.277500	1899.797852	235.494385
19494.618457	16961.277500	1898.815430	247.903381
19494.618457	16961.277500	1897.832031	-55.778656
19494.618457	16961.277500	1896.849609	-106.507416
19494.618457	16961.277500	1895.866211	-276.305756
19494.618457	16961.277500	1894.882813	-258.905518
19494.618457	16961.277500	1893.898438	-132.158920
19494.618457	16961.277500	1892.915039	-156.070679
19494.618457	16961.277500	1891.930664	-121.667542
19494.618457	16961.277500	1890.947266	-45.991341
19494.618457	16961.277500	1889.962891	61.233891
19494.618457	16961.277500	1888.977539	-113.150177
19494.618457	16961.277500	1887.993164	-275.331970
19494.618457	16961.277500	1887.007813	127.946938
19494.618457	16961.277500	1886.023438	235.095703
19494.618457	16961.277500	1885.038086	-26.480780
19494.618457	16961.277500	1884.051758	5.502453
19494.618457	16961.277500	1883.066406	-13.443943
19494.618457	16961.277500	1882.081055	88.839378
19494.618457	16961.277500	1881.094727	-271.853455
19494.618457	16961.277500	1880.108398	-38.678398
19494.618457	16961.277500	1879.122070	230.758789
19494.618457	16961.277500	1878.135742	-6.192577
19494.618457	16961.277500	1877.148438	79.083893
19494.618457	16961.277500	1876.162109	-201.325165
19494.618457	16961.277500	1875.174805	9.864098
19494.618457	16961.277500	1874.187500	143.519028
19494.618457	16961.277500	1873.199219	-93.154175
19494.618457	16961.277500	1872.211914	335.688873
19494.618457	16961.277500	1871.223633	-133.175797
19494.618457	16961.277500	1870.236328	-139.868683
19494.618457	16961.277500	1869.248047	-20.793476
19494.618457	16961.277500	1868.258789	284.424438
19494.618457	16961.277500	1867.270508	96.361839
19494.618457	16961.277500	1866.282227	12.304929
19494.618457	16961.277500	1865.292969	-74.131935
19494.618457	16961.277500	1864.303711	-61.472111
19494.618457	16961.277500	1863.314453	9.158974
19494.618457	16961.277500	1862.324219	137.733078
19494.618457	16961.277500	1861.334961	118.955811
19494.618457	16961.277500	1860.344727	213.661713
19494.618457	16961.277500	1859.354492	76.604729
19494.618457	16961.277500	1858.364258	154.387924
19494.618457	16961.277500	1857.374023	273.161255
19494.618457	16961.277500	1856.383789	459.435944
19494.618457	16961.277500	1855.392578	-56.257641
19494.618457	16961.277500	1854.401367	183.066803
19494.618457	16961.277500	1853.410156	260.750610
19494.618457	16961.277500	1852.418945	196.170258
19494.618457	16961.277500	1851.426758	-152.790466
19494.618457	16961.277500	1850.435547	242.990082
19494.618457	16961.277500	1849.443359	583.207642
19494.618457	16961.277500	1848.451172	198.221634
19494.618457	16961.277500	1847.458984	-68.612984
19494.618457	16961.277500	1846.466797	107.711128
19494.618457	16961.277500	1845.473633	197.296448
19494.618457	16961.277500	1844.480469	166.486771
19494.618457	16961.277500	1843.487305	378.748383
19494.618457	16961.277500	1842.494141	1.414798
19494.618457	16961.277500	1841.500977	62.049946
19494.618457	16961.277500	1840.506836	45.689865
19494.618457	16961.277500	1839.513672	-90.918686
19494.618457	16961.277500	1838.519531	222.128860
19494.618457	16961.277500	1837.525391	59.080631
19494.618457	16961.277500	1836.530273	234.968704
19494.618457	16961.277500	1835.536133	273.803619
19494.618457	16961.277500	1834.541016	199.696838
19494.618457	16961.277500	1833.545898	156.834061
19494.618457	16961.277500	1832.550781	49.126923
19494.618457	16961.277500	1831.555664	44.697948
19494.618457	16961.277500	1830.560547	330.741974
19494.618457	16961.277500	1829.564453	165.419846
19494.618457	16961.277500	1828.568359	132.132202
19494.618457	16961.277500	1827.572266	43.655869
19494.618457	16961.277500	1826.576172	382.201324
19494.618457	16961.277500	1825.580078	281.684052
19494.618457	16961.277500	1824.583008	-49.016350
19494.618457	16961.277500	1823.585938	308.487122
19494.618457	16961.277500	1822.588867	301.477173
19494.618457	16961.277500	1821.591797	323.211151
19494.618457	16961.277500	1820.594727	229.899536
19494.618457	16961.277500	1819.596680	117.441307
19494.618457	16961.277500	1818.599609	357.107330
19494.618457	16961.277500	1817.601563	127.280090
19494.618457	16961.277500	1816.603516	-128.823196
19494.618457	16961.277500	1815.604492	220.819443
19494.618457	16961.277500	1814.606445	280.691986
19494.618457	16961.277500	1813.607422	299.840729
19494.618457	16961.277500	1812.608398	211.293640
19494.618457	16961.277500	1811.609375	196.909607
19494.618457	16961.277500	1810.610352	165.766312
19494.618457	16961.277500	1809.610352	220.698120
19494.618457	16961.277500	1808.611328	-228.873199
19494.618457	16961.277500	1807.611328	251.537872
19494.618457	16961.277500	1806.611328	280.055115
19494.618457	16961.277500	1805.610352	313.319458
19494.618457	16961.277500	1804.610352	-40.473705
19494.618457	16961.277500	1803.609375	291.348480
19494.618457	16961.277500	1802.608398	434.359131
19494.618457	16961.277500	1801.607422	-115.119881
19494.618457	16961.277500	1800.606445	369.219635
19494.618457	16961.277500	1799.605469	142.107788
19494.618457	16961.277500	1798.603516	67.777107
19494.618457	16961.277500	1797.601563	115.119232
19494.618457	16961.277500	1796.599609	434.344727
19494.618457	16961.277500	1795.597656	252.588028
19494.618457	16961.277500	1794.595703	-55.504772
19494.618457	16961.277500	1793.592773	118.056580
19494.618457	16961.277500	1792.589844	267.685394
19494.618457	16961.277500	1791.587891	405.304840
19494.618457	16961.277500	1790.583984	333.177216
19494.618457	16961.277500	1789.581055	306.299377
19494.618457	16961.277500	1788.577148	112.681206
19494.618457	16961.277500	1787.574219	183.421631
19494.618457	16961.277500	1786.570313	437.428864
19494.618457	16961.277500	1785.566406	165.241531
19494.618457	16961.277500	1784.561523	-9.296899
19494.618457	16961.277500	1783.557617	365.852234
19494.618457	16961.277500	1782.552734	329.255127
19494.618457	16961.277500	1781.547852	35.749336
19494.618457	16961.277500	1780.542969	472.404938
19494.618457	16961.277500	1779.538086	176.534149
19494.618457	16961.277500	1778.532227	320.529175
19494.618457	16961.277500	1777.527344	179.216217
19494.618457	16961.277500	1776.521484	306.448181
19494.618457	16961.277500	1775.515625	250.650833
19494.618457	16961.277500	1774.508789	185.341187
19494.618457	16961.277500	1773.502930	-103.234283
19494.618457	16961.277500	1772.496094	125.911858
19494.618457	16961.277500	1771.489258	295.580505
19494.618457	16961.277500	1770.482422	166.070282
19494.618457	16961.277500	1769.475586	285.754089
19494.618457	16961.277500	1768.467773	234.521820
19494.618457	16961.277500	1767.460938	78.884109
19494.618457	16961.277500	1766.453125	238.724487
19494.618457	16961.277500	1765.445313	-87.667610
19494.618457	16961.277500	1764.437500	-13.290365
19494.618457	16961.277500	1763.428711	276.734283
19494.618457	16961.277500	1762.420898	7.282594
19494.618457	16961.277500	1761.412109	50.679173
19494.618457	16961.277500	1760.403320	30.053528
19494.618457	16961.277500	1759.393555	-201.413666
19494.618457	16961.277500	1758.384766	109.484291
19494.618457	16961.277500	1757.375000	261.587311
19494.618457	16961.277500	1756.366211	183.957764
19494.618457	16961.277500	1755.356445	274.369019
19494.618457	16961.277500	1754.345703	116.234955
19494.618457	16961.277500	1753.335938	-91.569313
19494.618457	16961.277500	1752.325195	218.713760
19494.618457	16961.277500	1751.315430	-55.333530
19494.618457	16961.277500	1750.304688	235.825531
19494.618457	16961.277500	1749.292969	217.132233
19494.618457	16961.277500	1748.282227	89.671074
19494.618457	16961.277500	1747.270508	229.267624
19494.618457	16961.277500	1746.259766	-35.272747
19494.618457	16961.277500	1745.248047	-148.560135
19494.618457	16961.277500	1744.235352	210.536224
19494.618457	16961.277500	1743.223633	215.236038
19494.618457	16961.277500	1742.211914	394.604340
19494.618457	16961.277500	1741.199219	-32.793987
19494.618457	16961.277500	1740.186523	-54.133156
19494.618457	16961.277500	1739.173828	94.389633
19494.618457	16961.277500	1738.160156	94.184883
19494.618457	16961.277500	1737.147461	96.298981
19494.618457	16961.277500	1736.133789	187.986435
19494.618457	16961.277500	1735.120117	-33.995110
19494.618457	16961.277500	1734.106445	-154.563507
19494.618457	16961.277500	1733.091797	-107.783012
19494.618457	16961.277500	1732.078125	-181.243530
19494.618457	16961.277500	1731.063477	-113.351059
19494.618457	16961.277500	1730.048828	326.658142
19494.618457	16961.277500	1729.034180	-307.487244
19494.618457	16961.277500	1728.019531	7.511765
19494.618457	16961.277500	1727.003906	-176.747147
19494.618457	16961.277500	1725.988281	-19.675844
19494.618457	16961.277500	1724.972656	-302.779999
19494.618457	16961.277500	1723.957031	-150.528122
19494.618457	16961.277500	1722.941406	-14.841941
19494.618457	16961.277500	1721.924805	33.729626
19494.618457	16961.277500	1720.909180	-42.388744
19494.618457	16961.277500	1719.892578	123.648170
19494.618457	16961.277500	1718.875977	94.479622
19494.618457	16961.277500	1717.858398	-28.724703
19494.618457	16961.277500	1716.841797	-149.569092
19494.618457	16961.277500	1715.824219	84.338280
19494.618457	16961.277500	1714.806641	94.978661
19494.618457	16961.277500	1713.789063	98.531990
19494.618457	16961.277500	1712.770508	139.615112
19494.618457	16961.277500	1711.752930	96.135818
19494.618457	16961.277500	1710.734375	57.331364
19494.618457	16961.277500	1709.715820	-225.541428
19494.618457	16961.277500	1708.697266	-341.765442
19494.618457	16961.277500	1707.678711	156.593216
19494.618457	16961.277500	1706.659180	218.510620
19494.618457	16961.277500	1705.640625	45.887199
19494.618457	16961.277500	1704.621094	103.041885
19494.618457	16961.277500	1703.600586	289.056946
19494.618457	16961.277500	1702.581055	-17.159092
19494.618457	16961.277500	1701.561523	-84.306038
19494.618457	16961.277500	1700.541016	-22.620876
19494.618457	16961.277500	1699.520508	359.878235
19494.618457	16961.277500	1698.500000	39.701435
19494.618457	16961.277500	1697.478516	-135.230118
19494.618457	16961.277500	1696.458008	-57.325905
19494.618457	16961.277500	1695.436523	76.683685
19494.618457	16961.277500	1694.415039	376.741608
19494.618457	16961.277500	1693.393555	304.688141
19494.618457	16961.277500	1692.372070	129.719025
19494.618457	16961.277500	1691.349609	160.575562
19494.618457	16961.277500	1690.327148	-19.035439
19494.618457	16961.277500	1689.304688	180.085678
19494.618457	16961.277500	1688.282227	215.501862
19494.618457	16961.277500	1687.259766	-50.559837
19494.618457	16961.277500	1686.236328	202.102737
19494.618457	16961.277500	1685.213867	50.545624
19494.618457	16961.277500	1684.190430	-133.673019
19494.618457	16961.277500	1683.166016	83.755836
19494.618457	16961.277500	1682.142578	128.323929
19494.618457	16961.277500	1681.119141	112.167000
19494.618457	16961.277500	1680.094727	187.000793
19494.618457	16961.277500	1679.070313	135.792206
19494.618457	16961.277500	1678.045898	651.414795
19494.618457	16961.277500	1677.020508	-17.945049
19494.618457	16961.277500	1675.996094	264.286774
19494.618457	16961.277500	1674.970703	245.648529
19494.618457	16961.277500	1673.945313	313.238098
19494.618457	16961.277500	1672.919922	315.528687
19494.618457	16961.277500	1671.893555	19.562101
19494.618457	16961.277500	1670.868164	320.045441
19494.618457	16961.277500	1669.841797	128.960220
19494.618457	16961.277500	1668.815430	19.431734
19494.618457	16961.277500	1667.789063	-24.885115
19494.618457	16961.277500	1666.761719	-38.942734
19494.618457	16961.277500	1665.735352	556.731812
19494.618457	16961.277500	1664.708008	337.774170
19494.618457	16961.277500	1663.680664	500.409393
19494.618457	16961.277500	1662.653320	339.661530
19494.618457	16961.277500	1661.625000	99.896484
19494.618457	16961.277500	1660.597656	174.085403
19494.618457	16961.277500	1659.569336	252.883347
19494.618457	16961.277500	1658.541016	10.908045
19494.618457	16961.277500	1657.512695	161.712860
19494.618457	16961.277500	1656.483398	709.720337
19494.618457	16961.277500	1655.455078	228.513000
19494.618457	16961.277500	1654.425781	353.611145
19494.618457	16961.277500	1653.396484	246.460693
19494.618457	16961.277500	1652.366211	357.556396
19494.618457	16961.277500	1651.336914	531.268066
19494.618457	16961.277500	1650.306641	257.041595
19494.618457	16961.277500	1649.276367	507.250763
19494.618457	16961.277500	1648.246094	511.476257
19494.618457	16961.277500	1647.215820	265.220764
19494.618457	16961.277500	1646.185547	499.033691
19494.618457	16961.277500	1645.154297	535.696960
19494.618457	16961.277500	1644.123047	403.140991
19494.618457	16961.277500	1643.091797	775.821472
19494.618457	16961.277500	1642.060547	1037.141479
19494.618457	16961.277500	1641.028320	508.435638
19494.618457	16961.277500	1639.997070	876.239807
19494.618457	16961.277500	1638.964844	813.203125
19494.618457	16961.277500	1637.931641	636.746155
19494.618457	16961.277500	1636.899414	740.436035
19494.618457	16961.277500	1635.867188	878.800842
19494.618457	16961.277500	1634.833984	589.061890
19494.618457	16961.277500	1633.800781	653.380127
19494.618457	16961.277500	1632.767578	687.609680
19494.618457	16961.277500	1631.734375	1047.884155
19494.618457	16961.277500	1630.700195	712.110474
19494.618457	16961.277500	1629.666016	690.846008
19494.618457	16961.277500	1628.631836	634.927368
19494.618457	16961.277500	1627.597656	664.533020
19494.618457	16961.277500	1626.563477	823.503540
19494.618457	16961.277500	1625.528320	1111.769409
19494.618457	16961.277500	1624.493164	829.532349
19494.618457	16961.277500	1623.458008	861.420166
19494.618457	16961.277500	1622.422852	482.408173
19494.618457	16961.277500	1621.387695	560.532227
19494.618457	16961.277500	1620.351563	950.150513
19494.618457	16961.277500	1619.315430	933.586060
19494.618457	16961.277500	1618.279297	1002.388306
19494.618457	16961.277500	1617.243164	884.378418
19494.618457	16961.277500	1616.207031	909.381226
19494.618457	16961.277500	1615.169922	609.350769
19494.618457	16961.277500	1614.132813	892.568909
19494.618457	16961.277500	1613.095703	546.602783
19494.618457	16961.277500	1612.058594	1041.720703
19494.618457	16961.277500	1611.020508	999.954834
19494.618457	16961.277500	1609.983398	875.315247
19494.618457	16961.277500	1608.945313	631.012146
19494.618457	16961.277500	1607.907227	598.618347
19494.618457	16961.277500	1606.868164	1176.205078
19494.618457	16961.277500	1605.830078	637.491394
19494.618457	16961.277500	1604.791016	770.839783
19494.618457	16961.277500	1603.751953	904.160950
19494.618457	16961.277500	1602.712891	1030.553345
19494.618457	16961.277500	1601.673828	720.029175
19494.618457	16961.277500	1600.633789	1041.873047
19494.618457	16961.277500	1599.594727	720.028015
19494.618457	16961.277500	1598.554688	903.917725
19494.618457	16961.277500	1597.513672	1021.130798
19494.618457	16961.277500	1596.473633	917.795898
19494.618457	16961.277500	1595.433594	812.234436
19494.618457	16961.277500	1594.392578	991.486938
19494.618457	16961.277500	1593.351563	869.944092
19494.618457	16961.277500	1592.310547	1085.903564
19494.618457	16961.277500	1591.268555	842.823853
19494.618457	16961.277500	1590.227539	980.756836
19494.618457	16961.277500	1589.185547	976.441162
19494.618457	16961.277500	1588.143555	1011.152222
19494.618457	16961.277500	1587.100586	956.452026
19494.618457	16961.277500	1586.058594	1080.642456
19494.618457	16961.277500	1585.015625	709.692627
19494.618457	16961.277500	1583.972656	1051.678589
19494.618457	16961.277500	1582.929688	1024.661743
19494.618457	16961.277500	1581.886719	954.166077
19494.618457	16961.277500	1580.843750	1087.588745
19494.618457	16961.277500	1579.799805	1353.822266
19494.618457	16961.277500	1578.755859	1077.366333
19494.618457	16961.277500	1577.711914	1032.262573
19494.618457	16961.277500	1576.666992	756.063660
19494.618457	16961.277500	1575.623047	917.064697
19494.618457	16961.277500	1574.578125	716.581543
19494.618457	16961.277500	1573.533203	770.115479
19494.618457	16961.277500	1572.488281	679.600769
19494.618457	16961.277500	1571.443359	660.045898
19494.618457	16961.277500	1570.397461	464.527252
19494.618457	16961.277500	1569.351563	774.235535
19494.618457	16961.277500	1568.305664	802.806152
19494.618457	16961.277500	1567.259766	657.782715
19494.618457	16961.277500	1566.213867	608.802551
19494.618457	16961.277500	1565.166992	413.733398
19494.618457	16961.277500	1564.120117	1104.708984
19494.618457	16961.277500	1563.073242	624.366577
19494.618457	16961.277500	1562.026367	539.120972
19494.618457	16961.277500	1560.978516	807.666138
19494.618457	16961.277500	1559.930664	715.682495
19494.618457	16961.277500	1558.883789	507.453735
19494.618457	16961.277500	1557.834961	554.793396
19494.618457	16961.277500	1556.787109	342.232910
19494.618457	16961.277500	1555.739258	230.118790
19494.618457	16961.277500	1554.690430	585.354248
19494.618457	16961.277500	1553.641602	787.828369
19494.618457	16961.277500	1552.592773	520.940247
19494.618457	16961.277500	1551.542969	306.610809
19494.618457	16961.277500	1550.494141	-19.171970
19494.618457	16961.277500	1549.444336	613.859192
19494.618457	16961.277500	1548.394531	454.456268
19494.618457	16961.277500	1547.344727	383.948029
19494.618457	16961.277500	1546.293945	481.931488
19494.618457	16961.277500	1545.244141	391.093262
19494.618457	16961.277500	1544.193359	204.818283
19494.618457	16961.277500	1543.142578	462.172760
19494.618457	16961.277500	1542.090820	326.113373
19494.618457	16961.277500	1541.040039	592.566406
19494.618457	16961.277500	1539.988281	302.104767
19494.618457	16961.277500	1538.936523	404.970215
19494.618457	16961.277500	1537.884766	394.260925
19494.618457	16961.277500	1536.833008	-47.989372
19494.618457	16961.277500	1535.780273	180.008347
19494.618457	16961.277500	1534.727539	664.577515
19494.618457	16961.277500	1533.674805	393.019470
19494.618457	16961.277500	1532.622070	430.336639
19494.618457	16961.277500	1531.569336	456.361542
19494.618457	16961.277500	1530.515625	403.039764
19494.618457	16961.277500	1529.461914	805.778442
19494.618457	16961.277500	1528.408203	534.818176
19494.618457	16961.277500	1527.354492	338.870514
19494.618457	16961.277500	1526.299805	576.101868
19494.618457	16961.277500	1525.246094	400.770569
19494.618457	16961.277500	1524.191406	289.041229
19494.618457	16961.277500	1523.136719	111.722893
19494.618457	16961.277500	1522.081055	258.499908
19494.618457	16961.277500	1521.026367	437.001007
19494.618457	16961.277500	1519.970703	194.321121
19494.618457	16961.277500	1518.915039	200.854858
19494.618457	16961.277500	1517.859375	288.952240
19494.618457	16961.277500	1516.802734	48.944469
19494.618457	16961.277500	1515.747070	198.285690
19494.618457	16961.277500	1514.690430	146.313690
19494.618457	16961.277500	1513.633789	-118.167137
19494.618457	16961.277500	1512.577148	135.382645
19494.618457	16961.277500	1511.519531	-22.564821
19494.618457	16961.277500	1510.461914	226.509445
19494.618457	16961.277500	1509.405273	215.663208
19494.618457	16961.277500	1508.346680	164.238297
19494.618457	16961.277500	1507.289063	259.754913
19494.618457	16961.277500	1506.231445	-42.207291
19494.618457	16961.277500	1505.172852	24.123058
19494.618457	16961.277500	1504.114258	-110.428902
19494.618457	16961.277500	1503.055664	-136.493713
19494.618457	16961.277500	1501.996094	11.319357
19494.618457	16961.277500	1500.937500	104.999382
19494.618457	16961.277500	1499.877930	-123.871651
19494.618457	16961.277500	1498.818359	-341.287384
19494.618457	16961.277500	1497.757813	-256.348999
19494.618457	16961.277500	1496.698242	-85.689178
19494.618457	16961.277500	1495.637695	-147.184296
19494.618457	16961.277500	1494.577148	-364.076385
19494.618457	16961.277500	1493.516602	-188.724594
19494.618457	16961.277500	1492.456055	-58.413826
19494.618457	16961.277500	1491.394531	-92.483101
19494.618457	16961.277500	1490.333008	87.479485
19494.618457	16961.277500	1489.271484	71.581589
19494.618457	16961.277500	1488.209961	-151.319153
19494.618457	16961.277500	1487.148438	238.117294
19494.618457	16961.277500	1486.085938	78.460464
19494.618457	16961.277500	1485.023438	33.690205
19494.618457	16961.277500	1483.960938	162.218811
19494.618457	16961.277500	1482.898438	45.665592
19494.618457	16961.277500	1481.834961	118.112091
19494.618457	16961.277500	1480.772461	-2.709666
19494.618457	16961.277500	1479.708984	153.056656
19494.618457	16961.277500	1478.644531	27.964172
19494.618457	16961.277500	1477.581055	-213.695053
19494.618457	16961.277500	1476.517578	7.355962
19494.618457	16961.277500	1475.453125	176.833954
19494.618457	16961.277500	1474.388672	157.678833
19494.618457	16961.277500	1473.323242	-105.835892
19494.618457	16961.277500	1472.258789	7.659132
19494.618457	16961.277500	1471.193359	-154.576172
19494.618457	16961.277500	1470.127930	-218.156982
19494.618457	16961.277500	1469.062500	48.094547
19494.618457	16961.277500	1467.997070	13.865949
19494.618457	16961.277500	1466.930664	69.423409
19494.618457	16961.277500	1465.865234	-233.417542
19494.618457	16961.277500	1464.798828	-112.478027
19494.618457	16961.277500	1463.731445	379.560547
19494.618457	16961.277500	1462.665039	82.232002
19494.618457	16961.277500	1461.597656	64.225395
19494.618457	16961.277500	1460.530273	221.209915
19494.618457	16961.277500	1459.462891	196.621109
19494.618457	16961.277500	1458.395508	215.040985
19494.618457	16961.277500	1457.327148	308.798920
19494.618457	16961.277500	1456.259766	190.874863
19494.618457	16961.277500	1455.191406	414.970612
19494.618457	16961.277500	1454.123047	209.975494
19494.618457	16961.277500	1453.053711	245.721085
19494.618457	16961.277500	1451.985352	519.928894
19494.618457	16961.277500	1450.916016	322.959503
19494.618457	16961.277500	1449.846680	567.703857
19494.618457	16961.277500	1448.776367	232.089539
19494.618457	16961.277500	1447.707031	38.116623
19494.618457	16961.277500	1446.636719	121.437363
19494.618457	16961.277500	1445.566406	327.235291
19494.618457	16961.277500	1444.496094	128.441925
19494.618457	16961.277500	1443.425781	220.014175
19494.618457	16961.277500	1442.354492	225.106659
19494.618457	16961.277500	1441.283203	-8.525204
19494.618457	16961.277500	1440.211914	36.114552
19494.618457	16961.277500	1439.140625	476.084351
19494.618457	16961.277500	1438.069336	106.094986
19494.618457	16961.277500	1436.997070	608.639282
19494.618457	16961.277500	1435.924805	110.841446
19494.618457	16961.277500	1434.852539	295.564514
19494.618457	16961.277500	1433.780273	2.081728
19494.618457	16961.277500	1432.707031	-109.971153
19494.618457	16961.277500	1431.633789	-213.839508
19494.618457	16961.277500	1430.560547	-153.752075
19494.618457	16961.277500	1429.487305	115.992111
19494.618457	16961.277500	1428.413086	-361.886963
19494.618457	16961.277500	1427.339844	26.113432
19494.618457	16961.277500	1426.265625	-75.365234
19494.618457	16961.277500	1425.191406	45.667488
19494.618457	16961.277500	1424.116211	-31.374750
19494.618457	16961.277500	1423.041992	58.752270
19494.618457	16961.277500	1421.966797	-10.332783
19494.618457	16961.277500	1420.891602	114.039856
19494.618457	16961.277500	1419.816406	52.479271
19494.618457	16961.277500	1418.740234	1.165097
19494.618457	16961.277500	1417.665039	260.807526
19494.618457	16961.277500	1416.588867	161.385345
19494.618457	16961.277500	1415.512695	349.155792
19494.618457	16961.277500	1414.435547	156.247971
19494.618457	16961.277500	1413.359375	-184.564087
19494.618457	16961.277500	1412.282227	-25.707275
19494.618457	16961.277500	1411.205078	25.446396
19494.618457	16961.277500	1410.127930	146.462967
19494.618457	16961.277500	1409.049805	37.077389
19494.618457	16961.277500	1407.972656	174.367538
19494.618457	16961.277500	1406.894531	321.327179
19494.618457	16961.277500	1405.816406	207.863205
19494.618457	16961.277500	1404.737305	125.513535
19494.618457	16961.277500	1403.659180	273.341766
19494.618457	16961.277500	1402.580078	342.730927
19494.618457	16961.277500	1401.500977	253.151962
19494.618457	16961.277500	1400.421875	327.596649
19494.618457	16961.277500	1399.341797	399.447052
19494.618457	16961.277500	1398.262695	368.172211
19494.618457	16961.277500	1397.182617	92.577682
19494.618457	16961.277500	1396.102539	219.171204
19494.618457	16961.277500	1395.021484	53.786213
19494.618457	16961.277500	1393.941406	-285.874420
19494.618457	16961.277500	1392.860352	119.948509
19494.618457	16961.277500	1391.779297	-121.243446
19494.618457	16961.277500	1390.698242	92.258217
19494.618457	16961.277500	1389.616211	163.552872
19494.618457	16961.277500	1388.535156	-208.040146
19494.618457	16961.277500	1387.453125	64.123810
19494.618457	16961.277500	1386.371094	-17.075201
19494.618457	16961.277500	1385.288086	319.564026
19494.618457	16961.277500	1384.206055	77.407112
19494.618457	16961.277500	1383.123047	169.601181
19494.618457	16961.277500	1382.040039	349.891235
19494.618457	16961.277500	1380.957031	381.507202
19494.618457	16961.277500	1379.873047	361.990387
19494.618457	16961.277500	1378.789063	210.042664
19494.618457	16961.277500	1377.705078	132.022812
19494.618457	16961.277500	1376.621094	187.900955
19494.618457	16961.277500	1375.537109	121.647247
19494.618457	16961.277500	1374.452148	586.668518
19494.618457	16961.277500	1373.367188	299.984650
19494.618457	16961.277500	1372.282227	289.475861
19494.618457	16961.277500	1371.197266	274.907166
19494.618457	16961.277500	1370.112305	592.129578
19494.618457	16961.277500	1369.026367	346.229858
19494.618457	16961.277500	1367.940430	363.243195
19494.618457	16961.277500	1366.854492	399.370087
19494.618457	16961.277500	1365.767578	144.970963
19494.618457	16961.277500	1364.681641	189.852478
19494.618457	16961.277500	1363.594727	292.097473
19494.618457	16961.277500	1362.507813	30.336405
19494.618457	16961.277500	1361.419922	68.787361
19494.618457	16961.277500	1360.333008	80.002594
19494.618457	16961.277500	1359.245117	201.981384
19494.618457	16961.277500	1358.157227	336.002411
19494.618457	16961.277500	1357.069336	-81.311928
19494.618457	16961.277500	1355.981445	85.061134
19494.618457	16961.277500	1354.892578	165.591873
19494.618457	16961.277500	1353.803711	211.625183
19494.618457	16961.277500	1352.714844	280.730682
19494.618457	16961.277500	1351.625000	182.390503
19494.618457	16961.277500	1350.536133	164.905930
19494.618457	16961.277500	1349.446289	347.115021
19494.618457	16961.277500	1348.356445	615.872192
19494.618457	16961.277500	1347.266602	206.174667
19494.618457	16961.277500	1346.175781	432.192383
19494.618457	16961.277500	1345.085938	276.579651
19494.618457	16961.277500	1343.995117	447.813629
19494.618457	16961.277500	1342.903320	546.239441
19494.618457	16961.277500	1341.812500	363.720062
19494.618457	16961.277500	1340.720703	445.777863
19494.618457	16961.277500	1339.629883	391.443634
19494.618457	16961.277500	1338.538086	179.612976
19494.618457	16961.277500	1337.445313	236.781342
19494.618457	16961.277500	1336.353516	91.203842
19494.618457	16961.277500	1335.260742	127.536095
19494.618457	16961.277500	1334.167969	552.907227
19494.618457	16961.277500	1333.075195	422.796875
19494.618457	16961.277500	1331.981445	361.672363
19494.618457	16961.277500	1330.888672	447.026642
19494.618457	16961.277500	1329.794922	637.761780
19494.618457	16961.277500	1328.701172	506.399292
19494.618457	16961.277500	1327.606445	472.912354
19494.618457	16961.277500	1326.512695	352.324921
19494.618457	16961.277500	1325.417969	406.922150
19494.618457	16961.277500	1324.323242	226.053482
19494.618457	16961.277500	1323.227539	629.471558
19494.618457	16961.277500	1322.132813	539.944214
19494.618457	16961.277500	1321.037109	323.930664
19494.618457	16961.277500	1319.941406	224.409088
19494.618457	16961.277500	1318.845703	535.214661
19494.618457	16961.277500	1317.750000	189.289993
19494.618457	16961.277500	1316.653320	88.378098
19494.618457	16961.277500	1315.556641	130.365280
19494.618457	16961.277500	1314.459961	46.959724
19494.618457	16961.277500	1313.363281	270.828613
19494.618457	16961.277500	1312.265625	379.609650
19494.618457	16961.277500	1311.167969	52.944843
19494.618457	16961.277500	1310.070313	-35.936131
19494.618457	16961.277500	1308.972656	84.391708
19494.618457	16961.277500	1307.874023	183.025146
19494.618457	16961.277500	1306.776367	17.350281
19494.618457	16961.277500	1305.677734	153.225540
19494.618457	16961.277500	1304.579102	105.593590
19494.618457	16961.277500	1303.479492	211.754379
19494.618457	16961.277500	1302.380859	88.714958
19494.618457	16961.277500	1301.281250	47.933514
19494.618457	16961.277500	1300.181641	80.973709
19494.618457	16961.277500	1299.081055	229.362137
19494.618457	16961.277500	1297.981445	73.445549
19494.618457	16961.277500	1296.880859	55.553352
19494.618457	16961.277500	1295.780273	-10.452041
19494.618457	16961.277500	1294.679688	39.143410
19494.618457	16961.277500	1293.578125	63.967953
19494.618457	16961.277500	1292.476563	-109.475433
19494.618457	16961.277500	1291.375000	-129.628967
19494.618457	16961.277500	1290.273438	156.319061
19494.618457	16961.277500	1289.171875	102.695946
19494.618457	16961.277500	1288.069336	114.993301
19494.618457	16961.277500	1286.966797	181.489410
19494.618457	16961.277500	1285.864258	-185.597748
19494.618457	16961.277500	1284.761719	48.779812
19494.618457	16961.277500	1283.658203	28.072727
19494.618457	16961.277500	1282.554688	-16.151684
19494.618457	16961.277500	1281.451172	-241.720398
19494.618457	16961.277500	1280.347656	150.842361
19494.618457	16961.277500	1279.244141	50.596333
19494.618457	16961.277500	1278.139648	20.902311
19494.618457	16961.277500	1277.035156	-60.318882
19494.618457	16961.277500	1275.930664	84.549141
19494.618457	16961.277500	1274.825195	-129.859360
19494.618457	16961.277500	1273.720703	-79.967628
19494.618457	16961.277500	1272.615234	164.097168
19494.618457	16961.277500	1271.508789	99.867432
19494.618457	16961.277500	1270.403320	182.062515
19494.618457	16961.277500	1269.297852	183.238571
19494.618457	16961.277500	1268.191406	399.633331
19494.618457	16961.277500	1267.084961	87.089539
19494.618457	16961.277500	1265.977539	22.741405
19494.618457	16961.277500	1264.871094	-6.828394
19494.618457	16961.277500	1263.763672	-79.649399
19494.618457	16961.277500	1262.656250	10.626947
19494.618457	16961.277500	1261.548828	28.431522
19494.618457	16961.277500	1260.440430	42.507935
19494.618457	16961.277500	1259.333008	54.481880
19494.618457	16961.277500	1258.224609	13.308143
19494.618457	16961.277500	1257.115234	160.401947
19494.618457	16961.277500	1256.006836	47.006252
19494.618457	16961.277500	1254.897461	-127.955475
19494.618457	16961.277500	1253.788086	39.424015
19494.618457	16961.277500	1252.678711	-113.375572
19494.618457	16961.277500	1251.569336	52.795414
19494.618457	16961.277500	1250.458984	49.055508
19494.618457	16961.277500	1249.349609	-26.356094
19494.618457	16961.277500	1248.239258	-17.195721
19494.618457	16961.277500	1247.127930	-161.175079
19494.618457	16961.277500	1246.017578	-97.933807
19494.618457	16961.277500	1244.906250	2.123266
19494.618457	16961.277500	1243.794922	50.091015
19494.618457	16961.277500	1242.683594	-79.568390
19494.618457	16961.277500	1241.571289	241.003723
19494.618457	16961.277500	1240.459961	34.248001
19494.618457	16961.277500	1239.347656	35.312176
19494.618457	16961.277500	1238.234375	129.984543
19494.618457	16961.277500	1237.122070	55.815262
19494.618457	16961.277500	1236.008789	112.059364
19494.618457	16961.277500	1234.896484	288.630371
19494.618457	16961.277500	1233.782227	180.632782
19494.618457	16961.277500	1232.668945	71.929451
19494.618457	16961.277500	1231.555664	63.341885
19494.618457	16961.277500	1230.441406	-22.822199
19494.618457	16961.277500	1229.327148	-76.846527
19494.618457	16961.277500	1228.211914	28.787512
19494.618457	16961.277500	1227.097656	17.355124
19494.618457	16961.277500	1225.982422	-63.365585
19494.618457	16961.277500	1224.867188	-22.765642
19494.618457	16961.277500	1223.751953	35.179695
19494.618457	16961.277500	1222.635742	42.453766
19494.618457	16961.277500	1221.520508	-203.855423
19494.618457	16961.277500	1220.404297	-170.196594
19494.618457	16961.277500	1219.287109	-219.295059
19494.618457	16961.277500	1218.170898	-55.261852
19494.618457	16961.277500	1217.053711	-38.875923
19494.618457	16961.277500	1215.936523	-69.879601
19494.618457	16961.277500	1214.819336	-116.580124
19494.618457	16961.277500	1213.702148	-132.804276
19494.618457	16961.277500	1212.583984	-61.858006
19494.618457	16961.277500	1211.465820	-109.129982
19494.618457	16961.277500	1210.347656	23.195616
19494.618457	16961.277500	1209.229492	-3.743119
19494.618457	16961.277500	1208.110352	38.761410
19494.618457	16961.277500	1206.992188	3.417251
19494.618457	16961.277500	1205.873047	-114.434067
19494.618457	16961.277500	1204.752930	-59.984619
19494.618457	16961.277500	1203.633789	-166.031982
19494.618457	16961.277500	1202.513672	-108.557098
19494.618457	16961.277500	1201.393555	-192.014664
19494.618457	16961.277500	1200.273438	-164.204056
19494.618457	16961.277500	1199.152344	-193.394470
19494.618457	16961.277500	1198.032227	-203.394806
19494.618457	16961.277500	1196.911133	-191.278152
19494.618457	16961.277500	1195.790039	-33.373997
19494.618457	16961.277500	1194.667969	-166.295425
19494.618457	16961.277500	1193.545898	38.401604
19494.618457	16961.277500	1192.424805	-10.756659
19494.618457	16961.277500	1191.301758	92.051414
19494.618457	16961.277500	1190.179688	103.989563
19494.618457	16961.277500	1189.056641	-29.668184
19494.618457	16961.277500	1187.933594	-229.852524
19494.618457	16961.277500	1186.810547	-152.017059
19494.618457	16961.277500	1185.687500	-132.511841
19494.618457	16961.277500	1184.563477	-150.866318
19494.618457	16961.277500	1183.440430	33.398911
19494.618457	16961.277500	1182.316406	-211.591049
19494.618457	16961.277500	1181.191406	14.538226
19494.618457	16961.277500	1180.067383	-151.954254
19494.618457	16961.277500	1178.942383	-182.529587
19494.618457	16961.277500	1177.817383	76.469864
19494.618457	16961.277500	1176.692383	-33.229717
19494.618457	16961.277500	1175.566406	-60.128822
19494.618457	16961.277500	1174.440430	-13.563780
19494.618457	16961.277500	1173.314453	-9.318172
19494.618457	16961.277500	1172.188477	-43.011513
19494.618457	16961.277500	1171.062500	5.002319
19494.618457	16961.277500	1169.935547	53.164051
19494.618457	16961.277500	1168.808594	166.979416
19494.618457	16961.277500	1167.681641	35.332832
19494.618457	16961.277500	1166.553711	83.346550
19494.618457	16961.277500	1165.426758	-84.502312
19494.618457	16961.277500	1164.298828	0.157976
19494.618457	16961.277500	1163.170898	-307.865784
19494.618457	16961.277500	1162.041992	5.771131
19494.618457	16961.277500	1160.914063	-35.035748
19494.618457	16961.277500	1159.785156	20.891563
19494.618457	16961.277500	1158.656250	-148.415283
19494.618457	16961.277500	1157.526367	-25.988718
19494.618457	16961.277500	1156.397461	-268.686646
19494.618457	16961.277500	1155.267578	-117.981880
19494.618457	16961.277500	1154.137695	62.661381
19494.618457	16961.277500	1153.006836	4.687094
19494.618457	16961.277500	1151.876953	-6.289550
19494.618457	16961.277500	1150.746094	-20.380417
19494.618457	16961.277500	1149.615234	13.171226
19494.618457	16961.277500	1148.484375	-17.945387
19494.618457	16961.277500	1147.352539	-88.724030
19494.618457	16961.277500	1146.220703	-124.608948
19494.618457	16961.277500	1145.088867	-248.067154
19494.618457	16961.277500	1143.957031	-76.809746
19494.618457	16961.277500	1142.825195	18.795877
19494.618457	16961.277500	1141.692383	5.300641
19494.618457	16961.277500	1140.559570	-51.034321
19494.618457	16961.277500	1139.426758	49.712704
19494.618457	16961.277500	1138.292969	73.576859
19494.618457	16961.277500	1137.159180	-103.567253
19494.618457	16961.277500	1136.025391	-113.600632
19494.618457	16961.277500	1134.891602	73.584015
19494.618457	16961.277500	1133.757813	-38.279060
19494.618457	16961.277500	1132.623047	-95.811203
19494.618457	16961.277500	1131.488281	10.616398
19494.618457	16961.277500	1130.353516	63.415764
19494.618457	16961.277500	1129.217773	189.631409
19494.618457	16961.277500	1128.083008	188.627075
19494.618457	16961.277500	1126.947266	132.829773
19494.618457	16961.277500	1125.811523	91.421349
19494.618457	16961.277500	1124.674805	154.596527
19494.618457	16961.277500	1123.539063	-49.848812
19494.618457	16961.277500	1122.402344	-95.980309
19494.618457	16961.277500	1121.265625	142.895905
19494.618457	16961.277500	1120.127930	77.247757
19494.618457	16961.277500	1118.990234	93.472359
19494.618457	16961.277500	1117.853516	166.443634
19494.618457	16961.277500	1116.714844	240.268280
19494.618457	16961.277500	1115.577148	101.144249
19494.618457	16961.277500	1114.439453	101.652695
19494.618457	16961.277500	1113.300781	108.897972
19494.618457	16961.277500	1112.162109	191.728760
19494.618457	16961.277500	1111.022461	106.198540
19494.618457	16961.277500	1109.883789	21.380033
19494.618457	16961.277500	1108.744141	84.850853
19494.618457	16961.277500	1107.604492	334.750946
19494.618457	16961.277500	1106.463867	163.352310
19494.618457	16961.277500	1105.324219	86.388359
19494.618457	16961.277500	1104.183594	88.235077
19494.618457	16961.277500	1103.042969	238.694778
19494.618457	16961.277500	1101.902344	131.322205
19494.618457	16961.277500	1100.760742	84.875481
19494.618457	16961.277500	1099.619141	194.233276
19494.618457	16961.277500	1098.477539	-31.252769
19494.618457	16961.277500	1097.335938	134.011215
19494.618457	16961.277500	1096.193359	257.158112
19494.618457	16961.277500	1095.051758	368.936096
19494.618457	16961.277500	1093.909180	144.851028
19494.618457	16961.277500	1092.765625	230.691940
19494.618457	16961.277500	1091.623047	221.992477
19494.618457	16961.277500	1090.479492	114.187904
19494.618457	16961.277500	1089.335938	454.887909
19494.618457	16961.277500	1088.192383	317.162994
19494.618457	16961.277500	1087.047852	-11.313334
19494.618457	16961.277500	1085.903320	127.236771
19494.618457	16961.277500	1084.758789	265.872101
19494.618457	16961.277500	1083.614258	-17.928698
19494.618457	16961.277500	1082.469727	72.555305
19494.618457	16961.277500	1081.324219	-8.830753
19494.618457	16961.277500	1080.178711	-8.963003
19494.618457	16961.277500	1079.033203	36.920475
19494.618457	16961.277500	1077.886719	205.348282
19494.618457	16961.277500	1076.740234	56.809704
19494.618457	16961.277500	1075.593750	152.123322
19494.618457	16961.277500	1074.447266	242.226837
19494.618457	16961.277500	1073.300781	291.239655
19494.618457	16961.277500	1072.153320	96.494797
19494.618457	16961.277500	1071.005859	64.540443
19494.618457	16961.277500	1069.858398	356.095581
19494.618457	16961.277500	1068.709961	143.975571
19494.618457	16961.277500	1067.561523	329.047089
19494.618457	16961.277500	1066.413086	307.435394
19494.618457	16961.277500	1065.264648	185.396637
19494.618457	16961.277500	1064.116211	291.081451
19494.618457	16961.277500	1062.966797	152.070572
19494.618457	16961.277500	1061.817383	429.932159
19494.618457	16961.277500	1060.667969	289.826691
19494.618457	16961.277500	1059.517578	230.750671
19494.618457	16961.277500	1058.368164	361.073151
19494.618457	16961.277500	1057.217773	322.732269
19494.618457	16961.277500	1056.067383	336.421448
19494.618457	16961.277500	1054.916016	154.891022
19494.618457	16961.277500	1053.764648	390.178314
19494.618457	16961.277500	1052.613281	344.697693
19494.618457	16961.277500	1051.461914	710.510010
19494.618457	16961.277500	1050.310547	466.830505
19494.618457	16961.277500	1049.158203	310.213837
19494.618457	16961.277500	1048.005859	99.531647
19494.618457	16961.277500	1046.853516	103.942459
19494.618457	16961.277500	1045.700195	92.532150
19494.618457	16961.277500	1044.547852	290.141663
19494.618457	16961.277500	1043.394531	251.149384
19494.618457	16961.277500	1042.240234	373.668823
19494.618457	16961.277500	1041.086914	8.310729
19494.618457	16961.277500	1039.932617	433.162231
19494.618457	16961.277500	1038.778320	377.230072
19494.618457	16961.277500	1037.624023	441.956024
19494.618457	16961.277500	1036.469727	142.645157
19494.618457	16961.277500	1035.314453	279.781403
19494.618457	16961.277500	1034.159180	559.191956
19494.618457	16961.277500	1033.003906	912.332397
19494.618457	16961.277500	1031.847656	871.590698
19494.618457	16961.277500	1030.692383	1055.598022
19494.618457	16961.277500	1029.536133	810.110718
19494.618457	16961.277500	1028.378906	831.673889
19494.618457	16961.277500	1027.222656	752.680603
19494.618457	16961.277500	1026.065430	321.849854
19494.618457	16961.277500	1024.908203	477.505341
19494.618457	16961.277500	1023.750977	586.649414
19494.618457	16961.277500	1022.593750	425.948425
19494.618457	16961.277500	1021.435547	234.727676
19494.618457	16961.277500	1020.277344	384.332550
19494.618457	16961.277500	1019.119141	250.509506
19494.618457	16961.277500	1017.959961	375.017303
19494.618457	16961.277500	1016.800781	390.556915
19494.618457	16961.277500	1015.641602	398.050598
19494.618457	16961.277500	1014.482422	57.475368
19494.618457	16961.277500	1013.323242	128.913635
19494.618457	16961.277500	1012.163086	-126.848747
19494.618457	16961.277500	1011.002930	174.877716
19494.618457	16961.277500	1009.842773	138.456711
19494.618457	16961.277500	1008.681641	-8.976395
19494.618457	16961.277500	1007.520508	-8.294507
19494.618457	16961.277500	1006.359375	-47.563614
19494.618457	16961.277500	1005.198242	194.150284
19494.618457	16961.277500	1004.037109	203.222610
19494.618457	16961.277500	1002.875000	201.831497
19494.618457	16961.277500	1001.712891	272.172577
19494.618457	16961.277500	1000.550781	98.812721
19494.618457	16961.277500	999.387695	94.582268
19494.618457	16961.277500	998.224609	123.854729
19494.618457	16961.277500	997.061523	-98.816750
19494.618457	16961.277500	995.898438	146.158096
19494.618457	16961.277500	994.734375	39.918076
19494.618457	16961.277500	993.571289	65.944557
19494.618457	16961.277500	992.407227	-15.543845
19494.618457	16961.277500	991.242188	-21.644480
19494.618457	16961.277500	990.078125	253.801941
19494.618457	16961.277500	988.913086	17.103678
19494.618457	16961.277500	987.748047	96.091568
19494.618457	16961.277500	986.583008	197.084381
19494.618457	16961.277500	985.416992	40.773396
19494.618457	16961.277500	984.250977	77.846985
19494.618457	16961.277500	983.084961	186.241089
19494.618457	16961.277500	981.918945	76.610405
19494.618457	16961.277500	980.751953	142.901947
19494.618457	16961.277500	979.584961	-147.699692
19494.618457	16961.277500	978.417969	-155.090622
19494.618457	16961.277500	977.250977	-22.829041
19494.618457	16961.277500	976.083008	-303.815704
19494.618457	16961.277500	974.915039	-39.959682
19494.618457	16961.277500	973.747070	140.368317
19494.618457	16961.277500	972.579102	8.635474
19494.618457	16961.277500	971.410156	-50.223152
19494.618457	16961.277500	970.242188	127.081635
19494.618457	16961.277500	969.072266	-12.817715
19494.618457	16961.277500	967.903320	-156.228683
19494.618457	16961.277500	966.733398	82.849182
19494.618457	16961.277500	965.563477	201.159348
19494.618457	16961.277500	964.393555	29.438524
19494.618457	16961.277500	963.223633	-108.935989
19494.618457	16961.277500	962.052734	-70.808655
19494.618457	16961.277500	960.881836	-107.135132
19494.618457	16961.277500	959.710938	-13.282249
19494.618457	16961.277500	958.540039	179.580414
19494.618457	16961.277500	957.368164	32.303596
19494.618457	16961.277500	956.196289	94.787193
19494.618457	16961.277500	955.024414	-36.560253
19494.618457	16961.277500	953.851563	-42.030670
19494.618457	16961.277500	952.679688	7.626785
19494.618457	16961.277500	951.506836	-206.129135
19494.618457	16961.277500	950.333984	67.763664
19494.618457	16961.277500	949.160156	-70.186050
19494.618457	16961.277500	947.986328	-54.302860
19494.618457	16961.277500	946.812500	-18.449730
19494.618457	16961.277500	945.638672	-72.171288
19494.618457	16961.277500	944.464844	75.804253
19494.618457	16961.277500	943.290039	143.747223
19494.618457	16961.277500	942.115234	211.319489
19494.618457	16961.277500	940.940430	135.216614
19494.618457	16961.277500	939.764648	-17.558701
19494.618457	16961.277500	938.588867	-21.698082
19494.618457	16961.277500	937.413086	175.622955
19494.618457	16961.277500	936.237305	-5.821871
19494.618457	16961.277500	935.060547	349.721954
19494.618457	16961.277500	933.883789	-149.978134
19494.618457	16961.277500	932.707031	-137.978546
19494.618457	16961.277500	931.530273	-33.404015
19494.618457	16961.277500	930.352539	97.867073
19494.618457	16961.277500	929.175781	152.935898
19494.618457	16961.277500	927.998047	-28.229937
19494.618457	16961.277500	926.819336	-81.974022
19494.618457	16961.277500	925.641602	133.316650
19494.618457	16961.277500	924.462891	-12.908050
19494.618457	16961.277500	923.284180	107.818657
19494.618457	16961.277500	922.104492	119.692436
19494.618457	16961.277500	920.924805	113.070702
19494.618457	16961.277500	919.746094	120.314827
19494.618457	16961.277500	919.551758	263.587616
19494.618457	16961.277500	918.386719	-94.053139
19494.618457	16961.277500	917.220703	-82.309326
19494.618457	16961.277500	916.054688	181.682358
19494.618457	16961.277500	914.887695	-1.466565
19494.618457	16961.277500	913.721680	-86.160370
19494.618457	16961.277500	912.554688	-68.344124
19494.618457	16961.277500	911.387695	88.800613
19494.618457	16961.277500	910.220703	-145.476044
19494.618457	16961.277500	909.052734	-111.316559
19494.618457	16961.277500	907.885742	-32.138771
19494.618457	16961.277500	906.717773	-143.432846
19494.618457	16961.277500	905.548828	-183.042496
19494.618457	16961.277500	904.380859	-208.330765
19494.618457	16961.277500	903.211914	-268.409058
19494.618457	16961.277500	902.042969	17.291134
19494.618457	16961.277500	900.874023	-16.249634
19494.618457	16961.277500	899.704102	156.773254
19494.618457	16961.277500	898.535156	-69.020729
19494.618457	16961.277500	897.365234	-157.764633
19494.618457	16961.277500	896.194336	96.891144
19494.618457	16961.277500	895.024414	-114.492439
19494.618457	16961.277500	893.853516	9.261999
19494.618457	16961.277500	892.682617	0.176165
19494.618457	16961.277500	891.511719	-37.511639
19494.618457	16961.277500	890.340820	186.149780
19494.618457	16961.277500	889.168945	-184.337906
19494.618457	16961.277500	887.997070	108.627144
19494.618457	16961.277500	886.825195	121.900375
19494.618457	16961.277500	885.653320	265.720062
19494.618457	16961.277500	884.480469	146.345627
19494.618457	16961.277500	883.307617	200.343750
19494.618457	16961.277500	882.134766	195.175354
19494.618457	16961.277500	880.961914	218.531784
19494.618457	16961.277500	879.788086	276.512238
19494.618457	16961.277500	878.614258	252.949020
19494.618457	16961.277500	877.440430	74.547203
19494.618457	16961.277500	876.266602	-93.615173
19494.618457	16961.277500	875.091797	-194.517151
19494.618457	16961.277500	873.916992	-36.828316
19494.618457	16961.277500	872.742188	-103.132721
19494.618457	16961.277500	871.567383	139.915253
19494.618457	16961.277500	870.391602	183.447784
19494.618457	16961.277500	869.215820	149.641052
19494.618457	16961.277500	868.040039	-81.456238
19494.618457	16961.277500	866.864258	73.882370
19494.618457	16961.277500	865.687500	58.369057
19494.618457	16961.277500	864.510742	-136.030914
19494.618457	16961.277500	863.333984	-94.630180
19494.618457	16961.277500	862.157227	-173.141769
19494.618457	16961.277500	860.979492	99.796799
19494.618457	16961.277500	859.802734	84.200317
19494.618457	16961.277500	858.625000	133.573166
19494.618457	16961.277500	857.446289	-56.643448
19494.618457	16961.277500	856.268555	-218.391693
19494.618457	16961.277500	855.089844	-51.339191
19494.618457	16961.277500	853.911133	137.944275
19494.618457	16961.277500	852.731445	-62.335236
19494.618457	16961.277500	851.552734	-232.135391
19494.618457	16961.277500	850.373047	-170.731369
19494.618457	16961.277500	849.193359	-121.534744
19494.618457	16961.277500	848.013672	205.294128
19494.618457	16961.277500	846.833008	92.242424
19494.618457	16961.277500	845.652344	-128.157990
19494.618457	16961.277500	844.471680	60.672710
19494.618457	16961.277500	843.291016	-98.921959
19494.618457	16961.277500	842.110352	124.200348
19494.618457	16961.277500	840.928711	165.026688
19494.618457	16961.277500	839.747070	31.756947
19494.618457	16961.277500	838.564453	-58.981224
19494.618457	16961.277500	837.382813	-0.004488
19494.618457	16961.277500	836.200195	-21.977230
19494.618457	16961.277500	835.017578	103.657906
19494.618457	16961.277500	833.834961	-160.991943
19494.618457	16961.277500	832.651367	-31.381292
19494.618457	16961.277500	831.467773	-4.917570
19494.618457	16961.277500	830.284180	-117.909676
19494.618457	16961.277500	829.100586	39.819836
19494.618457	16961.277500	827.916992	-65.106308
19494.618457	16961.277500	826.732422	82.402176
19494.618457	16961.277500	825.547852	-91.179245
19494.618457	16961.277500	824.363281	217.699875
19494.618457	16961.277500	823.177734	19.893427
19494.618457	16961.277500	821.992188	-131.451218
19494.618457	16961.277500	820.806641	-66.916412
19494.618457	16961.277500	819.621094	-18.572809
19494.618457	16961.277500	818.434570	-119.486565
19494.618457	16961.277500	817.249023	23.541964
19494.618457	16961.277500	816.062500	83.849510
19494.618457	16961.277500	814.875000	166.273544
19494.618457	16961.277500	813.688477	85.433754
19494.618457	16961.277500	812.500977	302.723389
19494.618457	16961.277500	811.313477	-154.768616
19494.618457	16961.277500	810.125977	114.767960
19494.618457	16961.277500	808.937500	-72.801636
19494.618457	16961.277500	807.749023	110.004219
19494.618457	16961.277500	806.560547	10.987902
19494.618457	16961.277500	805.372070	-130.268936
19494.618457	16961.277500	804.182617	100.614479
19494.618457	16961.277500	802.994141	-38.657722
19494.618457	16961.277500	801.803711	-53.243389
19494.618457	16961.277500	800.614258	56.770451
19494.618457	16961.277500	799.424805	26.020378
19494.618457	16961.277500	798.234375	41.467079
19494.618457	16961.277500	797.043945	-83.751328
19494.618457	16961.277500	795.852539	128.476166
19494.618457	16961.277500	794.662109	123.703712
19494.618457	16961.277500	793.470703	82.763069
19494.618457	16961.277500	792.279297	37.786606
19494.618457	16961.277500	791.087891	-57.380356
19494.618457	16961.277500	789.895508	-106.392578
19494.618457	16961.277500	788.703125	-59.135178
19494.618457	16961.277500	787.510742	-126.255013
19494.618457	16961.277500	786.318359	69.290504
19494.618457	16961.277500	785.125000	14.125788
19494.618457	16961.277500	783.931641	155.369751
19494.618457	16961.277500	782.738281	78.084534
19494.618457	16961.277500	781.544922	-31.263451
19494.618457	16961.277500	780.350586	-158.631958
19494.618457	16961.277500	779.156250	2.396922
19494.618457	16961.277500	777.961914	19.152884
19494.618457	16961.277500	776.767578	47.869946
19494.618457	16961.277500	775.572266	212.635147
19494.618457	16961.277500	774.376953	283.239563
19494.618457	16961.277500	773.181641	115.700432
19494.618457	16961.277500	771.986328	-3.808778
19494.618457	16961.277500	770.790039	256.646484
19494.618457	16961.277500	769.593750	63.095776
19494.618457	16961.277500	768.397461	55.482086
19494.618457	16961.277500	767.201172	-4.136320
19494.618457	16961.277500	766.003906	128.046082
19494.618457	16961.277500	764.806641	124.283585
19494.618457	16961.277500	763.609375	200.366882
19494.618457	16961.277500	762.412109	140.586685
19494.618457	16961.277500	761.213867	34.867496
19494.618457	16961.277500	760.015625	-76.842834
19494.618457	16961.277500	758.817383	210.568665
19494.618457	16961.277500	757.618164	90.794006
19494.618457	16961.277500	756.419922	14.901390
19494.618457	16961.277500	755.220703	86.579773
19494.618457	16961.277500	754.021484	-53.179821
19494.618457	16961.277500	752.821289	32.339874
19494.618457	16961.277500	751.621094	219.424881
19494.618457	16961.277500	750.420898	240.987091
19494.618457	16961.277500	749.220703	-100.108551
19494.618457	16961.277500	748.020508	-134.362244
19494.618457	16961.277500	746.819336	138.034866
19494.618457	16961.277500	745.618164	145.456985
19494.618457	16961.277500	744.416992	246.384354
19494.618457	16961.277500	743.214844	54.658962
19494.618457	16961.277500	742.012695	93.778191
19494.618457	16961.277500	740.810547	437.204742
19494.618457	16961.277500	739.608398	265.291931
19494.618457	16961.277500	738.406250	341.969330
19494.618457	16961.277500	737.203125	408.621704
19494.618457	16961.277500	736.000000	520.910767
19494.618457	16961.277500	734.795898	658.937988
19494.618457	16961.277500	733.592773	715.388611
19494.618457	16961.277500	732.388672	604.899353
19494.618457	16961.277500	731.184570	641.372437
19494.618457	16961.277500	729.979492	526.868164
19494.618457	16961.277500	728.775391	358.755737
19494.618457	16961.277500	727.570313	414.945038
19494.618457	16961.277500	726.365234	488.916565
19494.618457	16961.277500	725.160156	255.285492
19494.618457	16961.277500	723.954102	202.203888
19494.618457	16961.277500	722.748047	188.753937
19494.618457	16961.277500	721.541992	-124.138565
19494.618457	16961.277500	720.334961	24.928303
19494.618457	16961.277500	719.128906	122.346001
19494.618457	16961.277500	717.921875	225.615616
19494.618457	16961.277500	716.714844	7.852885
19494.618457	16961.277500	715.506836	-17.747431
19494.618457	16961.277500	714.298828	241.764481
19494.618457	16961.277500	713.090820	174.439514
19494.618457	16961.277500	711.882813	118.967216
19494.618457	16961.277500	710.674805	-59.236267
19494.618457	16961.277500	709.465820	-257.202850
19494.618457	16961.277500	708.256836	126.443344
19494.618457	16961.277500	707.047852	179.589218
19494.618457	16961.277500	705.837891	153.564087
19494.618457	16961.277500	704.627930	240.183487
19494.618457	16961.277500	703.417969	99.412460
19494.618457	16961.277500	702.208008	-140.156937
19494.618457	16961.277500	700.998047	-109.008842
19494.618457	16961.277500	699.787109	-202.368729
19494.618457	16961.277500	698.576172	-80.481339
19494.618457	16961.277500	697.364258	136.074295
19494.618457	16961.277500	696.153320	326.826294
19494.618457	16961.277500	694.941406	-66.743134
19494.618457	16961.277500	693.729492	94.269974
19494.618457	16961.277500	692.516602	-94.016273
19494.618457	16961.277500	691.304688	244.346588
19494.618457	16961.277500	690.091797	38.258495
19494.618457	16961.277500	688.878906	321.149017
19494.618457	16961.277500	687.665039	-125.443901
19494.618457	16961.277500	686.451172	182.882095
19494.618457	16961.277500	685.237305	228.982971
19494.618457	16961.277500	684.023438	-2.738426
19494.618457	16961.277500	682.809570	206.751648
19494.618457	16961.277500	681.594727	258.580902
19494.618457	16961.277500	680.379883	267.032806
19494.618457	16961.277500	679.165039	53.025959
19494.618457	16961.277500	677.949219	248.369644
19494.618457	16961.277500	676.733398	14.691275
19494.618457	16961.277500	675.517578	215.772751
19494.618457	16961.277500	674.301758	52.909664
19494.618457	16961.277500	673.084961	59.161270
19494.618457	16961.277500	671.869141	-180.348648
19494.618457	16961.277500	670.651367	-71.935951
19494.618457	16961.277500	669.434570	77.652252
19494.618457	16961.277500	668.216797	68.012207
19494.618457	16961.277500	667.000000	44.590317
19494.618457	16961.277500	665.781250	-10.281142
19494.618457	16961.277500	664.563477	-98.540230
19494.618457	16961.277500	663.344727	115.475555
19494.618457	16961.277500	662.125977	56.589569
19494.618457	16961.277500	660.907227	60.478489
19494.618457	16961.277500	659.688477	36.867840
19494.618457	16961.277500	658.468750	58.340206
19494.618457	16961.277500	657.249023	179.771881
19494.618457	16961.277500	656.029297	207.023193
19494.618457	16961.277500	654.808594	279.309570
19494.618457	16961.277500	653.587891	139.907776
19494.618457	16961.277500	652.367188	37.760281
19494.618457	16961.277500	651.146484	170.670868
19494.618457	16961.277500	649.924805	66.546349
19494.618457	16961.277500	648.704102	-166.777176
19494.618457	16961.277500	647.482422	292.911285
19494.618457	16961.277500	646.259766	145.698715
19494.618457	16961.277500	645.037109	182.448196
19494.618457	16961.277500	643.815430	174.171249
19494.618457	16961.277500	642.591797	91.554718
19494.618457	16961.277500	641.369141	-71.214722
19494.618457	16961.277500	640.145508	-77.535568
19494.618457	16961.277500	638.921875	162.404602
19494.618457	16961.277500	637.698242	273.255493
19494.618457	16961.277500	636.474609	141.784042
19494.618457	16961.277500	635.250000	139.272049
19494.618457	16961.277500	634.025391	261.737183
19494.618457	16961.277500	632.800781	140.079178
19494.618457	16961.277500	631.575195	100.451042
19494.618457	16961.277500	630.349609	-274.852203
19494.618457	16961.277500	629.124023	130.497025
19494.618457	16961.277500	627.898438	-72.990158
19494.618457	16961.277500	626.671875	234.614716
19494.618457	16961.277500	625.445313	134.538376
19494.618457	16961.277500	624.218750	-43.481403
19494.618457	16961.277500	622.992188	145.023636
19494.618457	16961.277500	621.764648	-95.277779
19494.618457	16961.277500	620.537109	-107.516273
19494.618457	16961.277500	619.309570	-197.661057
19494.618457	16961.277500	618.081055	-161.170288
19494.618457	16961.277500	616.852539	-208.412857
19494.618457	16961.277500	615.624023	-10.338397
19494.618457	16961.277500	614.395508	185.716721
19494.618457	16961.277500	613.166992	317.488434
19494.618457	16961.277500	611.937500	38.725685
19494.618457	16961.277500	610.708008	203.569382
19494.618457	16961.277500	609.477539	383.918915
19494.618457	16961.277500	608.248047	227.861069
19494.618457	16961.277500	607.017578	-33.074474
19494.618457	16961.277500	605.787109	73.425018
19494.618457	16961.277500	604.555664	-20.221407
19494.618457	16961.277500	603.325195	45.486931
19494.618457	16961.277500	602.093750	-156.820480
19494.618457	16961.277500	600.861328	-50.276737
19494.618457	16961.277500	599.629883	-102.934021
19494.618457	16961.277500	598.397461	-9.969330
19494.618457	16961.277500	597.165039	-107.179466
19494.618457	16961.277500	595.932617	158.487961
19494.618457	16961.277500	594.699219	-25.928686
19494.618457	16961.277500	593.465820	-163.683304
19494.618457	16961.277500	592.232422	-163.680557
19494.618457	16961.277500	590.999023	-6.620075
19494.618457	16961.277500	589.764648	-206.180130
19494.618457	16961.277500	588.530273	78.793404
19494.618457	16961.277500	587.295898	216.466125
19494.618457	16961.277500	586.061523	-93.267860
19494.618457	16961.277500	584.826172	9.626162
19494.618457	16961.277500	583.590820	162.866577
19494.618457	16961.277500	582.355469	-177.472870
19494.618457	16961.277500	581.119141	-136.388611
19494.618457	16961.277500	579.882813	-172.654663
19494.618457	16961.277500	578.646484	23.271460
19494.618457	16961.277500	577.410156	70.262230
19494.618457	16961.277500	576.172852	231.372101
19494.618457	16961.277500	574.935547	-40.536472
19494.618457	16961.277500	573.698242	209.555435
19494.618457	16961.277500	572.460938	142.717468
19494.618457	16961.277500	571.222656	247.908478
19494.618457	16961.277500	569.984375	159.978882
19494.618457	16961.277500	568.746094	54.777557
19494.618457	16961.277500	567.506836	21.122782
19494.618457	16961.277500	566.267578	28.089323
19494.618457	16961.277500	565.028320	334.240784
19494.618457	16961.277500	563.789063	121.336029
19494.618457	16961.277500	562.548828	-89.472603
19494.618457	16961.277500	561.309570	266.872650
19494.618457	16961.277500	560.068359	237.520233
19494.618457	16961.277500	558.828125	541.753174
19494.618457	16961.277500	557.586914	427.709229
19494.618457	16961.277500	556.345703	296.452576
19494.618457	16961.277500	555.104492	271.288635
19494.618457	16961.277500	553.863281	226.956284
19494.618457	16961.277500	552.621094	161.541595
19494.618457	16961.277500	551.378906	319.567200
19494.618457	16961.277500	550.136719	304.373383
19494.618457	16961.277500	548.893555	96.829414
19494.618457	16961.277500	547.650391	360.838379
19494.618457	16961.277500	546.407227	320.890747
19494.618457	16961.277500	545.164063	463.746460
19494.618457	16961.277500	543.919922	629.702454
19494.618457	16961.277500	542.675781	363.139801
19494.618457	16961.277500	541.431641	498.462677
19494.618457	16961.277500	540.186523	503.149597
19494.618457	16961.277500	538.941406	444.522583
19494.618457	16961.277500	537.696289	449.385956
19494.618457	16961.277500	536.451172	510.022461
19494.618457	16961.277500	535.205078	668.631226
19494.618457	16961.277500	533.959961	583.478333
19494.618457	16961.277500	532.712891	659.650513
19494.618457	16961.277500	531.466797	371.325043
19494.618457	16961.277500	530.219727	712.388855
19494.618457	16961.277500	528.972656	756.121582
19494.618457	16961.277500	527.725586	573.656677
19494.618457	16961.277500	526.478516	861.016357
19494.618457	16961.277500	525.230469	828.258606
19494.618457	16961.277500	523.982422	845.408264
19494.618457	16961.277500	522.734375	632.729370
19494.618457	16961.277500	521.485352	694.113586
19494.618457	16961.277500	520.236328	776.602905
19494.618457	16961.277500	518.987305	843.806396
19494.618457	16961.277500	517.737305	880.424194
19494.618457	16961.277500	516.488281	725.709167
19494.618457	16961.277500	515.238281	967.180786
19494.618457	16961.277500	513.988281	982.881775
19494.618457	16961.277500	512.737305	1017.755920
19494.618457	16961.277500	511.486328	1048.841675
19494.618457	16961.277500	510.235352	1160.250977
19494.618457	16961.277500	508.984375	941.009521
19494.618457	16961.277500	507.732422	1073.498047
19494.618457	16961.277500	506.480469	1167.759888
19494.618457	16961.277500	505.228516	1300.210815
19494.618457	16961.277500	503.976563	1423.084961
19494.618457	16961.277500	502.723633	1622.299316
19494.618457	16961.277500	501.470703	1720.281006
19494.618457	16961.277500	500.217773	1764.800537
19494.618457	16961.277500	498.963867	1795.954102
19494.618457	16961.277500	497.709961	1653.509766
19494.618457	16961.277500	496.456055	1787.661255
19494.618457	16961.277500	495.202148	1572.810913
19494.618457	16961.277500	493.947266	1954.723755
19494.618457	16961.277500	492.692383	2233.530273
19494.618457	16961.277500	491.437500	2039.620239
19494.618457	16961.277500	490.181641	2083.902344
19494.618457	16961.277500	488.926758	2263.351074
19494.618457	16961.277500	487.670898	2244.629395
19494.618457	16961.277500	486.414063	2214.440430
19494.618457	16961.277500	485.158203	2502.070557
19494.618457	16961.277500	483.901367	2408.898438
19494.618457	16961.277500	482.644531	2289.044922
19494.618457	16961.277500	481.386719	2756.941895
19494.618457	16961.277500	480.128906	2577.916504
19494.618457	16961.277500	478.871094	2849.492188
19494.618457	16961.277500	477.613281	2588.549805
19494.618457	16961.277500	476.355469	3027.004639
19494.618457	16961.277500	475.096680	3028.088867
19494.618457	16961.277500	473.837891	3011.919678
19494.618457	16961.277500	472.578125	3337.480225
19494.618457	16961.277500	471.319336	3389.273193
19494.618457	16961.277500	470.059570	3495.912354
19494.618457	16961.277500	468.799805	3328.972656
19494.618457	16961.277500	467.539063	3374.436768
19494.618457	16961.277500	466.278320	3398.781738
19494.618457	16961.277500	465.017578	3276.812012
19494.618457	16961.277500	463.756836	3410.663818
19494.618457	16961.277500	462.495117	3523.329346
19494.618457	16961.277500	461.233398	3614.808105
19494.618457	16961.277500	459.971680	3461.453369
19494.618457	16961.277500	458.709961	3690.606445
19494.618457	16961.277500	457.447266	3652.208496
19494.618457	16961.277500	456.184570	3844.546387
19494.618457	16961.277500	454.921875	3858.428955
19494.618457	16961.277500	453.658203	3803.759521
19494.618457	16961.277500	452.394531	4087.517578
19494.618457	16961.277500	451.130859	4043.342773
19494.618457	16961.277500	449.867188	4011.983154
19494.618457	16961.277500	448.602539	4220.396973
19494.618457	16961.277500	447.337891	4097.279785
19494.618457	16961.277500	446.073242	4179.796387
19494.618457	16961.277500	444.807617	4361.933594
19494.618457	16961.277500	443.542969	4125.760742
19494.618457	16961.277500	442.276367	4274.570313
19494.618457	16961.277500	441.010742	4305.592285
19494.618457	16961.277500	439.744141	4318.969727
19494.618457	16961.277500	438.478516	4218.398438
19494.618457	16961.277500	437.210938	4347.503418
19494.618457	16961.277500	435.944336	4477.741699
19494.618457	16961.277500	434.676758	4412.817383
19494.618457	16961.277500	433.409180	4433.947266
19494.618457	16961.277500	432.141602	4290.174316
19494.618457	16961.277500	430.873047	4283.305664
19494.618457	16961.277500	429.604492	4599.888672
19494.618457	16961.277500	428.335938	4459.277832
19494.618457	16961.277500	427.067383	4395.086914
19494.618457	16961.277500	425.797852	4887.699219
19494.618457	16961.277500	424.528320	4765.000488
19494.618457	16961.277500	423.258789	4808.966309
19494.618457	16961.277500	421.988281	4569.405762
19494.618457	16961.277500	420.717773	4701.619629
19494.618457	16961.277500	419.447266	4828.895996
19494.618457	16961.277500	418.175781	4868.382813
19494.618457	16961.277500	416.905273	4590.609375
19494.618457	16961.277500	415.633789	4889.160156
19494.618457	16961.277500	414.362305	4780.109375
19494.618457	16961.277500	413.089844	4615.250977
19494.618457	16961.277500	411.817383	4469.782227
19494.618457	16961.277500	410.544922	4674.413574
19494.618457	16961.277500	409.272461	4689.622559
19494.618457	16961.277500	407.999023	4708.950684
19494.618457	16961.277500	406.725586	4687.293945
19494.618457	16961.277500	405.452148	4731.664551
19494.618457	16961.277500	404.177734	4853.204590
19494.618457	16961.277500	402.903320	4631.423828
19494.618457	16961.277500	401.628906	4561.880371
19494.618457	16961.277500	400.354492	4800.137695
19494.618457	16961.277500	399.079102	4522.499512
19494.618457	16961.277500	397.803711	4618.144531
19494.618457	16961.277500	396.528320	4687.433594
19494.618457	16961.277500	395.251953	4608.455078
19494.618457	16961.277500	393.976563	4242.643555
19494.618457	16961.277500	392.700195	4804.154785
19494.618457	16961.277500	391.422852	4458.446777
19494.618457	16961.277500	390.145508	4550.764648
19494.618457	16961.277500	388.869141	4416.105469
19494.618457	16961.277500	387.590820	4498.074707
19494.618457	16961.277500	386.313477	4285.666504
19494.618457	16961.277500	385.035156	4362.715332
19494.618457	16961.277500	383.756836	4517.616211
19494.618457	16961.277500	382.478516	4426.676270
19494.618457	16961.277500	381.199219	4134.807129
19494.618457	16961.277500	379.919922	4124.468750
19494.618457	16961.277500	378.640625	4182.318359
19494.618457	16961.277500	377.360352	4225.951172
19494.618457	16961.277500	376.080078	4367.460938
19494.618457	16961.277500	374.799805	4184.554199
19494.618457	16961.277500	373.519531	4045.265381
19494.618457	16961.277500	372.238281	4011.024902
19494.618457	16961.277500	370.957031	4169.487305
19494.618457	16961.277500	369.675781	3960.555176
19494.618457	16961.277500	368.394531	3835.927002
19494.618457	16961.277500	367.112305	3840.149658
19494.618457	16961.277500	365.830078	3700.827881
19494.618457	16961.277500	364.546875	3529.751709
19494.618457	16961.277500	363.264648	3489.223389
19494.618457	16961.277500	361.981445	3707.486084
19494.618457	16961.277500	360.698242	3506.062744
19494.618457	16961.277500	359.414063	3434.633057
19494.618457	16961.277500	358.129883	3185.768799
19494.618457	16961.277500	356.845703	3340.506104
19494.618457	16961.277500	355.561523	3235.662842
19494.618457	16961.277500	354.276367	3064.775879
19494.618457	16961.277500	352.991211	3060.520752
19494.618457	16961.277500	351.706055	3140.808838
19494.618457	16961.277500	350.420898	2957.617676
19494.618457	16961.277500	349.134766	3081.831787
19494.618457	16961.277500	347.848633	2910.817383
19494.618457	16961.277500	346.561523	2820.023193
19494.618457	16961.277500	345.275391	2725.916504
19494.618457	16961.277500	343.988281	2498.025391
19494.618457	16961.277500	342.700195	2528.287109
19494.618457	16961.277500	341.413086	2478.666016
19494.618457	16961.277500	340.125000	2038.663818
19494.618457	16961.277500	338.836914	2225.953125
19494.618457	16961.277500	337.548828	1846.482178
19494.618457	16961.277500	336.259766	1856.021973
19494.618457	16961.277500	334.970703	1875.852539
19494.618457	16961.277500	333.681641	1883.571655
19494.618457	16961.277500	332.391602	1632.197388
19494.618457	16961.277500	331.101563	1509.446655
19494.618457	16961.277500	329.811523	1207.370728
19494.618457	16961.277500	328.521484	1441.315308
19494.618457	16961.277500	327.230469	1109.935181
19494.618457	16961.277500	325.939453	1386.283691
19494.618457	16961.277500	324.648438	989.993530
19494.618457	16961.277500	323.356445	906.225891
19494.618457	16961.277500	322.064453	1018.194458
19494.618457	16961.277500	320.772461	748.123657
19494.618457	16961.277500	319.480469	847.393188
19494.618457	16961.277500	318.187500	736.257385
19494.618457	16961.277500	316.894531	583.239441
19494.618457	16961.277500	315.601563	153.327744
19494.618457	16961.277500	314.307617	150.671753
19494.618457	16961.277500	313.013672	33.463047
19494.618457	16961.277500	311.719727	-26.543695
19494.618457	16961.277500	310.425781	199.532196
19494.618457	16961.277500	309.130859	463.477478
19494.618457	16961.277500	307.835938	-134.065811
19494.618457	16961.277500	306.541016	-248.517563
19494.618457	16961.277500	305.245117	-41.330536
19494.618457	16961.277500	303.949219	-97.682571
19494.618457	16961.277500	302.653320	-113.149979
19494.618457	16961.277500	301.356445	193.938400
19494.618457	16961.277500	300.060547	303.704803
19494.618457	16961.277500	298.763672	327.840912
