#X		#Y		#Wave		#Intensity
19464.492128	16974.743333	2000.043945	240.335266
19464.492128	16974.743333	1999.080078	-11.508029
19464.492128	16974.743333	1998.116211	-145.560120
19464.492128	16974.743333	1997.151367	114.200493
19464.492128	16974.743333	1996.186523	195.199738
19464.492128	16974.743333	1995.222656	85.147690
19464.492128	16974.743333	1994.256836	-215.811859
19464.492128	16974.743333	1993.291992	-63.752396
19464.492128	16974.743333	1992.327148	-55.592999
19464.492128	16974.743333	1991.361328	-159.056595
19464.492128	16974.743333	1990.395508	123.379318
19464.492128	16974.743333	1989.429688	36.785492
19464.492128	16974.743333	1988.463867	-92.052589
19464.492128	16974.743333	1987.497070	102.990402
19464.492128	16974.743333	1986.531250	-152.359329
19464.492128	16974.743333	1985.564453	225.189255
19464.492128	16974.743333	1984.597656	335.405457
19464.492128	16974.743333	1983.630859	-68.728531
19464.492128	16974.743333	1982.664063	85.611176
19464.492128	16974.743333	1981.696289	271.841064
19464.492128	16974.743333	1980.728516	-51.066067
19464.492128	16974.743333	1979.761719	16.214731
19464.492128	16974.743333	1978.792969	-3.112440
19464.492128	16974.743333	1977.825195	105.789703
19464.492128	16974.743333	1976.857422	155.252808
19464.492128	16974.743333	1975.888672	382.254272
19464.492128	16974.743333	1974.919922	347.460724
19464.492128	16974.743333	1973.951172	139.837692
19464.492128	16974.743333	1972.982422	208.424866
19464.492128	16974.743333	1972.013672	136.281372
19464.492128	16974.743333	1971.043945	81.299492
19464.492128	16974.743333	1970.075195	169.199661
19464.492128	16974.743333	1969.105469	89.341873
19464.492128	16974.743333	1968.135742	115.367653
19464.492128	16974.743333	1967.165039	87.070816
19464.492128	16974.743333	1966.195313	169.527863
19464.492128	16974.743333	1965.224609	177.964722
19464.492128	16974.743333	1964.253906	-202.787506
19464.492128	16974.743333	1963.283203	-105.846245
19464.492128	16974.743333	1962.312500	-58.266521
19464.492128	16974.743333	1961.341797	319.003967
19464.492128	16974.743333	1960.370117	383.539032
19464.492128	16974.743333	1959.399414	337.251953
19464.492128	16974.743333	1958.427734	35.083481
19464.492128	16974.743333	1957.455078	237.122543
19464.492128	16974.743333	1956.483398	23.454531
19464.492128	16974.743333	1955.511719	-67.282860
19464.492128	16974.743333	1954.539063	129.535995
19464.492128	16974.743333	1953.566406	360.619293
19464.492128	16974.743333	1952.593750	168.938644
19464.492128	16974.743333	1951.621094	414.547516
19464.492128	16974.743333	1950.647461	-138.241455
19464.492128	16974.743333	1949.674805	75.298164
19464.492128	16974.743333	1948.701172	234.693008
19464.492128	16974.743333	1947.727539	116.586823
19464.492128	16974.743333	1946.753906	285.636292
19464.492128	16974.743333	1945.780273	52.140656
19464.492128	16974.743333	1944.805664	262.763367
19464.492128	16974.743333	1943.831055	340.804382
19464.492128	16974.743333	1942.856445	-5.503696
19464.492128	16974.743333	1941.881836	-106.514229
19464.492128	16974.743333	1940.907227	390.667389
19464.492128	16974.743333	1939.932617	-134.493942
19464.492128	16974.743333	1938.957031	87.971313
19464.492128	16974.743333	1937.981445	48.152012
19464.492128	16974.743333	1937.005859	98.962074
19464.492128	16974.743333	1936.030273	255.047791
19464.492128	16974.743333	1935.054688	175.961655
19464.492128	16974.743333	1934.078125	89.539993
19464.492128	16974.743333	1933.101563	448.658661
19464.492128	16974.743333	1932.125000	288.754730
19464.492128	16974.743333	1931.148438	168.048431
19464.492128	16974.743333	1930.171875	110.980705
19464.492128	16974.743333	1929.194336	156.659027
19464.492128	16974.743333	1928.217773	-127.857956
19464.492128	16974.743333	1927.240234	225.920593
19464.492128	16974.743333	1926.262695	129.721863
19464.492128	16974.743333	1925.284180	16.442177
19464.492128	16974.743333	1924.306641	-89.475136
19464.492128	16974.743333	1923.328125	315.312042
19464.492128	16974.743333	1922.350586	16.373970
19464.492128	16974.743333	1921.372070	-91.941498
19464.492128	16974.743333	1920.392578	-12.180261
19464.492128	16974.743333	1919.414063	-220.561249
19464.492128	16974.743333	1918.434570	44.710533
19464.492128	16974.743333	1917.456055	97.544991
19464.492128	16974.743333	1916.476563	82.035858
19464.492128	16974.743333	1915.497070	98.247818
19464.492128	16974.743333	1914.516602	255.938049
19464.492128	16974.743333	1913.537109	157.488937
19464.492128	16974.743333	1912.556641	-16.505901
19464.492128	16974.743333	1911.576172	-70.974129
19464.492128	16974.743333	1910.595703	40.327042
19464.492128	16974.743333	1909.615234	158.904053
19464.492128	16974.743333	1908.633789	143.433792
19464.492128	16974.743333	1907.653320	45.144123
19464.492128	16974.743333	1906.671875	-23.873461
19464.492128	16974.743333	1905.690430	101.957069
19464.492128	16974.743333	1904.708984	-135.027954
19464.492128	16974.743333	1903.727539	-11.644541
19464.492128	16974.743333	1902.745117	233.393433
19464.492128	16974.743333	1901.762695	35.474335
19464.492128	16974.743333	1900.780273	-201.288239
19464.492128	16974.743333	1899.797852	4.754392
19464.492128	16974.743333	1898.815430	111.014587
19464.492128	16974.743333	1897.832031	409.340851
19464.492128	16974.743333	1896.849609	-121.443687
19464.492128	16974.743333	1895.866211	-27.341478
19464.492128	16974.743333	1894.882813	231.986801
19464.492128	16974.743333	1893.898438	151.067337
19464.492128	16974.743333	1892.915039	172.213303
19464.492128	16974.743333	1891.930664	-34.943001
19464.492128	16974.743333	1890.947266	-142.453735
19464.492128	16974.743333	1889.962891	-82.385788
19464.492128	16974.743333	1888.977539	33.504993
19464.492128	16974.743333	1887.993164	3.738582
19464.492128	16974.743333	1887.007813	172.970734
19464.492128	16974.743333	1886.023438	162.617813
19464.492128	16974.743333	1885.038086	-27.219097
19464.492128	16974.743333	1884.051758	95.877884
19464.492128	16974.743333	1883.066406	37.080872
19464.492128	16974.743333	1882.081055	118.921768
19464.492128	16974.743333	1881.094727	178.930527
19464.492128	16974.743333	1880.108398	134.719437
19464.492128	16974.743333	1879.122070	-91.184341
19464.492128	16974.743333	1878.135742	-14.189229
19464.492128	16974.743333	1877.148438	-48.622719
19464.492128	16974.743333	1876.162109	-24.920353
19464.492128	16974.743333	1875.174805	102.890038
19464.492128	16974.743333	1874.187500	-42.874325
19464.492128	16974.743333	1873.199219	-178.892517
19464.492128	16974.743333	1872.211914	193.290405
19464.492128	16974.743333	1871.223633	-20.124838
19464.492128	16974.743333	1870.236328	10.843990
19464.492128	16974.743333	1869.248047	29.719843
19464.492128	16974.743333	1868.258789	-123.075737
19464.492128	16974.743333	1867.270508	33.623032
19464.492128	16974.743333	1866.282227	-167.448929
19464.492128	16974.743333	1865.292969	211.535095
19464.492128	16974.743333	1864.303711	-139.283646
19464.492128	16974.743333	1863.314453	72.881592
19464.492128	16974.743333	1862.324219	57.943413
19464.492128	16974.743333	1861.334961	71.989380
19464.492128	16974.743333	1860.344727	37.747505
19464.492128	16974.743333	1859.354492	5.933207
19464.492128	16974.743333	1858.364258	46.536278
19464.492128	16974.743333	1857.374023	154.687119
19464.492128	16974.743333	1856.383789	19.135279
19464.492128	16974.743333	1855.392578	110.369514
19464.492128	16974.743333	1854.401367	124.398170
19464.492128	16974.743333	1853.410156	66.085999
19464.492128	16974.743333	1852.418945	80.116119
19464.492128	16974.743333	1851.426758	262.858124
19464.492128	16974.743333	1850.435547	33.454140
19464.492128	16974.743333	1849.443359	-174.180359
19464.492128	16974.743333	1848.451172	169.890656
19464.492128	16974.743333	1847.458984	87.539742
19464.492128	16974.743333	1846.466797	31.701920
19464.492128	16974.743333	1845.473633	267.192047
19464.492128	16974.743333	1844.480469	293.174683
19464.492128	16974.743333	1843.487305	350.426697
19464.492128	16974.743333	1842.494141	22.668188
19464.492128	16974.743333	1841.500977	24.603762
19464.492128	16974.743333	1840.506836	-50.432262
19464.492128	16974.743333	1839.513672	-111.022263
19464.492128	16974.743333	1838.519531	-56.186501
19464.492128	16974.743333	1837.525391	164.485718
19464.492128	16974.743333	1836.530273	216.828674
19464.492128	16974.743333	1835.536133	252.318665
19464.492128	16974.743333	1834.541016	76.365021
19464.492128	16974.743333	1833.545898	138.269104
19464.492128	16974.743333	1832.550781	-71.243065
19464.492128	16974.743333	1831.555664	0.247895
19464.492128	16974.743333	1830.560547	330.975830
19464.492128	16974.743333	1829.564453	13.495645
19464.492128	16974.743333	1828.568359	156.886093
19464.492128	16974.743333	1827.572266	276.215027
19464.492128	16974.743333	1826.576172	354.700623
19464.492128	16974.743333	1825.580078	217.279861
19464.492128	16974.743333	1824.583008	-97.552933
19464.492128	16974.743333	1823.585938	-40.664272
19464.492128	16974.743333	1822.588867	188.775406
19464.492128	16974.743333	1821.591797	324.642548
19464.492128	16974.743333	1820.594727	251.969818
19464.492128	16974.743333	1819.596680	150.560028
19464.492128	16974.743333	1818.599609	-87.363922
19464.492128	16974.743333	1817.601563	122.616585
19464.492128	16974.743333	1816.603516	28.412560
19464.492128	16974.743333	1815.604492	439.344330
19464.492128	16974.743333	1814.606445	237.365417
19464.492128	16974.743333	1813.607422	277.140381
19464.492128	16974.743333	1812.608398	194.853806
19464.492128	16974.743333	1811.609375	95.833275
19464.492128	16974.743333	1810.610352	207.291229
19464.492128	16974.743333	1809.610352	215.864273
19464.492128	16974.743333	1808.611328	508.908569
19464.492128	16974.743333	1807.611328	213.799393
19464.492128	16974.743333	1806.611328	377.631592
19464.492128	16974.743333	1805.610352	118.451897
19464.492128	16974.743333	1804.610352	-64.211487
19464.492128	16974.743333	1803.609375	116.223587
19464.492128	16974.743333	1802.608398	339.545441
19464.492128	16974.743333	1801.607422	73.296623
19464.492128	16974.743333	1800.606445	129.386841
19464.492128	16974.743333	1799.605469	99.505142
19464.492128	16974.743333	1798.603516	98.242981
19464.492128	16974.743333	1797.601563	204.312683
19464.492128	16974.743333	1796.599609	-92.813492
19464.492128	16974.743333	1795.597656	63.274200
19464.492128	16974.743333	1794.595703	357.569519
19464.492128	16974.743333	1793.592773	-11.027604
19464.492128	16974.743333	1792.589844	330.781281
19464.492128	16974.743333	1791.587891	202.954910
19464.492128	16974.743333	1790.583984	382.510132
19464.492128	16974.743333	1789.581055	204.632492
19464.492128	16974.743333	1788.577148	183.987320
19464.492128	16974.743333	1787.574219	25.199654
19464.492128	16974.743333	1786.570313	-52.614101
19464.492128	16974.743333	1785.566406	350.407257
19464.492128	16974.743333	1784.561523	132.079468
19464.492128	16974.743333	1783.557617	442.041565
19464.492128	16974.743333	1782.552734	0.079572
19464.492128	16974.743333	1781.547852	-137.292740
19464.492128	16974.743333	1780.542969	148.658676
19464.492128	16974.743333	1779.538086	-76.736366
19464.492128	16974.743333	1778.532227	166.232239
19464.492128	16974.743333	1777.527344	323.506683
19464.492128	16974.743333	1776.521484	245.427368
19464.492128	16974.743333	1775.515625	112.697739
19464.492128	16974.743333	1774.508789	-110.286690
19464.492128	16974.743333	1773.502930	44.397095
19464.492128	16974.743333	1772.496094	49.388050
19464.492128	16974.743333	1771.489258	208.653458
19464.492128	16974.743333	1770.482422	-26.199490
19464.492128	16974.743333	1769.475586	137.688400
19464.492128	16974.743333	1768.467773	-47.314857
19464.492128	16974.743333	1767.460938	315.706421
19464.492128	16974.743333	1766.453125	128.289230
19464.492128	16974.743333	1765.445313	159.069107
19464.492128	16974.743333	1764.437500	412.663055
19464.492128	16974.743333	1763.428711	-191.986801
19464.492128	16974.743333	1762.420898	-71.224152
19464.492128	16974.743333	1761.412109	198.735718
19464.492128	16974.743333	1760.403320	87.124283
19464.492128	16974.743333	1759.393555	337.920624
19464.492128	16974.743333	1758.384766	214.400528
19464.492128	16974.743333	1757.375000	-105.635902
19464.492128	16974.743333	1756.366211	-61.025970
19464.492128	16974.743333	1755.356445	85.299782
19464.492128	16974.743333	1754.345703	193.665390
19464.492128	16974.743333	1753.335938	150.528732
19464.492128	16974.743333	1752.325195	128.654373
19464.492128	16974.743333	1751.315430	2.683999
19464.492128	16974.743333	1750.304688	63.524582
19464.492128	16974.743333	1749.292969	230.685745
19464.492128	16974.743333	1748.282227	-27.723780
19464.492128	16974.743333	1747.270508	28.234035
19464.492128	16974.743333	1746.259766	209.357544
19464.492128	16974.743333	1745.248047	364.385437
19464.492128	16974.743333	1744.235352	216.985565
19464.492128	16974.743333	1743.223633	194.759277
19464.492128	16974.743333	1742.211914	120.556366
19464.492128	16974.743333	1741.199219	32.175655
19464.492128	16974.743333	1740.186523	87.751915
19464.492128	16974.743333	1739.173828	117.310593
19464.492128	16974.743333	1738.160156	-93.824173
19464.492128	16974.743333	1737.147461	-64.327835
19464.492128	16974.743333	1736.133789	-27.810026
19464.492128	16974.743333	1735.120117	289.237305
19464.492128	16974.743333	1734.106445	205.361145
19464.492128	16974.743333	1733.091797	-109.503189
19464.492128	16974.743333	1732.078125	-209.849106
19464.492128	16974.743333	1731.063477	130.381424
19464.492128	16974.743333	1730.048828	25.233782
19464.492128	16974.743333	1729.034180	-32.811420
19464.492128	16974.743333	1728.019531	-32.009892
19464.492128	16974.743333	1727.003906	-165.442123
19464.492128	16974.743333	1725.988281	-164.697281
19464.492128	16974.743333	1724.972656	160.765793
19464.492128	16974.743333	1723.957031	22.544970
19464.492128	16974.743333	1722.941406	70.179489
19464.492128	16974.743333	1721.924805	80.123871
19464.492128	16974.743333	1720.909180	111.186455
19464.492128	16974.743333	1719.892578	-104.667320
19464.492128	16974.743333	1718.875977	-21.948174
19464.492128	16974.743333	1717.858398	154.708450
19464.492128	16974.743333	1716.841797	16.392448
19464.492128	16974.743333	1715.824219	-93.720032
19464.492128	16974.743333	1714.806641	200.172943
19464.492128	16974.743333	1713.789063	-151.895157
19464.492128	16974.743333	1712.770508	-107.063812
19464.492128	16974.743333	1711.752930	92.647896
19464.492128	16974.743333	1710.734375	235.913834
19464.492128	16974.743333	1709.715820	-99.618134
19464.492128	16974.743333	1708.697266	-104.254341
19464.492128	16974.743333	1707.678711	20.089493
19464.492128	16974.743333	1706.659180	-228.548538
19464.492128	16974.743333	1705.640625	8.248500
19464.492128	16974.743333	1704.621094	12.825975
19464.492128	16974.743333	1703.600586	12.676314
19464.492128	16974.743333	1702.581055	-184.357544
19464.492128	16974.743333	1701.561523	204.397232
19464.492128	16974.743333	1700.541016	108.060577
19464.492128	16974.743333	1699.520508	79.646027
19464.492128	16974.743333	1698.500000	9.058244
19464.492128	16974.743333	1697.478516	-127.090698
19464.492128	16974.743333	1696.458008	38.735928
19464.492128	16974.743333	1695.436523	61.707188
19464.492128	16974.743333	1694.415039	91.655151
19464.492128	16974.743333	1693.393555	149.630997
19464.492128	16974.743333	1692.372070	113.996468
19464.492128	16974.743333	1691.349609	-188.247833
19464.492128	16974.743333	1690.327148	70.724457
19464.492128	16974.743333	1689.304688	128.532898
19464.492128	16974.743333	1688.282227	-194.667770
19464.492128	16974.743333	1687.259766	136.501785
19464.492128	16974.743333	1686.236328	49.323345
19464.492128	16974.743333	1685.213867	-182.667648
19464.492128	16974.743333	1684.190430	89.836021
19464.492128	16974.743333	1683.166016	-51.073479
19464.492128	16974.743333	1682.142578	216.573090
19464.492128	16974.743333	1681.119141	-94.741364
19464.492128	16974.743333	1680.094727	-2.262547
19464.492128	16974.743333	1679.070313	-124.489929
19464.492128	16974.743333	1678.045898	219.834808
19464.492128	16974.743333	1677.020508	335.442444
19464.492128	16974.743333	1675.996094	-22.365404
19464.492128	16974.743333	1674.970703	256.386017
19464.492128	16974.743333	1673.945313	143.421997
19464.492128	16974.743333	1672.919922	263.518433
19464.492128	16974.743333	1671.893555	-42.840004
19464.492128	16974.743333	1670.868164	91.177757
19464.492128	16974.743333	1669.841797	69.071724
19464.492128	16974.743333	1668.815430	109.825119
19464.492128	16974.743333	1667.789063	99.321289
19464.492128	16974.743333	1666.761719	195.874893
19464.492128	16974.743333	1665.735352	129.463715
19464.492128	16974.743333	1664.708008	18.847353
19464.492128	16974.743333	1663.680664	229.294312
19464.492128	16974.743333	1662.653320	132.619598
19464.492128	16974.743333	1661.625000	117.354607
19464.492128	16974.743333	1660.597656	213.680435
19464.492128	16974.743333	1659.569336	75.167084
19464.492128	16974.743333	1658.541016	169.104645
19464.492128	16974.743333	1657.512695	214.192902
19464.492128	16974.743333	1656.483398	50.156559
19464.492128	16974.743333	1655.455078	438.991333
19464.492128	16974.743333	1654.425781	14.847193
19464.492128	16974.743333	1653.396484	589.258423
19464.492128	16974.743333	1652.366211	415.934113
19464.492128	16974.743333	1651.336914	544.393433
19464.492128	16974.743333	1650.306641	108.901619
19464.492128	16974.743333	1649.276367	441.512482
19464.492128	16974.743333	1648.246094	363.410248
19464.492128	16974.743333	1647.215820	526.523254
19464.492128	16974.743333	1646.185547	453.053314
19464.492128	16974.743333	1645.154297	395.828552
19464.492128	16974.743333	1644.123047	417.426361
19464.492128	16974.743333	1643.091797	587.320007
19464.492128	16974.743333	1642.060547	629.709290
19464.492128	16974.743333	1641.028320	461.272034
19464.492128	16974.743333	1639.997070	675.045227
19464.492128	16974.743333	1638.964844	316.776306
19464.492128	16974.743333	1637.931641	511.960022
19464.492128	16974.743333	1636.899414	686.233032
19464.492128	16974.743333	1635.867188	311.960602
19464.492128	16974.743333	1634.833984	419.099731
19464.492128	16974.743333	1633.800781	364.259155
19464.492128	16974.743333	1632.767578	290.935577
19464.492128	16974.743333	1631.734375	515.946045
19464.492128	16974.743333	1630.700195	276.155884
19464.492128	16974.743333	1629.666016	519.574097
19464.492128	16974.743333	1628.631836	490.189606
19464.492128	16974.743333	1627.597656	553.243347
19464.492128	16974.743333	1626.563477	579.314026
19464.492128	16974.743333	1625.528320	596.134216
19464.492128	16974.743333	1624.493164	677.615234
19464.492128	16974.743333	1623.458008	710.581970
19464.492128	16974.743333	1622.422852	291.093719
19464.492128	16974.743333	1621.387695	741.875671
19464.492128	16974.743333	1620.351563	730.984619
19464.492128	16974.743333	1619.315430	863.142456
19464.492128	16974.743333	1618.279297	743.836182
19464.492128	16974.743333	1617.243164	566.931641
19464.492128	16974.743333	1616.207031	890.445190
19464.492128	16974.743333	1615.169922	941.818298
19464.492128	16974.743333	1614.132813	679.727966
19464.492128	16974.743333	1613.095703	860.190491
19464.492128	16974.743333	1612.058594	890.839294
19464.492128	16974.743333	1611.020508	914.574951
19464.492128	16974.743333	1609.983398	1122.561157
19464.492128	16974.743333	1608.945313	950.551697
19464.492128	16974.743333	1607.907227	1027.254517
19464.492128	16974.743333	1606.868164	772.498108
19464.492128	16974.743333	1605.830078	547.776001
19464.492128	16974.743333	1604.791016	889.146790
19464.492128	16974.743333	1603.751953	958.963074
19464.492128	16974.743333	1602.712891	906.875793
19464.492128	16974.743333	1601.673828	512.213745
19464.492128	16974.743333	1600.633789	892.479309
19464.492128	16974.743333	1599.594727	762.343506
19464.492128	16974.743333	1598.554688	839.105408
19464.492128	16974.743333	1597.513672	584.996094
19464.492128	16974.743333	1596.473633	861.663147
19464.492128	16974.743333	1595.433594	789.138245
19464.492128	16974.743333	1594.392578	611.033142
19464.492128	16974.743333	1593.351563	788.876099
19464.492128	16974.743333	1592.310547	952.903992
19464.492128	16974.743333	1591.268555	843.791260
19464.492128	16974.743333	1590.227539	865.534668
19464.492128	16974.743333	1589.185547	811.591919
19464.492128	16974.743333	1588.143555	920.543701
19464.492128	16974.743333	1587.100586	641.933655
19464.492128	16974.743333	1586.058594	1035.227173
19464.492128	16974.743333	1585.015625	866.790222
19464.492128	16974.743333	1583.972656	799.287415
19464.492128	16974.743333	1582.929688	848.701843
19464.492128	16974.743333	1581.886719	978.311340
19464.492128	16974.743333	1580.843750	1080.413452
19464.492128	16974.743333	1579.799805	1040.526733
19464.492128	16974.743333	1578.755859	840.416992
19464.492128	16974.743333	1577.711914	725.118164
19464.492128	16974.743333	1576.666992	827.320618
19464.492128	16974.743333	1575.623047	739.596497
19464.492128	16974.743333	1574.578125	892.156128
19464.492128	16974.743333	1573.533203	902.876709
19464.492128	16974.743333	1572.488281	748.975647
19464.492128	16974.743333	1571.443359	732.359680
19464.492128	16974.743333	1570.397461	830.082825
19464.492128	16974.743333	1569.351563	790.674255
19464.492128	16974.743333	1568.305664	749.035095
19464.492128	16974.743333	1567.259766	787.415771
19464.492128	16974.743333	1566.213867	707.041565
19464.492128	16974.743333	1565.166992	834.560242
19464.492128	16974.743333	1564.120117	783.971619
19464.492128	16974.743333	1563.073242	986.840759
19464.492128	16974.743333	1562.026367	680.699402
19464.492128	16974.743333	1560.978516	714.730713
19464.492128	16974.743333	1559.930664	1027.133545
19464.492128	16974.743333	1558.883789	944.837036
19464.492128	16974.743333	1557.834961	1006.294128
19464.492128	16974.743333	1556.787109	803.275635
19464.492128	16974.743333	1555.739258	805.554626
19464.492128	16974.743333	1554.690430	810.158142
19464.492128	16974.743333	1553.641602	976.603210
19464.492128	16974.743333	1552.592773	703.306274
19464.492128	16974.743333	1551.542969	1067.978271
19464.492128	16974.743333	1550.494141	895.075989
19464.492128	16974.743333	1549.444336	1002.362366
19464.492128	16974.743333	1548.394531	925.254578
19464.492128	16974.743333	1547.344727	989.344849
19464.492128	16974.743333	1546.293945	1085.320801
19464.492128	16974.743333	1545.244141	1197.236450
19464.492128	16974.743333	1544.193359	1086.232178
19464.492128	16974.743333	1543.142578	1202.756104
19464.492128	16974.743333	1542.090820	1171.482300
19464.492128	16974.743333	1541.040039	1201.659668
19464.492128	16974.743333	1539.988281	988.667297
19464.492128	16974.743333	1538.936523	1116.693237
19464.492128	16974.743333	1537.884766	901.638367
19464.492128	16974.743333	1536.833008	1152.409424
19464.492128	16974.743333	1535.780273	948.899353
19464.492128	16974.743333	1534.727539	1208.757202
19464.492128	16974.743333	1533.674805	735.262512
19464.492128	16974.743333	1532.622070	713.712646
19464.492128	16974.743333	1531.569336	537.906799
19464.492128	16974.743333	1530.515625	648.117310
19464.492128	16974.743333	1529.461914	951.166504
19464.492128	16974.743333	1528.408203	657.654358
19464.492128	16974.743333	1527.354492	475.430908
19464.492128	16974.743333	1526.299805	758.106506
19464.492128	16974.743333	1525.246094	365.250610
19464.492128	16974.743333	1524.191406	301.218475
19464.492128	16974.743333	1523.136719	153.437500
19464.492128	16974.743333	1522.081055	26.164783
19464.492128	16974.743333	1521.026367	333.867737
19464.492128	16974.743333	1519.970703	247.493835
19464.492128	16974.743333	1518.915039	224.608917
19464.492128	16974.743333	1517.859375	380.617615
19464.492128	16974.743333	1516.802734	194.896408
19464.492128	16974.743333	1515.747070	115.658211
19464.492128	16974.743333	1514.690430	-35.875549
19464.492128	16974.743333	1513.633789	246.975906
19464.492128	16974.743333	1512.577148	100.126953
19464.492128	16974.743333	1511.519531	132.010986
19464.492128	16974.743333	1510.461914	358.347626
19464.492128	16974.743333	1509.405273	171.078949
19464.492128	16974.743333	1508.346680	-27.344713
19464.492128	16974.743333	1507.289063	31.911997
19464.492128	16974.743333	1506.231445	21.194674
19464.492128	16974.743333	1505.172852	193.462433
19464.492128	16974.743333	1504.114258	74.479454
19464.492128	16974.743333	1503.055664	43.646343
19464.492128	16974.743333	1501.996094	-176.681107
19464.492128	16974.743333	1500.937500	160.477707
19464.492128	16974.743333	1499.877930	-140.863098
19464.492128	16974.743333	1498.818359	94.794662
19464.492128	16974.743333	1497.757813	-34.890274
19464.492128	16974.743333	1496.698242	-207.293289
19464.492128	16974.743333	1495.637695	-50.450596
19464.492128	16974.743333	1494.577148	153.729492
19464.492128	16974.743333	1493.516602	-306.817322
19464.492128	16974.743333	1492.456055	-116.045914
19464.492128	16974.743333	1491.394531	-132.494476
19464.492128	16974.743333	1490.333008	134.875641
19464.492128	16974.743333	1489.271484	-14.314325
19464.492128	16974.743333	1488.209961	-32.812256
19464.492128	16974.743333	1487.148438	90.551910
19464.492128	16974.743333	1486.085938	11.431702
19464.492128	16974.743333	1485.023438	44.896645
19464.492128	16974.743333	1483.960938	-139.754303
19464.492128	16974.743333	1482.898438	-155.603058
19464.492128	16974.743333	1481.834961	-47.708759
19464.492128	16974.743333	1480.772461	217.558990
19464.492128	16974.743333	1479.708984	-76.799011
19464.492128	16974.743333	1478.644531	-245.143784
19464.492128	16974.743333	1477.581055	-47.134449
19464.492128	16974.743333	1476.517578	34.003956
19464.492128	16974.743333	1475.453125	-77.896713
19464.492128	16974.743333	1474.388672	-120.000069
19464.492128	16974.743333	1473.323242	44.262177
19464.492128	16974.743333	1472.258789	44.995857
19464.492128	16974.743333	1471.193359	-59.697586
19464.492128	16974.743333	1470.127930	293.068726
19464.492128	16974.743333	1469.062500	42.744019
19464.492128	16974.743333	1467.997070	283.506073
19464.492128	16974.743333	1466.930664	326.771210
19464.492128	16974.743333	1465.865234	101.855354
19464.492128	16974.743333	1464.798828	373.837250
19464.492128	16974.743333	1463.731445	234.197586
19464.492128	16974.743333	1462.665039	559.320190
19464.492128	16974.743333	1461.597656	97.532310
19464.492128	16974.743333	1460.530273	361.011139
19464.492128	16974.743333	1459.462891	338.041779
19464.492128	16974.743333	1458.395508	251.479736
19464.492128	16974.743333	1457.327148	50.099236
19464.492128	16974.743333	1456.259766	212.433701
19464.492128	16974.743333	1455.191406	261.639221
19464.492128	16974.743333	1454.123047	357.277344
19464.492128	16974.743333	1453.053711	182.210510
19464.492128	16974.743333	1451.985352	238.123871
19464.492128	16974.743333	1450.916016	115.125214
19464.492128	16974.743333	1449.846680	151.139069
19464.492128	16974.743333	1448.776367	165.895294
19464.492128	16974.743333	1447.707031	62.351940
19464.492128	16974.743333	1446.636719	315.867279
19464.492128	16974.743333	1445.566406	86.469109
19464.492128	16974.743333	1444.496094	36.590874
19464.492128	16974.743333	1443.425781	-125.546837
19464.492128	16974.743333	1442.354492	189.516647
19464.492128	16974.743333	1441.283203	79.568581
19464.492128	16974.743333	1440.211914	33.425213
19464.492128	16974.743333	1439.140625	-20.243675
19464.492128	16974.743333	1438.069336	170.678955
19464.492128	16974.743333	1436.997070	67.027107
19464.492128	16974.743333	1435.924805	75.974388
19464.492128	16974.743333	1434.852539	190.815552
19464.492128	16974.743333	1433.780273	235.007446
19464.492128	16974.743333	1432.707031	-74.516052
19464.492128	16974.743333	1431.633789	9.644916
19464.492128	16974.743333	1430.560547	9.687422
19464.492128	16974.743333	1429.487305	32.078064
19464.492128	16974.743333	1428.413086	161.647430
19464.492128	16974.743333	1427.339844	27.694708
19464.492128	16974.743333	1426.265625	148.254395
19464.492128	16974.743333	1425.191406	55.223965
19464.492128	16974.743333	1424.116211	86.541672
19464.492128	16974.743333	1423.041992	-14.280931
19464.492128	16974.743333	1421.966797	-11.978411
19464.492128	16974.743333	1420.891602	137.774185
19464.492128	16974.743333	1419.816406	98.511757
19464.492128	16974.743333	1418.740234	109.977516
19464.492128	16974.743333	1417.665039	2.227282
19464.492128	16974.743333	1416.588867	37.657948
19464.492128	16974.743333	1415.512695	11.371471
19464.492128	16974.743333	1414.435547	94.595657
19464.492128	16974.743333	1413.359375	-107.981377
19464.492128	16974.743333	1412.282227	73.096336
19464.492128	16974.743333	1411.205078	101.022255
19464.492128	16974.743333	1410.127930	73.540237
19464.492128	16974.743333	1409.049805	117.526802
19464.492128	16974.743333	1407.972656	287.409668
19464.492128	16974.743333	1406.894531	68.157074
19464.492128	16974.743333	1405.816406	-7.375702
19464.492128	16974.743333	1404.737305	175.949799
19464.492128	16974.743333	1403.659180	222.691650
19464.492128	16974.743333	1402.580078	220.312698
19464.492128	16974.743333	1401.500977	235.810516
19464.492128	16974.743333	1400.421875	279.448456
19464.492128	16974.743333	1399.341797	-145.875015
19464.492128	16974.743333	1398.262695	194.411240
19464.492128	16974.743333	1397.182617	319.374176
19464.492128	16974.743333	1396.102539	110.020775
19464.492128	16974.743333	1395.021484	405.909912
19464.492128	16974.743333	1393.941406	344.315430
19464.492128	16974.743333	1392.860352	334.548737
19464.492128	16974.743333	1391.779297	224.360825
19464.492128	16974.743333	1390.698242	271.546173
19464.492128	16974.743333	1389.616211	326.339722
19464.492128	16974.743333	1388.535156	254.987320
19464.492128	16974.743333	1387.453125	41.955284
19464.492128	16974.743333	1386.371094	387.357513
19464.492128	16974.743333	1385.288086	345.419373
19464.492128	16974.743333	1384.206055	301.290527
19464.492128	16974.743333	1383.123047	76.754135
19464.492128	16974.743333	1382.040039	464.710999
19464.492128	16974.743333	1380.957031	424.688019
19464.492128	16974.743333	1379.873047	583.422485
19464.492128	16974.743333	1378.789063	391.730988
19464.492128	16974.743333	1377.705078	505.005707
19464.492128	16974.743333	1376.621094	547.724731
19464.492128	16974.743333	1375.537109	390.725403
19464.492128	16974.743333	1374.452148	546.969971
19464.492128	16974.743333	1373.367188	373.387939
19464.492128	16974.743333	1372.282227	283.676239
19464.492128	16974.743333	1371.197266	393.146820
19464.492128	16974.743333	1370.112305	281.432068
19464.492128	16974.743333	1369.026367	269.613464
19464.492128	16974.743333	1367.940430	341.171112
19464.492128	16974.743333	1366.854492	127.003044
19464.492128	16974.743333	1365.767578	388.290436
19464.492128	16974.743333	1364.681641	525.626526
19464.492128	16974.743333	1363.594727	281.946442
19464.492128	16974.743333	1362.507813	608.952820
19464.492128	16974.743333	1361.419922	399.760620
19464.492128	16974.743333	1360.333008	274.085724
19464.492128	16974.743333	1359.245117	565.070740
19464.492128	16974.743333	1358.157227	660.724670
19464.492128	16974.743333	1357.069336	331.183655
19464.492128	16974.743333	1355.981445	567.533264
19464.492128	16974.743333	1354.892578	473.929596
19464.492128	16974.743333	1353.803711	487.487030
19464.492128	16974.743333	1352.714844	595.218689
19464.492128	16974.743333	1351.625000	619.353210
19464.492128	16974.743333	1350.536133	517.898621
19464.492128	16974.743333	1349.446289	497.672089
19464.492128	16974.743333	1348.356445	621.270081
19464.492128	16974.743333	1347.266602	398.440186
19464.492128	16974.743333	1346.175781	503.625946
19464.492128	16974.743333	1345.085938	392.700348
19464.492128	16974.743333	1343.995117	467.406616
19464.492128	16974.743333	1342.903320	493.068542
19464.492128	16974.743333	1341.812500	510.545166
19464.492128	16974.743333	1340.720703	574.497925
19464.492128	16974.743333	1339.629883	368.131409
19464.492128	16974.743333	1338.538086	373.767334
19464.492128	16974.743333	1337.445313	180.143539
19464.492128	16974.743333	1336.353516	293.519104
19464.492128	16974.743333	1335.260742	321.815552
19464.492128	16974.743333	1334.167969	172.201172
19464.492128	16974.743333	1333.075195	347.435181
19464.492128	16974.743333	1331.981445	484.856171
19464.492128	16974.743333	1330.888672	423.447449
19464.492128	16974.743333	1329.794922	201.316406
19464.492128	16974.743333	1328.701172	428.517914
19464.492128	16974.743333	1327.606445	500.933624
19464.492128	16974.743333	1326.512695	328.593475
19464.492128	16974.743333	1325.417969	421.833618
19464.492128	16974.743333	1324.323242	356.408020
19464.492128	16974.743333	1323.227539	459.991425
19464.492128	16974.743333	1322.132813	654.222839
19464.492128	16974.743333	1321.037109	441.733673
19464.492128	16974.743333	1319.941406	597.111694
19464.492128	16974.743333	1318.845703	611.944153
19464.492128	16974.743333	1317.750000	425.259857
19464.492128	16974.743333	1316.653320	577.430908
19464.492128	16974.743333	1315.556641	476.752106
19464.492128	16974.743333	1314.459961	724.515747
19464.492128	16974.743333	1313.363281	642.326782
19464.492128	16974.743333	1312.265625	593.709778
19464.492128	16974.743333	1311.167969	544.385132
19464.492128	16974.743333	1310.070313	546.117920
19464.492128	16974.743333	1308.972656	681.118469
19464.492128	16974.743333	1307.874023	423.958374
19464.492128	16974.743333	1306.776367	534.258423
19464.492128	16974.743333	1305.677734	456.484558
19464.492128	16974.743333	1304.579102	588.070007
19464.492128	16974.743333	1303.479492	312.543335
19464.492128	16974.743333	1302.380859	396.949097
19464.492128	16974.743333	1301.281250	319.618622
19464.492128	16974.743333	1300.181641	238.412735
19464.492128	16974.743333	1299.081055	382.002716
19464.492128	16974.743333	1297.981445	268.108734
19464.492128	16974.743333	1296.880859	508.208740
19464.492128	16974.743333	1295.780273	580.538513
19464.492128	16974.743333	1294.679688	396.800537
19464.492128	16974.743333	1293.578125	479.379150
19464.492128	16974.743333	1292.476563	368.386963
19464.492128	16974.743333	1291.375000	296.038300
19464.492128	16974.743333	1290.273438	415.699768
19464.492128	16974.743333	1289.171875	169.782867
19464.492128	16974.743333	1288.069336	259.519623
19464.492128	16974.743333	1286.966797	212.393723
19464.492128	16974.743333	1285.864258	414.851868
19464.492128	16974.743333	1284.761719	188.067322
19464.492128	16974.743333	1283.658203	334.904938
19464.492128	16974.743333	1282.554688	253.801468
19464.492128	16974.743333	1281.451172	396.365784
19464.492128	16974.743333	1280.347656	227.896088
19464.492128	16974.743333	1279.244141	273.305939
19464.492128	16974.743333	1278.139648	155.309799
19464.492128	16974.743333	1277.035156	228.667694
19464.492128	16974.743333	1275.930664	98.627090
19464.492128	16974.743333	1274.825195	93.480644
19464.492128	16974.743333	1273.720703	142.099411
19464.492128	16974.743333	1272.615234	16.757746
19464.492128	16974.743333	1271.508789	-90.540016
19464.492128	16974.743333	1270.403320	34.390636
19464.492128	16974.743333	1269.297852	-92.826561
19464.492128	16974.743333	1268.191406	-22.038586
19464.492128	16974.743333	1267.084961	-1.446411
19464.492128	16974.743333	1265.977539	-87.027855
19464.492128	16974.743333	1264.871094	-108.352333
19464.492128	16974.743333	1263.763672	-68.904228
19464.492128	16974.743333	1262.656250	-81.415779
19464.492128	16974.743333	1261.548828	-11.867978
19464.492128	16974.743333	1260.440430	15.597306
19464.492128	16974.743333	1259.333008	169.182159
19464.492128	16974.743333	1258.224609	-80.297020
19464.492128	16974.743333	1257.115234	85.229561
19464.492128	16974.743333	1256.006836	3.756974
19464.492128	16974.743333	1254.897461	169.493210
19464.492128	16974.743333	1253.788086	179.113297
19464.492128	16974.743333	1252.678711	-104.499496
19464.492128	16974.743333	1251.569336	-73.664993
19464.492128	16974.743333	1250.458984	-25.488953
19464.492128	16974.743333	1249.349609	148.262054
19464.492128	16974.743333	1248.239258	-2.160075
19464.492128	16974.743333	1247.127930	46.865253
19464.492128	16974.743333	1246.017578	69.170120
19464.492128	16974.743333	1244.906250	136.093323
19464.492128	16974.743333	1243.794922	0.525781
19464.492128	16974.743333	1242.683594	-25.458786
19464.492128	16974.743333	1241.571289	164.187180
19464.492128	16974.743333	1240.459961	87.635696
19464.492128	16974.743333	1239.347656	85.262604
19464.492128	16974.743333	1238.234375	-159.318329
19464.492128	16974.743333	1237.122070	109.062065
19464.492128	16974.743333	1236.008789	157.563736
19464.492128	16974.743333	1234.896484	277.136169
19464.492128	16974.743333	1233.782227	59.122051
19464.492128	16974.743333	1232.668945	138.111389
19464.492128	16974.743333	1231.555664	-59.785812
19464.492128	16974.743333	1230.441406	-7.931236
19464.492128	16974.743333	1229.327148	-9.729715
19464.492128	16974.743333	1228.211914	-85.770515
19464.492128	16974.743333	1227.097656	-106.951622
19464.492128	16974.743333	1225.982422	-153.147415
19464.492128	16974.743333	1224.867188	-20.832003
19464.492128	16974.743333	1223.751953	-104.739197
19464.492128	16974.743333	1222.635742	-96.244453
19464.492128	16974.743333	1221.520508	-69.446770
19464.492128	16974.743333	1220.404297	9.662164
19464.492128	16974.743333	1219.287109	-130.255020
19464.492128	16974.743333	1218.170898	50.974251
19464.492128	16974.743333	1217.053711	194.057434
19464.492128	16974.743333	1215.936523	-46.051689
19464.492128	16974.743333	1214.819336	-51.541016
19464.492128	16974.743333	1213.702148	-98.192169
19464.492128	16974.743333	1212.583984	46.500134
19464.492128	16974.743333	1211.465820	258.951691
19464.492128	16974.743333	1210.347656	31.782227
19464.492128	16974.743333	1209.229492	54.998230
19464.492128	16974.743333	1208.110352	37.654732
19464.492128	16974.743333	1206.992188	55.314373
19464.492128	16974.743333	1205.873047	222.048523
19464.492128	16974.743333	1204.752930	-88.223305
19464.492128	16974.743333	1203.633789	-152.546738
19464.492128	16974.743333	1202.513672	-36.461838
19464.492128	16974.743333	1201.393555	-26.579958
19464.492128	16974.743333	1200.273438	-41.612366
19464.492128	16974.743333	1199.152344	20.408932
19464.492128	16974.743333	1198.032227	39.764713
19464.492128	16974.743333	1196.911133	-79.002274
19464.492128	16974.743333	1195.790039	-89.496399
19464.492128	16974.743333	1194.667969	118.969978
19464.492128	16974.743333	1193.545898	71.732956
19464.492128	16974.743333	1192.424805	-47.643723
19464.492128	16974.743333	1191.301758	35.627022
19464.492128	16974.743333	1190.179688	165.059265
19464.492128	16974.743333	1189.056641	26.548027
19464.492128	16974.743333	1187.933594	-83.447418
19464.492128	16974.743333	1186.810547	-62.900009
19464.492128	16974.743333	1185.687500	70.752487
19464.492128	16974.743333	1184.563477	108.972939
19464.492128	16974.743333	1183.440430	29.931461
19464.492128	16974.743333	1182.316406	-12.225258
19464.492128	16974.743333	1181.191406	113.464363
19464.492128	16974.743333	1180.067383	168.719452
19464.492128	16974.743333	1178.942383	68.958015
19464.492128	16974.743333	1177.817383	-18.380884
19464.492128	16974.743333	1176.692383	-54.694946
19464.492128	16974.743333	1175.566406	-33.938469
19464.492128	16974.743333	1174.440430	81.823776
19464.492128	16974.743333	1173.314453	82.990013
19464.492128	16974.743333	1172.188477	34.727009
19464.492128	16974.743333	1171.062500	-7.065053
19464.492128	16974.743333	1169.935547	-7.542736
19464.492128	16974.743333	1168.808594	20.546738
19464.492128	16974.743333	1167.681641	185.001999
19464.492128	16974.743333	1166.553711	175.113678
19464.492128	16974.743333	1165.426758	72.082138
19464.492128	16974.743333	1164.298828	-11.330518
19464.492128	16974.743333	1163.170898	79.000725
19464.492128	16974.743333	1162.041992	-164.134583
19464.492128	16974.743333	1160.914063	-35.294613
19464.492128	16974.743333	1159.785156	-28.278996
19464.492128	16974.743333	1158.656250	-28.705751
19464.492128	16974.743333	1157.526367	-9.409442
19464.492128	16974.743333	1156.397461	-87.459709
19464.492128	16974.743333	1155.267578	-123.061676
19464.492128	16974.743333	1154.137695	-159.362518
19464.492128	16974.743333	1153.006836	-187.926392
19464.492128	16974.743333	1151.876953	-141.677170
19464.492128	16974.743333	1150.746094	25.426865
19464.492128	16974.743333	1149.615234	174.946686
19464.492128	16974.743333	1148.484375	38.695675
19464.492128	16974.743333	1147.352539	-147.829926
19464.492128	16974.743333	1146.220703	-36.559273
19464.492128	16974.743333	1145.088867	121.898163
19464.492128	16974.743333	1143.957031	87.180962
19464.492128	16974.743333	1142.825195	-65.722687
19464.492128	16974.743333	1141.692383	19.617914
19464.492128	16974.743333	1140.559570	157.544296
19464.492128	16974.743333	1139.426758	-27.718029
19464.492128	16974.743333	1138.292969	25.953941
19464.492128	16974.743333	1137.159180	42.685047
19464.492128	16974.743333	1136.025391	256.868774
19464.492128	16974.743333	1134.891602	42.189659
19464.492128	16974.743333	1133.757813	14.272626
19464.492128	16974.743333	1132.623047	76.274727
19464.492128	16974.743333	1131.488281	45.644234
19464.492128	16974.743333	1130.353516	-20.126711
19464.492128	16974.743333	1129.217773	211.981171
19464.492128	16974.743333	1128.083008	160.194824
19464.492128	16974.743333	1126.947266	57.939514
19464.492128	16974.743333	1125.811523	70.663704
19464.492128	16974.743333	1124.674805	-16.340014
19464.492128	16974.743333	1123.539063	30.028633
19464.492128	16974.743333	1122.402344	4.209327
19464.492128	16974.743333	1121.265625	-35.398167
19464.492128	16974.743333	1120.127930	-40.403702
19464.492128	16974.743333	1118.990234	26.046659
19464.492128	16974.743333	1117.853516	91.599953
19464.492128	16974.743333	1116.714844	147.808273
19464.492128	16974.743333	1115.577148	216.781677
19464.492128	16974.743333	1114.439453	216.593857
19464.492128	16974.743333	1113.300781	217.384781
19464.492128	16974.743333	1112.162109	255.472488
19464.492128	16974.743333	1111.022461	57.749825
19464.492128	16974.743333	1109.883789	56.008312
19464.492128	16974.743333	1108.744141	214.514069
19464.492128	16974.743333	1107.604492	73.273743
19464.492128	16974.743333	1106.463867	228.923233
19464.492128	16974.743333	1105.324219	258.194763
19464.492128	16974.743333	1104.183594	211.742889
19464.492128	16974.743333	1103.042969	158.452316
19464.492128	16974.743333	1101.902344	268.269409
19464.492128	16974.743333	1100.760742	151.676605
19464.492128	16974.743333	1099.619141	155.596848
19464.492128	16974.743333	1098.477539	150.142471
19464.492128	16974.743333	1097.335938	151.722778
19464.492128	16974.743333	1096.193359	272.377716
19464.492128	16974.743333	1095.051758	244.584229
19464.492128	16974.743333	1093.909180	148.593033
19464.492128	16974.743333	1092.765625	52.961754
19464.492128	16974.743333	1091.623047	93.985901
19464.492128	16974.743333	1090.479492	309.341766
19464.492128	16974.743333	1089.335938	215.162567
19464.492128	16974.743333	1088.192383	201.009918
19464.492128	16974.743333	1087.047852	413.954803
19464.492128	16974.743333	1085.903320	207.260406
19464.492128	16974.743333	1084.758789	114.580154
19464.492128	16974.743333	1083.614258	132.483521
19464.492128	16974.743333	1082.469727	319.365143
19464.492128	16974.743333	1081.324219	139.993179
19464.492128	16974.743333	1080.178711	100.969810
19464.492128	16974.743333	1079.033203	36.974861
19464.492128	16974.743333	1077.886719	39.769535
19464.492128	16974.743333	1076.740234	0.716881
19464.492128	16974.743333	1075.593750	119.445953
19464.492128	16974.743333	1074.447266	87.447128
19464.492128	16974.743333	1073.300781	42.841660
19464.492128	16974.743333	1072.153320	-108.203133
19464.492128	16974.743333	1071.005859	41.607597
19464.492128	16974.743333	1069.858398	170.835541
19464.492128	16974.743333	1068.709961	13.478979
19464.492128	16974.743333	1067.561523	214.951035
19464.492128	16974.743333	1066.413086	-78.659264
19464.492128	16974.743333	1065.264648	189.112137
19464.492128	16974.743333	1064.116211	237.526123
19464.492128	16974.743333	1062.966797	14.065261
19464.492128	16974.743333	1061.817383	176.257065
19464.492128	16974.743333	1060.667969	184.597809
19464.492128	16974.743333	1059.517578	30.976210
19464.492128	16974.743333	1058.368164	183.972778
19464.492128	16974.743333	1057.217773	229.839355
19464.492128	16974.743333	1056.067383	216.151443
19464.492128	16974.743333	1054.916016	52.396320
19464.492128	16974.743333	1053.764648	60.463024
19464.492128	16974.743333	1052.613281	210.793167
19464.492128	16974.743333	1051.461914	277.987518
19464.492128	16974.743333	1050.310547	260.972076
19464.492128	16974.743333	1049.158203	-6.939884
19464.492128	16974.743333	1048.005859	105.726791
19464.492128	16974.743333	1046.853516	124.571907
19464.492128	16974.743333	1045.700195	155.524902
19464.492128	16974.743333	1044.547852	75.310509
19464.492128	16974.743333	1043.394531	78.615486
19464.492128	16974.743333	1042.240234	108.305199
19464.492128	16974.743333	1041.086914	54.995167
19464.492128	16974.743333	1039.932617	178.569275
19464.492128	16974.743333	1038.778320	23.192318
19464.492128	16974.743333	1037.624023	80.872337
19464.492128	16974.743333	1036.469727	300.569489
19464.492128	16974.743333	1035.314453	303.626129
19464.492128	16974.743333	1034.159180	312.524475
19464.492128	16974.743333	1033.003906	512.133972
19464.492128	16974.743333	1031.847656	324.824127
19464.492128	16974.743333	1030.692383	279.867188
19464.492128	16974.743333	1029.536133	441.891724
19464.492128	16974.743333	1028.378906	337.290436
19464.492128	16974.743333	1027.222656	358.500763
19464.492128	16974.743333	1026.065430	55.640377
19464.492128	16974.743333	1024.908203	14.621445
19464.492128	16974.743333	1023.750977	89.577003
19464.492128	16974.743333	1022.593750	21.100060
19464.492128	16974.743333	1021.435547	161.655685
19464.492128	16974.743333	1020.277344	5.481361
19464.492128	16974.743333	1019.119141	89.338036
19464.492128	16974.743333	1017.959961	117.504219
19464.492128	16974.743333	1016.800781	51.006493
19464.492128	16974.743333	1015.641602	0.077505
19464.492128	16974.743333	1014.482422	148.101273
19464.492128	16974.743333	1013.323242	184.849487
19464.492128	16974.743333	1012.163086	233.883774
19464.492128	16974.743333	1011.002930	11.655600
19464.492128	16974.743333	1009.842773	-75.580887
19464.492128	16974.743333	1008.681641	201.425293
19464.492128	16974.743333	1007.520508	78.960678
19464.492128	16974.743333	1006.359375	197.731522
19464.492128	16974.743333	1005.198242	86.223396
19464.492128	16974.743333	1004.037109	-145.810532
19464.492128	16974.743333	1002.875000	-31.640884
19464.492128	16974.743333	1001.712891	161.497482
19464.492128	16974.743333	1000.550781	8.525694
19464.492128	16974.743333	999.387695	-138.138443
19464.492128	16974.743333	998.224609	-12.448490
19464.492128	16974.743333	997.061523	31.787174
19464.492128	16974.743333	995.898438	-36.101162
19464.492128	16974.743333	994.734375	-178.761185
19464.492128	16974.743333	993.571289	-48.089298
19464.492128	16974.743333	992.407227	-63.183834
19464.492128	16974.743333	991.242188	-151.214554
19464.492128	16974.743333	990.078125	-91.835594
19464.492128	16974.743333	988.913086	19.984505
19464.492128	16974.743333	987.748047	-110.252602
19464.492128	16974.743333	986.583008	-39.597488
19464.492128	16974.743333	985.416992	-123.354240
19464.492128	16974.743333	984.250977	-23.462566
19464.492128	16974.743333	983.084961	-44.496483
19464.492128	16974.743333	981.918945	16.024673
19464.492128	16974.743333	980.751953	-78.153450
19464.492128	16974.743333	979.584961	82.193565
19464.492128	16974.743333	978.417969	-48.128429
19464.492128	16974.743333	977.250977	83.574112
19464.492128	16974.743333	976.083008	-39.051868
19464.492128	16974.743333	974.915039	-30.359037
19464.492128	16974.743333	973.747070	-152.530823
19464.492128	16974.743333	972.579102	67.816757
19464.492128	16974.743333	971.410156	-4.299315
19464.492128	16974.743333	970.242188	44.582581
19464.492128	16974.743333	969.072266	-82.593399
19464.492128	16974.743333	967.903320	76.408615
19464.492128	16974.743333	966.733398	73.737587
19464.492128	16974.743333	965.563477	106.471619
19464.492128	16974.743333	964.393555	166.593277
19464.492128	16974.743333	963.223633	-61.326973
19464.492128	16974.743333	962.052734	42.782421
19464.492128	16974.743333	960.881836	-43.926186
19464.492128	16974.743333	959.710938	66.711411
19464.492128	16974.743333	958.540039	62.465858
19464.492128	16974.743333	957.368164	81.839302
19464.492128	16974.743333	956.196289	262.554443
19464.492128	16974.743333	955.024414	-150.205933
19464.492128	16974.743333	953.851563	65.636398
19464.492128	16974.743333	952.679688	212.290512
19464.492128	16974.743333	951.506836	-204.695587
19464.492128	16974.743333	950.333984	46.097145
19464.492128	16974.743333	949.160156	9.638507
19464.492128	16974.743333	947.986328	102.717682
19464.492128	16974.743333	946.812500	7.246895
19464.492128	16974.743333	945.638672	19.874678
19464.492128	16974.743333	944.464844	15.711486
19464.492128	16974.743333	943.290039	50.923336
19464.492128	16974.743333	942.115234	86.752579
19464.492128	16974.743333	940.940430	59.837975
19464.492128	16974.743333	939.764648	-131.278534
19464.492128	16974.743333	938.588867	74.822197
19464.492128	16974.743333	937.413086	51.945900
19464.492128	16974.743333	936.237305	58.052605
19464.492128	16974.743333	935.060547	-172.708374
19464.492128	16974.743333	933.883789	-49.957912
19464.492128	16974.743333	932.707031	118.518890
19464.492128	16974.743333	931.530273	-29.058180
19464.492128	16974.743333	930.352539	149.657379
19464.492128	16974.743333	929.175781	186.997116
19464.492128	16974.743333	927.998047	53.991871
19464.492128	16974.743333	926.819336	-41.583946
19464.492128	16974.743333	925.641602	97.533875
19464.492128	16974.743333	924.462891	165.996216
19464.492128	16974.743333	923.284180	-33.413456
19464.492128	16974.743333	922.104492	192.805588
19464.492128	16974.743333	920.924805	68.175102
19464.492128	16974.743333	919.746094	74.864380
19464.492128	16974.743333	919.551758	-140.400101
19464.492128	16974.743333	918.386719	-55.482632
19464.492128	16974.743333	917.220703	35.616577
19464.492128	16974.743333	916.054688	-22.647062
19464.492128	16974.743333	914.887695	-39.424313
19464.492128	16974.743333	913.721680	-118.401962
19464.492128	16974.743333	912.554688	-280.253632
19464.492128	16974.743333	911.387695	-207.902771
19464.492128	16974.743333	910.220703	63.288280
19464.492128	16974.743333	909.052734	205.945038
19464.492128	16974.743333	907.885742	-40.793011
19464.492128	16974.743333	906.717773	-70.042000
19464.492128	16974.743333	905.548828	-30.975822
19464.492128	16974.743333	904.380859	61.866337
19464.492128	16974.743333	903.211914	86.381943
19464.492128	16974.743333	902.042969	-106.341690
19464.492128	16974.743333	900.874023	118.800858
19464.492128	16974.743333	899.704102	-96.616776
19464.492128	16974.743333	898.535156	-14.247938
19464.492128	16974.743333	897.365234	-109.686516
19464.492128	16974.743333	896.194336	38.768562
19464.492128	16974.743333	895.024414	-5.010610
19464.492128	16974.743333	893.853516	-40.517414
19464.492128	16974.743333	892.682617	190.410721
19464.492128	16974.743333	891.511719	-33.056381
19464.492128	16974.743333	890.340820	-33.477406
19464.492128	16974.743333	889.168945	7.377391
19464.492128	16974.743333	887.997070	172.022171
19464.492128	16974.743333	886.825195	-102.886932
19464.492128	16974.743333	885.653320	154.514236
19464.492128	16974.743333	884.480469	125.126236
19464.492128	16974.743333	883.307617	-75.408798
19464.492128	16974.743333	882.134766	-100.641785
19464.492128	16974.743333	880.961914	-16.637302
19464.492128	16974.743333	879.788086	203.332291
19464.492128	16974.743333	878.614258	46.160149
19464.492128	16974.743333	877.440430	64.129311
19464.492128	16974.743333	876.266602	9.994510
19464.492128	16974.743333	875.091797	34.116146
19464.492128	16974.743333	873.916992	-172.352859
19464.492128	16974.743333	872.742188	152.264114
19464.492128	16974.743333	871.567383	-0.672777
19464.492128	16974.743333	870.391602	-50.688942
19464.492128	16974.743333	869.215820	-18.422426
19464.492128	16974.743333	868.040039	-121.916382
19464.492128	16974.743333	866.864258	-67.063568
19464.492128	16974.743333	865.687500	22.702312
19464.492128	16974.743333	864.510742	21.982513
19464.492128	16974.743333	863.333984	181.524887
19464.492128	16974.743333	862.157227	88.291138
19464.492128	16974.743333	860.979492	200.483246
19464.492128	16974.743333	859.802734	166.803070
19464.492128	16974.743333	858.625000	-41.393127
19464.492128	16974.743333	857.446289	-21.664188
19464.492128	16974.743333	856.268555	12.399838
19464.492128	16974.743333	855.089844	-25.380043
19464.492128	16974.743333	853.911133	57.873890
19464.492128	16974.743333	852.731445	190.305847
19464.492128	16974.743333	851.552734	62.229221
19464.492128	16974.743333	850.373047	-26.855436
19464.492128	16974.743333	849.193359	-101.574265
19464.492128	16974.743333	848.013672	-192.676544
19464.492128	16974.743333	846.833008	-21.492758
19464.492128	16974.743333	845.652344	45.125397
19464.492128	16974.743333	844.471680	-172.989319
19464.492128	16974.743333	843.291016	-106.408478
19464.492128	16974.743333	842.110352	109.573730
19464.492128	16974.743333	840.928711	-26.605734
19464.492128	16974.743333	839.747070	35.751320
19464.492128	16974.743333	838.564453	167.628693
19464.492128	16974.743333	837.382813	2.817715
19464.492128	16974.743333	836.200195	-20.828039
19464.492128	16974.743333	835.017578	-97.650345
19464.492128	16974.743333	833.834961	177.157150
19464.492128	16974.743333	832.651367	90.063484
19464.492128	16974.743333	831.467773	45.895870
19464.492128	16974.743333	830.284180	40.538776
19464.492128	16974.743333	829.100586	218.996796
19464.492128	16974.743333	827.916992	166.586990
19464.492128	16974.743333	826.732422	150.929657
19464.492128	16974.743333	825.547852	192.412659
19464.492128	16974.743333	824.363281	144.050323
19464.492128	16974.743333	823.177734	220.158157
19464.492128	16974.743333	821.992188	-7.766523
19464.492128	16974.743333	820.806641	98.882393
19464.492128	16974.743333	819.621094	-67.799698
19464.492128	16974.743333	818.434570	63.234066
19464.492128	16974.743333	817.249023	-91.195992
19464.492128	16974.743333	816.062500	131.441650
19464.492128	16974.743333	814.875000	27.952267
19464.492128	16974.743333	813.688477	201.524490
19464.492128	16974.743333	812.500977	-26.236113
19464.492128	16974.743333	811.313477	173.694336
19464.492128	16974.743333	810.125977	119.024467
19464.492128	16974.743333	808.937500	70.458176
19464.492128	16974.743333	807.749023	56.476402
19464.492128	16974.743333	806.560547	97.404999
19464.492128	16974.743333	805.372070	6.061008
19464.492128	16974.743333	804.182617	-22.224854
19464.492128	16974.743333	802.994141	203.635925
19464.492128	16974.743333	801.803711	118.338234
19464.492128	16974.743333	800.614258	128.567368
19464.492128	16974.743333	799.424805	118.437210
19464.492128	16974.743333	798.234375	-5.492157
19464.492128	16974.743333	797.043945	-80.653610
19464.492128	16974.743333	795.852539	4.622236
19464.492128	16974.743333	794.662109	-17.787634
19464.492128	16974.743333	793.470703	-162.020706
19464.492128	16974.743333	792.279297	138.250031
19464.492128	16974.743333	791.087891	144.131668
19464.492128	16974.743333	789.895508	-144.188995
19464.492128	16974.743333	788.703125	-55.159256
19464.492128	16974.743333	787.510742	-29.067545
19464.492128	16974.743333	786.318359	98.350449
19464.492128	16974.743333	785.125000	-31.755680
19464.492128	16974.743333	783.931641	36.764526
19464.492128	16974.743333	782.738281	-26.485746
19464.492128	16974.743333	781.544922	1.412120
19464.492128	16974.743333	780.350586	41.416176
19464.492128	16974.743333	779.156250	-36.084694
19464.492128	16974.743333	777.961914	44.322269
19464.492128	16974.743333	776.767578	94.292992
19464.492128	16974.743333	775.572266	73.376213
19464.492128	16974.743333	774.376953	18.032257
19464.492128	16974.743333	773.181641	-21.147408
19464.492128	16974.743333	771.986328	204.586899
19464.492128	16974.743333	770.790039	17.697880
19464.492128	16974.743333	769.593750	142.169403
19464.492128	16974.743333	768.397461	165.488480
19464.492128	16974.743333	767.201172	85.695801
19464.492128	16974.743333	766.003906	-44.612274
19464.492128	16974.743333	764.806641	-49.674362
19464.492128	16974.743333	763.609375	189.580521
19464.492128	16974.743333	762.412109	30.934317
19464.492128	16974.743333	761.213867	3.524246
19464.492128	16974.743333	760.015625	42.682163
19464.492128	16974.743333	758.817383	87.832588
19464.492128	16974.743333	757.618164	60.295269
19464.492128	16974.743333	756.419922	131.552902
19464.492128	16974.743333	755.220703	59.561615
19464.492128	16974.743333	754.021484	289.974762
19464.492128	16974.743333	752.821289	6.239883
19464.492128	16974.743333	751.621094	302.981110
19464.492128	16974.743333	750.420898	-17.000059
19464.492128	16974.743333	749.220703	11.604733
19464.492128	16974.743333	748.020508	34.108719
19464.492128	16974.743333	746.819336	94.814728
19464.492128	16974.743333	745.618164	-72.042534
19464.492128	16974.743333	744.416992	61.024014
19464.492128	16974.743333	743.214844	226.185257
19464.492128	16974.743333	742.012695	167.904572
19464.492128	16974.743333	740.810547	81.437584
19464.492128	16974.743333	739.608398	318.743103
19464.492128	16974.743333	738.406250	85.400963
19464.492128	16974.743333	737.203125	268.231323
19464.492128	16974.743333	736.000000	316.276917
19464.492128	16974.743333	734.795898	326.073547
19464.492128	16974.743333	733.592773	279.562592
19464.492128	16974.743333	732.388672	214.943924
19464.492128	16974.743333	731.184570	194.481079
19464.492128	16974.743333	729.979492	394.826996
19464.492128	16974.743333	728.775391	181.529846
19464.492128	16974.743333	727.570313	18.443445
19464.492128	16974.743333	726.365234	-136.600067
19464.492128	16974.743333	725.160156	217.907013
19464.492128	16974.743333	723.954102	-81.622810
19464.492128	16974.743333	722.748047	156.319519
19464.492128	16974.743333	721.541992	-38.927231
19464.492128	16974.743333	720.334961	196.797409
19464.492128	16974.743333	719.128906	21.557940
19464.492128	16974.743333	717.921875	-83.535576
19464.492128	16974.743333	716.714844	95.804474
19464.492128	16974.743333	715.506836	156.858536
19464.492128	16974.743333	714.298828	-34.453815
19464.492128	16974.743333	713.090820	-59.584785
19464.492128	16974.743333	711.882813	-2.699441
19464.492128	16974.743333	710.674805	132.148483
19464.492128	16974.743333	709.465820	-35.204079
19464.492128	16974.743333	708.256836	233.500565
19464.492128	16974.743333	707.047852	-99.889931
19464.492128	16974.743333	705.837891	-47.320953
19464.492128	16974.743333	704.627930	21.164566
19464.492128	16974.743333	703.417969	93.564713
19464.492128	16974.743333	702.208008	-69.892929
19464.492128	16974.743333	700.998047	-19.586241
19464.492128	16974.743333	699.787109	154.476715
19464.492128	16974.743333	698.576172	74.814796
19464.492128	16974.743333	697.364258	-170.567429
19464.492128	16974.743333	696.153320	-140.455231
19464.492128	16974.743333	694.941406	107.109634
19464.492128	16974.743333	693.729492	182.933334
19464.492128	16974.743333	692.516602	-12.611514
19464.492128	16974.743333	691.304688	53.127693
19464.492128	16974.743333	690.091797	-36.736809
19464.492128	16974.743333	688.878906	-18.968931
19464.492128	16974.743333	687.665039	8.704186
19464.492128	16974.743333	686.451172	169.818542
19464.492128	16974.743333	685.237305	141.553040
19464.492128	16974.743333	684.023438	214.827820
19464.492128	16974.743333	682.809570	-34.582520
19464.492128	16974.743333	681.594727	62.486351
19464.492128	16974.743333	680.379883	-145.090439
19464.492128	16974.743333	679.165039	-8.339992
19464.492128	16974.743333	677.949219	-42.813900
19464.492128	16974.743333	676.733398	26.118986
19464.492128	16974.743333	675.517578	-22.371132
19464.492128	16974.743333	674.301758	-102.706818
19464.492128	16974.743333	673.084961	-133.358719
19464.492128	16974.743333	671.869141	104.279427
19464.492128	16974.743333	670.651367	103.304703
19464.492128	16974.743333	669.434570	-8.978923
19464.492128	16974.743333	668.216797	105.180145
19464.492128	16974.743333	667.000000	-80.633934
19464.492128	16974.743333	665.781250	-24.185812
19464.492128	16974.743333	664.563477	190.996948
19464.492128	16974.743333	663.344727	124.217453
19464.492128	16974.743333	662.125977	118.930687
19464.492128	16974.743333	660.907227	-84.784798
19464.492128	16974.743333	659.688477	-20.700056
19464.492128	16974.743333	658.468750	-4.281175
19464.492128	16974.743333	657.249023	39.841106
19464.492128	16974.743333	656.029297	151.293228
19464.492128	16974.743333	654.808594	110.057274
19464.492128	16974.743333	653.587891	37.093460
19464.492128	16974.743333	652.367188	334.544861
19464.492128	16974.743333	651.146484	164.432526
19464.492128	16974.743333	649.924805	156.713989
19464.492128	16974.743333	648.704102	99.464928
19464.492128	16974.743333	647.482422	65.947609
19464.492128	16974.743333	646.259766	129.364639
19464.492128	16974.743333	645.037109	370.768341
19464.492128	16974.743333	643.815430	151.162384
19464.492128	16974.743333	642.591797	135.294983
19464.492128	16974.743333	641.369141	208.367325
19464.492128	16974.743333	640.145508	309.042755
19464.492128	16974.743333	638.921875	85.524185
19464.492128	16974.743333	637.698242	182.155045
19464.492128	16974.743333	636.474609	211.542404
19464.492128	16974.743333	635.250000	126.326218
19464.492128	16974.743333	634.025391	124.045509
19464.492128	16974.743333	632.800781	78.296654
19464.492128	16974.743333	631.575195	-6.943534
19464.492128	16974.743333	630.349609	144.622864
19464.492128	16974.743333	629.124023	2.121562
19464.492128	16974.743333	627.898438	121.995621
19464.492128	16974.743333	626.671875	56.405403
19464.492128	16974.743333	625.445313	91.369659
19464.492128	16974.743333	624.218750	23.781708
19464.492128	16974.743333	622.992188	44.880550
19464.492128	16974.743333	621.764648	44.265934
19464.492128	16974.743333	620.537109	130.304398
19464.492128	16974.743333	619.309570	86.283813
19464.492128	16974.743333	618.081055	63.914223
19464.492128	16974.743333	616.852539	136.030029
19464.492128	16974.743333	615.624023	-0.556461
19464.492128	16974.743333	614.395508	-44.616947
19464.492128	16974.743333	613.166992	-9.980719
19464.492128	16974.743333	611.937500	-71.772751
19464.492128	16974.743333	610.708008	-13.593092
19464.492128	16974.743333	609.477539	56.335606
19464.492128	16974.743333	608.248047	25.958090
19464.492128	16974.743333	607.017578	178.356567
19464.492128	16974.743333	605.787109	-60.366772
19464.492128	16974.743333	604.555664	25.149351
19464.492128	16974.743333	603.325195	-75.983200
19464.492128	16974.743333	602.093750	-14.099307
19464.492128	16974.743333	600.861328	90.933647
19464.492128	16974.743333	599.629883	-78.901321
19464.492128	16974.743333	598.397461	-160.367859
19464.492128	16974.743333	597.165039	23.069904
19464.492128	16974.743333	595.932617	188.761398
19464.492128	16974.743333	594.699219	-0.618677
19464.492128	16974.743333	593.465820	-189.930923
19464.492128	16974.743333	592.232422	112.894791
19464.492128	16974.743333	590.999023	-299.821381
19464.492128	16974.743333	589.764648	8.756307
19464.492128	16974.743333	588.530273	-39.374294
19464.492128	16974.743333	587.295898	20.239733
19464.492128	16974.743333	586.061523	-161.054153
19464.492128	16974.743333	584.826172	-142.570602
19464.492128	16974.743333	583.590820	-71.247337
19464.492128	16974.743333	582.355469	-84.113892
19464.492128	16974.743333	581.119141	-204.596268
19464.492128	16974.743333	579.882813	-100.061890
19464.492128	16974.743333	578.646484	-152.040329
19464.492128	16974.743333	577.410156	-356.521088
19464.492128	16974.743333	576.172852	27.537556
19464.492128	16974.743333	574.935547	-172.987747
19464.492128	16974.743333	573.698242	5.682006
19464.492128	16974.743333	572.460938	-149.814835
19464.492128	16974.743333	571.222656	-145.071350
19464.492128	16974.743333	569.984375	-85.646492
19464.492128	16974.743333	568.746094	40.141983
19464.492128	16974.743333	567.506836	-3.952363
19464.492128	16974.743333	566.267578	-46.072536
19464.492128	16974.743333	565.028320	-111.584198
19464.492128	16974.743333	563.789063	158.479980
19464.492128	16974.743333	562.548828	-107.930199
19464.492128	16974.743333	561.309570	4.081133
19464.492128	16974.743333	560.068359	121.896477
19464.492128	16974.743333	558.828125	1.872511
19464.492128	16974.743333	557.586914	-5.066365
19464.492128	16974.743333	556.345703	-10.045820
19464.492128	16974.743333	555.104492	-143.577225
19464.492128	16974.743333	553.863281	-82.293053
19464.492128	16974.743333	552.621094	86.062958
19464.492128	16974.743333	551.378906	-35.697521
19464.492128	16974.743333	550.136719	48.906219
19464.492128	16974.743333	548.893555	94.565918
19464.492128	16974.743333	547.650391	149.942734
19464.492128	16974.743333	546.407227	-2.808935
19464.492128	16974.743333	545.164063	-40.754421
19464.492128	16974.743333	543.919922	164.345749
19464.492128	16974.743333	542.675781	54.480652
19464.492128	16974.743333	541.431641	119.574074
19464.492128	16974.743333	540.186523	114.702309
19464.492128	16974.743333	538.941406	269.127716
19464.492128	16974.743333	537.696289	87.516098
19464.492128	16974.743333	536.451172	61.326229
19464.492128	16974.743333	535.205078	106.980904
19464.492128	16974.743333	533.959961	74.993942
19464.492128	16974.743333	532.712891	79.894043
19464.492128	16974.743333	531.466797	110.021767
19464.492128	16974.743333	530.219727	58.679882
19464.492128	16974.743333	528.972656	174.136093
19464.492128	16974.743333	527.725586	76.285286
19464.492128	16974.743333	526.478516	201.392380
19464.492128	16974.743333	525.230469	272.187378
19464.492128	16974.743333	523.982422	203.455307
19464.492128	16974.743333	522.734375	128.945251
19464.492128	16974.743333	521.485352	-19.125658
19464.492128	16974.743333	520.236328	67.155281
19464.492128	16974.743333	518.987305	35.313305
19464.492128	16974.743333	517.737305	86.705956
19464.492128	16974.743333	516.488281	-82.515381
19464.492128	16974.743333	515.238281	243.588043
19464.492128	16974.743333	513.988281	53.118942
19464.492128	16974.743333	512.737305	42.564400
19464.492128	16974.743333	511.486328	163.473251
19464.492128	16974.743333	510.235352	17.576210
19464.492128	16974.743333	508.984375	470.810944
19464.492128	16974.743333	507.732422	253.394547
19464.492128	16974.743333	506.480469	331.605042
19464.492128	16974.743333	505.228516	261.056549
19464.492128	16974.743333	503.976563	414.497833
19464.492128	16974.743333	502.723633	403.761780
19464.492128	16974.743333	501.470703	346.684601
19464.492128	16974.743333	500.217773	567.468811
19464.492128	16974.743333	498.963867	628.003601
19464.492128	16974.743333	497.709961	700.051636
19464.492128	16974.743333	496.456055	629.334656
19464.492128	16974.743333	495.202148	521.978516
19464.492128	16974.743333	493.947266	734.595459
19464.492128	16974.743333	492.692383	771.708496
19464.492128	16974.743333	491.437500	550.577881
19464.492128	16974.743333	490.181641	732.083923
19464.492128	16974.743333	488.926758	961.604797
19464.492128	16974.743333	487.670898	767.364197
19464.492128	16974.743333	486.414063	827.247620
19464.492128	16974.743333	485.158203	915.909668
19464.492128	16974.743333	483.901367	887.081909
19464.492128	16974.743333	482.644531	987.084412
19464.492128	16974.743333	481.386719	784.989380
19464.492128	16974.743333	480.128906	1207.862793
19464.492128	16974.743333	478.871094	967.180176
19464.492128	16974.743333	477.613281	1064.802856
19464.492128	16974.743333	476.355469	1206.482300
19464.492128	16974.743333	475.096680	1098.221436
19464.492128	16974.743333	473.837891	1230.007324
19464.492128	16974.743333	472.578125	1336.649780
19464.492128	16974.743333	471.319336	1322.160400
19464.492128	16974.743333	470.059570	1292.187256
19464.492128	16974.743333	468.799805	1392.600098
19464.492128	16974.743333	467.539063	1611.790405
19464.492128	16974.743333	466.278320	1353.050781
19464.492128	16974.743333	465.017578	1403.064453
19464.492128	16974.743333	463.756836	1385.776733
19464.492128	16974.743333	462.495117	1414.333496
19464.492128	16974.743333	461.233398	1548.121704
19464.492128	16974.743333	459.971680	1507.276978
19464.492128	16974.743333	458.709961	1648.269043
19464.492128	16974.743333	457.447266	1425.044189
19464.492128	16974.743333	456.184570	1427.686035
19464.492128	16974.743333	454.921875	1579.451538
19464.492128	16974.743333	453.658203	1753.888428
19464.492128	16974.743333	452.394531	1614.137573
19464.492128	16974.743333	451.130859	1701.897705
19464.492128	16974.743333	449.867188	1795.101440
19464.492128	16974.743333	448.602539	1668.038940
19464.492128	16974.743333	447.337891	1798.899536
19464.492128	16974.743333	446.073242	1757.352539
19464.492128	16974.743333	444.807617	1656.263672
19464.492128	16974.743333	443.542969	1703.968384
19464.492128	16974.743333	442.276367	1693.998901
19464.492128	16974.743333	441.010742	1737.188843
19464.492128	16974.743333	439.744141	1634.865723
19464.492128	16974.743333	438.478516	1486.410889
19464.492128	16974.743333	437.210938	1807.221313
19464.492128	16974.743333	435.944336	1881.320068
19464.492128	16974.743333	434.676758	1783.250854
19464.492128	16974.743333	433.409180	1858.408569
19464.492128	16974.743333	432.141602	1683.257080
19464.492128	16974.743333	430.873047	1742.270630
19464.492128	16974.743333	429.604492	2061.980713
19464.492128	16974.743333	428.335938	1868.363892
19464.492128	16974.743333	427.067383	1792.489746
19464.492128	16974.743333	425.797852	1771.385376
19464.492128	16974.743333	424.528320	1972.627319
19464.492128	16974.743333	423.258789	1994.235474
19464.492128	16974.743333	421.988281	1906.744141
19464.492128	16974.743333	420.717773	1891.052124
19464.492128	16974.743333	419.447266	1909.034546
19464.492128	16974.743333	418.175781	1953.025146
19464.492128	16974.743333	416.905273	1918.389771
19464.492128	16974.743333	415.633789	2039.063599
19464.492128	16974.743333	414.362305	1936.547852
19464.492128	16974.743333	413.089844	1937.933472
19464.492128	16974.743333	411.817383	2064.054688
19464.492128	16974.743333	410.544922	1936.662964
19464.492128	16974.743333	409.272461	1713.587646
19464.492128	16974.743333	407.999023	2012.156738
19464.492128	16974.743333	406.725586	1846.449341
19464.492128	16974.743333	405.452148	1985.668823
19464.492128	16974.743333	404.177734	1924.661011
19464.492128	16974.743333	402.903320	1952.010254
19464.492128	16974.743333	401.628906	1906.360718
19464.492128	16974.743333	400.354492	1844.642334
19464.492128	16974.743333	399.079102	2166.984375
19464.492128	16974.743333	397.803711	1803.724731
19464.492128	16974.743333	396.528320	1924.931152
19464.492128	16974.743333	395.251953	1859.303589
19464.492128	16974.743333	393.976563	1756.680298
19464.492128	16974.743333	392.700195	1520.389648
19464.492128	16974.743333	391.422852	1669.457886
19464.492128	16974.743333	390.145508	1838.157349
19464.492128	16974.743333	388.869141	1676.227173
19464.492128	16974.743333	387.590820	1679.682129
19464.492128	16974.743333	386.313477	1912.813599
19464.492128	16974.743333	385.035156	1648.852783
19464.492128	16974.743333	383.756836	1665.561768
19464.492128	16974.743333	382.478516	1830.342896
19464.492128	16974.743333	381.199219	1681.686035
19464.492128	16974.743333	379.919922	1747.199951
19464.492128	16974.743333	378.640625	1901.974243
19464.492128	16974.743333	377.360352	1450.531738
19464.492128	16974.743333	376.080078	1619.302612
19464.492128	16974.743333	374.799805	1656.142090
19464.492128	16974.743333	373.519531	1287.293579
19464.492128	16974.743333	372.238281	1624.904053
19464.492128	16974.743333	370.957031	1607.754883
19464.492128	16974.743333	369.675781	1360.583374
19464.492128	16974.743333	368.394531	1587.218872
19464.492128	16974.743333	367.112305	1178.152710
19464.492128	16974.743333	365.830078	1410.511108
19464.492128	16974.743333	364.546875	1114.818970
19464.492128	16974.743333	363.264648	1330.119507
19464.492128	16974.743333	361.981445	1319.050537
19464.492128	16974.743333	360.698242	1234.386108
19464.492128	16974.743333	359.414063	1070.418457
19464.492128	16974.743333	358.129883	1075.809570
19464.492128	16974.743333	356.845703	1075.286743
19464.492128	16974.743333	355.561523	1149.753174
19464.492128	16974.743333	354.276367	1329.161011
19464.492128	16974.743333	352.991211	1357.533569
19464.492128	16974.743333	351.706055	839.845581
19464.492128	16974.743333	350.420898	925.630432
19464.492128	16974.743333	349.134766	662.839417
19464.492128	16974.743333	347.848633	1076.359131
19464.492128	16974.743333	346.561523	761.500244
19464.492128	16974.743333	345.275391	887.730652
19464.492128	16974.743333	343.988281	774.407410
19464.492128	16974.743333	342.700195	716.541443
19464.492128	16974.743333	341.413086	791.190735
19464.492128	16974.743333	340.125000	731.421631
19464.492128	16974.743333	338.836914	826.434204
19464.492128	16974.743333	337.548828	841.461914
19464.492128	16974.743333	336.259766	545.602722
19464.492128	16974.743333	334.970703	286.141937
19464.492128	16974.743333	333.681641	376.210266
19464.492128	16974.743333	332.391602	626.018188
19464.492128	16974.743333	331.101563	203.094696
19464.492128	16974.743333	329.811523	401.112122
19464.492128	16974.743333	328.521484	245.141983
19464.492128	16974.743333	327.230469	224.227432
19464.492128	16974.743333	325.939453	175.346237
19464.492128	16974.743333	324.648438	16.042877
19464.492128	16974.743333	323.356445	-27.252956
19464.492128	16974.743333	322.064453	245.708359
19464.492128	16974.743333	320.772461	114.117973
19464.492128	16974.743333	319.480469	-25.172058
19464.492128	16974.743333	318.187500	27.795918
19464.492128	16974.743333	316.894531	55.986877
19464.492128	16974.743333	315.601563	-213.667084
19464.492128	16974.743333	314.307617	58.184349
19464.492128	16974.743333	313.013672	-31.512100
19464.492128	16974.743333	311.719727	119.089523
19464.492128	16974.743333	310.425781	-17.095831
19464.492128	16974.743333	309.130859	-81.502663
19464.492128	16974.743333	307.835938	-234.723557
19464.492128	16974.743333	306.541016	-71.658440
19464.492128	16974.743333	305.245117	-89.284508
19464.492128	16974.743333	303.949219	16.762962
19464.492128	16974.743333	302.653320	145.550247
19464.492128	16974.743333	301.356445	238.960938
19464.492128	16974.743333	300.060547	332.698090
19464.492128	16974.743333	298.763672	338.667786
