#X		#Y		#Wave		#Intensity
19489.252074	16934.997167	2000.043945	299.719208
19489.252074	16934.997167	1999.080078	23.175858
19489.252074	16934.997167	1998.116211	74.658394
19489.252074	16934.997167	1997.151367	-79.313881
19489.252074	16934.997167	1996.186523	-42.203098
19489.252074	16934.997167	1995.222656	-116.349152
19489.252074	16934.997167	1994.256836	-56.489063
19489.252074	16934.997167	1993.291992	-45.959106
19489.252074	16934.997167	1992.327148	-262.998535
19489.252074	16934.997167	1991.361328	67.316528
19489.252074	16934.997167	1990.395508	-104.703156
19489.252074	16934.997167	1989.429688	253.072418
19489.252074	16934.997167	1988.463867	-74.400414
19489.252074	16934.997167	1987.497070	137.668747
19489.252074	16934.997167	1986.531250	48.111744
19489.252074	16934.997167	1985.564453	220.861954
19489.252074	16934.997167	1984.597656	92.104790
19489.252074	16934.997167	1983.630859	-113.071938
19489.252074	16934.997167	1982.664063	-226.584152
19489.252074	16934.997167	1981.696289	-28.583115
19489.252074	16934.997167	1980.728516	95.376190
19489.252074	16934.997167	1979.761719	150.261749
19489.252074	16934.997167	1978.792969	106.491707
19489.252074	16934.997167	1977.825195	70.262413
19489.252074	16934.997167	1976.857422	-22.609737
19489.252074	16934.997167	1975.888672	368.412964
19489.252074	16934.997167	1974.919922	-94.388649
19489.252074	16934.997167	1973.951172	-172.038910
19489.252074	16934.997167	1972.982422	-22.626423
19489.252074	16934.997167	1972.013672	-97.597168
19489.252074	16934.997167	1971.043945	-51.621391
19489.252074	16934.997167	1970.075195	127.548203
19489.252074	16934.997167	1969.105469	341.245728
19489.252074	16934.997167	1968.135742	271.541077
19489.252074	16934.997167	1967.165039	-29.668930
19489.252074	16934.997167	1966.195313	327.048309
19489.252074	16934.997167	1965.224609	223.123581
19489.252074	16934.997167	1964.253906	99.599480
19489.252074	16934.997167	1963.283203	173.150040
19489.252074	16934.997167	1962.312500	-147.134583
19489.252074	16934.997167	1961.341797	143.128784
19489.252074	16934.997167	1960.370117	140.515778
19489.252074	16934.997167	1959.399414	165.003662
19489.252074	16934.997167	1958.427734	-22.010521
19489.252074	16934.997167	1957.455078	145.239700
19489.252074	16934.997167	1956.483398	-184.241074
19489.252074	16934.997167	1955.511719	42.045101
19489.252074	16934.997167	1954.539063	29.858145
19489.252074	16934.997167	1953.566406	118.463608
19489.252074	16934.997167	1952.593750	369.229767
19489.252074	16934.997167	1951.621094	-151.455505
19489.252074	16934.997167	1950.647461	-116.824120
19489.252074	16934.997167	1949.674805	180.562225
19489.252074	16934.997167	1948.701172	197.963226
19489.252074	16934.997167	1947.727539	-89.025200
19489.252074	16934.997167	1946.753906	-2.837129
19489.252074	16934.997167	1945.780273	225.652054
19489.252074	16934.997167	1944.805664	-210.810608
19489.252074	16934.997167	1943.831055	365.968658
19489.252074	16934.997167	1942.856445	101.323593
19489.252074	16934.997167	1941.881836	-28.361166
19489.252074	16934.997167	1940.907227	1.351771
19489.252074	16934.997167	1939.932617	11.440881
19489.252074	16934.997167	1938.957031	-181.881638
19489.252074	16934.997167	1937.981445	-14.956822
19489.252074	16934.997167	1937.005859	325.826752
19489.252074	16934.997167	1936.030273	36.998592
19489.252074	16934.997167	1935.054688	-97.456741
19489.252074	16934.997167	1934.078125	152.524704
19489.252074	16934.997167	1933.101563	169.842438
19489.252074	16934.997167	1932.125000	182.239014
19489.252074	16934.997167	1931.148438	-15.834000
19489.252074	16934.997167	1930.171875	-182.051910
19489.252074	16934.997167	1929.194336	-10.659272
19489.252074	16934.997167	1928.217773	-238.005310
19489.252074	16934.997167	1927.240234	43.314968
19489.252074	16934.997167	1926.262695	-110.661736
19489.252074	16934.997167	1925.284180	102.040794
19489.252074	16934.997167	1924.306641	192.433060
19489.252074	16934.997167	1923.328125	351.181732
19489.252074	16934.997167	1922.350586	-176.630188
19489.252074	16934.997167	1921.372070	30.911913
19489.252074	16934.997167	1920.392578	-96.210724
19489.252074	16934.997167	1919.414063	216.153564
19489.252074	16934.997167	1918.434570	-6.233031
19489.252074	16934.997167	1917.456055	59.416142
19489.252074	16934.997167	1916.476563	149.410049
19489.252074	16934.997167	1915.497070	95.385765
19489.252074	16934.997167	1914.516602	-39.151241
19489.252074	16934.997167	1913.537109	238.476776
19489.252074	16934.997167	1912.556641	-181.411667
19489.252074	16934.997167	1911.576172	22.920397
19489.252074	16934.997167	1910.595703	-62.926262
19489.252074	16934.997167	1909.615234	124.156990
19489.252074	16934.997167	1908.633789	-178.615479
19489.252074	16934.997167	1907.653320	183.725784
19489.252074	16934.997167	1906.671875	-106.862411
19489.252074	16934.997167	1905.690430	274.722565
19489.252074	16934.997167	1904.708984	10.911732
19489.252074	16934.997167	1903.727539	73.341202
19489.252074	16934.997167	1902.745117	-158.788483
19489.252074	16934.997167	1901.762695	59.289654
19489.252074	16934.997167	1900.780273	99.633675
19489.252074	16934.997167	1899.797852	118.016502
19489.252074	16934.997167	1898.815430	-9.577980
19489.252074	16934.997167	1897.832031	-115.291183
19489.252074	16934.997167	1896.849609	-157.814377
19489.252074	16934.997167	1895.866211	-190.646744
19489.252074	16934.997167	1894.882813	-63.130177
19489.252074	16934.997167	1893.898438	-64.486305
19489.252074	16934.997167	1892.915039	65.279640
19489.252074	16934.997167	1891.930664	173.086105
19489.252074	16934.997167	1890.947266	368.211304
19489.252074	16934.997167	1889.962891	184.458252
19489.252074	16934.997167	1888.977539	-96.378632
19489.252074	16934.997167	1887.993164	-22.827341
19489.252074	16934.997167	1887.007813	121.012466
19489.252074	16934.997167	1886.023438	242.902100
19489.252074	16934.997167	1885.038086	163.362808
19489.252074	16934.997167	1884.051758	-37.459354
19489.252074	16934.997167	1883.066406	127.865273
19489.252074	16934.997167	1882.081055	43.368626
19489.252074	16934.997167	1881.094727	111.549202
19489.252074	16934.997167	1880.108398	140.870850
19489.252074	16934.997167	1879.122070	-195.738876
19489.252074	16934.997167	1878.135742	-210.094604
19489.252074	16934.997167	1877.148438	3.167189
19489.252074	16934.997167	1876.162109	308.303253
19489.252074	16934.997167	1875.174805	-25.900629
19489.252074	16934.997167	1874.187500	-398.773132
19489.252074	16934.997167	1873.199219	17.422112
19489.252074	16934.997167	1872.211914	-323.983429
19489.252074	16934.997167	1871.223633	220.141327
19489.252074	16934.997167	1870.236328	69.792145
19489.252074	16934.997167	1869.248047	270.105713
19489.252074	16934.997167	1868.258789	-238.166290
19489.252074	16934.997167	1867.270508	-170.955414
19489.252074	16934.997167	1866.282227	169.292892
19489.252074	16934.997167	1865.292969	38.123158
19489.252074	16934.997167	1864.303711	25.330420
19489.252074	16934.997167	1863.314453	19.727116
19489.252074	16934.997167	1862.324219	-19.747850
19489.252074	16934.997167	1861.334961	145.982559
19489.252074	16934.997167	1860.344727	-185.756592
19489.252074	16934.997167	1859.354492	25.683603
19489.252074	16934.997167	1858.364258	-380.849243
19489.252074	16934.997167	1857.374023	30.695581
19489.252074	16934.997167	1856.383789	316.571991
19489.252074	16934.997167	1855.392578	-77.912399
19489.252074	16934.997167	1854.401367	183.639679
19489.252074	16934.997167	1853.410156	49.603214
19489.252074	16934.997167	1852.418945	91.534813
19489.252074	16934.997167	1851.426758	-117.275696
19489.252074	16934.997167	1850.435547	134.195450
19489.252074	16934.997167	1849.443359	-57.806141
19489.252074	16934.997167	1848.451172	-175.123032
19489.252074	16934.997167	1847.458984	186.813126
19489.252074	16934.997167	1846.466797	83.814812
19489.252074	16934.997167	1845.473633	187.839478
19489.252074	16934.997167	1844.480469	-112.625122
19489.252074	16934.997167	1843.487305	-8.731343
19489.252074	16934.997167	1842.494141	6.032539
19489.252074	16934.997167	1841.500977	282.947784
19489.252074	16934.997167	1840.506836	64.215652
19489.252074	16934.997167	1839.513672	35.478489
19489.252074	16934.997167	1838.519531	66.798927
19489.252074	16934.997167	1837.525391	78.811638
19489.252074	16934.997167	1836.530273	323.891479
19489.252074	16934.997167	1835.536133	227.589493
19489.252074	16934.997167	1834.541016	256.192413
19489.252074	16934.997167	1833.545898	-116.426521
19489.252074	16934.997167	1832.550781	-27.857161
19489.252074	16934.997167	1831.555664	65.416138
19489.252074	16934.997167	1830.560547	249.817200
19489.252074	16934.997167	1829.564453	417.282959
19489.252074	16934.997167	1828.568359	152.655701
19489.252074	16934.997167	1827.572266	123.201050
19489.252074	16934.997167	1826.576172	443.932678
19489.252074	16934.997167	1825.580078	289.584991
19489.252074	16934.997167	1824.583008	96.864136
19489.252074	16934.997167	1823.585938	-4.742787
19489.252074	16934.997167	1822.588867	73.406815
19489.252074	16934.997167	1821.591797	165.842255
19489.252074	16934.997167	1820.594727	78.463936
19489.252074	16934.997167	1819.596680	381.559723
19489.252074	16934.997167	1818.599609	315.600708
19489.252074	16934.997167	1817.601563	345.396973
19489.252074	16934.997167	1816.603516	336.805145
19489.252074	16934.997167	1815.604492	179.730057
19489.252074	16934.997167	1814.606445	104.026138
19489.252074	16934.997167	1813.607422	-91.366234
19489.252074	16934.997167	1812.608398	237.226288
19489.252074	16934.997167	1811.609375	-39.581059
19489.252074	16934.997167	1810.610352	-50.870293
19489.252074	16934.997167	1809.610352	-102.873718
19489.252074	16934.997167	1808.611328	-178.827942
19489.252074	16934.997167	1807.611328	-132.914444
19489.252074	16934.997167	1806.611328	18.071751
19489.252074	16934.997167	1805.610352	195.218399
19489.252074	16934.997167	1804.610352	219.338226
19489.252074	16934.997167	1803.609375	104.850800
19489.252074	16934.997167	1802.608398	-12.048404
19489.252074	16934.997167	1801.607422	-114.642593
19489.252074	16934.997167	1800.606445	198.101425
19489.252074	16934.997167	1799.605469	97.761803
19489.252074	16934.997167	1798.603516	76.138733
19489.252074	16934.997167	1797.601563	-91.073975
19489.252074	16934.997167	1796.599609	-246.362640
19489.252074	16934.997167	1795.597656	256.571564
19489.252074	16934.997167	1794.595703	313.359497
19489.252074	16934.997167	1793.592773	-16.148182
19489.252074	16934.997167	1792.589844	312.260254
19489.252074	16934.997167	1791.587891	518.943237
19489.252074	16934.997167	1790.583984	51.190689
19489.252074	16934.997167	1789.581055	-80.562706
19489.252074	16934.997167	1788.577148	59.186699
19489.252074	16934.997167	1787.574219	225.011551
19489.252074	16934.997167	1786.570313	145.481674
19489.252074	16934.997167	1785.566406	44.488861
19489.252074	16934.997167	1784.561523	207.641052
19489.252074	16934.997167	1783.557617	375.425476
19489.252074	16934.997167	1782.552734	5.417295
19489.252074	16934.997167	1781.547852	261.047638
19489.252074	16934.997167	1780.542969	-92.285057
19489.252074	16934.997167	1779.538086	87.048141
19489.252074	16934.997167	1778.532227	427.896942
19489.252074	16934.997167	1777.527344	157.720062
19489.252074	16934.997167	1776.521484	367.595795
19489.252074	16934.997167	1775.515625	83.141190
19489.252074	16934.997167	1774.508789	-260.659454
19489.252074	16934.997167	1773.502930	-48.651665
19489.252074	16934.997167	1772.496094	148.961136
19489.252074	16934.997167	1771.489258	249.093140
19489.252074	16934.997167	1770.482422	173.472885
19489.252074	16934.997167	1769.475586	-1.858598
19489.252074	16934.997167	1768.467773	332.941956
19489.252074	16934.997167	1767.460938	83.971176
19489.252074	16934.997167	1766.453125	-186.318817
19489.252074	16934.997167	1765.445313	-32.101364
19489.252074	16934.997167	1764.437500	193.119675
19489.252074	16934.997167	1763.428711	-179.174088
19489.252074	16934.997167	1762.420898	81.403725
19489.252074	16934.997167	1761.412109	5.335799
19489.252074	16934.997167	1760.403320	244.320267
19489.252074	16934.997167	1759.393555	87.576767
19489.252074	16934.997167	1758.384766	-149.691391
19489.252074	16934.997167	1757.375000	10.843682
19489.252074	16934.997167	1756.366211	-172.005081
19489.252074	16934.997167	1755.356445	-281.482300
19489.252074	16934.997167	1754.345703	-104.654526
19489.252074	16934.997167	1753.335938	81.506393
19489.252074	16934.997167	1752.325195	132.692993
19489.252074	16934.997167	1751.315430	171.968796
19489.252074	16934.997167	1750.304688	-126.979744
19489.252074	16934.997167	1749.292969	-35.799252
19489.252074	16934.997167	1748.282227	-110.177742
19489.252074	16934.997167	1747.270508	176.980988
19489.252074	16934.997167	1746.259766	161.526306
19489.252074	16934.997167	1745.248047	134.192841
19489.252074	16934.997167	1744.235352	307.562531
19489.252074	16934.997167	1743.223633	-5.657506
19489.252074	16934.997167	1742.211914	-44.947628
19489.252074	16934.997167	1741.199219	-242.452530
19489.252074	16934.997167	1740.186523	-71.773575
19489.252074	16934.997167	1739.173828	-160.789581
19489.252074	16934.997167	1738.160156	-233.327042
19489.252074	16934.997167	1737.147461	215.384445
19489.252074	16934.997167	1736.133789	161.533524
19489.252074	16934.997167	1735.120117	291.548462
19489.252074	16934.997167	1734.106445	-28.814775
19489.252074	16934.997167	1733.091797	-231.281418
19489.252074	16934.997167	1732.078125	94.122719
19489.252074	16934.997167	1731.063477	-25.961197
19489.252074	16934.997167	1730.048828	-11.795982
19489.252074	16934.997167	1729.034180	42.333340
19489.252074	16934.997167	1728.019531	98.729637
19489.252074	16934.997167	1727.003906	-26.242811
19489.252074	16934.997167	1725.988281	-61.791874
19489.252074	16934.997167	1724.972656	102.643150
19489.252074	16934.997167	1723.957031	-198.925873
19489.252074	16934.997167	1722.941406	-121.699951
19489.252074	16934.997167	1721.924805	-101.024071
19489.252074	16934.997167	1720.909180	-26.330879
19489.252074	16934.997167	1719.892578	-113.962891
19489.252074	16934.997167	1718.875977	-20.627527
19489.252074	16934.997167	1717.858398	-70.761780
19489.252074	16934.997167	1716.841797	1.251040
19489.252074	16934.997167	1715.824219	84.913651
19489.252074	16934.997167	1714.806641	208.407578
19489.252074	16934.997167	1713.789063	10.059187
19489.252074	16934.997167	1712.770508	131.038651
19489.252074	16934.997167	1711.752930	-27.441029
19489.252074	16934.997167	1710.734375	69.897697
19489.252074	16934.997167	1709.715820	176.523788
19489.252074	16934.997167	1708.697266	34.351543
19489.252074	16934.997167	1707.678711	-46.843410
19489.252074	16934.997167	1706.659180	29.057991
19489.252074	16934.997167	1705.640625	-286.710999
19489.252074	16934.997167	1704.621094	-135.900787
19489.252074	16934.997167	1703.600586	293.705475
19489.252074	16934.997167	1702.581055	270.804352
19489.252074	16934.997167	1701.561523	135.385849
19489.252074	16934.997167	1700.541016	-185.110901
19489.252074	16934.997167	1699.520508	218.160629
19489.252074	16934.997167	1698.500000	618.876526
19489.252074	16934.997167	1697.478516	3.288180
19489.252074	16934.997167	1696.458008	307.795990
19489.252074	16934.997167	1695.436523	256.394623
19489.252074	16934.997167	1694.415039	85.618439
19489.252074	16934.997167	1693.393555	141.770523
19489.252074	16934.997167	1692.372070	127.671501
19489.252074	16934.997167	1691.349609	253.820587
19489.252074	16934.997167	1690.327148	129.691803
19489.252074	16934.997167	1689.304688	7.889053
19489.252074	16934.997167	1688.282227	309.098236
19489.252074	16934.997167	1687.259766	301.686890
19489.252074	16934.997167	1686.236328	532.511475
19489.252074	16934.997167	1685.213867	405.819183
19489.252074	16934.997167	1684.190430	423.902527
19489.252074	16934.997167	1683.166016	448.919922
19489.252074	16934.997167	1682.142578	324.470612
19489.252074	16934.997167	1681.119141	426.412811
19489.252074	16934.997167	1680.094727	110.546021
19489.252074	16934.997167	1679.070313	578.669189
19489.252074	16934.997167	1678.045898	447.062012
19489.252074	16934.997167	1677.020508	511.350067
19489.252074	16934.997167	1675.996094	484.627258
19489.252074	16934.997167	1674.970703	313.312225
19489.252074	16934.997167	1673.945313	228.249039
19489.252074	16934.997167	1672.919922	693.145203
19489.252074	16934.997167	1671.893555	172.225708
19489.252074	16934.997167	1670.868164	408.555695
19489.252074	16934.997167	1669.841797	511.977142
19489.252074	16934.997167	1668.815430	615.307068
19489.252074	16934.997167	1667.789063	355.352692
19489.252074	16934.997167	1666.761719	628.487183
19489.252074	16934.997167	1665.735352	426.711700
19489.252074	16934.997167	1664.708008	573.979187
19489.252074	16934.997167	1663.680664	374.511230
19489.252074	16934.997167	1662.653320	365.798615
19489.252074	16934.997167	1661.625000	357.032745
19489.252074	16934.997167	1660.597656	610.957458
19489.252074	16934.997167	1659.569336	781.044800
19489.252074	16934.997167	1658.541016	700.012695
19489.252074	16934.997167	1657.512695	742.123474
19489.252074	16934.997167	1656.483398	602.951233
19489.252074	16934.997167	1655.455078	612.454956
19489.252074	16934.997167	1654.425781	1074.754883
19489.252074	16934.997167	1653.396484	631.301697
19489.252074	16934.997167	1652.366211	847.253113
19489.252074	16934.997167	1651.336914	872.767944
19489.252074	16934.997167	1650.306641	789.155457
19489.252074	16934.997167	1649.276367	837.780457
19489.252074	16934.997167	1648.246094	1141.505005
19489.252074	16934.997167	1647.215820	1131.982056
19489.252074	16934.997167	1646.185547	941.563904
19489.252074	16934.997167	1645.154297	1238.009766
19489.252074	16934.997167	1644.123047	1490.264893
19489.252074	16934.997167	1643.091797	1227.925537
19489.252074	16934.997167	1642.060547	1178.808716
19489.252074	16934.997167	1641.028320	1377.529419
19489.252074	16934.997167	1639.997070	1573.830811
19489.252074	16934.997167	1638.964844	1719.070557
19489.252074	16934.997167	1637.931641	1584.077515
19489.252074	16934.997167	1636.899414	2016.214233
19489.252074	16934.997167	1635.867188	2110.269287
19489.252074	16934.997167	1634.833984	1845.609375
19489.252074	16934.997167	1633.800781	1891.009888
19489.252074	16934.997167	1632.767578	1964.118042
19489.252074	16934.997167	1631.734375	2353.971680
19489.252074	16934.997167	1630.700195	2276.613281
19489.252074	16934.997167	1629.666016	2118.351563
19489.252074	16934.997167	1628.631836	2438.523193
19489.252074	16934.997167	1627.597656	1998.338135
19489.252074	16934.997167	1626.563477	2091.955322
19489.252074	16934.997167	1625.528320	2499.629883
19489.252074	16934.997167	1624.493164	2098.864014
19489.252074	16934.997167	1623.458008	2046.867554
19489.252074	16934.997167	1622.422852	1994.868042
19489.252074	16934.997167	1621.387695	2314.450439
19489.252074	16934.997167	1620.351563	2227.754150
19489.252074	16934.997167	1619.315430	2348.709717
19489.252074	16934.997167	1618.279297	1883.716309
19489.252074	16934.997167	1617.243164	2175.309814
19489.252074	16934.997167	1616.207031	2363.014893
19489.252074	16934.997167	1615.169922	2368.504395
19489.252074	16934.997167	1614.132813	1804.685059
19489.252074	16934.997167	1613.095703	2017.643799
19489.252074	16934.997167	1612.058594	2083.055420
19489.252074	16934.997167	1611.020508	1994.084961
19489.252074	16934.997167	1609.983398	1983.449829
19489.252074	16934.997167	1608.945313	1606.688477
19489.252074	16934.997167	1607.907227	1888.471313
19489.252074	16934.997167	1606.868164	1806.461914
19489.252074	16934.997167	1605.830078	1632.435913
19489.252074	16934.997167	1604.791016	1856.494385
19489.252074	16934.997167	1603.751953	2050.556152
19489.252074	16934.997167	1602.712891	2005.348511
19489.252074	16934.997167	1601.673828	2029.136230
19489.252074	16934.997167	1600.633789	2101.180176
19489.252074	16934.997167	1599.594727	1720.391113
19489.252074	16934.997167	1598.554688	1902.772339
19489.252074	16934.997167	1597.513672	1997.760498
19489.252074	16934.997167	1596.473633	1980.158691
19489.252074	16934.997167	1595.433594	2063.620605
19489.252074	16934.997167	1594.392578	1775.044067
19489.252074	16934.997167	1593.351563	1780.453125
19489.252074	16934.997167	1592.310547	1997.038208
19489.252074	16934.997167	1591.268555	1945.027222
19489.252074	16934.997167	1590.227539	1821.922729
19489.252074	16934.997167	1589.185547	1857.153809
19489.252074	16934.997167	1588.143555	1924.488892
19489.252074	16934.997167	1587.100586	1906.950806
19489.252074	16934.997167	1586.058594	2114.125977
19489.252074	16934.997167	1585.015625	1892.568848
19489.252074	16934.997167	1583.972656	1978.213501
19489.252074	16934.997167	1582.929688	2114.246826
19489.252074	16934.997167	1581.886719	2341.880615
19489.252074	16934.997167	1580.843750	2264.807373
19489.252074	16934.997167	1579.799805	2421.352783
19489.252074	16934.997167	1578.755859	2074.152344
19489.252074	16934.997167	1577.711914	2450.467041
19489.252074	16934.997167	1576.666992	2757.983643
19489.252074	16934.997167	1575.623047	2536.831299
19489.252074	16934.997167	1574.578125	2608.615967
19489.252074	16934.997167	1573.533203	2607.198975
19489.252074	16934.997167	1572.488281	2855.075928
19489.252074	16934.997167	1571.443359	2709.616699
19489.252074	16934.997167	1570.397461	2657.956543
19489.252074	16934.997167	1569.351563	2725.192871
19489.252074	16934.997167	1568.305664	2445.098633
19489.252074	16934.997167	1567.259766	2281.661133
19489.252074	16934.997167	1566.213867	2145.727295
19489.252074	16934.997167	1565.166992	2345.582031
19489.252074	16934.997167	1564.120117	2145.813965
19489.252074	16934.997167	1563.073242	1827.451172
19489.252074	16934.997167	1562.026367	2155.166748
19489.252074	16934.997167	1560.978516	1590.541016
19489.252074	16934.997167	1559.930664	1338.740112
19489.252074	16934.997167	1558.883789	1552.420288
19489.252074	16934.997167	1557.834961	1663.412231
19489.252074	16934.997167	1556.787109	1480.270264
19489.252074	16934.997167	1555.739258	1215.174438
19489.252074	16934.997167	1554.690430	1485.841919
19489.252074	16934.997167	1553.641602	1236.880127
19489.252074	16934.997167	1552.592773	1338.928955
19489.252074	16934.997167	1551.542969	1466.035645
19489.252074	16934.997167	1550.494141	1540.765015
19489.252074	16934.997167	1549.444336	1112.287231
19489.252074	16934.997167	1548.394531	1357.892822
19489.252074	16934.997167	1547.344727	1077.669067
19489.252074	16934.997167	1546.293945	1191.292358
19489.252074	16934.997167	1545.244141	1020.530334
19489.252074	16934.997167	1544.193359	1416.301392
19489.252074	16934.997167	1543.142578	1243.392090
19489.252074	16934.997167	1542.090820	1270.700073
19489.252074	16934.997167	1541.040039	1091.183716
19489.252074	16934.997167	1539.988281	625.396729
19489.252074	16934.997167	1538.936523	1250.666504
19489.252074	16934.997167	1537.884766	1196.402344
19489.252074	16934.997167	1536.833008	1283.062500
19489.252074	16934.997167	1535.780273	1228.933472
19489.252074	16934.997167	1534.727539	1204.408936
19489.252074	16934.997167	1533.674805	878.015137
19489.252074	16934.997167	1532.622070	835.548340
19489.252074	16934.997167	1531.569336	986.066284
19489.252074	16934.997167	1530.515625	739.521851
19489.252074	16934.997167	1529.461914	912.819946
19489.252074	16934.997167	1528.408203	634.780151
19489.252074	16934.997167	1527.354492	436.290192
19489.252074	16934.997167	1526.299805	417.053345
19489.252074	16934.997167	1525.246094	307.238831
19489.252074	16934.997167	1524.191406	143.148529
19489.252074	16934.997167	1523.136719	169.530685
19489.252074	16934.997167	1522.081055	408.920868
19489.252074	16934.997167	1521.026367	351.598969
19489.252074	16934.997167	1519.970703	468.740570
19489.252074	16934.997167	1518.915039	527.054504
19489.252074	16934.997167	1517.859375	148.561432
19489.252074	16934.997167	1516.802734	-23.759377
19489.252074	16934.997167	1515.747070	462.521576
19489.252074	16934.997167	1514.690430	70.947868
19489.252074	16934.997167	1513.633789	582.067749
19489.252074	16934.997167	1512.577148	645.333435
19489.252074	16934.997167	1511.519531	502.920074
19489.252074	16934.997167	1510.461914	525.666565
19489.252074	16934.997167	1509.405273	417.425232
19489.252074	16934.997167	1508.346680	677.616150
19489.252074	16934.997167	1507.289063	653.159241
19489.252074	16934.997167	1506.231445	1026.331299
19489.252074	16934.997167	1505.172852	981.682983
19489.252074	16934.997167	1504.114258	487.859314
19489.252074	16934.997167	1503.055664	619.605469
19489.252074	16934.997167	1501.996094	525.710571
19489.252074	16934.997167	1500.937500	723.037048
19489.252074	16934.997167	1499.877930	530.103699
19489.252074	16934.997167	1498.818359	538.092163
19489.252074	16934.997167	1497.757813	338.715759
19489.252074	16934.997167	1496.698242	317.644745
19489.252074	16934.997167	1495.637695	628.047058
19489.252074	16934.997167	1494.577148	390.783661
19489.252074	16934.997167	1493.516602	514.248108
19489.252074	16934.997167	1492.456055	511.619110
19489.252074	16934.997167	1491.394531	407.741547
19489.252074	16934.997167	1490.333008	333.294189
19489.252074	16934.997167	1489.271484	141.914795
19489.252074	16934.997167	1488.209961	-71.780464
19489.252074	16934.997167	1487.148438	119.828506
19489.252074	16934.997167	1486.085938	189.971848
19489.252074	16934.997167	1485.023438	131.972336
19489.252074	16934.997167	1483.960938	-29.348770
19489.252074	16934.997167	1482.898438	-242.197556
19489.252074	16934.997167	1481.834961	-155.804428
19489.252074	16934.997167	1480.772461	-226.660782
19489.252074	16934.997167	1479.708984	-319.825867
19489.252074	16934.997167	1478.644531	2.865613
19489.252074	16934.997167	1477.581055	103.116867
19489.252074	16934.997167	1476.517578	-153.589417
19489.252074	16934.997167	1475.453125	-171.984924
19489.252074	16934.997167	1474.388672	-147.667984
19489.252074	16934.997167	1473.323242	-464.311462
19489.252074	16934.997167	1472.258789	-311.654846
19489.252074	16934.997167	1471.193359	-145.579712
19489.252074	16934.997167	1470.127930	54.334579
19489.252074	16934.997167	1469.062500	-48.573250
19489.252074	16934.997167	1467.997070	-173.597290
19489.252074	16934.997167	1466.930664	169.721176
19489.252074	16934.997167	1465.865234	76.623543
19489.252074	16934.997167	1464.798828	120.278481
19489.252074	16934.997167	1463.731445	74.196938
19489.252074	16934.997167	1462.665039	-18.482038
19489.252074	16934.997167	1461.597656	-23.923021
19489.252074	16934.997167	1460.530273	101.051247
19489.252074	16934.997167	1459.462891	106.875107
19489.252074	16934.997167	1458.395508	452.457520
19489.252074	16934.997167	1457.327148	235.043457
19489.252074	16934.997167	1456.259766	294.889465
19489.252074	16934.997167	1455.191406	8.076616
19489.252074	16934.997167	1454.123047	-103.265526
19489.252074	16934.997167	1453.053711	-126.235245
19489.252074	16934.997167	1451.985352	-56.954079
19489.252074	16934.997167	1450.916016	20.439425
19489.252074	16934.997167	1449.846680	134.785156
19489.252074	16934.997167	1448.776367	74.778305
19489.252074	16934.997167	1447.707031	-297.475281
19489.252074	16934.997167	1446.636719	-169.101364
19489.252074	16934.997167	1445.566406	-184.563385
19489.252074	16934.997167	1444.496094	110.754509
19489.252074	16934.997167	1443.425781	197.671265
19489.252074	16934.997167	1442.354492	-42.933514
19489.252074	16934.997167	1441.283203	28.356958
19489.252074	16934.997167	1440.211914	-111.614937
19489.252074	16934.997167	1439.140625	89.915024
19489.252074	16934.997167	1438.069336	94.800919
19489.252074	16934.997167	1436.997070	-226.301620
19489.252074	16934.997167	1435.924805	129.320313
19489.252074	16934.997167	1434.852539	-74.373787
19489.252074	16934.997167	1433.780273	324.661530
19489.252074	16934.997167	1432.707031	98.908577
19489.252074	16934.997167	1431.633789	-73.508232
19489.252074	16934.997167	1430.560547	-37.783741
19489.252074	16934.997167	1429.487305	-31.067888
19489.252074	16934.997167	1428.413086	115.856598
19489.252074	16934.997167	1427.339844	99.439468
19489.252074	16934.997167	1426.265625	-38.023735
19489.252074	16934.997167	1425.191406	161.250580
19489.252074	16934.997167	1424.116211	467.874756
19489.252074	16934.997167	1423.041992	236.273865
19489.252074	16934.997167	1421.966797	222.799286
19489.252074	16934.997167	1420.891602	132.808182
19489.252074	16934.997167	1419.816406	183.638794
19489.252074	16934.997167	1418.740234	253.874878
19489.252074	16934.997167	1417.665039	-42.560108
19489.252074	16934.997167	1416.588867	222.444519
19489.252074	16934.997167	1415.512695	155.436493
19489.252074	16934.997167	1414.435547	130.978653
19489.252074	16934.997167	1413.359375	190.372086
19489.252074	16934.997167	1412.282227	128.117310
19489.252074	16934.997167	1411.205078	353.552429
19489.252074	16934.997167	1410.127930	348.953064
19489.252074	16934.997167	1409.049805	247.896393
19489.252074	16934.997167	1407.972656	-32.935234
19489.252074	16934.997167	1406.894531	-175.199997
19489.252074	16934.997167	1405.816406	44.490143
19489.252074	16934.997167	1404.737305	-87.835876
19489.252074	16934.997167	1403.659180	31.346727
19489.252074	16934.997167	1402.580078	163.830185
19489.252074	16934.997167	1401.500977	288.697174
19489.252074	16934.997167	1400.421875	93.572800
19489.252074	16934.997167	1399.341797	348.805084
19489.252074	16934.997167	1398.262695	131.977737
19489.252074	16934.997167	1397.182617	52.327835
19489.252074	16934.997167	1396.102539	567.042664
19489.252074	16934.997167	1395.021484	429.021606
19489.252074	16934.997167	1393.941406	416.610718
19489.252074	16934.997167	1392.860352	460.407654
19489.252074	16934.997167	1391.779297	555.126404
19489.252074	16934.997167	1390.698242	246.130188
19489.252074	16934.997167	1389.616211	711.344482
19489.252074	16934.997167	1388.535156	714.479004
19489.252074	16934.997167	1387.453125	774.595764
19489.252074	16934.997167	1386.371094	626.913757
19489.252074	16934.997167	1385.288086	807.155884
19489.252074	16934.997167	1384.206055	652.532349
19489.252074	16934.997167	1383.123047	391.555817
19489.252074	16934.997167	1382.040039	952.883850
19489.252074	16934.997167	1380.957031	726.809387
19489.252074	16934.997167	1379.873047	778.878235
19489.252074	16934.997167	1378.789063	831.611023
19489.252074	16934.997167	1377.705078	636.239868
19489.252074	16934.997167	1376.621094	504.059540
19489.252074	16934.997167	1375.537109	690.202637
19489.252074	16934.997167	1374.452148	714.922852
19489.252074	16934.997167	1373.367188	467.239838
19489.252074	16934.997167	1372.282227	296.995056
19489.252074	16934.997167	1371.197266	639.395325
19489.252074	16934.997167	1370.112305	636.873962
19489.252074	16934.997167	1369.026367	728.751709
19489.252074	16934.997167	1367.940430	796.592346
19489.252074	16934.997167	1366.854492	1137.088867
19489.252074	16934.997167	1365.767578	1417.249878
19489.252074	16934.997167	1364.681641	1291.600220
19489.252074	16934.997167	1363.594727	1754.595215
19489.252074	16934.997167	1362.507813	1736.592529
19489.252074	16934.997167	1361.419922	1931.937500
19489.252074	16934.997167	1360.333008	2063.509033
19489.252074	16934.997167	1359.245117	2191.611328
19489.252074	16934.997167	1358.157227	2504.995605
19489.252074	16934.997167	1357.069336	2606.857422
19489.252074	16934.997167	1355.981445	2570.941895
19489.252074	16934.997167	1354.892578	2802.312012
19489.252074	16934.997167	1353.803711	3044.732422
19489.252074	16934.997167	1352.714844	3076.099121
19489.252074	16934.997167	1351.625000	2931.994873
19489.252074	16934.997167	1350.536133	3003.646973
19489.252074	16934.997167	1349.446289	3042.208496
19489.252074	16934.997167	1348.356445	3058.346924
19489.252074	16934.997167	1347.266602	2646.376709
19489.252074	16934.997167	1346.175781	2760.003906
19489.252074	16934.997167	1345.085938	2303.009521
19489.252074	16934.997167	1343.995117	2033.476929
19489.252074	16934.997167	1342.903320	2032.040894
19489.252074	16934.997167	1341.812500	1941.766113
19489.252074	16934.997167	1340.720703	1899.602539
19489.252074	16934.997167	1339.629883	1635.432739
19489.252074	16934.997167	1338.538086	1707.806519
19489.252074	16934.997167	1337.445313	1409.692383
19489.252074	16934.997167	1336.353516	1307.163574
19489.252074	16934.997167	1335.260742	1199.639771
19489.252074	16934.997167	1334.167969	1228.503906
19489.252074	16934.997167	1333.075195	1208.425049
19489.252074	16934.997167	1331.981445	1036.156494
19489.252074	16934.997167	1330.888672	989.113525
19489.252074	16934.997167	1329.794922	937.758362
19489.252074	16934.997167	1328.701172	988.758179
19489.252074	16934.997167	1327.606445	1199.249390
19489.252074	16934.997167	1326.512695	988.203064
19489.252074	16934.997167	1325.417969	1139.808716
19489.252074	16934.997167	1324.323242	1318.072998
19489.252074	16934.997167	1323.227539	1486.945313
19489.252074	16934.997167	1322.132813	1313.406982
19489.252074	16934.997167	1321.037109	1322.608032
19489.252074	16934.997167	1319.941406	1008.948730
19489.252074	16934.997167	1318.845703	1259.375366
19489.252074	16934.997167	1317.750000	1210.646973
19489.252074	16934.997167	1316.653320	984.773987
19489.252074	16934.997167	1315.556641	1040.236328
19489.252074	16934.997167	1314.459961	1101.986328
19489.252074	16934.997167	1313.363281	850.397827
19489.252074	16934.997167	1312.265625	866.362854
19489.252074	16934.997167	1311.167969	511.307983
19489.252074	16934.997167	1310.070313	594.017395
19489.252074	16934.997167	1308.972656	436.607269
19489.252074	16934.997167	1307.874023	336.823456
19489.252074	16934.997167	1306.776367	595.643799
19489.252074	16934.997167	1305.677734	479.531982
19489.252074	16934.997167	1304.579102	449.864960
19489.252074	16934.997167	1303.479492	246.266022
19489.252074	16934.997167	1302.380859	136.696381
19489.252074	16934.997167	1301.281250	334.202606
19489.252074	16934.997167	1300.181641	238.665085
19489.252074	16934.997167	1299.081055	408.986786
19489.252074	16934.997167	1297.981445	257.569397
19489.252074	16934.997167	1296.880859	167.979874
19489.252074	16934.997167	1295.780273	318.631287
19489.252074	16934.997167	1294.679688	284.788086
19489.252074	16934.997167	1293.578125	459.924072
19489.252074	16934.997167	1292.476563	590.127747
19489.252074	16934.997167	1291.375000	513.983826
19489.252074	16934.997167	1290.273438	414.600494
19489.252074	16934.997167	1289.171875	449.183502
19489.252074	16934.997167	1288.069336	250.187637
19489.252074	16934.997167	1286.966797	193.179306
19489.252074	16934.997167	1285.864258	471.221710
19489.252074	16934.997167	1284.761719	346.450287
19489.252074	16934.997167	1283.658203	147.560394
19489.252074	16934.997167	1282.554688	239.020325
19489.252074	16934.997167	1281.451172	280.387390
19489.252074	16934.997167	1280.347656	472.433716
19489.252074	16934.997167	1279.244141	154.380646
19489.252074	16934.997167	1278.139648	89.304817
19489.252074	16934.997167	1277.035156	-88.265442
19489.252074	16934.997167	1275.930664	-58.454533
19489.252074	16934.997167	1274.825195	-111.289085
19489.252074	16934.997167	1273.720703	-23.374081
19489.252074	16934.997167	1272.615234	240.754242
19489.252074	16934.997167	1271.508789	259.872131
19489.252074	16934.997167	1270.403320	236.639633
19489.252074	16934.997167	1269.297852	316.608398
19489.252074	16934.997167	1268.191406	78.435860
19489.252074	16934.997167	1267.084961	286.725616
19489.252074	16934.997167	1265.977539	191.588348
19489.252074	16934.997167	1264.871094	84.921562
19489.252074	16934.997167	1263.763672	134.825073
19489.252074	16934.997167	1262.656250	-12.748253
19489.252074	16934.997167	1261.548828	-58.501038
19489.252074	16934.997167	1260.440430	-80.035133
19489.252074	16934.997167	1259.333008	-33.252674
19489.252074	16934.997167	1258.224609	-32.478909
19489.252074	16934.997167	1257.115234	-38.064697
19489.252074	16934.997167	1256.006836	-212.541550
19489.252074	16934.997167	1254.897461	-292.144440
19489.252074	16934.997167	1253.788086	87.061249
19489.252074	16934.997167	1252.678711	-40.066601
19489.252074	16934.997167	1251.569336	46.833794
19489.252074	16934.997167	1250.458984	-234.901367
19489.252074	16934.997167	1249.349609	64.931923
19489.252074	16934.997167	1248.239258	-252.467010
19489.252074	16934.997167	1247.127930	-82.744011
19489.252074	16934.997167	1246.017578	122.794746
19489.252074	16934.997167	1244.906250	-120.586586
19489.252074	16934.997167	1243.794922	-53.594624
19489.252074	16934.997167	1242.683594	91.603081
19489.252074	16934.997167	1241.571289	64.888054
19489.252074	16934.997167	1240.459961	413.875458
19489.252074	16934.997167	1239.347656	617.796753
19489.252074	16934.997167	1238.234375	477.353607
19489.252074	16934.997167	1237.122070	667.264404
19489.252074	16934.997167	1236.008789	518.495300
19489.252074	16934.997167	1234.896484	746.094421
19489.252074	16934.997167	1233.782227	684.929138
19489.252074	16934.997167	1232.668945	830.949341
19489.252074	16934.997167	1231.555664	783.505493
19489.252074	16934.997167	1230.441406	890.844849
19489.252074	16934.997167	1229.327148	421.113556
19489.252074	16934.997167	1228.211914	762.820618
19489.252074	16934.997167	1227.097656	919.199219
19489.252074	16934.997167	1225.982422	797.796265
19489.252074	16934.997167	1224.867188	773.960938
19489.252074	16934.997167	1223.751953	906.217041
19489.252074	16934.997167	1222.635742	832.899780
19489.252074	16934.997167	1221.520508	1027.837769
19489.252074	16934.997167	1220.404297	959.275574
19489.252074	16934.997167	1219.287109	994.408752
19489.252074	16934.997167	1218.170898	991.573608
19489.252074	16934.997167	1217.053711	892.503052
19489.252074	16934.997167	1215.936523	592.327209
19489.252074	16934.997167	1214.819336	528.034729
19489.252074	16934.997167	1213.702148	610.920837
19489.252074	16934.997167	1212.583984	620.108215
19489.252074	16934.997167	1211.465820	731.553040
19489.252074	16934.997167	1210.347656	648.911926
19489.252074	16934.997167	1209.229492	594.099304
19489.252074	16934.997167	1208.110352	769.312012
19489.252074	16934.997167	1206.992188	705.803894
19489.252074	16934.997167	1205.873047	938.384338
19489.252074	16934.997167	1204.752930	638.502869
19489.252074	16934.997167	1203.633789	699.428955
19489.252074	16934.997167	1202.513672	817.514954
19489.252074	16934.997167	1201.393555	720.943604
19489.252074	16934.997167	1200.273438	741.010193
19489.252074	16934.997167	1199.152344	884.384277
19489.252074	16934.997167	1198.032227	733.850830
19489.252074	16934.997167	1196.911133	833.338501
19489.252074	16934.997167	1195.790039	737.192078
19489.252074	16934.997167	1194.667969	832.813538
19489.252074	16934.997167	1193.545898	731.430542
19489.252074	16934.997167	1192.424805	950.425049
19489.252074	16934.997167	1191.301758	622.506104
19489.252074	16934.997167	1190.179688	640.961548
19489.252074	16934.997167	1189.056641	717.389771
19489.252074	16934.997167	1187.933594	326.782166
19489.252074	16934.997167	1186.810547	360.242645
19489.252074	16934.997167	1185.687500	296.593872
19489.252074	16934.997167	1184.563477	248.706406
19489.252074	16934.997167	1183.440430	128.568741
19489.252074	16934.997167	1182.316406	60.841614
19489.252074	16934.997167	1181.191406	197.910110
19489.252074	16934.997167	1180.067383	244.508957
19489.252074	16934.997167	1178.942383	-86.031357
19489.252074	16934.997167	1177.817383	29.052275
19489.252074	16934.997167	1176.692383	-12.878404
19489.252074	16934.997167	1175.566406	-226.335770
19489.252074	16934.997167	1174.440430	227.896484
19489.252074	16934.997167	1173.314453	-115.163620
19489.252074	16934.997167	1172.188477	78.361290
19489.252074	16934.997167	1171.062500	54.231453
19489.252074	16934.997167	1169.935547	-147.606674
19489.252074	16934.997167	1168.808594	-44.254948
19489.252074	16934.997167	1167.681641	109.453094
19489.252074	16934.997167	1166.553711	302.518524
19489.252074	16934.997167	1165.426758	226.844910
19489.252074	16934.997167	1164.298828	140.918243
19489.252074	16934.997167	1163.170898	175.466949
19489.252074	16934.997167	1162.041992	232.671631
19489.252074	16934.997167	1160.914063	213.254578
19489.252074	16934.997167	1159.785156	234.265915
19489.252074	16934.997167	1158.656250	259.168640
19489.252074	16934.997167	1157.526367	161.436188
19489.252074	16934.997167	1156.397461	167.461151
19489.252074	16934.997167	1155.267578	144.711288
19489.252074	16934.997167	1154.137695	146.093170
19489.252074	16934.997167	1153.006836	19.193317
19489.252074	16934.997167	1151.876953	230.023941
19489.252074	16934.997167	1150.746094	118.917625
19489.252074	16934.997167	1149.615234	183.904236
19489.252074	16934.997167	1148.484375	128.492203
19489.252074	16934.997167	1147.352539	40.295105
19489.252074	16934.997167	1146.220703	-54.522194
19489.252074	16934.997167	1145.088867	-158.675873
19489.252074	16934.997167	1143.957031	161.881592
19489.252074	16934.997167	1142.825195	64.865677
19489.252074	16934.997167	1141.692383	-90.362236
19489.252074	16934.997167	1140.559570	-149.207260
19489.252074	16934.997167	1139.426758	-256.289795
19489.252074	16934.997167	1138.292969	-72.336540
19489.252074	16934.997167	1137.159180	-252.518005
19489.252074	16934.997167	1136.025391	-240.589340
19489.252074	16934.997167	1134.891602	-55.747093
19489.252074	16934.997167	1133.757813	-163.410446
19489.252074	16934.997167	1132.623047	-4.851345
19489.252074	16934.997167	1131.488281	-177.493774
19489.252074	16934.997167	1130.353516	-122.592827
19489.252074	16934.997167	1129.217773	-165.711655
19489.252074	16934.997167	1128.083008	-212.706085
19489.252074	16934.997167	1126.947266	-180.476685
19489.252074	16934.997167	1125.811523	-302.202850
19489.252074	16934.997167	1124.674805	-352.158966
19489.252074	16934.997167	1123.539063	-249.680603
19489.252074	16934.997167	1122.402344	-374.364288
19489.252074	16934.997167	1121.265625	-383.443695
19489.252074	16934.997167	1120.127930	-281.738434
19489.252074	16934.997167	1118.990234	-318.276947
19489.252074	16934.997167	1117.853516	-286.722107
19489.252074	16934.997167	1116.714844	1.357708
19489.252074	16934.997167	1115.577148	-8.213387
19489.252074	16934.997167	1114.439453	-0.630079
19489.252074	16934.997167	1113.300781	123.117676
19489.252074	16934.997167	1112.162109	-2.255784
19489.252074	16934.997167	1111.022461	-55.949562
19489.252074	16934.997167	1109.883789	-98.449348
19489.252074	16934.997167	1108.744141	34.480389
19489.252074	16934.997167	1107.604492	220.898163
19489.252074	16934.997167	1106.463867	110.946320
19489.252074	16934.997167	1105.324219	238.794312
19489.252074	16934.997167	1104.183594	91.928886
19489.252074	16934.997167	1103.042969	160.358215
19489.252074	16934.997167	1101.902344	49.925186
19489.252074	16934.997167	1100.760742	27.504148
19489.252074	16934.997167	1099.619141	161.162201
19489.252074	16934.997167	1098.477539	572.046936
19489.252074	16934.997167	1097.335938	395.741577
19489.252074	16934.997167	1096.193359	369.690369
19489.252074	16934.997167	1095.051758	435.775665
19489.252074	16934.997167	1093.909180	212.619263
19489.252074	16934.997167	1092.765625	402.514984
19489.252074	16934.997167	1091.623047	452.841919
19489.252074	16934.997167	1090.479492	322.268127
19489.252074	16934.997167	1089.335938	345.510223
19489.252074	16934.997167	1088.192383	176.483521
19489.252074	16934.997167	1087.047852	55.854263
19489.252074	16934.997167	1085.903320	274.933136
19489.252074	16934.997167	1084.758789	-4.376175
19489.252074	16934.997167	1083.614258	-64.123169
19489.252074	16934.997167	1082.469727	165.527481
19489.252074	16934.997167	1081.324219	139.169296
19489.252074	16934.997167	1080.178711	136.869446
19489.252074	16934.997167	1079.033203	116.553162
19489.252074	16934.997167	1077.886719	140.780426
19489.252074	16934.997167	1076.740234	272.491882
19489.252074	16934.997167	1075.593750	437.200653
19489.252074	16934.997167	1074.447266	347.556641
19489.252074	16934.997167	1073.300781	320.028076
19489.252074	16934.997167	1072.153320	191.863968
19489.252074	16934.997167	1071.005859	256.310242
19489.252074	16934.997167	1069.858398	134.389877
19489.252074	16934.997167	1068.709961	174.136734
19489.252074	16934.997167	1067.561523	280.176025
19489.252074	16934.997167	1066.413086	461.749573
19489.252074	16934.997167	1065.264648	166.601135
19489.252074	16934.997167	1064.116211	123.587753
19489.252074	16934.997167	1062.966797	-158.194748
19489.252074	16934.997167	1061.817383	186.533844
19489.252074	16934.997167	1060.667969	43.921658
19489.252074	16934.997167	1059.517578	61.077873
19489.252074	16934.997167	1058.368164	109.238182
19489.252074	16934.997167	1057.217773	346.201263
19489.252074	16934.997167	1056.067383	46.822224
19489.252074	16934.997167	1054.916016	182.694199
19489.252074	16934.997167	1053.764648	-87.303978
19489.252074	16934.997167	1052.613281	-39.076832
19489.252074	16934.997167	1051.461914	1.637183
19489.252074	16934.997167	1050.310547	8.302741
19489.252074	16934.997167	1049.158203	-31.950420
19489.252074	16934.997167	1048.005859	58.331413
19489.252074	16934.997167	1046.853516	-178.941727
19489.252074	16934.997167	1045.700195	-147.085724
19489.252074	16934.997167	1044.547852	-78.512184
19489.252074	16934.997167	1043.394531	-19.108730
19489.252074	16934.997167	1042.240234	14.897651
19489.252074	16934.997167	1041.086914	68.332458
19489.252074	16934.997167	1039.932617	48.082779
19489.252074	16934.997167	1038.778320	260.445221
19489.252074	16934.997167	1037.624023	171.242081
19489.252074	16934.997167	1036.469727	560.256592
19489.252074	16934.997167	1035.314453	508.017548
19489.252074	16934.997167	1034.159180	600.208923
19489.252074	16934.997167	1033.003906	742.434265
19489.252074	16934.997167	1031.847656	985.366638
19489.252074	16934.997167	1030.692383	970.757751
19489.252074	16934.997167	1029.536133	855.172363
19489.252074	16934.997167	1028.378906	718.268311
19489.252074	16934.997167	1027.222656	666.841125
19489.252074	16934.997167	1026.065430	606.706848
19489.252074	16934.997167	1024.908203	473.755371
19489.252074	16934.997167	1023.750977	302.307373
19489.252074	16934.997167	1022.593750	172.286804
19489.252074	16934.997167	1021.435547	314.055298
19489.252074	16934.997167	1020.277344	86.407768
19489.252074	16934.997167	1019.119141	257.985077
19489.252074	16934.997167	1017.959961	3.783278
19489.252074	16934.997167	1016.800781	74.898460
19489.252074	16934.997167	1015.641602	33.844616
19489.252074	16934.997167	1014.482422	-43.200199
19489.252074	16934.997167	1013.323242	114.752640
19489.252074	16934.997167	1012.163086	107.130302
19489.252074	16934.997167	1011.002930	112.013931
19489.252074	16934.997167	1009.842773	-41.363670
19489.252074	16934.997167	1008.681641	-101.724075
19489.252074	16934.997167	1007.520508	80.477142
19489.252074	16934.997167	1006.359375	117.613464
19489.252074	16934.997167	1005.198242	135.644333
19489.252074	16934.997167	1004.037109	137.929565
19489.252074	16934.997167	1002.875000	190.204117
19489.252074	16934.997167	1001.712891	156.829498
19489.252074	16934.997167	1000.550781	221.438995
19489.252074	16934.997167	999.387695	168.978210
19489.252074	16934.997167	998.224609	238.697708
19489.252074	16934.997167	997.061523	-126.489876
19489.252074	16934.997167	995.898438	55.505875
19489.252074	16934.997167	994.734375	177.872330
19489.252074	16934.997167	993.571289	164.994186
19489.252074	16934.997167	992.407227	-118.367744
19489.252074	16934.997167	991.242188	158.509460
19489.252074	16934.997167	990.078125	77.155762
19489.252074	16934.997167	988.913086	-32.850334
19489.252074	16934.997167	987.748047	79.377647
19489.252074	16934.997167	986.583008	23.598194
19489.252074	16934.997167	985.416992	-95.524567
19489.252074	16934.997167	984.250977	-84.878220
19489.252074	16934.997167	983.084961	0.558449
19489.252074	16934.997167	981.918945	-190.205048
19489.252074	16934.997167	980.751953	162.982361
19489.252074	16934.997167	979.584961	-35.278172
19489.252074	16934.997167	978.417969	141.704559
19489.252074	16934.997167	977.250977	125.867851
19489.252074	16934.997167	976.083008	19.294992
19489.252074	16934.997167	974.915039	-30.086180
19489.252074	16934.997167	973.747070	55.355991
19489.252074	16934.997167	972.579102	125.297127
19489.252074	16934.997167	971.410156	550.607300
19489.252074	16934.997167	970.242188	162.394424
19489.252074	16934.997167	969.072266	210.663284
19489.252074	16934.997167	967.903320	262.560272
19489.252074	16934.997167	966.733398	266.939423
19489.252074	16934.997167	965.563477	155.283173
19489.252074	16934.997167	964.393555	126.100266
19489.252074	16934.997167	963.223633	52.020466
19489.252074	16934.997167	962.052734	294.240295
19489.252074	16934.997167	960.881836	6.776787
19489.252074	16934.997167	959.710938	-91.964821
19489.252074	16934.997167	958.540039	224.250778
19489.252074	16934.997167	957.368164	64.894157
19489.252074	16934.997167	956.196289	1.744502
19489.252074	16934.997167	955.024414	205.016647
19489.252074	16934.997167	953.851563	-15.473368
19489.252074	16934.997167	952.679688	127.392281
19489.252074	16934.997167	951.506836	-259.389160
19489.252074	16934.997167	950.333984	-105.812424
19489.252074	16934.997167	949.160156	118.877647
19489.252074	16934.997167	947.986328	-123.166008
19489.252074	16934.997167	946.812500	-30.447258
19489.252074	16934.997167	945.638672	-52.799061
19489.252074	16934.997167	944.464844	-75.817062
19489.252074	16934.997167	943.290039	-164.912491
19489.252074	16934.997167	942.115234	-94.568687
19489.252074	16934.997167	940.940430	143.860916
19489.252074	16934.997167	939.764648	-178.768524
19489.252074	16934.997167	938.588867	93.912445
19489.252074	16934.997167	937.413086	123.194954
19489.252074	16934.997167	936.237305	71.191391
19489.252074	16934.997167	935.060547	64.463661
19489.252074	16934.997167	933.883789	19.092506
19489.252074	16934.997167	932.707031	67.620041
19489.252074	16934.997167	931.530273	-163.196777
19489.252074	16934.997167	930.352539	-99.749474
19489.252074	16934.997167	929.175781	95.424011
19489.252074	16934.997167	927.998047	-133.144119
19489.252074	16934.997167	926.819336	-276.577972
19489.252074	16934.997167	925.641602	-151.794922
19489.252074	16934.997167	924.462891	-173.975113
19489.252074	16934.997167	923.284180	-64.248970
19489.252074	16934.997167	922.104492	-229.118851
19489.252074	16934.997167	920.924805	135.748810
19489.252074	16934.997167	919.746094	142.062836
19489.252074	16934.997167	919.551758	-147.304688
19489.252074	16934.997167	918.386719	57.687237
19489.252074	16934.997167	917.220703	-271.140167
19489.252074	16934.997167	916.054688	-155.627884
19489.252074	16934.997167	914.887695	-186.874374
19489.252074	16934.997167	913.721680	-186.309387
19489.252074	16934.997167	912.554688	-77.463974
19489.252074	16934.997167	911.387695	145.966599
19489.252074	16934.997167	910.220703	-106.441353
19489.252074	16934.997167	909.052734	-76.430122
19489.252074	16934.997167	907.885742	299.500793
19489.252074	16934.997167	906.717773	-182.179214
19489.252074	16934.997167	905.548828	-78.093269
19489.252074	16934.997167	904.380859	-88.672150
19489.252074	16934.997167	903.211914	206.117615
19489.252074	16934.997167	902.042969	25.725773
19489.252074	16934.997167	900.874023	294.813568
19489.252074	16934.997167	899.704102	286.060150
19489.252074	16934.997167	898.535156	304.798920
19489.252074	16934.997167	897.365234	96.765991
19489.252074	16934.997167	896.194336	284.905640
19489.252074	16934.997167	895.024414	89.561317
19489.252074	16934.997167	893.853516	218.229553
19489.252074	16934.997167	892.682617	217.651489
19489.252074	16934.997167	891.511719	181.040100
19489.252074	16934.997167	890.340820	118.999992
19489.252074	16934.997167	889.168945	236.783157
19489.252074	16934.997167	887.997070	379.856476
19489.252074	16934.997167	886.825195	237.308853
19489.252074	16934.997167	885.653320	443.666809
19489.252074	16934.997167	884.480469	415.238770
19489.252074	16934.997167	883.307617	295.893097
19489.252074	16934.997167	882.134766	440.704132
19489.252074	16934.997167	880.961914	38.207058
19489.252074	16934.997167	879.788086	138.575424
19489.252074	16934.997167	878.614258	-46.243160
19489.252074	16934.997167	877.440430	83.585327
19489.252074	16934.997167	876.266602	65.550194
19489.252074	16934.997167	875.091797	30.605118
19489.252074	16934.997167	873.916992	-95.098106
19489.252074	16934.997167	872.742188	47.154415
19489.252074	16934.997167	871.567383	-2.632414
19489.252074	16934.997167	870.391602	152.133606
19489.252074	16934.997167	869.215820	100.177628
19489.252074	16934.997167	868.040039	79.832634
19489.252074	16934.997167	866.864258	93.187492
19489.252074	16934.997167	865.687500	-95.775093
19489.252074	16934.997167	864.510742	92.417145
19489.252074	16934.997167	863.333984	17.218287
19489.252074	16934.997167	862.157227	-243.291641
19489.252074	16934.997167	860.979492	144.757629
19489.252074	16934.997167	859.802734	128.460327
19489.252074	16934.997167	858.625000	-14.124627
19489.252074	16934.997167	857.446289	-74.607719
19489.252074	16934.997167	856.268555	-105.638794
19489.252074	16934.997167	855.089844	130.440552
19489.252074	16934.997167	853.911133	111.961113
19489.252074	16934.997167	852.731445	-68.413094
19489.252074	16934.997167	851.552734	-17.515398
19489.252074	16934.997167	850.373047	3.924731
19489.252074	16934.997167	849.193359	227.047668
19489.252074	16934.997167	848.013672	216.887451
19489.252074	16934.997167	846.833008	355.838440
19489.252074	16934.997167	845.652344	368.728516
19489.252074	16934.997167	844.471680	341.711761
19489.252074	16934.997167	843.291016	104.798767
19489.252074	16934.997167	842.110352	205.833008
19489.252074	16934.997167	840.928711	120.088661
19489.252074	16934.997167	839.747070	63.736370
19489.252074	16934.997167	838.564453	26.275837
19489.252074	16934.997167	837.382813	-107.633957
19489.252074	16934.997167	836.200195	-142.964096
19489.252074	16934.997167	835.017578	-310.331024
19489.252074	16934.997167	833.834961	-255.511459
19489.252074	16934.997167	832.651367	-56.158131
19489.252074	16934.997167	831.467773	-85.208801
19489.252074	16934.997167	830.284180	-292.259552
19489.252074	16934.997167	829.100586	-88.847832
19489.252074	16934.997167	827.916992	-233.019943
19489.252074	16934.997167	826.732422	77.029297
19489.252074	16934.997167	825.547852	12.395265
19489.252074	16934.997167	824.363281	-244.684189
19489.252074	16934.997167	823.177734	0.333382
19489.252074	16934.997167	821.992188	4.762055
19489.252074	16934.997167	820.806641	32.187302
19489.252074	16934.997167	819.621094	107.678940
19489.252074	16934.997167	818.434570	-9.127868
19489.252074	16934.997167	817.249023	-176.035217
19489.252074	16934.997167	816.062500	-221.704971
19489.252074	16934.997167	814.875000	-442.793915
19489.252074	16934.997167	813.688477	-33.163742
19489.252074	16934.997167	812.500977	61.053905
19489.252074	16934.997167	811.313477	69.655403
19489.252074	16934.997167	810.125977	-163.819824
19489.252074	16934.997167	808.937500	-82.139084
19489.252074	16934.997167	807.749023	24.544718
19489.252074	16934.997167	806.560547	83.220177
19489.252074	16934.997167	805.372070	60.555557
19489.252074	16934.997167	804.182617	85.856743
19489.252074	16934.997167	802.994141	-43.087791
19489.252074	16934.997167	801.803711	169.785507
19489.252074	16934.997167	800.614258	-157.033707
19489.252074	16934.997167	799.424805	-46.282574
19489.252074	16934.997167	798.234375	139.404282
19489.252074	16934.997167	797.043945	77.246826
19489.252074	16934.997167	795.852539	52.595768
19489.252074	16934.997167	794.662109	169.484512
19489.252074	16934.997167	793.470703	-2.902292
19489.252074	16934.997167	792.279297	168.057556
19489.252074	16934.997167	791.087891	166.316299
19489.252074	16934.997167	789.895508	164.584930
19489.252074	16934.997167	788.703125	-165.639389
19489.252074	16934.997167	787.510742	-15.542194
19489.252074	16934.997167	786.318359	-6.821704
19489.252074	16934.997167	785.125000	24.761368
19489.252074	16934.997167	783.931641	-26.756884
19489.252074	16934.997167	782.738281	-105.246613
19489.252074	16934.997167	781.544922	-202.385605
19489.252074	16934.997167	780.350586	-2.590883
19489.252074	16934.997167	779.156250	-265.747345
19489.252074	16934.997167	777.961914	-155.244736
19489.252074	16934.997167	776.767578	-202.466003
19489.252074	16934.997167	775.572266	-191.575287
19489.252074	16934.997167	774.376953	-141.276901
19489.252074	16934.997167	773.181641	-45.376720
19489.252074	16934.997167	771.986328	-212.790939
19489.252074	16934.997167	770.790039	-46.429852
19489.252074	16934.997167	769.593750	140.590012
19489.252074	16934.997167	768.397461	250.880722
19489.252074	16934.997167	767.201172	87.712479
19489.252074	16934.997167	766.003906	79.938637
19489.252074	16934.997167	764.806641	97.019714
19489.252074	16934.997167	763.609375	120.307922
19489.252074	16934.997167	762.412109	-46.817196
19489.252074	16934.997167	761.213867	55.132389
19489.252074	16934.997167	760.015625	183.935486
19489.252074	16934.997167	758.817383	-1.700307
19489.252074	16934.997167	757.618164	371.084106
19489.252074	16934.997167	756.419922	160.681580
19489.252074	16934.997167	755.220703	126.070435
19489.252074	16934.997167	754.021484	120.408287
19489.252074	16934.997167	752.821289	-77.404839
19489.252074	16934.997167	751.621094	3.743703
19489.252074	16934.997167	750.420898	-165.047974
19489.252074	16934.997167	749.220703	-19.905413
19489.252074	16934.997167	748.020508	220.141541
19489.252074	16934.997167	746.819336	131.905899
19489.252074	16934.997167	745.618164	382.137939
19489.252074	16934.997167	744.416992	339.289185
19489.252074	16934.997167	743.214844	585.242920
19489.252074	16934.997167	742.012695	134.025711
19489.252074	16934.997167	740.810547	142.793198
19489.252074	16934.997167	739.608398	302.036865
19489.252074	16934.997167	738.406250	479.756989
19489.252074	16934.997167	737.203125	572.913879
19489.252074	16934.997167	736.000000	711.347595
19489.252074	16934.997167	734.795898	1201.933350
19489.252074	16934.997167	733.592773	1288.676270
19489.252074	16934.997167	732.388672	1352.727905
19489.252074	16934.997167	731.184570	1480.553345
19489.252074	16934.997167	729.979492	1416.922119
19489.252074	16934.997167	728.775391	1402.683228
19489.252074	16934.997167	727.570313	939.979248
19489.252074	16934.997167	726.365234	771.566223
19489.252074	16934.997167	725.160156	459.267548
19489.252074	16934.997167	723.954102	389.678955
19489.252074	16934.997167	722.748047	207.052505
19489.252074	16934.997167	721.541992	188.885361
19489.252074	16934.997167	720.334961	195.365005
19489.252074	16934.997167	719.128906	43.649830
19489.252074	16934.997167	717.921875	121.996552
19489.252074	16934.997167	716.714844	-99.491211
19489.252074	16934.997167	715.506836	-103.303818
19489.252074	16934.997167	714.298828	159.677002
19489.252074	16934.997167	713.090820	28.540123
19489.252074	16934.997167	711.882813	41.042347
19489.252074	16934.997167	710.674805	12.489314
19489.252074	16934.997167	709.465820	-73.496216
19489.252074	16934.997167	708.256836	6.596653
19489.252074	16934.997167	707.047852	121.474892
19489.252074	16934.997167	705.837891	-151.063065
19489.252074	16934.997167	704.627930	74.383354
19489.252074	16934.997167	703.417969	-171.464249
19489.252074	16934.997167	702.208008	21.055162
19489.252074	16934.997167	700.998047	51.690495
19489.252074	16934.997167	699.787109	4.483162
19489.252074	16934.997167	698.576172	135.332855
19489.252074	16934.997167	697.364258	145.353180
19489.252074	16934.997167	696.153320	-206.810455
19489.252074	16934.997167	694.941406	34.343651
19489.252074	16934.997167	693.729492	36.074650
19489.252074	16934.997167	692.516602	172.713745
19489.252074	16934.997167	691.304688	2.610714
19489.252074	16934.997167	690.091797	182.028641
19489.252074	16934.997167	688.878906	273.459259
19489.252074	16934.997167	687.665039	148.250153
19489.252074	16934.997167	686.451172	221.171432
19489.252074	16934.997167	685.237305	185.778549
19489.252074	16934.997167	684.023438	17.640667
19489.252074	16934.997167	682.809570	355.749756
19489.252074	16934.997167	681.594727	426.316498
19489.252074	16934.997167	680.379883	284.598480
19489.252074	16934.997167	679.165039	265.280029
19489.252074	16934.997167	677.949219	433.551178
19489.252074	16934.997167	676.733398	416.133514
19489.252074	16934.997167	675.517578	406.817841
19489.252074	16934.997167	674.301758	273.111725
19489.252074	16934.997167	673.084961	241.290939
19489.252074	16934.997167	671.869141	580.221191
19489.252074	16934.997167	670.651367	407.671539
19489.252074	16934.997167	669.434570	320.660614
19489.252074	16934.997167	668.216797	276.377563
19489.252074	16934.997167	667.000000	337.896606
19489.252074	16934.997167	665.781250	523.472351
19489.252074	16934.997167	664.563477	448.440613
19489.252074	16934.997167	663.344727	332.682434
19489.252074	16934.997167	662.125977	336.900513
19489.252074	16934.997167	660.907227	497.623932
19489.252074	16934.997167	659.688477	332.907196
19489.252074	16934.997167	658.468750	257.621094
19489.252074	16934.997167	657.249023	661.893372
19489.252074	16934.997167	656.029297	643.300964
19489.252074	16934.997167	654.808594	600.258423
19489.252074	16934.997167	653.587891	425.139832
19489.252074	16934.997167	652.367188	568.802368
19489.252074	16934.997167	651.146484	363.144379
19489.252074	16934.997167	649.924805	463.964935
19489.252074	16934.997167	648.704102	806.134033
19489.252074	16934.997167	647.482422	502.911194
19489.252074	16934.997167	646.259766	585.118286
19489.252074	16934.997167	645.037109	523.214783
19489.252074	16934.997167	643.815430	609.253296
19489.252074	16934.997167	642.591797	549.212463
19489.252074	16934.997167	641.369141	363.450287
19489.252074	16934.997167	640.145508	451.210846
19489.252074	16934.997167	638.921875	461.858307
19489.252074	16934.997167	637.698242	595.949280
19489.252074	16934.997167	636.474609	316.798126
19489.252074	16934.997167	635.250000	487.105560
19489.252074	16934.997167	634.025391	347.555481
19489.252074	16934.997167	632.800781	317.239685
19489.252074	16934.997167	631.575195	315.157410
19489.252074	16934.997167	630.349609	381.746826
19489.252074	16934.997167	629.124023	189.339935
19489.252074	16934.997167	627.898438	342.660461
19489.252074	16934.997167	626.671875	321.957428
19489.252074	16934.997167	625.445313	97.024773
19489.252074	16934.997167	624.218750	70.103798
19489.252074	16934.997167	622.992188	168.336227
19489.252074	16934.997167	621.764648	114.931755
19489.252074	16934.997167	620.537109	21.048975
19489.252074	16934.997167	619.309570	-54.735764
19489.252074	16934.997167	618.081055	127.765518
19489.252074	16934.997167	616.852539	-146.010910
19489.252074	16934.997167	615.624023	114.890251
19489.252074	16934.997167	614.395508	216.203629
19489.252074	16934.997167	613.166992	71.308395
19489.252074	16934.997167	611.937500	21.123629
19489.252074	16934.997167	610.708008	180.499222
19489.252074	16934.997167	609.477539	57.514244
19489.252074	16934.997167	608.248047	121.865944
19489.252074	16934.997167	607.017578	109.510941
19489.252074	16934.997167	605.787109	24.527117
19489.252074	16934.997167	604.555664	84.447365
19489.252074	16934.997167	603.325195	-22.886690
19489.252074	16934.997167	602.093750	83.069771
19489.252074	16934.997167	600.861328	-104.972122
19489.252074	16934.997167	599.629883	183.807449
19489.252074	16934.997167	598.397461	19.714485
19489.252074	16934.997167	597.165039	-5.660568
19489.252074	16934.997167	595.932617	-181.961670
19489.252074	16934.997167	594.699219	-117.071571
19489.252074	16934.997167	593.465820	-128.714905
19489.252074	16934.997167	592.232422	-98.281654
19489.252074	16934.997167	590.999023	-240.770172
19489.252074	16934.997167	589.764648	-78.014679
19489.252074	16934.997167	588.530273	-182.551819
19489.252074	16934.997167	587.295898	34.076180
19489.252074	16934.997167	586.061523	95.913048
19489.252074	16934.997167	584.826172	-91.271240
19489.252074	16934.997167	583.590820	-188.213028
19489.252074	16934.997167	582.355469	-170.895844
19489.252074	16934.997167	581.119141	-71.489418
19489.252074	16934.997167	579.882813	-236.946503
19489.252074	16934.997167	578.646484	-39.594307
19489.252074	16934.997167	577.410156	-171.175064
19489.252074	16934.997167	576.172852	-4.247467
19489.252074	16934.997167	574.935547	120.405174
19489.252074	16934.997167	573.698242	-55.593090
19489.252074	16934.997167	572.460938	6.670882
19489.252074	16934.997167	571.222656	146.858810
19489.252074	16934.997167	569.984375	-5.409789
19489.252074	16934.997167	568.746094	-147.738312
19489.252074	16934.997167	567.506836	-174.086349
19489.252074	16934.997167	566.267578	27.506805
19489.252074	16934.997167	565.028320	88.874344
19489.252074	16934.997167	563.789063	324.057526
19489.252074	16934.997167	562.548828	169.148148
19489.252074	16934.997167	561.309570	208.065750
19489.252074	16934.997167	560.068359	68.966957
19489.252074	16934.997167	558.828125	13.718189
19489.252074	16934.997167	557.586914	230.022980
19489.252074	16934.997167	556.345703	118.577400
19489.252074	16934.997167	555.104492	-10.919952
19489.252074	16934.997167	553.863281	-50.660099
19489.252074	16934.997167	552.621094	-114.468803
19489.252074	16934.997167	551.378906	-82.599754
19489.252074	16934.997167	550.136719	-222.441162
19489.252074	16934.997167	548.893555	74.450470
19489.252074	16934.997167	547.650391	38.066940
19489.252074	16934.997167	546.407227	-135.993607
19489.252074	16934.997167	545.164063	-196.490433
19489.252074	16934.997167	543.919922	45.818481
19489.252074	16934.997167	542.675781	-222.163498
19489.252074	16934.997167	541.431641	23.779005
19489.252074	16934.997167	540.186523	-176.628830
19489.252074	16934.997167	538.941406	-28.624918
19489.252074	16934.997167	537.696289	-135.620804
19489.252074	16934.997167	536.451172	-270.559265
19489.252074	16934.997167	535.205078	-150.867828
19489.252074	16934.997167	533.959961	-172.593109
19489.252074	16934.997167	532.712891	14.397922
19489.252074	16934.997167	531.466797	-17.549042
19489.252074	16934.997167	530.219727	135.287109
19489.252074	16934.997167	528.972656	87.175095
19489.252074	16934.997167	527.725586	1.204376
19489.252074	16934.997167	526.478516	-136.508240
19489.252074	16934.997167	525.230469	236.229156
19489.252074	16934.997167	523.982422	10.893633
19489.252074	16934.997167	522.734375	65.505295
19489.252074	16934.997167	521.485352	6.811426
19489.252074	16934.997167	520.236328	253.677032
19489.252074	16934.997167	518.987305	119.329231
19489.252074	16934.997167	517.737305	96.011086
19489.252074	16934.997167	516.488281	179.703781
19489.252074	16934.997167	515.238281	259.269775
19489.252074	16934.997167	513.988281	102.754097
19489.252074	16934.997167	512.737305	59.165043
19489.252074	16934.997167	511.486328	-12.263738
19489.252074	16934.997167	510.235352	-165.011322
19489.252074	16934.997167	508.984375	114.032043
19489.252074	16934.997167	507.732422	91.797043
19489.252074	16934.997167	506.480469	-75.086929
19489.252074	16934.997167	505.228516	17.319849
19489.252074	16934.997167	503.976563	-68.555618
19489.252074	16934.997167	502.723633	138.343842
19489.252074	16934.997167	501.470703	70.048157
19489.252074	16934.997167	500.217773	280.557434
19489.252074	16934.997167	498.963867	117.103302
19489.252074	16934.997167	497.709961	163.176697
19489.252074	16934.997167	496.456055	414.689697
19489.252074	16934.997167	495.202148	482.192017
19489.252074	16934.997167	493.947266	691.798462
19489.252074	16934.997167	492.692383	581.187561
19489.252074	16934.997167	491.437500	660.106201
19489.252074	16934.997167	490.181641	450.581696
19489.252074	16934.997167	488.926758	746.415405
19489.252074	16934.997167	487.670898	516.994324
19489.252074	16934.997167	486.414063	508.550079
19489.252074	16934.997167	485.158203	549.321655
19489.252074	16934.997167	483.901367	631.367249
19489.252074	16934.997167	482.644531	399.713104
19489.252074	16934.997167	481.386719	31.989912
19489.252074	16934.997167	480.128906	442.898743
19489.252074	16934.997167	478.871094	559.872986
19489.252074	16934.997167	477.613281	637.265869
19489.252074	16934.997167	476.355469	726.320068
19489.252074	16934.997167	475.096680	543.414429
19489.252074	16934.997167	473.837891	516.008545
19489.252074	16934.997167	472.578125	462.879211
19489.252074	16934.997167	471.319336	905.629517
19489.252074	16934.997167	470.059570	590.462708
19489.252074	16934.997167	468.799805	776.957520
19489.252074	16934.997167	467.539063	746.860413
19489.252074	16934.997167	466.278320	659.607361
19489.252074	16934.997167	465.017578	684.310974
19489.252074	16934.997167	463.756836	681.337524
19489.252074	16934.997167	462.495117	528.844543
19489.252074	16934.997167	461.233398	564.881042
19489.252074	16934.997167	459.971680	624.314758
19489.252074	16934.997167	458.709961	701.235840
19489.252074	16934.997167	457.447266	783.835815
19489.252074	16934.997167	456.184570	838.745361
19489.252074	16934.997167	454.921875	789.438904
19489.252074	16934.997167	453.658203	869.466125
19489.252074	16934.997167	452.394531	707.973206
19489.252074	16934.997167	451.130859	877.834229
19489.252074	16934.997167	449.867188	918.007019
19489.252074	16934.997167	448.602539	1269.670654
19489.252074	16934.997167	447.337891	1285.799072
19489.252074	16934.997167	446.073242	1313.470337
19489.252074	16934.997167	444.807617	1191.993408
19489.252074	16934.997167	443.542969	1554.188843
19489.252074	16934.997167	442.276367	1559.539307
19489.252074	16934.997167	441.010742	1549.001831
19489.252074	16934.997167	439.744141	1518.631714
19489.252074	16934.997167	438.478516	1231.654297
19489.252074	16934.997167	437.210938	1251.710693
19489.252074	16934.997167	435.944336	1251.942749
19489.252074	16934.997167	434.676758	960.457397
19489.252074	16934.997167	433.409180	891.731079
19489.252074	16934.997167	432.141602	1010.420593
19489.252074	16934.997167	430.873047	868.774414
19489.252074	16934.997167	429.604492	906.656982
19489.252074	16934.997167	428.335938	871.907654
19489.252074	16934.997167	427.067383	748.937622
19489.252074	16934.997167	425.797852	902.963623
19489.252074	16934.997167	424.528320	951.130615
19489.252074	16934.997167	423.258789	975.477661
19489.252074	16934.997167	421.988281	841.328491
19489.252074	16934.997167	420.717773	864.886353
19489.252074	16934.997167	419.447266	726.106873
19489.252074	16934.997167	418.175781	832.684570
19489.252074	16934.997167	416.905273	1010.946228
19489.252074	16934.997167	415.633789	896.227051
19489.252074	16934.997167	414.362305	1260.561523
19489.252074	16934.997167	413.089844	1004.552856
19489.252074	16934.997167	411.817383	1009.217590
19489.252074	16934.997167	410.544922	980.246033
19489.252074	16934.997167	409.272461	656.691223
19489.252074	16934.997167	407.999023	1023.871460
19489.252074	16934.997167	406.725586	794.673706
19489.252074	16934.997167	405.452148	903.606140
19489.252074	16934.997167	404.177734	830.900146
19489.252074	16934.997167	402.903320	1150.537598
19489.252074	16934.997167	401.628906	864.526978
19489.252074	16934.997167	400.354492	799.626160
19489.252074	16934.997167	399.079102	658.208252
19489.252074	16934.997167	397.803711	582.209534
19489.252074	16934.997167	396.528320	651.231628
19489.252074	16934.997167	395.251953	536.802002
19489.252074	16934.997167	393.976563	629.481140
19489.252074	16934.997167	392.700195	649.412720
19489.252074	16934.997167	391.422852	532.548828
19489.252074	16934.997167	390.145508	519.670593
19489.252074	16934.997167	388.869141	344.845947
19489.252074	16934.997167	387.590820	504.752197
19489.252074	16934.997167	386.313477	423.116638
19489.252074	16934.997167	385.035156	596.480164
19489.252074	16934.997167	383.756836	379.002014
19489.252074	16934.997167	382.478516	569.583618
19489.252074	16934.997167	381.199219	332.561951
19489.252074	16934.997167	379.919922	476.232513
19489.252074	16934.997167	378.640625	403.632690
19489.252074	16934.997167	377.360352	343.375183
19489.252074	16934.997167	376.080078	270.276703
19489.252074	16934.997167	374.799805	441.799347
19489.252074	16934.997167	373.519531	379.650452
19489.252074	16934.997167	372.238281	147.762924
19489.252074	16934.997167	370.957031	125.454987
19489.252074	16934.997167	369.675781	279.661224
19489.252074	16934.997167	368.394531	122.883507
19489.252074	16934.997167	367.112305	229.471725
19489.252074	16934.997167	365.830078	48.333790
19489.252074	16934.997167	364.546875	116.830414
19489.252074	16934.997167	363.264648	106.375580
19489.252074	16934.997167	361.981445	-35.291840
19489.252074	16934.997167	360.698242	8.659860
19489.252074	16934.997167	359.414063	-115.364128
19489.252074	16934.997167	358.129883	7.809712
19489.252074	16934.997167	356.845703	107.746513
19489.252074	16934.997167	355.561523	57.049175
19489.252074	16934.997167	354.276367	79.490555
19489.252074	16934.997167	352.991211	-60.296574
19489.252074	16934.997167	351.706055	121.765053
19489.252074	16934.997167	350.420898	31.577454
19489.252074	16934.997167	349.134766	-33.962200
19489.252074	16934.997167	347.848633	19.558743
19489.252074	16934.997167	346.561523	-185.719269
19489.252074	16934.997167	345.275391	153.725342
19489.252074	16934.997167	343.988281	5.034550
19489.252074	16934.997167	342.700195	48.146049
19489.252074	16934.997167	341.413086	55.857685
19489.252074	16934.997167	340.125000	-45.178055
19489.252074	16934.997167	338.836914	14.503990
19489.252074	16934.997167	337.548828	227.022308
19489.252074	16934.997167	336.259766	161.272568
19489.252074	16934.997167	334.970703	-40.265362
19489.252074	16934.997167	333.681641	16.537249
19489.252074	16934.997167	332.391602	-8.887898
19489.252074	16934.997167	331.101563	-24.243204
19489.252074	16934.997167	329.811523	-131.450577
19489.252074	16934.997167	328.521484	-130.775620
19489.252074	16934.997167	327.230469	-444.984680
19489.252074	16934.997167	325.939453	-338.498657
19489.252074	16934.997167	324.648438	-13.247487
19489.252074	16934.997167	323.356445	-45.348404
19489.252074	16934.997167	322.064453	-4.759401
19489.252074	16934.997167	320.772461	-6.729347
19489.252074	16934.997167	319.480469	-231.628403
19489.252074	16934.997167	318.187500	-17.999596
19489.252074	16934.997167	316.894531	66.413231
19489.252074	16934.997167	315.601563	142.334579
19489.252074	16934.997167	314.307617	67.709808
19489.252074	16934.997167	313.013672	124.278343
19489.252074	16934.997167	311.719727	-134.459396
19489.252074	16934.997167	310.425781	-110.942886
19489.252074	16934.997167	309.130859	-261.306458
19489.252074	16934.997167	307.835938	-36.054340
19489.252074	16934.997167	306.541016	-103.463867
19489.252074	16934.997167	305.245117	255.765411
19489.252074	16934.997167	303.949219	-94.892365
19489.252074	16934.997167	302.653320	151.117157
19489.252074	16934.997167	301.356445	471.086456
19489.252074	16934.997167	300.060547	238.146347
19489.252074	16934.997167	298.763672	692.546387
