#X		#Y		#Wave		#Intensity
19427.312340	16949.197500	2000.043945	151.999420
19427.312340	16949.197500	1999.080078	-123.630058
19427.312340	16949.197500	1998.116211	-190.266830
19427.312340	16949.197500	1997.151367	-73.618004
19427.312340	16949.197500	1996.186523	-403.127228
19427.312340	16949.197500	1995.222656	45.211552
19427.312340	16949.197500	1994.256836	243.123520
19427.312340	16949.197500	1993.291992	232.830063
19427.312340	16949.197500	1992.327148	-151.421646
19427.312340	16949.197500	1991.361328	-72.732605
19427.312340	16949.197500	1990.395508	40.477169
19427.312340	16949.197500	1989.429688	59.518421
19427.312340	16949.197500	1988.463867	46.295551
19427.312340	16949.197500	1987.497070	35.468510
19427.312340	16949.197500	1986.531250	222.402771
19427.312340	16949.197500	1985.564453	184.179718
19427.312340	16949.197500	1984.597656	175.559036
19427.312340	16949.197500	1983.630859	95.186867
19427.312340	16949.197500	1982.664063	71.613571
19427.312340	16949.197500	1981.696289	47.984440
19427.312340	16949.197500	1980.728516	24.301344
19427.312340	16949.197500	1979.761719	-95.765678
19427.312340	16949.197500	1978.792969	73.084915
19427.312340	16949.197500	1977.825195	44.296051
19427.312340	16949.197500	1976.857422	42.619915
19427.312340	16949.197500	1975.888672	107.534958
19427.312340	16949.197500	1974.919922	41.597641
19427.312340	16949.197500	1973.951172	237.158356
19427.312340	16949.197500	1972.982422	144.001038
19427.312340	16949.197500	1972.013672	36.044292
19427.312340	16949.197500	1971.043945	83.437851
19427.312340	16949.197500	1970.075195	29.696314
19427.312340	16949.197500	1969.105469	266.802032
19427.312340	16949.197500	1968.135742	410.143280
19427.312340	16949.197500	1967.165039	235.558838
19427.312340	16949.197500	1966.195313	233.453934
19427.312340	16949.197500	1965.224609	174.683426
19427.312340	16949.197500	1964.253906	152.850311
19427.312340	16949.197500	1963.283203	96.536621
19427.312340	16949.197500	1962.312500	99.308716
19427.312340	16949.197500	1961.341797	183.281723
19427.312340	16949.197500	1960.370117	82.659073
19427.312340	16949.197500	1959.399414	127.214935
19427.312340	16949.197500	1958.427734	61.055447
19427.312340	16949.197500	1957.455078	61.320835
19427.312340	16949.197500	1956.483398	-12.193351
19427.312340	16949.197500	1955.511719	-7.016421
19427.312340	16949.197500	1954.539063	-4.298857
19427.312340	16949.197500	1953.566406	-129.375671
19427.312340	16949.197500	1952.593750	195.236847
19427.312340	16949.197500	1951.621094	-37.924854
19427.312340	16949.197500	1950.647461	28.658424
19427.312340	16949.197500	1949.674805	254.834625
19427.312340	16949.197500	1948.701172	-91.138428
19427.312340	16949.197500	1947.727539	157.079727
19427.312340	16949.197500	1946.753906	125.417839
19427.312340	16949.197500	1945.780273	101.136612
19427.312340	16949.197500	1944.805664	133.301865
19427.312340	16949.197500	1943.831055	57.535091
19427.312340	16949.197500	1942.856445	148.575394
19427.312340	16949.197500	1941.881836	-191.971008
19427.312340	16949.197500	1940.907227	-284.767456
19427.312340	16949.197500	1939.932617	-22.104269
19427.312340	16949.197500	1938.957031	34.619282
19427.312340	16949.197500	1937.981445	-92.432640
19427.312340	16949.197500	1937.005859	140.691681
19427.312340	16949.197500	1936.030273	-157.757248
19427.312340	16949.197500	1935.054688	239.392914
19427.312340	16949.197500	1934.078125	149.182236
19427.312340	16949.197500	1933.101563	132.456253
19427.312340	16949.197500	1932.125000	-170.603058
19427.312340	16949.197500	1931.148438	40.342525
19427.312340	16949.197500	1930.171875	-113.314156
19427.312340	16949.197500	1929.194336	173.406311
19427.312340	16949.197500	1928.217773	68.727432
19427.312340	16949.197500	1927.240234	8.119471
19427.312340	16949.197500	1926.262695	201.806503
19427.312340	16949.197500	1925.284180	192.564758
19427.312340	16949.197500	1924.306641	95.361603
19427.312340	16949.197500	1923.328125	-138.613953
19427.312340	16949.197500	1922.350586	84.335838
19427.312340	16949.197500	1921.372070	16.569885
19427.312340	16949.197500	1920.392578	-117.083687
19427.312340	16949.197500	1919.414063	-21.169519
19427.312340	16949.197500	1918.434570	-61.971260
19427.312340	16949.197500	1917.456055	53.454620
19427.312340	16949.197500	1916.476563	15.127213
19427.312340	16949.197500	1915.497070	50.020107
19427.312340	16949.197500	1914.516602	114.194519
19427.312340	16949.197500	1913.537109	144.208984
19427.312340	16949.197500	1912.556641	242.508408
19427.312340	16949.197500	1911.576172	-290.634979
19427.312340	16949.197500	1910.595703	39.298065
19427.312340	16949.197500	1909.615234	62.057190
19427.312340	16949.197500	1908.633789	-93.040581
19427.312340	16949.197500	1907.653320	-153.063980
19427.312340	16949.197500	1906.671875	-354.314148
19427.312340	16949.197500	1905.690430	-165.845261
19427.312340	16949.197500	1904.708984	297.687958
19427.312340	16949.197500	1903.727539	59.990143
19427.312340	16949.197500	1902.745117	-26.707684
19427.312340	16949.197500	1901.762695	10.741392
19427.312340	16949.197500	1900.780273	-324.049866
19427.312340	16949.197500	1899.797852	-276.810516
19427.312340	16949.197500	1898.815430	40.372982
19427.312340	16949.197500	1897.832031	94.844879
19427.312340	16949.197500	1896.849609	-144.862427
19427.312340	16949.197500	1895.866211	-199.739502
19427.312340	16949.197500	1894.882813	139.100586
19427.312340	16949.197500	1893.898438	35.615376
19427.312340	16949.197500	1892.915039	167.807861
19427.312340	16949.197500	1891.930664	-3.640681
19427.312340	16949.197500	1890.947266	14.385969
19427.312340	16949.197500	1889.962891	-33.137955
19427.312340	16949.197500	1888.977539	-165.597900
19427.312340	16949.197500	1887.993164	-169.379623
19427.312340	16949.197500	1887.007813	-22.706215
19427.312340	16949.197500	1886.023438	72.958427
19427.312340	16949.197500	1885.038086	100.676369
19427.312340	16949.197500	1884.051758	67.757423
19427.312340	16949.197500	1883.066406	524.641907
19427.312340	16949.197500	1882.081055	125.580276
19427.312340	16949.197500	1881.094727	211.436081
19427.312340	16949.197500	1880.108398	214.861755
19427.312340	16949.197500	1879.122070	106.829163
19427.312340	16949.197500	1878.135742	-54.465221
19427.312340	16949.197500	1877.148438	-196.321869
19427.312340	16949.197500	1876.162109	56.574570
19427.312340	16949.197500	1875.174805	72.108292
19427.312340	16949.197500	1874.187500	-120.550735
19427.312340	16949.197500	1873.199219	187.839905
19427.312340	16949.197500	1872.211914	99.261658
19427.312340	16949.197500	1871.223633	-18.321321
19427.312340	16949.197500	1870.236328	-179.415848
19427.312340	16949.197500	1869.248047	-221.956253
19427.312340	16949.197500	1868.258789	15.990197
19427.312340	16949.197500	1867.270508	408.547607
19427.312340	16949.197500	1866.282227	138.677063
19427.312340	16949.197500	1865.292969	311.128693
19427.312340	16949.197500	1864.303711	-250.999725
19427.312340	16949.197500	1863.314453	-153.459045
19427.312340	16949.197500	1862.324219	64.789848
19427.312340	16949.197500	1861.334961	-209.675629
19427.312340	16949.197500	1860.344727	380.266541
19427.312340	16949.197500	1859.354492	-51.094387
19427.312340	16949.197500	1858.364258	265.840363
19427.312340	16949.197500	1857.374023	126.585571
19427.312340	16949.197500	1856.383789	86.269279
19427.312340	16949.197500	1855.392578	205.145294
19427.312340	16949.197500	1854.401367	99.672928
19427.312340	16949.197500	1853.410156	-78.119385
19427.312340	16949.197500	1852.418945	158.763626
19427.312340	16949.197500	1851.426758	-202.201706
19427.312340	16949.197500	1850.435547	-1.589753
19427.312340	16949.197500	1849.443359	548.273682
19427.312340	16949.197500	1848.451172	283.703583
19427.312340	16949.197500	1847.458984	9.568241
19427.312340	16949.197500	1846.466797	178.567993
19427.312340	16949.197500	1845.473633	292.102875
19427.312340	16949.197500	1844.480469	116.712547
19427.312340	16949.197500	1843.487305	-58.644794
19427.312340	16949.197500	1842.494141	110.106209
19427.312340	16949.197500	1841.500977	4.507719
19427.312340	16949.197500	1840.506836	-60.194710
19427.312340	16949.197500	1839.513672	406.544464
19427.312340	16949.197500	1838.519531	459.525696
19427.312340	16949.197500	1837.525391	115.806541
19427.312340	16949.197500	1836.530273	-114.859764
19427.312340	16949.197500	1835.536133	-134.021103
19427.312340	16949.197500	1834.541016	67.818016
19427.312340	16949.197500	1833.545898	406.455536
19427.312340	16949.197500	1832.550781	305.425903
19427.312340	16949.197500	1831.555664	283.628754
19427.312340	16949.197500	1830.560547	201.776230
19427.312340	16949.197500	1829.564453	655.170105
19427.312340	16949.197500	1828.568359	366.803986
19427.312340	16949.197500	1827.572266	431.206390
19427.312340	16949.197500	1826.576172	243.650101
19427.312340	16949.197500	1825.580078	77.700775
19427.312340	16949.197500	1824.583008	-9.097768
19427.312340	16949.197500	1823.585938	33.552956
19427.312340	16949.197500	1822.588867	97.710869
19427.312340	16949.197500	1821.591797	195.346008
19427.312340	16949.197500	1820.594727	82.024124
19427.312340	16949.197500	1819.596680	112.441139
19427.312340	16949.197500	1818.599609	245.787216
19427.312340	16949.197500	1817.601563	79.675507
19427.312340	16949.197500	1816.603516	112.305305
19427.312340	16949.197500	1815.604492	262.173157
19427.312340	16949.197500	1814.606445	24.180586
19427.312340	16949.197500	1813.607422	27.918901
19427.312340	16949.197500	1812.608398	-42.572510
19427.312340	16949.197500	1811.609375	173.961639
19427.312340	16949.197500	1810.610352	24.425098
19427.312340	16949.197500	1809.610352	-34.242554
19427.312340	16949.197500	1808.611328	155.687180
19427.312340	16949.197500	1807.611328	159.043213
19427.312340	16949.197500	1806.611328	355.914185
19427.312340	16949.197500	1805.610352	263.532471
19427.312340	16949.197500	1804.610352	159.175873
19427.312340	16949.197500	1803.609375	71.516670
19427.312340	16949.197500	1802.608398	-6.619929
19427.312340	16949.197500	1801.607422	87.117188
19427.312340	16949.197500	1800.606445	319.208038
19427.312340	16949.197500	1799.605469	267.128723
19427.312340	16949.197500	1798.603516	658.849548
19427.312340	16949.197500	1797.601563	246.338745
19427.312340	16949.197500	1796.599609	234.656372
19427.312340	16949.197500	1795.597656	179.983734
19427.312340	16949.197500	1794.595703	82.345795
19427.312340	16949.197500	1793.592773	153.939163
19427.312340	16949.197500	1792.589844	180.152328
19427.312340	16949.197500	1791.587891	151.473663
19427.312340	16949.197500	1790.583984	256.167114
19427.312340	16949.197500	1789.581055	-8.488941
19427.312340	16949.197500	1788.577148	198.470871
19427.312340	16949.197500	1787.574219	250.496674
19427.312340	16949.197500	1786.570313	252.434509
19427.312340	16949.197500	1785.566406	123.382401
19427.312340	16949.197500	1784.561523	8.587188
19427.312340	16949.197500	1783.557617	298.275024
19427.312340	16949.197500	1782.552734	254.717163
19427.312340	16949.197500	1781.547852	68.390884
19427.312340	16949.197500	1780.542969	-160.745041
19427.312340	16949.197500	1779.538086	-42.725986
19427.312340	16949.197500	1778.532227	170.266846
19427.312340	16949.197500	1777.527344	150.179230
19427.312340	16949.197500	1776.521484	75.371536
19427.312340	16949.197500	1775.515625	178.710190
19427.312340	16949.197500	1774.508789	39.642643
19427.312340	16949.197500	1773.502930	71.550842
19427.312340	16949.197500	1772.496094	-22.474886
19427.312340	16949.197500	1771.489258	327.410706
19427.312340	16949.197500	1770.482422	292.563049
19427.312340	16949.197500	1769.475586	319.355042
19427.312340	16949.197500	1768.467773	251.155685
19427.312340	16949.197500	1767.460938	154.439667
19427.312340	16949.197500	1766.453125	128.839493
19427.312340	16949.197500	1765.445313	34.404049
19427.312340	16949.197500	1764.437500	122.490746
19427.312340	16949.197500	1763.428711	101.425301
19427.312340	16949.197500	1762.420898	-59.535599
19427.312340	16949.197500	1761.412109	224.966476
19427.312340	16949.197500	1760.403320	322.125366
19427.312340	16949.197500	1759.393555	160.985321
19427.312340	16949.197500	1758.384766	-47.530354
19427.312340	16949.197500	1757.375000	115.696014
19427.312340	16949.197500	1756.366211	136.746277
19427.312340	16949.197500	1755.356445	-17.434040
19427.312340	16949.197500	1754.345703	145.465515
19427.312340	16949.197500	1753.335938	-60.859482
19427.312340	16949.197500	1752.325195	130.223633
19427.312340	16949.197500	1751.315430	49.178295
19427.312340	16949.197500	1750.304688	95.775597
19427.312340	16949.197500	1749.292969	-150.875122
19427.312340	16949.197500	1748.282227	176.875580
19427.312340	16949.197500	1747.270508	135.757385
19427.312340	16949.197500	1746.259766	-18.833851
19427.312340	16949.197500	1745.248047	-104.930420
19427.312340	16949.197500	1744.235352	68.737228
19427.312340	16949.197500	1743.223633	-17.493191
19427.312340	16949.197500	1742.211914	-141.539154
19427.312340	16949.197500	1741.199219	107.351509
19427.312340	16949.197500	1740.186523	-23.899141
19427.312340	16949.197500	1739.173828	2.922065
19427.312340	16949.197500	1738.160156	-116.610596
19427.312340	16949.197500	1737.147461	-132.385071
19427.312340	16949.197500	1736.133789	306.926514
19427.312340	16949.197500	1735.120117	-72.177177
19427.312340	16949.197500	1734.106445	-26.875525
19427.312340	16949.197500	1733.091797	89.044151
19427.312340	16949.197500	1732.078125	-14.303421
19427.312340	16949.197500	1731.063477	132.055527
19427.312340	16949.197500	1730.048828	146.375885
19427.312340	16949.197500	1729.034180	308.993958
19427.312340	16949.197500	1728.019531	71.181648
19427.312340	16949.197500	1727.003906	42.916943
19427.312340	16949.197500	1725.988281	-333.767670
19427.312340	16949.197500	1724.972656	-60.854122
19427.312340	16949.197500	1723.957031	-9.283412
19427.312340	16949.197500	1722.941406	82.189079
19427.312340	16949.197500	1721.924805	34.791065
19427.312340	16949.197500	1720.909180	-0.896354
19427.312340	16949.197500	1719.892578	31.542665
19427.312340	16949.197500	1718.875977	75.654831
19427.312340	16949.197500	1717.858398	-37.779621
19427.312340	16949.197500	1716.841797	-66.641945
19427.312340	16949.197500	1715.824219	-227.122208
19427.312340	16949.197500	1714.806641	-122.187080
19427.312340	16949.197500	1713.789063	-47.882904
19427.312340	16949.197500	1712.770508	5.195330
19427.312340	16949.197500	1711.752930	201.391617
19427.312340	16949.197500	1710.734375	5.487990
19427.312340	16949.197500	1709.715820	234.334534
19427.312340	16949.197500	1708.697266	134.570511
19427.312340	16949.197500	1707.678711	-47.315174
19427.312340	16949.197500	1706.659180	-158.835785
19427.312340	16949.197500	1705.640625	-289.129028
19427.312340	16949.197500	1704.621094	-250.639984
19427.312340	16949.197500	1703.600586	-420.834991
19427.312340	16949.197500	1702.581055	-82.490112
19427.312340	16949.197500	1701.561523	-355.854919
19427.312340	16949.197500	1700.541016	-13.083605
19427.312340	16949.197500	1699.520508	-251.341049
19427.312340	16949.197500	1698.500000	39.652702
19427.312340	16949.197500	1697.478516	94.012947
19427.312340	16949.197500	1696.458008	-230.897018
19427.312340	16949.197500	1695.436523	195.498322
19427.312340	16949.197500	1694.415039	-309.584808
19427.312340	16949.197500	1693.393555	292.012543
19427.312340	16949.197500	1692.372070	-103.066338
19427.312340	16949.197500	1691.349609	53.838547
19427.312340	16949.197500	1690.327148	-51.228252
19427.312340	16949.197500	1689.304688	208.362930
19427.312340	16949.197500	1688.282227	378.995697
19427.312340	16949.197500	1687.259766	-111.772568
19427.312340	16949.197500	1686.236328	392.841003
19427.312340	16949.197500	1685.213867	-79.144951
19427.312340	16949.197500	1684.190430	88.887192
19427.312340	16949.197500	1683.166016	65.342422
19427.312340	16949.197500	1682.142578	51.106831
19427.312340	16949.197500	1681.119141	95.183922
19427.312340	16949.197500	1680.094727	64.524315
19427.312340	16949.197500	1679.070313	549.452393
19427.312340	16949.197500	1678.045898	192.064743
19427.312340	16949.197500	1677.020508	196.261078
19427.312340	16949.197500	1675.996094	121.142815
19427.312340	16949.197500	1674.970703	-65.891769
19427.312340	16949.197500	1673.945313	40.796371
19427.312340	16949.197500	1672.919922	61.182713
19427.312340	16949.197500	1671.893555	88.510643
19427.312340	16949.197500	1670.868164	-56.582939
19427.312340	16949.197500	1669.841797	-61.918785
19427.312340	16949.197500	1668.815430	419.398193
19427.312340	16949.197500	1667.789063	94.950928
19427.312340	16949.197500	1666.761719	-5.947011
19427.312340	16949.197500	1665.735352	158.478317
19427.312340	16949.197500	1664.708008	185.523087
19427.312340	16949.197500	1663.680664	259.057159
19427.312340	16949.197500	1662.653320	-27.982975
19427.312340	16949.197500	1661.625000	266.425140
19427.312340	16949.197500	1660.597656	393.295898
19427.312340	16949.197500	1659.569336	106.315933
19427.312340	16949.197500	1658.541016	205.226349
19427.312340	16949.197500	1657.512695	320.340546
19427.312340	16949.197500	1656.483398	426.091125
19427.312340	16949.197500	1655.455078	76.520012
19427.312340	16949.197500	1654.425781	502.716034
19427.312340	16949.197500	1653.396484	441.135223
19427.312340	16949.197500	1652.366211	307.588989
19427.312340	16949.197500	1651.336914	450.279602
19427.312340	16949.197500	1650.306641	291.223511
19427.312340	16949.197500	1649.276367	501.107269
19427.312340	16949.197500	1648.246094	258.566589
19427.312340	16949.197500	1647.215820	517.051697
19427.312340	16949.197500	1646.185547	367.325256
19427.312340	16949.197500	1645.154297	196.774841
19427.312340	16949.197500	1644.123047	649.778442
19427.312340	16949.197500	1643.091797	655.341064
19427.312340	16949.197500	1642.060547	762.838562
19427.312340	16949.197500	1641.028320	573.769836
19427.312340	16949.197500	1639.997070	815.558044
19427.312340	16949.197500	1638.964844	867.362122
19427.312340	16949.197500	1637.931641	664.470093
19427.312340	16949.197500	1636.899414	818.121521
19427.312340	16949.197500	1635.867188	758.799744
19427.312340	16949.197500	1634.833984	706.433289
19427.312340	16949.197500	1633.800781	538.421753
19427.312340	16949.197500	1632.767578	867.746521
19427.312340	16949.197500	1631.734375	836.205566
19427.312340	16949.197500	1630.700195	511.045807
19427.312340	16949.197500	1629.666016	585.916748
19427.312340	16949.197500	1628.631836	681.561707
19427.312340	16949.197500	1627.597656	807.211975
19427.312340	16949.197500	1626.563477	648.665588
19427.312340	16949.197500	1625.528320	982.159668
19427.312340	16949.197500	1624.493164	816.722656
19427.312340	16949.197500	1623.458008	739.095886
19427.312340	16949.197500	1622.422852	830.024353
19427.312340	16949.197500	1621.387695	787.065857
19427.312340	16949.197500	1620.351563	727.977051
19427.312340	16949.197500	1619.315430	978.071655
19427.312340	16949.197500	1618.279297	787.520447
19427.312340	16949.197500	1617.243164	700.836121
19427.312340	16949.197500	1616.207031	953.140869
19427.312340	16949.197500	1615.169922	981.748230
19427.312340	16949.197500	1614.132813	874.379822
19427.312340	16949.197500	1613.095703	1197.987793
19427.312340	16949.197500	1612.058594	1014.629822
19427.312340	16949.197500	1611.020508	838.265991
19427.312340	16949.197500	1609.983398	952.182190
19427.312340	16949.197500	1608.945313	861.141357
19427.312340	16949.197500	1607.907227	972.747986
19427.312340	16949.197500	1606.868164	1031.391846
19427.312340	16949.197500	1605.830078	1363.889893
19427.312340	16949.197500	1604.791016	1176.306152
19427.312340	16949.197500	1603.751953	1354.574829
19427.312340	16949.197500	1602.712891	950.933411
19427.312340	16949.197500	1601.673828	1239.607300
19427.312340	16949.197500	1600.633789	1102.885132
19427.312340	16949.197500	1599.594727	1134.044189
19427.312340	16949.197500	1598.554688	795.229126
19427.312340	16949.197500	1597.513672	856.362732
19427.312340	16949.197500	1596.473633	844.003601
19427.312340	16949.197500	1595.433594	983.270264
19427.312340	16949.197500	1594.392578	1161.551147
19427.312340	16949.197500	1593.351563	1062.002808
19427.312340	16949.197500	1592.310547	1061.235596
19427.312340	16949.197500	1591.268555	1154.596802
19427.312340	16949.197500	1590.227539	1004.748108
19427.312340	16949.197500	1589.185547	1394.098267
19427.312340	16949.197500	1588.143555	1235.168823
19427.312340	16949.197500	1587.100586	1310.241089
19427.312340	16949.197500	1586.058594	1300.503296
19427.312340	16949.197500	1585.015625	1297.687134
19427.312340	16949.197500	1583.972656	1606.604980
19427.312340	16949.197500	1582.929688	1161.593506
19427.312340	16949.197500	1581.886719	1468.222168
19427.312340	16949.197500	1580.843750	1518.247559
19427.312340	16949.197500	1579.799805	1293.498169
19427.312340	16949.197500	1578.755859	1545.118164
19427.312340	16949.197500	1577.711914	1368.625977
19427.312340	16949.197500	1576.666992	1551.574707
19427.312340	16949.197500	1575.623047	1290.593262
19427.312340	16949.197500	1574.578125	1414.111328
19427.312340	16949.197500	1573.533203	1205.973877
19427.312340	16949.197500	1572.488281	1368.449463
19427.312340	16949.197500	1571.443359	1217.679443
19427.312340	16949.197500	1570.397461	1569.936035
19427.312340	16949.197500	1569.351563	1238.741943
19427.312340	16949.197500	1568.305664	1298.486450
19427.312340	16949.197500	1567.259766	1079.543579
19427.312340	16949.197500	1566.213867	1376.974731
19427.312340	16949.197500	1565.166992	1279.263184
19427.312340	16949.197500	1564.120117	1282.116821
19427.312340	16949.197500	1563.073242	1241.659424
19427.312340	16949.197500	1562.026367	1057.493408
19427.312340	16949.197500	1560.978516	996.688416
19427.312340	16949.197500	1559.930664	1116.211548
19427.312340	16949.197500	1558.883789	768.145203
19427.312340	16949.197500	1557.834961	860.431274
19427.312340	16949.197500	1556.787109	993.799255
19427.312340	16949.197500	1555.739258	1065.631348
19427.312340	16949.197500	1554.690430	952.886230
19427.312340	16949.197500	1553.641602	867.600952
19427.312340	16949.197500	1552.592773	1176.579102
19427.312340	16949.197500	1551.542969	1027.646484
19427.312340	16949.197500	1550.494141	762.698547
19427.312340	16949.197500	1549.444336	798.493896
19427.312340	16949.197500	1548.394531	879.881775
19427.312340	16949.197500	1547.344727	867.995728
19427.312340	16949.197500	1546.293945	869.841858
19427.312340	16949.197500	1545.244141	860.390625
19427.312340	16949.197500	1544.193359	926.089050
19427.312340	16949.197500	1543.142578	959.998901
19427.312340	16949.197500	1542.090820	1025.810059
19427.312340	16949.197500	1541.040039	884.795105
19427.312340	16949.197500	1539.988281	698.458374
19427.312340	16949.197500	1538.936523	496.367035
19427.312340	16949.197500	1537.884766	389.867493
19427.312340	16949.197500	1536.833008	783.255249
19427.312340	16949.197500	1535.780273	447.517548
19427.312340	16949.197500	1534.727539	675.143188
19427.312340	16949.197500	1533.674805	546.328064
19427.312340	16949.197500	1532.622070	392.682129
19427.312340	16949.197500	1531.569336	236.915024
19427.312340	16949.197500	1530.515625	485.168549
19427.312340	16949.197500	1529.461914	463.462372
19427.312340	16949.197500	1528.408203	353.400543
19427.312340	16949.197500	1527.354492	32.583218
19427.312340	16949.197500	1526.299805	485.084229
19427.312340	16949.197500	1525.246094	359.486176
19427.312340	16949.197500	1524.191406	553.572937
19427.312340	16949.197500	1523.136719	471.246368
19427.312340	16949.197500	1522.081055	624.641174
19427.312340	16949.197500	1521.026367	60.093079
19427.312340	16949.197500	1519.970703	403.912048
19427.312340	16949.197500	1518.915039	303.942932
19427.312340	16949.197500	1517.859375	387.457703
19427.312340	16949.197500	1516.802734	285.458588
19427.312340	16949.197500	1515.747070	99.878120
19427.312340	16949.197500	1514.690430	294.521210
19427.312340	16949.197500	1513.633789	158.964630
19427.312340	16949.197500	1512.577148	274.568207
19427.312340	16949.197500	1511.519531	184.484985
19427.312340	16949.197500	1510.461914	209.816849
19427.312340	16949.197500	1509.405273	-49.518314
19427.312340	16949.197500	1508.346680	-195.674896
19427.312340	16949.197500	1507.289063	-167.722321
19427.312340	16949.197500	1506.231445	22.941822
19427.312340	16949.197500	1505.172852	-34.769100
19427.312340	16949.197500	1504.114258	54.398499
19427.312340	16949.197500	1503.055664	48.825836
19427.312340	16949.197500	1501.996094	120.092529
19427.312340	16949.197500	1500.937500	-104.154854
19427.312340	16949.197500	1499.877930	-188.341324
19427.312340	16949.197500	1498.818359	43.381889
19427.312340	16949.197500	1497.757813	-153.342728
19427.312340	16949.197500	1496.698242	6.343452
19427.312340	16949.197500	1495.637695	215.662659
19427.312340	16949.197500	1494.577148	46.381199
19427.312340	16949.197500	1493.516602	-300.736969
19427.312340	16949.197500	1492.456055	-21.324423
19427.312340	16949.197500	1491.394531	111.679832
19427.312340	16949.197500	1490.333008	-7.477850
19427.312340	16949.197500	1489.271484	26.618774
19427.312340	16949.197500	1488.209961	373.704315
19427.312340	16949.197500	1487.148438	243.634430
19427.312340	16949.197500	1486.085938	212.732269
19427.312340	16949.197500	1485.023438	190.950699
19427.312340	16949.197500	1483.960938	-170.350739
19427.312340	16949.197500	1482.898438	64.533218
19427.312340	16949.197500	1481.834961	-8.585650
19427.312340	16949.197500	1480.772461	80.279045
19427.312340	16949.197500	1479.708984	371.485168
19427.312340	16949.197500	1478.644531	-20.380890
19427.312340	16949.197500	1477.581055	77.764267
19427.312340	16949.197500	1476.517578	243.341949
19427.312340	16949.197500	1475.453125	114.811005
19427.312340	16949.197500	1474.388672	4.398543
19427.312340	16949.197500	1473.323242	188.249130
19427.312340	16949.197500	1472.258789	127.521278
19427.312340	16949.197500	1471.193359	275.390808
19427.312340	16949.197500	1470.127930	295.820740
19427.312340	16949.197500	1469.062500	129.877533
19427.312340	16949.197500	1467.997070	313.908875
19427.312340	16949.197500	1466.930664	607.540344
19427.312340	16949.197500	1465.865234	287.446808
19427.312340	16949.197500	1464.798828	208.010239
19427.312340	16949.197500	1463.731445	387.166534
19427.312340	16949.197500	1462.665039	372.457092
19427.312340	16949.197500	1461.597656	662.559448
19427.312340	16949.197500	1460.530273	144.861374
19427.312340	16949.197500	1459.462891	507.731995
19427.312340	16949.197500	1458.395508	533.487732
19427.312340	16949.197500	1457.327148	637.268555
19427.312340	16949.197500	1456.259766	591.975952
19427.312340	16949.197500	1455.191406	490.052307
19427.312340	16949.197500	1454.123047	440.738281
19427.312340	16949.197500	1453.053711	436.131348
19427.312340	16949.197500	1451.985352	368.509003
19427.312340	16949.197500	1450.916016	235.080063
19427.312340	16949.197500	1449.846680	190.666763
19427.312340	16949.197500	1448.776367	25.193130
19427.312340	16949.197500	1447.707031	335.152618
19427.312340	16949.197500	1446.636719	215.793854
19427.312340	16949.197500	1445.566406	209.903488
19427.312340	16949.197500	1444.496094	138.577057
19427.312340	16949.197500	1443.425781	149.824142
19427.312340	16949.197500	1442.354492	272.709961
19427.312340	16949.197500	1441.283203	159.987457
19427.312340	16949.197500	1440.211914	3.517808
19427.312340	16949.197500	1439.140625	-68.205086
19427.312340	16949.197500	1438.069336	-24.437305
19427.312340	16949.197500	1436.997070	-48.949123
19427.312340	16949.197500	1435.924805	128.189621
19427.312340	16949.197500	1434.852539	141.004089
19427.312340	16949.197500	1433.780273	181.839706
19427.312340	16949.197500	1432.707031	187.098434
19427.312340	16949.197500	1431.633789	13.260791
19427.312340	16949.197500	1430.560547	104.303055
19427.312340	16949.197500	1429.487305	69.863609
19427.312340	16949.197500	1428.413086	35.915081
19427.312340	16949.197500	1427.339844	295.046570
19427.312340	16949.197500	1426.265625	94.863831
19427.312340	16949.197500	1425.191406	-161.330963
19427.312340	16949.197500	1424.116211	-219.693741
19427.312340	16949.197500	1423.041992	-58.628433
19427.312340	16949.197500	1421.966797	-41.368332
19427.312340	16949.197500	1420.891602	6.630461
19427.312340	16949.197500	1419.816406	50.201557
19427.312340	16949.197500	1418.740234	-144.607407
19427.312340	16949.197500	1417.665039	-252.666168
19427.312340	16949.197500	1416.588867	133.597534
19427.312340	16949.197500	1415.512695	-46.321724
19427.312340	16949.197500	1414.435547	195.741226
19427.312340	16949.197500	1413.359375	60.564259
19427.312340	16949.197500	1412.282227	-30.851864
19427.312340	16949.197500	1411.205078	-163.534485
19427.312340	16949.197500	1410.127930	26.080410
19427.312340	16949.197500	1409.049805	-109.316200
19427.312340	16949.197500	1407.972656	86.822136
19427.312340	16949.197500	1406.894531	27.551750
19427.312340	16949.197500	1405.816406	-131.495056
19427.312340	16949.197500	1404.737305	-2.320310
19427.312340	16949.197500	1403.659180	9.440023
19427.312340	16949.197500	1402.580078	76.366409
19427.312340	16949.197500	1401.500977	220.678650
19427.312340	16949.197500	1400.421875	176.721954
19427.312340	16949.197500	1399.341797	111.443886
19427.312340	16949.197500	1398.262695	121.547417
19427.312340	16949.197500	1397.182617	51.840427
19427.312340	16949.197500	1396.102539	51.466061
19427.312340	16949.197500	1395.021484	611.665222
19427.312340	16949.197500	1393.941406	109.421318
19427.312340	16949.197500	1392.860352	251.958984
19427.312340	16949.197500	1391.779297	321.637756
19427.312340	16949.197500	1390.698242	148.224655
19427.312340	16949.197500	1389.616211	542.052734
19427.312340	16949.197500	1388.535156	431.344818
19427.312340	16949.197500	1387.453125	363.177856
19427.312340	16949.197500	1386.371094	318.510559
19427.312340	16949.197500	1385.288086	352.645050
19427.312340	16949.197500	1384.206055	-0.190674
19427.312340	16949.197500	1383.123047	280.678619
19427.312340	16949.197500	1382.040039	83.006187
19427.312340	16949.197500	1380.957031	-55.993721
19427.312340	16949.197500	1379.873047	391.422760
19427.312340	16949.197500	1378.789063	250.463760
19427.312340	16949.197500	1377.705078	177.683289
19427.312340	16949.197500	1376.621094	400.223267
19427.312340	16949.197500	1375.537109	113.944382
19427.312340	16949.197500	1374.452148	239.518600
19427.312340	16949.197500	1373.367188	491.782532
19427.312340	16949.197500	1372.282227	389.827240
19427.312340	16949.197500	1371.197266	390.109131
19427.312340	16949.197500	1370.112305	356.619659
19427.312340	16949.197500	1369.026367	155.892517
19427.312340	16949.197500	1367.940430	374.207214
19427.312340	16949.197500	1366.854492	468.695862
19427.312340	16949.197500	1365.767578	492.866943
19427.312340	16949.197500	1364.681641	158.912369
19427.312340	16949.197500	1363.594727	80.285400
19427.312340	16949.197500	1362.507813	365.023010
19427.312340	16949.197500	1361.419922	455.846802
19427.312340	16949.197500	1360.333008	135.711807
19427.312340	16949.197500	1359.245117	147.192902
19427.312340	16949.197500	1358.157227	304.149017
19427.312340	16949.197500	1357.069336	409.096985
19427.312340	16949.197500	1355.981445	333.327087
19427.312340	16949.197500	1354.892578	400.971436
19427.312340	16949.197500	1353.803711	308.458984
19427.312340	16949.197500	1352.714844	225.232330
19427.312340	16949.197500	1351.625000	421.982391
19427.312340	16949.197500	1350.536133	454.723541
19427.312340	16949.197500	1349.446289	550.432129
19427.312340	16949.197500	1348.356445	456.042694
19427.312340	16949.197500	1347.266602	456.833710
19427.312340	16949.197500	1346.175781	657.843994
19427.312340	16949.197500	1345.085938	424.983856
19427.312340	16949.197500	1343.995117	437.458679
19427.312340	16949.197500	1342.903320	624.547180
19427.312340	16949.197500	1341.812500	582.122131
19427.312340	16949.197500	1340.720703	479.252625
19427.312340	16949.197500	1339.629883	177.945892
19427.312340	16949.197500	1338.538086	331.536926
19427.312340	16949.197500	1337.445313	428.542633
19427.312340	16949.197500	1336.353516	566.038330
19427.312340	16949.197500	1335.260742	264.513580
19427.312340	16949.197500	1334.167969	18.312208
19427.312340	16949.197500	1333.075195	74.038857
19427.312340	16949.197500	1331.981445	391.410797
19427.312340	16949.197500	1330.888672	137.108215
19427.312340	16949.197500	1329.794922	38.097782
19427.312340	16949.197500	1328.701172	297.160553
19427.312340	16949.197500	1327.606445	285.209259
19427.312340	16949.197500	1326.512695	291.617157
19427.312340	16949.197500	1325.417969	457.073822
19427.312340	16949.197500	1324.323242	274.375793
19427.312340	16949.197500	1323.227539	437.742615
19427.312340	16949.197500	1322.132813	520.677979
19427.312340	16949.197500	1321.037109	461.176605
19427.312340	16949.197500	1319.941406	270.435150
19427.312340	16949.197500	1318.845703	315.396118
19427.312340	16949.197500	1317.750000	247.294998
19427.312340	16949.197500	1316.653320	175.736328
19427.312340	16949.197500	1315.556641	376.869781
19427.312340	16949.197500	1314.459961	245.385895
19427.312340	16949.197500	1313.363281	285.209595
19427.312340	16949.197500	1312.265625	239.533432
19427.312340	16949.197500	1311.167969	106.610458
19427.312340	16949.197500	1310.070313	-208.011383
19427.312340	16949.197500	1308.972656	78.766663
19427.312340	16949.197500	1307.874023	-113.675201
19427.312340	16949.197500	1306.776367	139.923462
19427.312340	16949.197500	1305.677734	49.802486
19427.312340	16949.197500	1304.579102	-113.763817
19427.312340	16949.197500	1303.479492	31.532619
19427.312340	16949.197500	1302.380859	8.916802
19427.312340	16949.197500	1301.281250	82.175720
19427.312340	16949.197500	1300.181641	-6.320776
19427.312340	16949.197500	1299.081055	124.778488
19427.312340	16949.197500	1297.981445	-89.665009
19427.312340	16949.197500	1296.880859	-80.739044
19427.312340	16949.197500	1295.780273	-99.173485
19427.312340	16949.197500	1294.679688	-101.625458
19427.312340	16949.197500	1293.578125	-7.294446
19427.312340	16949.197500	1292.476563	-1.631095
19427.312340	16949.197500	1291.375000	-158.677292
19427.312340	16949.197500	1290.273438	-24.166321
19427.312340	16949.197500	1289.171875	-243.601013
19427.312340	16949.197500	1288.069336	5.704028
19427.312340	16949.197500	1286.966797	-71.223442
19427.312340	16949.197500	1285.864258	-97.093269
19427.312340	16949.197500	1284.761719	28.720633
19427.312340	16949.197500	1283.658203	-130.900970
19427.312340	16949.197500	1282.554688	-166.813171
19427.312340	16949.197500	1281.451172	172.504623
19427.312340	16949.197500	1280.347656	-160.403503
19427.312340	16949.197500	1279.244141	-204.694672
19427.312340	16949.197500	1278.139648	56.621361
19427.312340	16949.197500	1277.035156	121.605408
19427.312340	16949.197500	1275.930664	-15.448462
19427.312340	16949.197500	1274.825195	-60.786308
19427.312340	16949.197500	1273.720703	203.507248
19427.312340	16949.197500	1272.615234	11.521011
19427.312340	16949.197500	1271.508789	-207.761459
19427.312340	16949.197500	1270.403320	37.133759
19427.312340	16949.197500	1269.297852	-42.133121
19427.312340	16949.197500	1268.191406	-94.286621
19427.312340	16949.197500	1267.084961	204.890274
19427.312340	16949.197500	1265.977539	-157.826965
19427.312340	16949.197500	1264.871094	-172.700775
19427.312340	16949.197500	1263.763672	23.047226
19427.312340	16949.197500	1262.656250	-70.614014
19427.312340	16949.197500	1261.548828	-195.001724
19427.312340	16949.197500	1260.440430	-135.416565
19427.312340	16949.197500	1259.333008	-19.882700
19427.312340	16949.197500	1258.224609	13.511084
19427.312340	16949.197500	1257.115234	132.361633
19427.312340	16949.197500	1256.006836	169.066666
19427.312340	16949.197500	1254.897461	275.101868
19427.312340	16949.197500	1253.788086	-52.237652
19427.312340	16949.197500	1252.678711	174.418442
19427.312340	16949.197500	1251.569336	64.358398
19427.312340	16949.197500	1250.458984	-144.601242
19427.312340	16949.197500	1249.349609	223.923630
19427.312340	16949.197500	1248.239258	196.990707
19427.312340	16949.197500	1247.127930	212.860886
19427.312340	16949.197500	1246.017578	144.623413
19427.312340	16949.197500	1244.906250	234.269531
19427.312340	16949.197500	1243.794922	-49.077404
19427.312340	16949.197500	1242.683594	-53.080280
19427.312340	16949.197500	1241.571289	-18.797590
19427.312340	16949.197500	1240.459961	55.649075
19427.312340	16949.197500	1239.347656	85.323143
19427.312340	16949.197500	1238.234375	-234.740997
19427.312340	16949.197500	1237.122070	-117.852364
19427.312340	16949.197500	1236.008789	-147.396805
19427.312340	16949.197500	1234.896484	-11.400045
19427.312340	16949.197500	1233.782227	-4.237482
19427.312340	16949.197500	1232.668945	-2.593760
19427.312340	16949.197500	1231.555664	-164.720779
19427.312340	16949.197500	1230.441406	-58.345116
19427.312340	16949.197500	1229.327148	29.588440
19427.312340	16949.197500	1228.211914	238.767349
19427.312340	16949.197500	1227.097656	130.566528
19427.312340	16949.197500	1225.982422	21.404575
19427.312340	16949.197500	1224.867188	-5.380024
19427.312340	16949.197500	1223.751953	-26.635599
19427.312340	16949.197500	1222.635742	70.838913
19427.312340	16949.197500	1221.520508	33.524120
19427.312340	16949.197500	1220.404297	64.238831
19427.312340	16949.197500	1219.287109	6.060434
19427.312340	16949.197500	1218.170898	38.836891
19427.312340	16949.197500	1217.053711	-160.208832
19427.312340	16949.197500	1215.936523	93.219017
19427.312340	16949.197500	1214.819336	-59.901688
19427.312340	16949.197500	1213.702148	109.145233
19427.312340	16949.197500	1212.583984	35.033321
19427.312340	16949.197500	1211.465820	46.857273
19427.312340	16949.197500	1210.347656	3.862577
19427.312340	16949.197500	1209.229492	99.378708
19427.312340	16949.197500	1208.110352	103.024429
19427.312340	16949.197500	1206.992188	146.185394
19427.312340	16949.197500	1205.873047	-50.161983
19427.312340	16949.197500	1204.752930	79.674973
19427.312340	16949.197500	1203.633789	-61.140549
19427.312340	16949.197500	1202.513672	91.963394
19427.312340	16949.197500	1201.393555	108.482208
19427.312340	16949.197500	1200.273438	78.968071
19427.312340	16949.197500	1199.152344	82.824707
19427.312340	16949.197500	1198.032227	-31.153488
19427.312340	16949.197500	1196.911133	-3.660481
19427.312340	16949.197500	1195.790039	-46.618652
19427.312340	16949.197500	1194.667969	-111.181023
19427.312340	16949.197500	1193.545898	-167.627319
19427.312340	16949.197500	1192.424805	3.792192
19427.312340	16949.197500	1191.301758	-179.365097
19427.312340	16949.197500	1190.179688	-144.778656
19427.312340	16949.197500	1189.056641	39.257462
19427.312340	16949.197500	1187.933594	-275.169037
19427.312340	16949.197500	1186.810547	-254.220764
19427.312340	16949.197500	1185.687500	-27.468472
19427.312340	16949.197500	1184.563477	-126.520538
19427.312340	16949.197500	1183.440430	-44.464371
19427.312340	16949.197500	1182.316406	-29.594393
19427.312340	16949.197500	1181.191406	-70.518585
19427.312340	16949.197500	1180.067383	-19.113152
19427.312340	16949.197500	1178.942383	-61.938370
19427.312340	16949.197500	1177.817383	6.353613
19427.312340	16949.197500	1176.692383	-118.679024
19427.312340	16949.197500	1175.566406	-131.666397
19427.312340	16949.197500	1174.440430	-85.582779
19427.312340	16949.197500	1173.314453	208.262848
19427.312340	16949.197500	1172.188477	46.829082
19427.312340	16949.197500	1171.062500	145.023758
19427.312340	16949.197500	1169.935547	-74.408417
19427.312340	16949.197500	1168.808594	-29.724678
19427.312340	16949.197500	1167.681641	-108.620689
19427.312340	16949.197500	1166.553711	98.052437
19427.312340	16949.197500	1165.426758	100.773209
19427.312340	16949.197500	1164.298828	148.369003
19427.312340	16949.197500	1163.170898	168.881668
19427.312340	16949.197500	1162.041992	7.926764
19427.312340	16949.197500	1160.914063	95.813232
19427.312340	16949.197500	1159.785156	-44.969749
19427.312340	16949.197500	1158.656250	95.250732
19427.312340	16949.197500	1157.526367	-19.181417
19427.312340	16949.197500	1156.397461	-17.999811
19427.312340	16949.197500	1155.267578	-44.364056
19427.312340	16949.197500	1154.137695	4.805230
19427.312340	16949.197500	1153.006836	-41.671650
19427.312340	16949.197500	1151.876953	-145.904846
19427.312340	16949.197500	1150.746094	154.978867
19427.312340	16949.197500	1149.615234	56.959515
19427.312340	16949.197500	1148.484375	-54.240494
19427.312340	16949.197500	1147.352539	73.771210
19427.312340	16949.197500	1146.220703	21.111509
19427.312340	16949.197500	1145.088867	82.075119
19427.312340	16949.197500	1143.957031	45.667706
19427.312340	16949.197500	1142.825195	65.211342
19427.312340	16949.197500	1141.692383	17.707573
19427.312340	16949.197500	1140.559570	109.341904
19427.312340	16949.197500	1139.426758	-28.159258
19427.312340	16949.197500	1138.292969	24.330486
19427.312340	16949.197500	1137.159180	45.010498
19427.312340	16949.197500	1136.025391	-0.361552
19427.312340	16949.197500	1134.891602	62.587246
19427.312340	16949.197500	1133.757813	107.288406
19427.312340	16949.197500	1132.623047	422.969696
19427.312340	16949.197500	1131.488281	-60.192707
19427.312340	16949.197500	1130.353516	128.834320
19427.312340	16949.197500	1129.217773	-22.291912
19427.312340	16949.197500	1128.083008	43.617531
19427.312340	16949.197500	1126.947266	-19.019144
19427.312340	16949.197500	1125.811523	-101.355515
19427.312340	16949.197500	1124.674805	107.109299
19427.312340	16949.197500	1123.539063	19.945541
19427.312340	16949.197500	1122.402344	209.623779
19427.312340	16949.197500	1121.265625	65.812904
19427.312340	16949.197500	1120.127930	19.289047
19427.312340	16949.197500	1118.990234	-109.153770
19427.312340	16949.197500	1117.853516	-57.094353
19427.312340	16949.197500	1116.714844	39.131351
19427.312340	16949.197500	1115.577148	7.130745
19427.312340	16949.197500	1114.439453	-83.771309
19427.312340	16949.197500	1113.300781	29.745962
19427.312340	16949.197500	1112.162109	6.949587
19427.312340	16949.197500	1111.022461	-87.156166
19427.312340	16949.197500	1109.883789	131.531509
19427.312340	16949.197500	1108.744141	98.505447
19427.312340	16949.197500	1107.604492	-9.738545
19427.312340	16949.197500	1106.463867	78.479393
19427.312340	16949.197500	1105.324219	139.979294
19427.312340	16949.197500	1104.183594	360.722382
19427.312340	16949.197500	1103.042969	152.536713
19427.312340	16949.197500	1101.902344	134.547348
19427.312340	16949.197500	1100.760742	116.285507
19427.312340	16949.197500	1099.619141	29.298153
19427.312340	16949.197500	1098.477539	8.614673
19427.312340	16949.197500	1097.335938	190.979309
19427.312340	16949.197500	1096.193359	-16.305428
19427.312340	16949.197500	1095.051758	129.858826
19427.312340	16949.197500	1093.909180	132.795700
19427.312340	16949.197500	1092.765625	82.772766
19427.312340	16949.197500	1091.623047	284.250000
19427.312340	16949.197500	1090.479492	202.240234
19427.312340	16949.197500	1089.335938	188.152283
19427.312340	16949.197500	1088.192383	195.201126
19427.312340	16949.197500	1087.047852	277.310028
19427.312340	16949.197500	1085.903320	325.270813
19427.312340	16949.197500	1084.758789	42.985924
19427.312340	16949.197500	1083.614258	209.420425
19427.312340	16949.197500	1082.469727	77.181892
19427.312340	16949.197500	1081.324219	184.681671
19427.312340	16949.197500	1080.178711	144.078995
19427.312340	16949.197500	1079.033203	274.127991
19427.312340	16949.197500	1077.886719	115.567940
19427.312340	16949.197500	1076.740234	125.786812
19427.312340	16949.197500	1075.593750	250.968399
19427.312340	16949.197500	1074.447266	298.507446
19427.312340	16949.197500	1073.300781	48.161999
19427.312340	16949.197500	1072.153320	285.012939
19427.312340	16949.197500	1071.005859	358.067627
19427.312340	16949.197500	1069.858398	290.009888
19427.312340	16949.197500	1068.709961	200.764267
19427.312340	16949.197500	1067.561523	253.713242
19427.312340	16949.197500	1066.413086	190.812149
19427.312340	16949.197500	1065.264648	279.000702
19427.312340	16949.197500	1064.116211	198.529160
19427.312340	16949.197500	1062.966797	362.829651
19427.312340	16949.197500	1061.817383	311.070099
19427.312340	16949.197500	1060.667969	314.160919
19427.312340	16949.197500	1059.517578	274.965790
19427.312340	16949.197500	1058.368164	240.099976
19427.312340	16949.197500	1057.217773	128.061966
19427.312340	16949.197500	1056.067383	424.195709
19427.312340	16949.197500	1054.916016	154.866608
19427.312340	16949.197500	1053.764648	263.158997
19427.312340	16949.197500	1052.613281	222.750885
19427.312340	16949.197500	1051.461914	183.910172
19427.312340	16949.197500	1050.310547	239.025848
19427.312340	16949.197500	1049.158203	80.181877
19427.312340	16949.197500	1048.005859	260.324127
19427.312340	16949.197500	1046.853516	181.972458
19427.312340	16949.197500	1045.700195	161.077927
19427.312340	16949.197500	1044.547852	260.405365
19427.312340	16949.197500	1043.394531	280.118256
19427.312340	16949.197500	1042.240234	69.587883
19427.312340	16949.197500	1041.086914	-107.576889
19427.312340	16949.197500	1039.932617	-128.348557
19427.312340	16949.197500	1038.778320	289.741547
19427.312340	16949.197500	1037.624023	194.856842
19427.312340	16949.197500	1036.469727	242.250656
19427.312340	16949.197500	1035.314453	258.459595
19427.312340	16949.197500	1034.159180	299.367584
19427.312340	16949.197500	1033.003906	353.951538
19427.312340	16949.197500	1031.847656	695.124939
19427.312340	16949.197500	1030.692383	499.952515
19427.312340	16949.197500	1029.536133	798.825256
19427.312340	16949.197500	1028.378906	744.975891
19427.312340	16949.197500	1027.222656	234.375534
19427.312340	16949.197500	1026.065430	312.239288
19427.312340	16949.197500	1024.908203	276.933746
19427.312340	16949.197500	1023.750977	199.168320
19427.312340	16949.197500	1022.593750	292.880859
19427.312340	16949.197500	1021.435547	-4.418756
19427.312340	16949.197500	1020.277344	307.230988
19427.312340	16949.197500	1019.119141	298.352936
19427.312340	16949.197500	1017.959961	120.868973
19427.312340	16949.197500	1016.800781	235.542480
19427.312340	16949.197500	1015.641602	118.892426
19427.312340	16949.197500	1014.482422	29.967999
19427.312340	16949.197500	1013.323242	127.479561
19427.312340	16949.197500	1012.163086	78.352722
19427.312340	16949.197500	1011.002930	124.189934
19427.312340	16949.197500	1009.842773	-41.342407
19427.312340	16949.197500	1008.681641	234.923401
19427.312340	16949.197500	1007.520508	-61.873943
19427.312340	16949.197500	1006.359375	145.296204
19427.312340	16949.197500	1005.198242	33.740906
19427.312340	16949.197500	1004.037109	87.795494
19427.312340	16949.197500	1002.875000	159.779861
19427.312340	16949.197500	1001.712891	77.302582
19427.312340	16949.197500	1000.550781	-114.440643
19427.312340	16949.197500	999.387695	107.656120
19427.312340	16949.197500	998.224609	-50.311153
19427.312340	16949.197500	997.061523	60.915737
19427.312340	16949.197500	995.898438	-133.283905
19427.312340	16949.197500	994.734375	-136.325760
19427.312340	16949.197500	993.571289	58.135361
19427.312340	16949.197500	992.407227	37.304802
19427.312340	16949.197500	991.242188	153.198486
19427.312340	16949.197500	990.078125	209.346359
19427.312340	16949.197500	988.913086	53.935028
19427.312340	16949.197500	987.748047	-28.400230
19427.312340	16949.197500	986.583008	134.183762
19427.312340	16949.197500	985.416992	-174.775803
19427.312340	16949.197500	984.250977	-144.675751
19427.312340	16949.197500	983.084961	13.843655
19427.312340	16949.197500	981.918945	-50.260166
19427.312340	16949.197500	980.751953	107.458099
19427.312340	16949.197500	979.584961	-98.113152
19427.312340	16949.197500	978.417969	111.434662
19427.312340	16949.197500	977.250977	201.939804
19427.312340	16949.197500	976.083008	70.866020
19427.312340	16949.197500	974.915039	158.956314
19427.312340	16949.197500	973.747070	97.792099
19427.312340	16949.197500	972.579102	99.656944
19427.312340	16949.197500	971.410156	-50.477680
19427.312340	16949.197500	970.242188	-63.613239
19427.312340	16949.197500	969.072266	162.256683
19427.312340	16949.197500	967.903320	282.684967
19427.312340	16949.197500	966.733398	85.674637
19427.312340	16949.197500	965.563477	47.428802
19427.312340	16949.197500	964.393555	-187.676224
19427.312340	16949.197500	963.223633	-153.188919
19427.312340	16949.197500	962.052734	36.112968
19427.312340	16949.197500	960.881836	-127.582039
19427.312340	16949.197500	959.710938	-164.161285
19427.312340	16949.197500	958.540039	51.688030
19427.312340	16949.197500	957.368164	-35.460350
19427.312340	16949.197500	956.196289	-86.430527
19427.312340	16949.197500	955.024414	-174.352066
19427.312340	16949.197500	953.851563	-195.539001
19427.312340	16949.197500	952.679688	-98.634819
19427.312340	16949.197500	951.506836	69.512360
19427.312340	16949.197500	950.333984	-113.239861
19427.312340	16949.197500	949.160156	24.229948
19427.312340	16949.197500	947.986328	9.331189
19427.312340	16949.197500	946.812500	-46.995422
19427.312340	16949.197500	945.638672	-97.550385
19427.312340	16949.197500	944.464844	-60.718182
19427.312340	16949.197500	943.290039	13.029726
19427.312340	16949.197500	942.115234	34.328388
19427.312340	16949.197500	940.940430	15.983738
19427.312340	16949.197500	939.764648	-251.885910
19427.312340	16949.197500	938.588867	38.570370
19427.312340	16949.197500	937.413086	41.424099
19427.312340	16949.197500	936.237305	37.913807
19427.312340	16949.197500	935.060547	70.338402
19427.312340	16949.197500	933.883789	-184.881836
19427.312340	16949.197500	932.707031	-128.695892
19427.312340	16949.197500	931.530273	67.851532
19427.312340	16949.197500	930.352539	151.329773
19427.312340	16949.197500	929.175781	124.234581
19427.312340	16949.197500	927.998047	-3.088585
19427.312340	16949.197500	926.819336	42.137772
19427.312340	16949.197500	925.641602	-55.262402
19427.312340	16949.197500	924.462891	302.823822
19427.312340	16949.197500	923.284180	-22.353096
19427.312340	16949.197500	922.104492	46.210598
19427.312340	16949.197500	920.924805	-40.560806
19427.312340	16949.197500	919.746094	-32.711731
19427.312340	16949.197500	919.551758	-368.491058
19427.312340	16949.197500	918.386719	-132.034882
19427.312340	16949.197500	917.220703	-84.902550
19427.312340	16949.197500	916.054688	21.715986
19427.312340	16949.197500	914.887695	-41.731293
19427.312340	16949.197500	913.721680	-49.928059
19427.312340	16949.197500	912.554688	-87.869133
19427.312340	16949.197500	911.387695	14.371784
19427.312340	16949.197500	910.220703	8.261586
19427.312340	16949.197500	909.052734	-72.158073
19427.312340	16949.197500	907.885742	-37.943844
19427.312340	16949.197500	906.717773	-12.237156
19427.312340	16949.197500	905.548828	-103.242073
19427.312340	16949.197500	904.380859	-327.871613
19427.312340	16949.197500	903.211914	43.552982
19427.312340	16949.197500	902.042969	262.142639
19427.312340	16949.197500	900.874023	-11.213959
19427.312340	16949.197500	899.704102	-55.548512
19427.312340	16949.197500	898.535156	-180.411682
19427.312340	16949.197500	897.365234	-42.506668
19427.312340	16949.197500	896.194336	-184.277817
19427.312340	16949.197500	895.024414	-254.002289
19427.312340	16949.197500	893.853516	-99.256416
19427.312340	16949.197500	892.682617	254.413498
19427.312340	16949.197500	891.511719	159.214508
19427.312340	16949.197500	890.340820	-33.298737
19427.312340	16949.197500	889.168945	72.575279
19427.312340	16949.197500	887.997070	34.555904
19427.312340	16949.197500	886.825195	273.583527
19427.312340	16949.197500	885.653320	-5.526420
19427.312340	16949.197500	884.480469	167.861038
19427.312340	16949.197500	883.307617	119.244591
19427.312340	16949.197500	882.134766	-18.114115
19427.312340	16949.197500	880.961914	72.739944
19427.312340	16949.197500	879.788086	186.785461
19427.312340	16949.197500	878.614258	-24.447632
19427.312340	16949.197500	877.440430	-7.576612
19427.312340	16949.197500	876.266602	-130.047852
19427.312340	16949.197500	875.091797	-39.312435
19427.312340	16949.197500	873.916992	-41.471260
19427.312340	16949.197500	872.742188	9.099577
19427.312340	16949.197500	871.567383	95.494690
19427.312340	16949.197500	870.391602	-100.732193
19427.312340	16949.197500	869.215820	50.988934
19427.312340	16949.197500	868.040039	-134.634064
19427.312340	16949.197500	866.864258	6.467041
19427.312340	16949.197500	865.687500	-172.771301
19427.312340	16949.197500	864.510742	-80.194099
19427.312340	16949.197500	863.333984	73.411377
19427.312340	16949.197500	862.157227	130.074234
19427.312340	16949.197500	860.979492	-215.414627
19427.312340	16949.197500	859.802734	74.899551
19427.312340	16949.197500	858.625000	-5.300723
19427.312340	16949.197500	857.446289	30.244074
19427.312340	16949.197500	856.268555	183.556168
19427.312340	16949.197500	855.089844	-31.261148
19427.312340	16949.197500	853.911133	-25.216896
19427.312340	16949.197500	852.731445	-38.106281
19427.312340	16949.197500	851.552734	43.572502
19427.312340	16949.197500	850.373047	-110.155518
19427.312340	16949.197500	849.193359	-70.542503
19427.312340	16949.197500	848.013672	-5.756677
19427.312340	16949.197500	846.833008	-29.215425
19427.312340	16949.197500	845.652344	-145.069321
19427.312340	16949.197500	844.471680	51.901104
19427.312340	16949.197500	843.291016	26.293198
19427.312340	16949.197500	842.110352	-129.425552
19427.312340	16949.197500	840.928711	-68.999794
19427.312340	16949.197500	839.747070	-27.495085
19427.312340	16949.197500	838.564453	120.932739
19427.312340	16949.197500	837.382813	57.506496
19427.312340	16949.197500	836.200195	-45.737541
19427.312340	16949.197500	835.017578	-144.767227
19427.312340	16949.197500	833.834961	34.912209
19427.312340	16949.197500	832.651367	65.759079
19427.312340	16949.197500	831.467773	-123.356552
19427.312340	16949.197500	830.284180	45.679222
19427.312340	16949.197500	829.100586	-11.496266
19427.312340	16949.197500	827.916992	-20.524984
19427.312340	16949.197500	826.732422	-58.867702
19427.312340	16949.197500	825.547852	160.146500
19427.312340	16949.197500	824.363281	88.264297
19427.312340	16949.197500	823.177734	-17.071827
19427.312340	16949.197500	821.992188	-9.470211
19427.312340	16949.197500	820.806641	159.085342
19427.312340	16949.197500	819.621094	-54.967087
19427.312340	16949.197500	818.434570	220.060944
19427.312340	16949.197500	817.249023	125.126244
19427.312340	16949.197500	816.062500	341.460571
19427.312340	16949.197500	814.875000	286.178680
19427.312340	16949.197500	813.688477	-46.828907
19427.312340	16949.197500	812.500977	14.843237
19427.312340	16949.197500	811.313477	-100.951141
19427.312340	16949.197500	810.125977	71.249428
19427.312340	16949.197500	808.937500	72.272812
19427.312340	16949.197500	807.749023	-72.748871
19427.312340	16949.197500	806.560547	-90.525055
19427.312340	16949.197500	805.372070	212.773865
19427.312340	16949.197500	804.182617	69.809639
19427.312340	16949.197500	802.994141	-75.216263
19427.312340	16949.197500	801.803711	40.266174
19427.312340	16949.197500	800.614258	186.913528
19427.312340	16949.197500	799.424805	48.108192
19427.312340	16949.197500	798.234375	105.084007
19427.312340	16949.197500	797.043945	51.653965
19427.312340	16949.197500	795.852539	-35.090748
19427.312340	16949.197500	794.662109	21.761692
19427.312340	16949.197500	793.470703	278.311127
19427.312340	16949.197500	792.279297	154.020035
19427.312340	16949.197500	791.087891	125.418228
19427.312340	16949.197500	789.895508	34.411163
19427.312340	16949.197500	788.703125	234.467300
19427.312340	16949.197500	787.510742	105.983597
19427.312340	16949.197500	786.318359	228.972244
19427.312340	16949.197500	785.125000	-67.827446
19427.312340	16949.197500	783.931641	44.683975
19427.312340	16949.197500	782.738281	1.342899
19427.312340	16949.197500	781.544922	34.806046
19427.312340	16949.197500	780.350586	-89.558502
19427.312340	16949.197500	779.156250	16.474800
19427.312340	16949.197500	777.961914	155.623215
19427.312340	16949.197500	776.767578	-16.536646
19427.312340	16949.197500	775.572266	99.661026
19427.312340	16949.197500	774.376953	-89.091293
19427.312340	16949.197500	773.181641	10.395326
19427.312340	16949.197500	771.986328	103.575447
19427.312340	16949.197500	770.790039	53.668423
19427.312340	16949.197500	769.593750	14.095390
19427.312340	16949.197500	768.397461	-13.077759
19427.312340	16949.197500	767.201172	21.849634
19427.312340	16949.197500	766.003906	106.419022
19427.312340	16949.197500	764.806641	39.763626
19427.312340	16949.197500	763.609375	70.375114
19427.312340	16949.197500	762.412109	218.887756
19427.312340	16949.197500	761.213867	71.408264
19427.312340	16949.197500	760.015625	137.012405
19427.312340	16949.197500	758.817383	159.104965
19427.312340	16949.197500	757.618164	166.664597
19427.312340	16949.197500	756.419922	37.716789
19427.312340	16949.197500	755.220703	169.209579
19427.312340	16949.197500	754.021484	67.075424
19427.312340	16949.197500	752.821289	78.568207
19427.312340	16949.197500	751.621094	25.966160
19427.312340	16949.197500	750.420898	297.571533
19427.312340	16949.197500	749.220703	149.852615
19427.312340	16949.197500	748.020508	-12.313176
19427.312340	16949.197500	746.819336	294.051483
19427.312340	16949.197500	745.618164	158.638199
19427.312340	16949.197500	744.416992	99.556816
19427.312340	16949.197500	743.214844	127.075539
19427.312340	16949.197500	742.012695	90.595093
19427.312340	16949.197500	740.810547	23.142357
19427.312340	16949.197500	739.608398	205.084076
19427.312340	16949.197500	738.406250	20.041889
19427.312340	16949.197500	737.203125	100.822823
19427.312340	16949.197500	736.000000	276.273193
19427.312340	16949.197500	734.795898	134.404984
19427.312340	16949.197500	733.592773	212.866684
19427.312340	16949.197500	732.388672	278.881958
19427.312340	16949.197500	731.184570	200.721146
19427.312340	16949.197500	729.979492	252.181244
19427.312340	16949.197500	728.775391	204.792999
19427.312340	16949.197500	727.570313	291.070679
19427.312340	16949.197500	726.365234	-3.228777
19427.312340	16949.197500	725.160156	193.959671
19427.312340	16949.197500	723.954102	308.771667
19427.312340	16949.197500	722.748047	250.820770
19427.312340	16949.197500	721.541992	42.818531
19427.312340	16949.197500	720.334961	-122.018486
19427.312340	16949.197500	719.128906	35.629459
19427.312340	16949.197500	717.921875	-127.218285
19427.312340	16949.197500	716.714844	-134.025009
19427.312340	16949.197500	715.506836	-15.676868
19427.312340	16949.197500	714.298828	40.982094
19427.312340	16949.197500	713.090820	-300.520081
19427.312340	16949.197500	711.882813	-57.280315
19427.312340	16949.197500	710.674805	3.244072
19427.312340	16949.197500	709.465820	-104.474907
19427.312340	16949.197500	708.256836	134.260071
19427.312340	16949.197500	707.047852	79.710495
19427.312340	16949.197500	705.837891	-77.352943
19427.312340	16949.197500	704.627930	-21.336239
19427.312340	16949.197500	703.417969	22.292648
19427.312340	16949.197500	702.208008	153.897797
19427.312340	16949.197500	700.998047	-7.432113
19427.312340	16949.197500	699.787109	201.772614
19427.312340	16949.197500	698.576172	5.561408
19427.312340	16949.197500	697.364258	-39.211384
19427.312340	16949.197500	696.153320	153.282211
19427.312340	16949.197500	694.941406	-81.876953
19427.312340	16949.197500	693.729492	120.624535
19427.312340	16949.197500	692.516602	-81.862106
19427.312340	16949.197500	691.304688	-26.773029
19427.312340	16949.197500	690.091797	-76.010201
19427.312340	16949.197500	688.878906	81.072083
19427.312340	16949.197500	687.665039	-50.029610
19427.312340	16949.197500	686.451172	229.380386
19427.312340	16949.197500	685.237305	275.809875
19427.312340	16949.197500	684.023438	-69.839760
19427.312340	16949.197500	682.809570	135.695190
19427.312340	16949.197500	681.594727	-81.362381
19427.312340	16949.197500	680.379883	148.423798
19427.312340	16949.197500	679.165039	55.739353
19427.312340	16949.197500	677.949219	-181.780853
19427.312340	16949.197500	676.733398	102.711800
19427.312340	16949.197500	675.517578	95.492798
19427.312340	16949.197500	674.301758	177.881638
19427.312340	16949.197500	673.084961	44.163387
19427.312340	16949.197500	671.869141	71.374733
19427.312340	16949.197500	670.651367	80.167389
19427.312340	16949.197500	669.434570	105.175171
19427.312340	16949.197500	668.216797	93.450317
19427.312340	16949.197500	667.000000	332.033936
19427.312340	16949.197500	665.781250	65.725540
19427.312340	16949.197500	664.563477	-167.985794
19427.312340	16949.197500	663.344727	-228.758163
19427.312340	16949.197500	662.125977	31.771561
19427.312340	16949.197500	660.907227	245.350784
19427.312340	16949.197500	659.688477	15.574551
19427.312340	16949.197500	658.468750	165.913025
19427.312340	16949.197500	657.249023	108.839043
19427.312340	16949.197500	656.029297	-31.582571
19427.312340	16949.197500	654.808594	140.800842
19427.312340	16949.197500	653.587891	-24.079653
19427.312340	16949.197500	652.367188	-91.500977
19427.312340	16949.197500	651.146484	-85.882591
19427.312340	16949.197500	649.924805	10.993444
19427.312340	16949.197500	648.704102	-44.424580
19427.312340	16949.197500	647.482422	-41.055752
19427.312340	16949.197500	646.259766	21.062202
19427.312340	16949.197500	645.037109	-0.054201
19427.312340	16949.197500	643.815430	295.049286
19427.312340	16949.197500	642.591797	18.348093
19427.312340	16949.197500	641.369141	319.269318
19427.312340	16949.197500	640.145508	194.509552
19427.312340	16949.197500	638.921875	213.562225
19427.312340	16949.197500	637.698242	109.001205
19427.312340	16949.197500	636.474609	289.923859
19427.312340	16949.197500	635.250000	229.800613
19427.312340	16949.197500	634.025391	252.623230
19427.312340	16949.197500	632.800781	170.150223
19427.312340	16949.197500	631.575195	223.198654
19427.312340	16949.197500	630.349609	239.756561
19427.312340	16949.197500	629.124023	136.934052
19427.312340	16949.197500	627.898438	-48.800304
19427.312340	16949.197500	626.671875	183.918274
19427.312340	16949.197500	625.445313	-177.690491
19427.312340	16949.197500	624.218750	40.699425
19427.312340	16949.197500	622.992188	2.383775
19427.312340	16949.197500	621.764648	97.327827
19427.312340	16949.197500	620.537109	-74.366615
19427.312340	16949.197500	619.309570	60.823792
19427.312340	16949.197500	618.081055	288.748993
19427.312340	16949.197500	616.852539	149.251221
19427.312340	16949.197500	615.624023	100.553047
19427.312340	16949.197500	614.395508	-139.801605
19427.312340	16949.197500	613.166992	-21.130138
19427.312340	16949.197500	611.937500	-55.795605
19427.312340	16949.197500	610.708008	56.663601
19427.312340	16949.197500	609.477539	100.501572
19427.312340	16949.197500	608.248047	-135.804504
19427.312340	16949.197500	607.017578	-67.857796
19427.312340	16949.197500	605.787109	-175.213104
19427.312340	16949.197500	604.555664	-195.977737
19427.312340	16949.197500	603.325195	-71.815811
19427.312340	16949.197500	602.093750	-120.854134
19427.312340	16949.197500	600.861328	-55.205975
19427.312340	16949.197500	599.629883	-92.231537
19427.312340	16949.197500	598.397461	-175.547012
19427.312340	16949.197500	597.165039	105.152428
19427.312340	16949.197500	595.932617	90.123764
19427.312340	16949.197500	594.699219	-302.867401
19427.312340	16949.197500	593.465820	-193.261261
19427.312340	16949.197500	592.232422	-137.986343
19427.312340	16949.197500	590.999023	7.639117
19427.312340	16949.197500	589.764648	-130.038269
19427.312340	16949.197500	588.530273	-165.270096
19427.312340	16949.197500	587.295898	-57.965347
19427.312340	16949.197500	586.061523	97.443504
19427.312340	16949.197500	584.826172	-28.202854
19427.312340	16949.197500	583.590820	-189.935211
19427.312340	16949.197500	582.355469	-48.713348
19427.312340	16949.197500	581.119141	-188.357773
19427.312340	16949.197500	579.882813	-135.467560
19427.312340	16949.197500	578.646484	-78.609932
19427.312340	16949.197500	577.410156	40.339317
19427.312340	16949.197500	576.172852	143.186584
19427.312340	16949.197500	574.935547	257.995911
19427.312340	16949.197500	573.698242	28.222521
19427.312340	16949.197500	572.460938	86.907608
19427.312340	16949.197500	571.222656	37.434662
19427.312340	16949.197500	569.984375	54.028862
19427.312340	16949.197500	568.746094	-17.451254
19427.312340	16949.197500	567.506836	-12.879070
19427.312340	16949.197500	566.267578	113.709846
19427.312340	16949.197500	565.028320	166.238464
19427.312340	16949.197500	563.789063	66.769356
19427.312340	16949.197500	562.548828	-40.662708
19427.312340	16949.197500	561.309570	-38.117271
19427.312340	16949.197500	560.068359	-69.553703
19427.312340	16949.197500	558.828125	-124.949097
19427.312340	16949.197500	557.586914	-26.520184
19427.312340	16949.197500	556.345703	-55.943268
19427.312340	16949.197500	555.104492	-85.353149
19427.312340	16949.197500	553.863281	-14.938356
19427.312340	16949.197500	552.621094	69.416794
19427.312340	16949.197500	551.378906	73.926521
19427.312340	16949.197500	550.136719	28.567255
19427.312340	16949.197500	548.893555	124.836456
19427.312340	16949.197500	547.650391	7.708989
19427.312340	16949.197500	546.407227	91.995178
19427.312340	16949.197500	545.164063	-1.142144
19427.312340	16949.197500	543.919922	-22.493698
19427.312340	16949.197500	542.675781	-23.903151
19427.312340	16949.197500	541.431641	126.083244
19427.312340	16949.197500	540.186523	35.042839
19427.312340	16949.197500	538.941406	-77.848640
19427.312340	16949.197500	537.696289	-57.307495
19427.312340	16949.197500	536.451172	140.363968
19427.312340	16949.197500	535.205078	99.188316
19427.312340	16949.197500	533.959961	-93.144997
19427.312340	16949.197500	532.712891	24.882946
19427.312340	16949.197500	531.466797	-129.547012
19427.312340	16949.197500	530.219727	133.595032
19427.312340	16949.197500	528.972656	11.035093
19427.312340	16949.197500	527.725586	61.429482
19427.312340	16949.197500	526.478516	191.287979
19427.312340	16949.197500	525.230469	-12.607443
19427.312340	16949.197500	523.982422	99.362473
19427.312340	16949.197500	522.734375	187.470978
19427.312340	16949.197500	521.485352	-143.299911
19427.312340	16949.197500	520.236328	63.926594
19427.312340	16949.197500	518.987305	76.621796
19427.312340	16949.197500	517.737305	146.851486
19427.312340	16949.197500	516.488281	-66.557480
19427.312340	16949.197500	515.238281	-10.185090
19427.312340	16949.197500	513.988281	107.632118
19427.312340	16949.197500	512.737305	17.283865
19427.312340	16949.197500	511.486328	24.085760
19427.312340	16949.197500	510.235352	133.916687
19427.312340	16949.197500	508.984375	75.338051
19427.312340	16949.197500	507.732422	94.021439
19427.312340	16949.197500	506.480469	170.120911
19427.312340	16949.197500	505.228516	289.740509
19427.312340	16949.197500	503.976563	241.084824
19427.312340	16949.197500	502.723633	243.892380
19427.312340	16949.197500	501.470703	440.566772
19427.312340	16949.197500	500.217773	362.232147
19427.312340	16949.197500	498.963867	459.912811
19427.312340	16949.197500	497.709961	391.475861
19427.312340	16949.197500	496.456055	344.799957
19427.312340	16949.197500	495.202148	616.290894
19427.312340	16949.197500	493.947266	674.269409
19427.312340	16949.197500	492.692383	827.018982
19427.312340	16949.197500	491.437500	973.757568
19427.312340	16949.197500	490.181641	956.527100
19427.312340	16949.197500	488.926758	986.657715
19427.312340	16949.197500	487.670898	916.088257
19427.312340	16949.197500	486.414063	1027.044922
19427.312340	16949.197500	485.158203	798.607300
19427.312340	16949.197500	483.901367	960.744141
19427.312340	16949.197500	482.644531	817.123535
19427.312340	16949.197500	481.386719	910.087830
19427.312340	16949.197500	480.128906	1198.093018
19427.312340	16949.197500	478.871094	1194.265503
19427.312340	16949.197500	477.613281	950.013855
19427.312340	16949.197500	476.355469	1245.517822
19427.312340	16949.197500	475.096680	946.076477
19427.312340	16949.197500	473.837891	1304.306274
19427.312340	16949.197500	472.578125	1221.352539
19427.312340	16949.197500	471.319336	1221.009766
19427.312340	16949.197500	470.059570	1354.368408
19427.312340	16949.197500	468.799805	1328.224731
19427.312340	16949.197500	467.539063	1223.310059
19427.312340	16949.197500	466.278320	1470.307983
19427.312340	16949.197500	465.017578	1528.349487
19427.312340	16949.197500	463.756836	1523.339844
19427.312340	16949.197500	462.495117	1669.507813
19427.312340	16949.197500	461.233398	1581.676025
19427.312340	16949.197500	459.971680	1491.766602
19427.312340	16949.197500	458.709961	1605.976563
19427.312340	16949.197500	457.447266	1582.527466
19427.312340	16949.197500	456.184570	1558.915161
19427.312340	16949.197500	454.921875	1678.394531
19427.312340	16949.197500	453.658203	1909.465210
19427.312340	16949.197500	452.394531	1902.868530
19427.312340	16949.197500	451.130859	2058.849121
19427.312340	16949.197500	449.867188	2145.908203
19427.312340	16949.197500	448.602539	2001.360352
19427.312340	16949.197500	447.337891	1850.752808
19427.312340	16949.197500	446.073242	1797.932251
19427.312340	16949.197500	444.807617	1970.168091
19427.312340	16949.197500	443.542969	1715.053223
19427.312340	16949.197500	442.276367	1829.864380
19427.312340	16949.197500	441.010742	1895.384766
19427.312340	16949.197500	439.744141	1966.425537
19427.312340	16949.197500	438.478516	1894.250122
19427.312340	16949.197500	437.210938	2048.716553
19427.312340	16949.197500	435.944336	1966.066528
19427.312340	16949.197500	434.676758	1922.189941
19427.312340	16949.197500	433.409180	2102.812500
19427.312340	16949.197500	432.141602	1802.044312
19427.312340	16949.197500	430.873047	1753.110718
19427.312340	16949.197500	429.604492	2022.280029
19427.312340	16949.197500	428.335938	1814.192627
19427.312340	16949.197500	427.067383	1967.077759
19427.312340	16949.197500	425.797852	2045.196899
19427.312340	16949.197500	424.528320	2095.444824
19427.312340	16949.197500	423.258789	2076.835205
19427.312340	16949.197500	421.988281	2141.598877
19427.312340	16949.197500	420.717773	2071.148438
19427.312340	16949.197500	419.447266	2439.058350
19427.312340	16949.197500	418.175781	2439.547119
19427.312340	16949.197500	416.905273	2098.205078
19427.312340	16949.197500	415.633789	2120.901611
19427.312340	16949.197500	414.362305	2024.037598
19427.312340	16949.197500	413.089844	1986.920898
19427.312340	16949.197500	411.817383	1680.266479
19427.312340	16949.197500	410.544922	1856.053223
19427.312340	16949.197500	409.272461	2017.376587
19427.312340	16949.197500	407.999023	2146.683350
19427.312340	16949.197500	406.725586	2251.771973
19427.312340	16949.197500	405.452148	2038.777222
19427.312340	16949.197500	404.177734	2013.724121
19427.312340	16949.197500	402.903320	2003.358276
19427.312340	16949.197500	401.628906	2268.242676
19427.312340	16949.197500	400.354492	1997.372681
19427.312340	16949.197500	399.079102	2151.350342
19427.312340	16949.197500	397.803711	1818.384033
19427.312340	16949.197500	396.528320	1931.440430
19427.312340	16949.197500	395.251953	2152.149902
19427.312340	16949.197500	393.976563	1860.885742
19427.312340	16949.197500	392.700195	1751.128296
19427.312340	16949.197500	391.422852	1748.949951
19427.312340	16949.197500	390.145508	1895.032837
19427.312340	16949.197500	388.869141	1971.932495
19427.312340	16949.197500	387.590820	1799.138306
19427.312340	16949.197500	386.313477	1863.733643
19427.312340	16949.197500	385.035156	1886.204956
19427.312340	16949.197500	383.756836	1672.688232
19427.312340	16949.197500	382.478516	1725.354614
19427.312340	16949.197500	381.199219	1786.200562
19427.312340	16949.197500	379.919922	1624.633911
19427.312340	16949.197500	378.640625	1513.907593
19427.312340	16949.197500	377.360352	1653.388916
19427.312340	16949.197500	376.080078	1483.308716
19427.312340	16949.197500	374.799805	1456.829346
19427.312340	16949.197500	373.519531	1515.745117
19427.312340	16949.197500	372.238281	1534.135254
19427.312340	16949.197500	370.957031	1488.802490
19427.312340	16949.197500	369.675781	1402.952271
19427.312340	16949.197500	368.394531	1649.787354
19427.312340	16949.197500	367.112305	1320.297363
19427.312340	16949.197500	365.830078	1555.308105
19427.312340	16949.197500	364.546875	1378.409668
19427.312340	16949.197500	363.264648	1497.078979
19427.312340	16949.197500	361.981445	1431.902344
19427.312340	16949.197500	360.698242	1248.658447
19427.312340	16949.197500	359.414063	1086.333008
19427.312340	16949.197500	358.129883	1184.285889
19427.312340	16949.197500	356.845703	1164.003662
19427.312340	16949.197500	355.561523	1316.875732
19427.312340	16949.197500	354.276367	1177.729492
19427.312340	16949.197500	352.991211	1236.660034
19427.312340	16949.197500	351.706055	1046.100220
19427.312340	16949.197500	350.420898	1132.474121
19427.312340	16949.197500	349.134766	1034.785889
19427.312340	16949.197500	347.848633	866.857971
19427.312340	16949.197500	346.561523	958.049133
19427.312340	16949.197500	345.275391	793.968140
19427.312340	16949.197500	343.988281	769.348389
19427.312340	16949.197500	342.700195	739.611389
19427.312340	16949.197500	341.413086	602.836548
19427.312340	16949.197500	340.125000	697.563782
19427.312340	16949.197500	338.836914	838.936279
19427.312340	16949.197500	337.548828	467.045013
19427.312340	16949.197500	336.259766	566.775269
19427.312340	16949.197500	334.970703	401.369324
19427.312340	16949.197500	333.681641	645.704773
19427.312340	16949.197500	332.391602	422.869202
19427.312340	16949.197500	331.101563	486.463867
19427.312340	16949.197500	329.811523	488.475250
19427.312340	16949.197500	328.521484	288.638489
19427.312340	16949.197500	327.230469	280.554413
19427.312340	16949.197500	325.939453	32.130413
19427.312340	16949.197500	324.648438	63.622269
19427.312340	16949.197500	323.356445	100.192589
19427.312340	16949.197500	322.064453	274.251221
19427.312340	16949.197500	320.772461	94.535324
19427.312340	16949.197500	319.480469	86.669212
19427.312340	16949.197500	318.187500	43.210987
19427.312340	16949.197500	316.894531	200.010696
19427.312340	16949.197500	315.601563	-100.558670
19427.312340	16949.197500	314.307617	-166.719147
19427.312340	16949.197500	313.013672	-230.394562
19427.312340	16949.197500	311.719727	-352.986877
19427.312340	16949.197500	310.425781	72.459549
19427.312340	16949.197500	309.130859	-1.929587
19427.312340	16949.197500	307.835938	-148.943130
19427.312340	16949.197500	306.541016	-83.511993
19427.312340	16949.197500	305.245117	-64.371071
19427.312340	16949.197500	303.949219	25.246212
19427.312340	16949.197500	302.653320	99.111946
19427.312340	16949.197500	301.356445	174.117905
19427.312340	16949.197500	300.060547	124.364296
19427.312340	16949.197500	298.763672	343.097748
