#X		#Y		#Wave		#Intensity
19418.394947	16867.668000	2000.043945	-25.782362
19418.394947	16867.668000	1999.080078	-9.541656
19418.394947	16867.668000	1998.116211	-98.285461
19418.394947	16867.668000	1997.151367	63.152946
19418.394947	16867.668000	1996.186523	33.604286
19418.394947	16867.668000	1995.222656	93.103401
19418.394947	16867.668000	1994.256836	1.367400
19418.394947	16867.668000	1993.291992	-31.038622
19418.394947	16867.668000	1992.327148	-4.140249
19418.394947	16867.668000	1991.361328	10.248739
19418.394947	16867.668000	1990.395508	-17.562746
19418.394947	16867.668000	1989.429688	-15.787561
19418.394947	16867.668000	1988.463867	37.827175
19418.394947	16867.668000	1987.497070	-89.256447
19418.394947	16867.668000	1986.531250	-50.704079
19418.394947	16867.668000	1985.564453	39.657581
19418.394947	16867.668000	1984.597656	-92.611519
19418.394947	16867.668000	1983.630859	24.715303
19418.394947	16867.668000	1982.664063	-6.371443
19418.394947	16867.668000	1981.696289	53.883770
19418.394947	16867.668000	1980.728516	-2.078346
19418.394947	16867.668000	1979.761719	43.159538
19418.394947	16867.668000	1978.792969	-15.415220
19418.394947	16867.668000	1977.825195	108.655334
19418.394947	16867.668000	1976.857422	-1.906225
19418.394947	16867.668000	1975.888672	75.073227
19418.394947	16867.668000	1974.919922	87.795044
19418.394947	16867.668000	1973.951172	58.501896
19418.394947	16867.668000	1972.982422	21.753744
19418.394947	16867.668000	1972.013672	-12.578451
19418.394947	16867.668000	1971.043945	93.590904
19418.394947	16867.668000	1970.075195	68.999573
19418.394947	16867.668000	1969.105469	66.545341
19418.394947	16867.668000	1968.135742	41.858372
19418.394947	16867.668000	1967.165039	83.655411
19418.394947	16867.668000	1966.195313	113.069221
19418.394947	16867.668000	1965.224609	9.422020
19418.394947	16867.668000	1964.253906	75.684532
19418.394947	16867.668000	1963.283203	-47.703426
19418.394947	16867.668000	1962.312500	168.620499
19418.394947	16867.668000	1961.341797	185.467865
19418.394947	16867.668000	1960.370117	-75.791206
19418.394947	16867.668000	1959.399414	174.748062
19418.394947	16867.668000	1958.427734	137.361771
19418.394947	16867.668000	1957.455078	102.416328
19418.394947	16867.668000	1956.483398	47.781906
19418.394947	16867.668000	1955.511719	86.559792
19418.394947	16867.668000	1954.539063	-4.977498
19418.394947	16867.668000	1953.566406	36.200256
19418.394947	16867.668000	1952.593750	15.911500
19418.394947	16867.668000	1951.621094	32.456810
19418.394947	16867.668000	1950.647461	125.115761
19418.394947	16867.668000	1949.674805	-35.217499
19418.394947	16867.668000	1948.701172	150.680405
19418.394947	16867.668000	1947.727539	122.925247
19418.394947	16867.668000	1946.753906	46.077442
19418.394947	16867.668000	1945.780273	96.845261
19418.394947	16867.668000	1944.805664	-46.239357
19418.394947	16867.668000	1943.831055	-7.763826
19418.394947	16867.668000	1942.856445	116.523735
19418.394947	16867.668000	1941.881836	125.508705
19418.394947	16867.668000	1940.907227	24.159702
19418.394947	16867.668000	1939.932617	30.690395
19418.394947	16867.668000	1938.957031	113.182739
19418.394947	16867.668000	1937.981445	156.434662
19418.394947	16867.668000	1937.005859	-28.163004
19418.394947	16867.668000	1936.030273	17.539078
19418.394947	16867.668000	1935.054688	-81.261696
19418.394947	16867.668000	1934.078125	-113.921310
19418.394947	16867.668000	1933.101563	88.432014
19418.394947	16867.668000	1932.125000	173.229462
19418.394947	16867.668000	1931.148438	-42.989666
19418.394947	16867.668000	1930.171875	78.499725
19418.394947	16867.668000	1929.194336	-54.451488
19418.394947	16867.668000	1928.217773	-30.828970
19418.394947	16867.668000	1927.240234	159.061493
19418.394947	16867.668000	1926.262695	92.184982
19418.394947	16867.668000	1925.284180	113.331726
19418.394947	16867.668000	1924.306641	117.367981
19418.394947	16867.668000	1923.328125	84.756432
19418.394947	16867.668000	1922.350586	130.335907
19418.394947	16867.668000	1921.372070	12.258257
19418.394947	16867.668000	1920.392578	40.751732
19418.394947	16867.668000	1919.414063	71.682381
19418.394947	16867.668000	1918.434570	-53.622185
19418.394947	16867.668000	1917.456055	31.022863
19418.394947	16867.668000	1916.476563	-3.925734
19418.394947	16867.668000	1915.497070	-77.889229
19418.394947	16867.668000	1914.516602	-39.609810
19418.394947	16867.668000	1913.537109	-1.336394
19418.394947	16867.668000	1912.556641	80.822060
19418.394947	16867.668000	1911.576172	75.193680
19418.394947	16867.668000	1910.595703	106.138298
19418.394947	16867.668000	1909.615234	-99.309250
19418.394947	16867.668000	1908.633789	-34.213001
19418.394947	16867.668000	1907.653320	-17.853605
19418.394947	16867.668000	1906.671875	-35.589787
19418.394947	16867.668000	1905.690430	-33.827965
19418.394947	16867.668000	1904.708984	50.723938
19418.394947	16867.668000	1903.727539	89.002991
19418.394947	16867.668000	1902.745117	-43.089813
19418.394947	16867.668000	1901.762695	-7.221008
19418.394947	16867.668000	1900.780273	-24.879597
19418.394947	16867.668000	1899.797852	-1.169595
19418.394947	16867.668000	1898.815430	-86.898888
19418.394947	16867.668000	1897.832031	-104.502457
19418.394947	16867.668000	1896.849609	-27.277227
19418.394947	16867.668000	1895.866211	15.900523
19418.394947	16867.668000	1894.882813	114.965881
19418.394947	16867.668000	1893.898438	-4.671656
19418.394947	16867.668000	1892.915039	62.799225
19418.394947	16867.668000	1891.930664	16.099693
19418.394947	16867.668000	1890.947266	22.851061
19418.394947	16867.668000	1889.962891	12.613614
19418.394947	16867.668000	1888.977539	104.342773
19418.394947	16867.668000	1887.993164	21.301615
19418.394947	16867.668000	1887.007813	52.348282
19418.394947	16867.668000	1886.023438	-23.356749
19418.394947	16867.668000	1885.038086	97.452148
19418.394947	16867.668000	1884.051758	-9.743773
19418.394947	16867.668000	1883.066406	40.715618
19418.394947	16867.668000	1882.081055	64.496582
19418.394947	16867.668000	1881.094727	42.223648
19418.394947	16867.668000	1880.108398	-96.356163
19418.394947	16867.668000	1879.122070	70.410675
19418.394947	16867.668000	1878.135742	-46.307182
19418.394947	16867.668000	1877.148438	45.318150
19418.394947	16867.668000	1876.162109	-47.123661
19418.394947	16867.668000	1875.174805	37.215580
19418.394947	16867.668000	1874.187500	85.218536
19418.394947	16867.668000	1873.199219	38.821003
19418.394947	16867.668000	1872.211914	94.074234
19418.394947	16867.668000	1871.223633	42.862560
19418.394947	16867.668000	1870.236328	-92.985680
19418.394947	16867.668000	1869.248047	-59.492401
19418.394947	16867.668000	1868.258789	-69.531006
19418.394947	16867.668000	1867.270508	-152.087677
19418.394947	16867.668000	1866.282227	-19.496410
19418.394947	16867.668000	1865.292969	-51.278996
19418.394947	16867.668000	1864.303711	28.093130
19418.394947	16867.668000	1863.314453	102.605408
19418.394947	16867.668000	1862.324219	-37.862812
19418.394947	16867.668000	1861.334961	-16.489653
19418.394947	16867.668000	1860.344727	70.061852
19418.394947	16867.668000	1859.354492	47.957188
19418.394947	16867.668000	1858.364258	-22.408066
19418.394947	16867.668000	1857.374023	64.093102
19418.394947	16867.668000	1856.383789	-59.326599
19418.394947	16867.668000	1855.392578	-13.859151
19418.394947	16867.668000	1854.401367	-19.054901
19418.394947	16867.668000	1853.410156	-21.840557
19418.394947	16867.668000	1852.418945	11.531486
19418.394947	16867.668000	1851.426758	126.835037
19418.394947	16867.668000	1850.435547	56.537987
19418.394947	16867.668000	1849.443359	-30.602137
19418.394947	16867.668000	1848.451172	-81.581970
19418.394947	16867.668000	1847.458984	-26.578468
19418.394947	16867.668000	1846.466797	107.860786
19418.394947	16867.668000	1845.473633	23.160200
19418.394947	16867.668000	1844.480469	27.545078
19418.394947	16867.668000	1843.487305	-73.969650
19418.394947	16867.668000	1842.494141	9.818913
19418.394947	16867.668000	1841.500977	2.151288
19418.394947	16867.668000	1840.506836	66.634933
19418.394947	16867.668000	1839.513672	119.060371
19418.394947	16867.668000	1838.519531	137.796051
19418.394947	16867.668000	1837.525391	-62.239540
19418.394947	16867.668000	1836.530273	136.759247
19418.394947	16867.668000	1835.536133	11.269541
19418.394947	16867.668000	1834.541016	66.004684
19418.394947	16867.668000	1833.545898	48.644917
19418.394947	16867.668000	1832.550781	69.704666
19418.394947	16867.668000	1831.555664	45.121223
19418.394947	16867.668000	1830.560547	176.579681
19418.394947	16867.668000	1829.564453	190.361694
19418.394947	16867.668000	1828.568359	76.933952
19418.394947	16867.668000	1827.572266	64.306984
19418.394947	16867.668000	1826.576172	150.024521
19418.394947	16867.668000	1825.580078	29.426466
19418.394947	16867.668000	1824.583008	-0.018345
19418.394947	16867.668000	1823.585938	13.686878
19418.394947	16867.668000	1822.588867	75.311470
19418.394947	16867.668000	1821.591797	72.185814
19418.394947	16867.668000	1820.594727	30.703747
19418.394947	16867.668000	1819.596680	70.673897
19418.394947	16867.668000	1818.599609	62.704033
19418.394947	16867.668000	1817.601563	160.090530
19418.394947	16867.668000	1816.603516	128.123260
19418.394947	16867.668000	1815.604492	-11.579390
19418.394947	16867.668000	1814.606445	-62.691471
19418.394947	16867.668000	1813.607422	60.885731
19418.394947	16867.668000	1812.608398	62.372856
19418.394947	16867.668000	1811.609375	75.797829
19418.394947	16867.668000	1810.610352	65.278412
19418.394947	16867.668000	1809.610352	-28.952888
19418.394947	16867.668000	1808.611328	58.526852
19418.394947	16867.668000	1807.611328	-16.592340
19418.394947	16867.668000	1806.611328	-3.282296
19418.394947	16867.668000	1805.610352	29.113012
19418.394947	16867.668000	1804.610352	28.025978
19418.394947	16867.668000	1803.609375	91.403534
19418.394947	16867.668000	1802.608398	1.895307
19418.394947	16867.668000	1801.607422	67.589310
19418.394947	16867.668000	1800.606445	28.196857
19418.394947	16867.668000	1799.605469	-27.914244
19418.394947	16867.668000	1798.603516	-88.804665
19418.394947	16867.668000	1797.601563	-80.511406
19418.394947	16867.668000	1796.599609	68.486687
19418.394947	16867.668000	1795.597656	117.233948
19418.394947	16867.668000	1794.595703	-39.128586
19418.394947	16867.668000	1793.592773	42.938152
19418.394947	16867.668000	1792.589844	-63.355610
19418.394947	16867.668000	1791.587891	-36.185005
19418.394947	16867.668000	1790.583984	-6.673561
19418.394947	16867.668000	1789.581055	-110.605591
19418.394947	16867.668000	1788.577148	126.059105
19418.394947	16867.668000	1787.574219	62.561291
19418.394947	16867.668000	1786.570313	151.429092
19418.394947	16867.668000	1785.566406	-19.230520
19418.394947	16867.668000	1784.561523	12.436238
19418.394947	16867.668000	1783.557617	48.818596
19418.394947	16867.668000	1782.552734	73.258423
19418.394947	16867.668000	1781.547852	-16.515591
19418.394947	16867.668000	1780.542969	83.961632
19418.394947	16867.668000	1779.538086	94.015785
19418.394947	16867.668000	1778.532227	82.636246
19418.394947	16867.668000	1777.527344	21.315916
19418.394947	16867.668000	1776.521484	-99.424461
19418.394947	16867.668000	1775.515625	93.461884
19418.394947	16867.668000	1774.508789	51.072636
19418.394947	16867.668000	1773.502930	44.290146
19418.394947	16867.668000	1772.496094	-69.379494
19418.394947	16867.668000	1771.489258	99.473198
19418.394947	16867.668000	1770.482422	-16.608267
19418.394947	16867.668000	1769.475586	54.799278
19418.394947	16867.668000	1768.467773	-4.357293
19418.394947	16867.668000	1767.460938	45.598270
19418.394947	16867.668000	1766.453125	-20.721861
19418.394947	16867.668000	1765.445313	-77.567871
19418.394947	16867.668000	1764.437500	102.662621
19418.394947	16867.668000	1763.428711	114.483017
19418.394947	16867.668000	1762.420898	3.023057
19418.394947	16867.668000	1761.412109	-120.280930
19418.394947	16867.668000	1760.403320	85.730980
19418.394947	16867.668000	1759.393555	-6.825885
19418.394947	16867.668000	1758.384766	-2.286794
19418.394947	16867.668000	1757.375000	-0.156607
19418.394947	16867.668000	1756.366211	-50.143970
19418.394947	16867.668000	1755.356445	119.965614
19418.394947	16867.668000	1754.345703	-100.486740
19418.394947	16867.668000	1753.335938	142.836212
19418.394947	16867.668000	1752.325195	43.027908
19418.394947	16867.668000	1751.315430	-18.938005
19418.394947	16867.668000	1750.304688	-62.003860
19418.394947	16867.668000	1749.292969	-1.070937
19418.394947	16867.668000	1748.282227	-1.654386
19418.394947	16867.668000	1747.270508	-49.543163
19418.394947	16867.668000	1746.259766	4.150331
19418.394947	16867.668000	1745.248047	41.245647
19418.394947	16867.668000	1744.235352	-44.532974
19418.394947	16867.668000	1743.223633	-0.435635
19418.394947	16867.668000	1742.211914	-102.776115
19418.394947	16867.668000	1741.199219	52.181469
19418.394947	16867.668000	1740.186523	22.952883
19418.394947	16867.668000	1739.173828	-25.180359
19418.394947	16867.668000	1738.160156	-30.871380
19418.394947	16867.668000	1737.147461	-121.511406
19418.394947	16867.668000	1736.133789	-106.035141
19418.394947	16867.668000	1735.120117	-57.593597
19418.394947	16867.668000	1734.106445	-20.996300
19418.394947	16867.668000	1733.091797	6.117406
19418.394947	16867.668000	1732.078125	134.514404
19418.394947	16867.668000	1731.063477	6.011354
19418.394947	16867.668000	1730.048828	4.720900
19418.394947	16867.668000	1729.034180	38.719536
19418.394947	16867.668000	1728.019531	37.345978
19418.394947	16867.668000	1727.003906	42.994381
19418.394947	16867.668000	1725.988281	-17.304483
19418.394947	16867.668000	1724.972656	-4.664520
19418.394947	16867.668000	1723.957031	-25.008711
19418.394947	16867.668000	1722.941406	-235.931412
19418.394947	16867.668000	1721.924805	84.737015
19418.394947	16867.668000	1720.909180	78.382477
19418.394947	16867.668000	1719.892578	17.914204
19418.394947	16867.668000	1718.875977	27.950651
19418.394947	16867.668000	1717.858398	-86.618179
19418.394947	16867.668000	1716.841797	-34.345303
19418.394947	16867.668000	1715.824219	-54.961388
19418.394947	16867.668000	1714.806641	55.928558
19418.394947	16867.668000	1713.789063	103.332275
19418.394947	16867.668000	1712.770508	33.280003
19418.394947	16867.668000	1711.752930	-20.346321
19418.394947	16867.668000	1710.734375	19.889793
19418.394947	16867.668000	1709.715820	76.499992
19418.394947	16867.668000	1708.697266	-3.024302
19418.394947	16867.668000	1707.678711	-21.566183
19418.394947	16867.668000	1706.659180	-16.687620
19418.394947	16867.668000	1705.640625	25.673449
19418.394947	16867.668000	1704.621094	70.323265
19418.394947	16867.668000	1703.600586	2.410167
19418.394947	16867.668000	1702.581055	35.259846
19418.394947	16867.668000	1701.561523	-2.227785
19418.394947	16867.668000	1700.541016	11.796522
19418.394947	16867.668000	1699.520508	140.543777
19418.394947	16867.668000	1698.500000	67.825760
19418.394947	16867.668000	1697.478516	72.356880
19418.394947	16867.668000	1696.458008	-89.336311
19418.394947	16867.668000	1695.436523	1.747465
19418.394947	16867.668000	1694.415039	104.462471
19418.394947	16867.668000	1693.393555	71.419830
19418.394947	16867.668000	1692.372070	108.525597
19418.394947	16867.668000	1691.349609	-39.161247
19418.394947	16867.668000	1690.327148	70.362389
19418.394947	16867.668000	1689.304688	74.619995
19418.394947	16867.668000	1688.282227	-33.338799
19418.394947	16867.668000	1687.259766	62.006104
19418.394947	16867.668000	1686.236328	31.120800
19418.394947	16867.668000	1685.213867	201.100647
19418.394947	16867.668000	1684.190430	135.109436
19418.394947	16867.668000	1683.166016	148.496048
19418.394947	16867.668000	1682.142578	145.511063
19418.394947	16867.668000	1681.119141	74.811691
19418.394947	16867.668000	1680.094727	228.127335
19418.394947	16867.668000	1679.070313	192.373291
19418.394947	16867.668000	1678.045898	406.199341
19418.394947	16867.668000	1677.020508	141.807480
19418.394947	16867.668000	1675.996094	245.912445
19418.394947	16867.668000	1674.970703	261.355835
19418.394947	16867.668000	1673.945313	246.464752
19418.394947	16867.668000	1672.919922	126.683868
19418.394947	16867.668000	1671.893555	209.625732
19418.394947	16867.668000	1670.868164	283.195801
19418.394947	16867.668000	1669.841797	270.531860
19418.394947	16867.668000	1668.815430	146.074341
19418.394947	16867.668000	1667.789063	226.518509
19418.394947	16867.668000	1666.761719	274.314697
19418.394947	16867.668000	1665.735352	224.327560
19418.394947	16867.668000	1664.708008	367.457367
19418.394947	16867.668000	1663.680664	280.197968
19418.394947	16867.668000	1662.653320	241.793930
19418.394947	16867.668000	1661.625000	338.255035
19418.394947	16867.668000	1660.597656	334.685486
19418.394947	16867.668000	1659.569336	347.362762
19418.394947	16867.668000	1658.541016	304.234924
19418.394947	16867.668000	1657.512695	363.344910
19418.394947	16867.668000	1656.483398	503.719086
19418.394947	16867.668000	1655.455078	304.899231
19418.394947	16867.668000	1654.425781	203.669601
19418.394947	16867.668000	1653.396484	216.231766
19418.394947	16867.668000	1652.366211	368.050964
19418.394947	16867.668000	1651.336914	375.897736
19418.394947	16867.668000	1650.306641	281.615234
19418.394947	16867.668000	1649.276367	301.035950
19418.394947	16867.668000	1648.246094	264.760956
19418.394947	16867.668000	1647.215820	138.035324
19418.394947	16867.668000	1646.185547	238.578751
19418.394947	16867.668000	1645.154297	352.972656
19418.394947	16867.668000	1644.123047	270.290863
19418.394947	16867.668000	1643.091797	280.322357
19418.394947	16867.668000	1642.060547	162.903610
19418.394947	16867.668000	1641.028320	293.376221
19418.394947	16867.668000	1639.997070	328.832245
19418.394947	16867.668000	1638.964844	371.204041
19418.394947	16867.668000	1637.931641	230.645309
19418.394947	16867.668000	1636.899414	303.086151
19418.394947	16867.668000	1635.867188	257.461426
19418.394947	16867.668000	1634.833984	297.448120
19418.394947	16867.668000	1633.800781	339.722778
19418.394947	16867.668000	1632.767578	287.142303
19418.394947	16867.668000	1631.734375	246.135391
19418.394947	16867.668000	1630.700195	320.729645
19418.394947	16867.668000	1629.666016	453.075714
19418.394947	16867.668000	1628.631836	372.740967
19418.394947	16867.668000	1627.597656	449.554047
19418.394947	16867.668000	1626.563477	353.065704
19418.394947	16867.668000	1625.528320	355.922211
19418.394947	16867.668000	1624.493164	294.111145
19418.394947	16867.668000	1623.458008	456.277496
19418.394947	16867.668000	1622.422852	482.180115
19418.394947	16867.668000	1621.387695	376.514313
19418.394947	16867.668000	1620.351563	471.633820
19418.394947	16867.668000	1619.315430	444.438354
19418.394947	16867.668000	1618.279297	477.222839
19418.394947	16867.668000	1617.243164	426.970245
19418.394947	16867.668000	1616.207031	508.160522
19418.394947	16867.668000	1615.169922	434.860352
19418.394947	16867.668000	1614.132813	426.122253
19418.394947	16867.668000	1613.095703	650.128418
19418.394947	16867.668000	1612.058594	622.919800
19418.394947	16867.668000	1611.020508	715.498169
19418.394947	16867.668000	1609.983398	817.258606
19418.394947	16867.668000	1608.945313	840.688416
19418.394947	16867.668000	1607.907227	643.107117
19418.394947	16867.668000	1606.868164	852.997070
19418.394947	16867.668000	1605.830078	878.715149
19418.394947	16867.668000	1604.791016	773.277466
19418.394947	16867.668000	1603.751953	815.105713
19418.394947	16867.668000	1602.712891	875.322021
19418.394947	16867.668000	1601.673828	940.118225
19418.394947	16867.668000	1600.633789	729.011780
19418.394947	16867.668000	1599.594727	848.988403
19418.394947	16867.668000	1598.554688	768.986328
19418.394947	16867.668000	1597.513672	741.862854
19418.394947	16867.668000	1596.473633	769.895813
19418.394947	16867.668000	1595.433594	712.946411
19418.394947	16867.668000	1594.392578	678.985535
19418.394947	16867.668000	1593.351563	672.598022
19418.394947	16867.668000	1592.310547	535.384888
19418.394947	16867.668000	1591.268555	542.812317
19418.394947	16867.668000	1590.227539	726.929443
19418.394947	16867.668000	1589.185547	598.989441
19418.394947	16867.668000	1588.143555	663.774231
19418.394947	16867.668000	1587.100586	623.056152
19418.394947	16867.668000	1586.058594	708.470703
19418.394947	16867.668000	1585.015625	720.507874
19418.394947	16867.668000	1583.972656	659.216248
19418.394947	16867.668000	1582.929688	728.570801
19418.394947	16867.668000	1581.886719	694.821594
19418.394947	16867.668000	1580.843750	626.744446
19418.394947	16867.668000	1579.799805	579.315125
19418.394947	16867.668000	1578.755859	541.078857
19418.394947	16867.668000	1577.711914	592.150513
19418.394947	16867.668000	1576.666992	483.007233
19418.394947	16867.668000	1575.623047	785.809448
19418.394947	16867.668000	1574.578125	541.729248
19418.394947	16867.668000	1573.533203	560.806030
19418.394947	16867.668000	1572.488281	698.811829
19418.394947	16867.668000	1571.443359	674.447327
19418.394947	16867.668000	1570.397461	515.235107
19418.394947	16867.668000	1569.351563	502.380127
19418.394947	16867.668000	1568.305664	567.244629
19418.394947	16867.668000	1567.259766	476.750519
19418.394947	16867.668000	1566.213867	521.080811
19418.394947	16867.668000	1565.166992	517.453674
19418.394947	16867.668000	1564.120117	363.153900
19418.394947	16867.668000	1563.073242	487.445618
19418.394947	16867.668000	1562.026367	385.755554
19418.394947	16867.668000	1560.978516	359.429840
19418.394947	16867.668000	1559.930664	506.533478
19418.394947	16867.668000	1558.883789	427.785614
19418.394947	16867.668000	1557.834961	431.187744
19418.394947	16867.668000	1556.787109	475.662170
19418.394947	16867.668000	1555.739258	460.873871
19418.394947	16867.668000	1554.690430	473.465942
19418.394947	16867.668000	1553.641602	392.649780
19418.394947	16867.668000	1552.592773	368.852509
19418.394947	16867.668000	1551.542969	543.267639
19418.394947	16867.668000	1550.494141	421.577881
19418.394947	16867.668000	1549.444336	600.527222
19418.394947	16867.668000	1548.394531	381.037811
19418.394947	16867.668000	1547.344727	380.172485
19418.394947	16867.668000	1546.293945	361.129333
19418.394947	16867.668000	1545.244141	369.431519
19418.394947	16867.668000	1544.193359	329.988373
19418.394947	16867.668000	1543.142578	249.655930
19418.394947	16867.668000	1542.090820	424.057617
19418.394947	16867.668000	1541.040039	318.796448
19418.394947	16867.668000	1539.988281	199.968521
19418.394947	16867.668000	1538.936523	285.749512
19418.394947	16867.668000	1537.884766	332.905975
19418.394947	16867.668000	1536.833008	193.804443
19418.394947	16867.668000	1535.780273	236.484604
19418.394947	16867.668000	1534.727539	247.393478
19418.394947	16867.668000	1533.674805	240.171570
19418.394947	16867.668000	1532.622070	278.386139
19418.394947	16867.668000	1531.569336	98.760735
19418.394947	16867.668000	1530.515625	164.286774
19418.394947	16867.668000	1529.461914	223.018555
19418.394947	16867.668000	1528.408203	163.827011
19418.394947	16867.668000	1527.354492	301.979095
19418.394947	16867.668000	1526.299805	120.443001
19418.394947	16867.668000	1525.246094	167.958755
19418.394947	16867.668000	1524.191406	195.095673
19418.394947	16867.668000	1523.136719	156.553757
19418.394947	16867.668000	1522.081055	222.270538
19418.394947	16867.668000	1521.026367	122.666916
19418.394947	16867.668000	1519.970703	360.546356
19418.394947	16867.668000	1518.915039	93.496414
19418.394947	16867.668000	1517.859375	267.991028
19418.394947	16867.668000	1516.802734	53.197899
19418.394947	16867.668000	1515.747070	121.370499
19418.394947	16867.668000	1514.690430	137.524109
19418.394947	16867.668000	1513.633789	214.783173
19418.394947	16867.668000	1512.577148	140.545441
19418.394947	16867.668000	1511.519531	145.509537
19418.394947	16867.668000	1510.461914	51.056610
19418.394947	16867.668000	1509.405273	13.187716
19418.394947	16867.668000	1508.346680	52.198158
19418.394947	16867.668000	1507.289063	3.135960
19418.394947	16867.668000	1506.231445	-16.498407
19418.394947	16867.668000	1505.172852	-33.823936
19418.394947	16867.668000	1504.114258	111.461601
19418.394947	16867.668000	1503.055664	-11.883244
19418.394947	16867.668000	1501.996094	95.064171
19418.394947	16867.668000	1500.937500	163.660065
19418.394947	16867.668000	1499.877930	26.980915
19418.394947	16867.668000	1498.818359	79.866806
19418.394947	16867.668000	1497.757813	31.299124
19418.394947	16867.668000	1496.698242	23.384197
19418.394947	16867.668000	1495.637695	31.297493
19418.394947	16867.668000	1494.577148	-12.579123
19418.394947	16867.668000	1493.516602	4.449388
19418.394947	16867.668000	1492.456055	-39.306702
19418.394947	16867.668000	1491.394531	-94.259796
19418.394947	16867.668000	1490.333008	-56.811932
19418.394947	16867.668000	1489.271484	-75.616714
19418.394947	16867.668000	1488.209961	33.945190
19418.394947	16867.668000	1487.148438	-43.284718
19418.394947	16867.668000	1486.085938	-30.429575
19418.394947	16867.668000	1485.023438	-94.018616
19418.394947	16867.668000	1483.960938	-58.564369
19418.394947	16867.668000	1482.898438	44.390369
19418.394947	16867.668000	1481.834961	-28.016123
19418.394947	16867.668000	1480.772461	106.463089
19418.394947	16867.668000	1479.708984	-53.466854
19418.394947	16867.668000	1478.644531	92.296387
19418.394947	16867.668000	1477.581055	-112.383362
19418.394947	16867.668000	1476.517578	17.703535
19418.394947	16867.668000	1475.453125	8.587216
19418.394947	16867.668000	1474.388672	10.755486
19418.394947	16867.668000	1473.323242	-88.051468
19418.394947	16867.668000	1472.258789	30.911018
19418.394947	16867.668000	1471.193359	-63.193668
19418.394947	16867.668000	1470.127930	-63.039066
19418.394947	16867.668000	1469.062500	143.357346
19418.394947	16867.668000	1467.997070	206.305740
19418.394947	16867.668000	1466.930664	-6.225894
19418.394947	16867.668000	1465.865234	90.280403
19418.394947	16867.668000	1464.798828	122.028137
19418.394947	16867.668000	1463.731445	77.611305
19418.394947	16867.668000	1462.665039	111.754562
19418.394947	16867.668000	1461.597656	177.039658
19418.394947	16867.668000	1460.530273	260.524475
19418.394947	16867.668000	1459.462891	162.684189
19418.394947	16867.668000	1458.395508	145.451447
19418.394947	16867.668000	1457.327148	244.444092
19418.394947	16867.668000	1456.259766	220.776291
19418.394947	16867.668000	1455.191406	197.199799
19418.394947	16867.668000	1454.123047	177.692566
19418.394947	16867.668000	1453.053711	92.314987
19418.394947	16867.668000	1451.985352	231.680817
19418.394947	16867.668000	1450.916016	263.581726
19418.394947	16867.668000	1449.846680	156.142914
19418.394947	16867.668000	1448.776367	168.256531
19418.394947	16867.668000	1447.707031	316.820038
19418.394947	16867.668000	1446.636719	328.751007
19418.394947	16867.668000	1445.566406	286.755981
19418.394947	16867.668000	1444.496094	287.917450
19418.394947	16867.668000	1443.425781	293.977142
19418.394947	16867.668000	1442.354492	303.793213
19418.394947	16867.668000	1441.283203	216.186249
19418.394947	16867.668000	1440.211914	287.853027
19418.394947	16867.668000	1439.140625	338.064453
19418.394947	16867.668000	1438.069336	185.770752
19418.394947	16867.668000	1436.997070	163.211685
19418.394947	16867.668000	1435.924805	245.637222
19418.394947	16867.668000	1434.852539	215.059036
19418.394947	16867.668000	1433.780273	224.861343
19418.394947	16867.668000	1432.707031	206.528748
19418.394947	16867.668000	1431.633789	211.339813
19418.394947	16867.668000	1430.560547	237.251022
19418.394947	16867.668000	1429.487305	241.049866
19418.394947	16867.668000	1428.413086	207.121552
19418.394947	16867.668000	1427.339844	220.455276
19418.394947	16867.668000	1426.265625	107.469978
19418.394947	16867.668000	1425.191406	212.518082
19418.394947	16867.668000	1424.116211	167.993256
19418.394947	16867.668000	1423.041992	221.631348
19418.394947	16867.668000	1421.966797	159.803833
19418.394947	16867.668000	1420.891602	189.993774
19418.394947	16867.668000	1419.816406	229.650772
19418.394947	16867.668000	1418.740234	57.128174
19418.394947	16867.668000	1417.665039	197.323929
19418.394947	16867.668000	1416.588867	140.069931
19418.394947	16867.668000	1415.512695	57.255211
19418.394947	16867.668000	1414.435547	112.941338
19418.394947	16867.668000	1413.359375	57.097118
19418.394947	16867.668000	1412.282227	-55.259636
19418.394947	16867.668000	1411.205078	69.263824
19418.394947	16867.668000	1410.127930	75.632179
19418.394947	16867.668000	1409.049805	137.886200
19418.394947	16867.668000	1407.972656	187.133850
19418.394947	16867.668000	1406.894531	186.424164
19418.394947	16867.668000	1405.816406	170.179886
19418.394947	16867.668000	1404.737305	22.305244
19418.394947	16867.668000	1403.659180	267.066986
19418.394947	16867.668000	1402.580078	281.284515
19418.394947	16867.668000	1401.500977	167.819824
19418.394947	16867.668000	1400.421875	252.214737
19418.394947	16867.668000	1399.341797	305.921997
19418.394947	16867.668000	1398.262695	262.979370
19418.394947	16867.668000	1397.182617	380.031891
19418.394947	16867.668000	1396.102539	209.496475
19418.394947	16867.668000	1395.021484	377.534607
19418.394947	16867.668000	1393.941406	238.811493
19418.394947	16867.668000	1392.860352	208.024841
19418.394947	16867.668000	1391.779297	272.627960
19418.394947	16867.668000	1390.698242	200.206589
19418.394947	16867.668000	1389.616211	159.970200
19418.394947	16867.668000	1388.535156	206.196381
19418.394947	16867.668000	1387.453125	126.066147
19418.394947	16867.668000	1386.371094	120.850456
19418.394947	16867.668000	1385.288086	149.917679
19418.394947	16867.668000	1384.206055	115.483475
19418.394947	16867.668000	1383.123047	278.140350
19418.394947	16867.668000	1382.040039	77.415886
19418.394947	16867.668000	1380.957031	279.943115
19418.394947	16867.668000	1379.873047	226.498352
19418.394947	16867.668000	1378.789063	102.094849
19418.394947	16867.668000	1377.705078	395.768463
19418.394947	16867.668000	1376.621094	254.649323
19418.394947	16867.668000	1375.537109	241.795197
19418.394947	16867.668000	1374.452148	249.164230
19418.394947	16867.668000	1373.367188	136.359802
19418.394947	16867.668000	1372.282227	236.664825
19418.394947	16867.668000	1371.197266	281.668823
19418.394947	16867.668000	1370.112305	170.584915
19418.394947	16867.668000	1369.026367	171.902115
19418.394947	16867.668000	1367.940430	167.987778
19418.394947	16867.668000	1366.854492	44.650192
19418.394947	16867.668000	1365.767578	89.029877
19418.394947	16867.668000	1364.681641	112.523552
19418.394947	16867.668000	1363.594727	151.206116
19418.394947	16867.668000	1362.507813	260.613129
19418.394947	16867.668000	1361.419922	126.430672
19418.394947	16867.668000	1360.333008	109.555145
19418.394947	16867.668000	1359.245117	132.468002
19418.394947	16867.668000	1358.157227	-2.677222
19418.394947	16867.668000	1357.069336	-107.185051
19418.394947	16867.668000	1355.981445	69.959785
19418.394947	16867.668000	1354.892578	22.884026
19418.394947	16867.668000	1353.803711	71.586288
19418.394947	16867.668000	1352.714844	149.896774
19418.394947	16867.668000	1351.625000	47.758240
19418.394947	16867.668000	1350.536133	169.602005
19418.394947	16867.668000	1349.446289	57.965351
19418.394947	16867.668000	1348.356445	240.416992
19418.394947	16867.668000	1347.266602	239.119629
19418.394947	16867.668000	1346.175781	289.439545
19418.394947	16867.668000	1345.085938	229.564041
19418.394947	16867.668000	1343.995117	264.506287
19418.394947	16867.668000	1342.903320	196.091217
19418.394947	16867.668000	1341.812500	174.180710
19418.394947	16867.668000	1340.720703	161.703201
19418.394947	16867.668000	1339.629883	180.746506
19418.394947	16867.668000	1338.538086	288.326599
19418.394947	16867.668000	1337.445313	309.752258
19418.394947	16867.668000	1336.353516	302.547638
19418.394947	16867.668000	1335.260742	420.745453
19418.394947	16867.668000	1334.167969	245.024841
19418.394947	16867.668000	1333.075195	352.810181
19418.394947	16867.668000	1331.981445	385.461761
19418.394947	16867.668000	1330.888672	529.765137
19418.394947	16867.668000	1329.794922	351.784180
19418.394947	16867.668000	1328.701172	441.919373
19418.394947	16867.668000	1327.606445	495.752411
19418.394947	16867.668000	1326.512695	469.822937
19418.394947	16867.668000	1325.417969	376.460175
19418.394947	16867.668000	1324.323242	408.756927
19418.394947	16867.668000	1323.227539	462.522949
19418.394947	16867.668000	1322.132813	401.922729
19418.394947	16867.668000	1321.037109	375.847168
19418.394947	16867.668000	1319.941406	359.566223
19418.394947	16867.668000	1318.845703	417.914917
19418.394947	16867.668000	1317.750000	293.232727
19418.394947	16867.668000	1316.653320	395.190338
19418.394947	16867.668000	1315.556641	304.410675
19418.394947	16867.668000	1314.459961	317.305878
19418.394947	16867.668000	1313.363281	332.673859
19418.394947	16867.668000	1312.265625	386.922272
19418.394947	16867.668000	1311.167969	360.544037
19418.394947	16867.668000	1310.070313	325.584106
19418.394947	16867.668000	1308.972656	289.269135
19418.394947	16867.668000	1307.874023	233.886658
19418.394947	16867.668000	1306.776367	282.408600
19418.394947	16867.668000	1305.677734	203.038498
19418.394947	16867.668000	1304.579102	225.134369
19418.394947	16867.668000	1303.479492	300.502472
19418.394947	16867.668000	1302.380859	288.200897
19418.394947	16867.668000	1301.281250	315.388458
19418.394947	16867.668000	1300.181641	372.105682
19418.394947	16867.668000	1299.081055	473.611084
19418.394947	16867.668000	1297.981445	458.535828
19418.394947	16867.668000	1296.880859	514.162842
19418.394947	16867.668000	1295.780273	529.991699
19418.394947	16867.668000	1294.679688	553.497437
19418.394947	16867.668000	1293.578125	588.445496
19418.394947	16867.668000	1292.476563	726.508545
19418.394947	16867.668000	1291.375000	709.567505
19418.394947	16867.668000	1290.273438	762.810913
19418.394947	16867.668000	1289.171875	876.992737
19418.394947	16867.668000	1288.069336	744.644531
19418.394947	16867.668000	1286.966797	699.390503
19418.394947	16867.668000	1285.864258	833.728882
19418.394947	16867.668000	1284.761719	805.676758
19418.394947	16867.668000	1283.658203	934.432678
19418.394947	16867.668000	1282.554688	753.594543
19418.394947	16867.668000	1281.451172	852.788940
19418.394947	16867.668000	1280.347656	835.488953
19418.394947	16867.668000	1279.244141	805.348022
19418.394947	16867.668000	1278.139648	829.008606
19418.394947	16867.668000	1277.035156	730.907471
19418.394947	16867.668000	1275.930664	718.354065
19418.394947	16867.668000	1274.825195	817.430603
19418.394947	16867.668000	1273.720703	651.435913
19418.394947	16867.668000	1272.615234	656.908142
19418.394947	16867.668000	1271.508789	613.160278
19418.394947	16867.668000	1270.403320	490.938019
19418.394947	16867.668000	1269.297852	533.036865
19418.394947	16867.668000	1268.191406	530.326904
19418.394947	16867.668000	1267.084961	500.862366
19418.394947	16867.668000	1265.977539	468.608246
19418.394947	16867.668000	1264.871094	395.873108
19418.394947	16867.668000	1263.763672	413.310883
19418.394947	16867.668000	1262.656250	362.394196
19418.394947	16867.668000	1261.548828	429.107025
19418.394947	16867.668000	1260.440430	304.036835
19418.394947	16867.668000	1259.333008	260.316467
19418.394947	16867.668000	1258.224609	163.331726
19418.394947	16867.668000	1257.115234	229.113968
19418.394947	16867.668000	1256.006836	222.703674
19418.394947	16867.668000	1254.897461	218.308014
19418.394947	16867.668000	1253.788086	238.394302
19418.394947	16867.668000	1252.678711	230.689133
19418.394947	16867.668000	1251.569336	289.157410
19418.394947	16867.668000	1250.458984	283.011688
19418.394947	16867.668000	1249.349609	429.808014
19418.394947	16867.668000	1248.239258	324.345428
19418.394947	16867.668000	1247.127930	399.720673
19418.394947	16867.668000	1246.017578	424.454193
19418.394947	16867.668000	1244.906250	344.159912
19418.394947	16867.668000	1243.794922	265.095703
19418.394947	16867.668000	1242.683594	341.433472
19418.394947	16867.668000	1241.571289	325.337921
19418.394947	16867.668000	1240.459961	330.837799
19418.394947	16867.668000	1239.347656	288.059753
19418.394947	16867.668000	1238.234375	281.291473
19418.394947	16867.668000	1237.122070	181.528976
19418.394947	16867.668000	1236.008789	272.834015
19418.394947	16867.668000	1234.896484	160.071793
19418.394947	16867.668000	1233.782227	132.862137
19418.394947	16867.668000	1232.668945	206.852966
19418.394947	16867.668000	1231.555664	106.963341
19418.394947	16867.668000	1230.441406	156.242691
19418.394947	16867.668000	1229.327148	83.450371
19418.394947	16867.668000	1228.211914	70.357460
19418.394947	16867.668000	1227.097656	-9.388022
19418.394947	16867.668000	1225.982422	90.645187
19418.394947	16867.668000	1224.867188	58.693508
19418.394947	16867.668000	1223.751953	40.181843
19418.394947	16867.668000	1222.635742	-24.404621
19418.394947	16867.668000	1221.520508	35.167896
19418.394947	16867.668000	1220.404297	101.485153
19418.394947	16867.668000	1219.287109	90.991318
19418.394947	16867.668000	1218.170898	137.647049
19418.394947	16867.668000	1217.053711	-1.512264
19418.394947	16867.668000	1215.936523	108.322891
19418.394947	16867.668000	1214.819336	133.260773
19418.394947	16867.668000	1213.702148	150.565903
19418.394947	16867.668000	1212.583984	216.839890
19418.394947	16867.668000	1211.465820	137.704514
19418.394947	16867.668000	1210.347656	142.112030
19418.394947	16867.668000	1209.229492	69.891708
19418.394947	16867.668000	1208.110352	95.496147
19418.394947	16867.668000	1206.992188	-5.925056
19418.394947	16867.668000	1205.873047	-9.449944
19418.394947	16867.668000	1204.752930	-80.218788
19418.394947	16867.668000	1203.633789	-11.208640
19418.394947	16867.668000	1202.513672	-1.141399
19418.394947	16867.668000	1201.393555	-25.596325
19418.394947	16867.668000	1200.273438	-31.758324
19418.394947	16867.668000	1199.152344	-172.020554
19418.394947	16867.668000	1198.032227	-186.237579
19418.394947	16867.668000	1196.911133	-132.254990
19418.394947	16867.668000	1195.790039	-78.454437
19418.394947	16867.668000	1194.667969	-52.492790
19418.394947	16867.668000	1193.545898	-78.533424
19418.394947	16867.668000	1192.424805	24.095791
19418.394947	16867.668000	1191.301758	-38.838623
19418.394947	16867.668000	1190.179688	10.171840
19418.394947	16867.668000	1189.056641	-106.321838
19418.394947	16867.668000	1187.933594	-57.536167
19418.394947	16867.668000	1186.810547	-3.456298
19418.394947	16867.668000	1185.687500	-28.477549
19418.394947	16867.668000	1184.563477	22.984549
19418.394947	16867.668000	1183.440430	24.326582
19418.394947	16867.668000	1182.316406	-58.816174
19418.394947	16867.668000	1181.191406	35.487103
19418.394947	16867.668000	1180.067383	22.241272
19418.394947	16867.668000	1178.942383	14.942592
19418.394947	16867.668000	1177.817383	-11.610608
19418.394947	16867.668000	1176.692383	95.363876
19418.394947	16867.668000	1175.566406	103.552689
19418.394947	16867.668000	1174.440430	79.870422
19418.394947	16867.668000	1173.314453	79.690125
19418.394947	16867.668000	1172.188477	170.834778
19418.394947	16867.668000	1171.062500	119.859322
19418.394947	16867.668000	1169.935547	124.626564
19418.394947	16867.668000	1168.808594	141.552704
19418.394947	16867.668000	1167.681641	156.575974
19418.394947	16867.668000	1166.553711	138.643616
19418.394947	16867.668000	1165.426758	227.109207
19418.394947	16867.668000	1164.298828	191.814713
19418.394947	16867.668000	1163.170898	155.718445
19418.394947	16867.668000	1162.041992	146.863525
19418.394947	16867.668000	1160.914063	119.061958
19418.394947	16867.668000	1159.785156	68.811554
19418.394947	16867.668000	1158.656250	67.423027
19418.394947	16867.668000	1157.526367	-75.315216
19418.394947	16867.668000	1156.397461	-26.801193
19418.394947	16867.668000	1155.267578	-1.903445
19418.394947	16867.668000	1154.137695	23.546003
19418.394947	16867.668000	1153.006836	38.151649
19418.394947	16867.668000	1151.876953	38.966606
19418.394947	16867.668000	1150.746094	63.044277
19418.394947	16867.668000	1149.615234	9.934095
19418.394947	16867.668000	1148.484375	-6.785256
19418.394947	16867.668000	1147.352539	-7.260359
19418.394947	16867.668000	1146.220703	-40.834274
19418.394947	16867.668000	1145.088867	-72.599945
19418.394947	16867.668000	1143.957031	-32.850491
19418.394947	16867.668000	1142.825195	6.815299
19418.394947	16867.668000	1141.692383	-7.741941
19418.394947	16867.668000	1140.559570	134.331406
19418.394947	16867.668000	1139.426758	-44.863735
19418.394947	16867.668000	1138.292969	13.809824
19418.394947	16867.668000	1137.159180	50.584202
19418.394947	16867.668000	1136.025391	108.780556
19418.394947	16867.668000	1134.891602	100.721268
19418.394947	16867.668000	1133.757813	120.546104
19418.394947	16867.668000	1132.623047	209.195618
19418.394947	16867.668000	1131.488281	329.141785
19418.394947	16867.668000	1130.353516	200.281281
19418.394947	16867.668000	1129.217773	272.334808
19418.394947	16867.668000	1128.083008	205.425720
19418.394947	16867.668000	1126.947266	88.490479
19418.394947	16867.668000	1125.811523	171.760773
19418.394947	16867.668000	1124.674805	65.941383
19418.394947	16867.668000	1123.539063	135.448364
19418.394947	16867.668000	1122.402344	25.349321
19418.394947	16867.668000	1121.265625	78.087494
19418.394947	16867.668000	1120.127930	58.382225
19418.394947	16867.668000	1118.990234	103.694145
19418.394947	16867.668000	1117.853516	145.125092
19418.394947	16867.668000	1116.714844	119.225456
19418.394947	16867.668000	1115.577148	64.476456
19418.394947	16867.668000	1114.439453	64.928726
19418.394947	16867.668000	1113.300781	6.453313
19418.394947	16867.668000	1112.162109	60.961231
19418.394947	16867.668000	1111.022461	-44.065170
19418.394947	16867.668000	1109.883789	-61.122738
19418.394947	16867.668000	1108.744141	-9.771159
19418.394947	16867.668000	1107.604492	-34.911316
19418.394947	16867.668000	1106.463867	-85.854408
19418.394947	16867.668000	1105.324219	-47.110725
19418.394947	16867.668000	1104.183594	-24.186682
19418.394947	16867.668000	1103.042969	-81.664680
19418.394947	16867.668000	1101.902344	-9.079656
19418.394947	16867.668000	1100.760742	-55.693356
19418.394947	16867.668000	1099.619141	-84.787308
19418.394947	16867.668000	1098.477539	-12.161574
19418.394947	16867.668000	1097.335938	7.279559
19418.394947	16867.668000	1096.193359	110.256172
19418.394947	16867.668000	1095.051758	40.460167
19418.394947	16867.668000	1093.909180	8.770653
19418.394947	16867.668000	1092.765625	-52.324154
19418.394947	16867.668000	1091.623047	14.100733
19418.394947	16867.668000	1090.479492	-59.345264
19418.394947	16867.668000	1089.335938	53.536835
19418.394947	16867.668000	1088.192383	53.163319
19418.394947	16867.668000	1087.047852	23.309746
19418.394947	16867.668000	1085.903320	-62.255726
19418.394947	16867.668000	1084.758789	-57.038910
19418.394947	16867.668000	1083.614258	7.237091
19418.394947	16867.668000	1082.469727	9.475648
19418.394947	16867.668000	1081.324219	38.604790
19418.394947	16867.668000	1080.178711	9.004647
19418.394947	16867.668000	1079.033203	-52.295177
19418.394947	16867.668000	1077.886719	37.261200
19418.394947	16867.668000	1076.740234	-5.653028
19418.394947	16867.668000	1075.593750	163.185104
19418.394947	16867.668000	1074.447266	23.846247
19418.394947	16867.668000	1073.300781	4.625622
19418.394947	16867.668000	1072.153320	-2.255221
19418.394947	16867.668000	1071.005859	57.632431
19418.394947	16867.668000	1069.858398	103.637787
19418.394947	16867.668000	1068.709961	106.047508
19418.394947	16867.668000	1067.561523	120.129509
19418.394947	16867.668000	1066.413086	87.089943
19418.394947	16867.668000	1065.264648	185.444534
19418.394947	16867.668000	1064.116211	176.443863
19418.394947	16867.668000	1062.966797	193.341034
19418.394947	16867.668000	1061.817383	172.867996
19418.394947	16867.668000	1060.667969	184.614426
19418.394947	16867.668000	1059.517578	136.807510
19418.394947	16867.668000	1058.368164	113.015221
19418.394947	16867.668000	1057.217773	164.952469
19418.394947	16867.668000	1056.067383	113.161888
19418.394947	16867.668000	1054.916016	61.296066
19418.394947	16867.668000	1053.764648	79.168198
19418.394947	16867.668000	1052.613281	94.652428
19418.394947	16867.668000	1051.461914	35.169563
19418.394947	16867.668000	1050.310547	132.690689
19418.394947	16867.668000	1049.158203	113.678085
19418.394947	16867.668000	1048.005859	61.906284
19418.394947	16867.668000	1046.853516	58.466248
19418.394947	16867.668000	1045.700195	144.485733
19418.394947	16867.668000	1044.547852	126.492622
19418.394947	16867.668000	1043.394531	83.051819
19418.394947	16867.668000	1042.240234	119.956879
19418.394947	16867.668000	1041.086914	299.923553
19418.394947	16867.668000	1039.932617	175.802551
19418.394947	16867.668000	1038.778320	261.120758
19418.394947	16867.668000	1037.624023	192.010696
19418.394947	16867.668000	1036.469727	275.452728
19418.394947	16867.668000	1035.314453	306.693848
19418.394947	16867.668000	1034.159180	346.046234
19418.394947	16867.668000	1033.003906	353.407013
19418.394947	16867.668000	1031.847656	408.515289
19418.394947	16867.668000	1030.692383	363.956146
19418.394947	16867.668000	1029.536133	355.093567
19418.394947	16867.668000	1028.378906	162.181305
19418.394947	16867.668000	1027.222656	265.017517
19418.394947	16867.668000	1026.065430	122.640068
19418.394947	16867.668000	1024.908203	192.608688
19418.394947	16867.668000	1023.750977	199.453583
19418.394947	16867.668000	1022.593750	129.752609
19418.394947	16867.668000	1021.435547	140.420914
19418.394947	16867.668000	1020.277344	177.692627
19418.394947	16867.668000	1019.119141	244.413910
19418.394947	16867.668000	1017.959961	256.722748
19418.394947	16867.668000	1016.800781	248.982727
19418.394947	16867.668000	1015.641602	279.429169
19418.394947	16867.668000	1014.482422	288.910950
19418.394947	16867.668000	1013.323242	272.656738
19418.394947	16867.668000	1012.163086	332.481964
19418.394947	16867.668000	1011.002930	298.708374
19418.394947	16867.668000	1009.842773	212.916183
19418.394947	16867.668000	1008.681641	217.635162
19418.394947	16867.668000	1007.520508	190.440231
19418.394947	16867.668000	1006.359375	216.572815
19418.394947	16867.668000	1005.198242	74.164734
19418.394947	16867.668000	1004.037109	145.566071
19418.394947	16867.668000	1002.875000	69.889931
19418.394947	16867.668000	1001.712891	116.012627
19418.394947	16867.668000	1000.550781	50.431713
19418.394947	16867.668000	999.387695	135.769287
19418.394947	16867.668000	998.224609	146.971527
19418.394947	16867.668000	997.061523	73.243027
19418.394947	16867.668000	995.898438	140.395050
19418.394947	16867.668000	994.734375	97.919495
19418.394947	16867.668000	993.571289	46.607651
19418.394947	16867.668000	992.407227	71.946007
19418.394947	16867.668000	991.242188	45.570259
19418.394947	16867.668000	990.078125	73.287895
19418.394947	16867.668000	988.913086	-21.328749
19418.394947	16867.668000	987.748047	48.262146
19418.394947	16867.668000	986.583008	22.584742
19418.394947	16867.668000	985.416992	23.539270
19418.394947	16867.668000	984.250977	-13.574836
19418.394947	16867.668000	983.084961	-6.141613
19418.394947	16867.668000	981.918945	4.819645
19418.394947	16867.668000	980.751953	-56.380978
19418.394947	16867.668000	979.584961	29.442007
19418.394947	16867.668000	978.417969	-73.786362
19418.394947	16867.668000	977.250977	13.594074
19418.394947	16867.668000	976.083008	-74.624725
19418.394947	16867.668000	974.915039	-51.784325
19418.394947	16867.668000	973.747070	36.345753
19418.394947	16867.668000	972.579102	-46.165409
19418.394947	16867.668000	971.410156	-4.497829
19418.394947	16867.668000	970.242188	28.617197
19418.394947	16867.668000	969.072266	-108.611389
19418.394947	16867.668000	967.903320	-46.629112
19418.394947	16867.668000	966.733398	-70.850998
19418.394947	16867.668000	965.563477	-45.788166
19418.394947	16867.668000	964.393555	-78.669632
19418.394947	16867.668000	963.223633	56.026325
19418.394947	16867.668000	962.052734	-4.944617
19418.394947	16867.668000	960.881836	59.996548
19418.394947	16867.668000	959.710938	89.700401
19418.394947	16867.668000	958.540039	115.701607
19418.394947	16867.668000	957.368164	168.020187
19418.394947	16867.668000	956.196289	210.178558
19418.394947	16867.668000	955.024414	271.540222
19418.394947	16867.668000	953.851563	290.416473
19418.394947	16867.668000	952.679688	339.618805
19418.394947	16867.668000	951.506836	372.449646
19418.394947	16867.668000	950.333984	218.871933
19418.394947	16867.668000	949.160156	254.399490
19418.394947	16867.668000	947.986328	145.011581
19418.394947	16867.668000	946.812500	90.357857
19418.394947	16867.668000	945.638672	107.565735
19418.394947	16867.668000	944.464844	123.107613
19418.394947	16867.668000	943.290039	93.045380
19418.394947	16867.668000	942.115234	78.227242
19418.394947	16867.668000	940.940430	43.450783
19418.394947	16867.668000	939.764648	11.675330
19418.394947	16867.668000	938.588867	77.509613
19418.394947	16867.668000	937.413086	168.046616
19418.394947	16867.668000	936.237305	194.197189
19418.394947	16867.668000	935.060547	249.417465
19418.394947	16867.668000	933.883789	120.027863
19418.394947	16867.668000	932.707031	196.608414
19418.394947	16867.668000	931.530273	122.146889
19418.394947	16867.668000	930.352539	149.845444
19418.394947	16867.668000	929.175781	171.490067
19418.394947	16867.668000	927.998047	122.956306
19418.394947	16867.668000	926.819336	57.674038
19418.394947	16867.668000	925.641602	42.704399
19418.394947	16867.668000	924.462891	46.029114
19418.394947	16867.668000	923.284180	-16.175879
19418.394947	16867.668000	922.104492	16.086700
19418.394947	16867.668000	920.924805	75.749138
19418.394947	16867.668000	919.746094	76.647560
19418.394947	16867.668000	919.551758	36.551910
19418.394947	16867.668000	918.386719	3.296766
19418.394947	16867.668000	917.220703	93.344810
19418.394947	16867.668000	916.054688	110.301666
19418.394947	16867.668000	914.887695	119.639435
19418.394947	16867.668000	913.721680	80.288231
19418.394947	16867.668000	912.554688	77.450340
19418.394947	16867.668000	911.387695	22.908171
19418.394947	16867.668000	910.220703	30.715595
19418.394947	16867.668000	909.052734	20.276064
19418.394947	16867.668000	907.885742	8.315867
19418.394947	16867.668000	906.717773	6.992567
19418.394947	16867.668000	905.548828	1.109039
19418.394947	16867.668000	904.380859	22.560778
19418.394947	16867.668000	903.211914	56.148136
19418.394947	16867.668000	902.042969	4.702602
19418.394947	16867.668000	900.874023	51.932812
19418.394947	16867.668000	899.704102	-79.925552
19418.394947	16867.668000	898.535156	-55.462334
19418.394947	16867.668000	897.365234	-81.068871
19418.394947	16867.668000	896.194336	19.209301
19418.394947	16867.668000	895.024414	-35.217400
19418.394947	16867.668000	893.853516	-62.336777
19418.394947	16867.668000	892.682617	-45.493614
19418.394947	16867.668000	891.511719	-1.383348
19418.394947	16867.668000	890.340820	-96.677734
19418.394947	16867.668000	889.168945	-32.887978
19418.394947	16867.668000	887.997070	64.190948
19418.394947	16867.668000	886.825195	31.014233
19418.394947	16867.668000	885.653320	84.135925
19418.394947	16867.668000	884.480469	140.261612
19418.394947	16867.668000	883.307617	125.242538
19418.394947	16867.668000	882.134766	116.279495
19418.394947	16867.668000	880.961914	86.142342
19418.394947	16867.668000	879.788086	102.896744
19418.394947	16867.668000	878.614258	125.690590
19418.394947	16867.668000	877.440430	298.126007
19418.394947	16867.668000	876.266602	204.495300
19418.394947	16867.668000	875.091797	239.338989
19418.394947	16867.668000	873.916992	256.038574
19418.394947	16867.668000	872.742188	112.627571
19418.394947	16867.668000	871.567383	73.470551
19418.394947	16867.668000	870.391602	61.505459
19418.394947	16867.668000	869.215820	-9.325411
19418.394947	16867.668000	868.040039	-7.688019
19418.394947	16867.668000	866.864258	-36.229538
19418.394947	16867.668000	865.687500	48.381767
19418.394947	16867.668000	864.510742	-54.064163
19418.394947	16867.668000	863.333984	-64.485023
19418.394947	16867.668000	862.157227	-34.196690
19418.394947	16867.668000	860.979492	-62.705833
19418.394947	16867.668000	859.802734	-77.641609
19418.394947	16867.668000	858.625000	11.390822
19418.394947	16867.668000	857.446289	-60.796520
19418.394947	16867.668000	856.268555	-87.773224
19418.394947	16867.668000	855.089844	-25.898623
19418.394947	16867.668000	853.911133	-76.959221
19418.394947	16867.668000	852.731445	-48.225880
19418.394947	16867.668000	851.552734	-72.175179
19418.394947	16867.668000	850.373047	-37.437473
19418.394947	16867.668000	849.193359	-26.782431
19418.394947	16867.668000	848.013672	-17.636087
19418.394947	16867.668000	846.833008	-28.040564
19418.394947	16867.668000	845.652344	-80.533363
19418.394947	16867.668000	844.471680	9.778319
19418.394947	16867.668000	843.291016	-72.755692
19418.394947	16867.668000	842.110352	20.520824
19418.394947	16867.668000	840.928711	-13.916205
19418.394947	16867.668000	839.747070	-85.883842
19418.394947	16867.668000	838.564453	-124.790199
19418.394947	16867.668000	837.382813	-87.124115
19418.394947	16867.668000	836.200195	-77.989616
19418.394947	16867.668000	835.017578	-28.345869
19418.394947	16867.668000	833.834961	1.773861
19418.394947	16867.668000	832.651367	-95.610580
19418.394947	16867.668000	831.467773	-56.493534
19418.394947	16867.668000	830.284180	-50.377987
19418.394947	16867.668000	829.100586	-42.767185
19418.394947	16867.668000	827.916992	98.220139
19418.394947	16867.668000	826.732422	-66.515579
19418.394947	16867.668000	825.547852	-4.980160
19418.394947	16867.668000	824.363281	-73.774765
19418.394947	16867.668000	823.177734	31.159466
19418.394947	16867.668000	821.992188	-7.674747
19418.394947	16867.668000	820.806641	23.855068
19418.394947	16867.668000	819.621094	-89.790253
19418.394947	16867.668000	818.434570	-56.763790
19418.394947	16867.668000	817.249023	57.024223
19418.394947	16867.668000	816.062500	24.196936
19418.394947	16867.668000	814.875000	21.286938
19418.394947	16867.668000	813.688477	7.910359
19418.394947	16867.668000	812.500977	22.935196
19418.394947	16867.668000	811.313477	28.985245
19418.394947	16867.668000	810.125977	2.161202
19418.394947	16867.668000	808.937500	60.487682
19418.394947	16867.668000	807.749023	20.221531
19418.394947	16867.668000	806.560547	27.748104
19418.394947	16867.668000	805.372070	123.343140
19418.394947	16867.668000	804.182617	12.932095
19418.394947	16867.668000	802.994141	120.420425
19418.394947	16867.668000	801.803711	74.198830
19418.394947	16867.668000	800.614258	29.483221
19418.394947	16867.668000	799.424805	127.942223
19418.394947	16867.668000	798.234375	50.424843
19418.394947	16867.668000	797.043945	34.051208
19418.394947	16867.668000	795.852539	65.370270
19418.394947	16867.668000	794.662109	-19.550379
19418.394947	16867.668000	793.470703	40.061146
19418.394947	16867.668000	792.279297	8.789329
19418.394947	16867.668000	791.087891	22.197462
19418.394947	16867.668000	789.895508	-58.198502
19418.394947	16867.668000	788.703125	19.211071
19418.394947	16867.668000	787.510742	47.473103
19418.394947	16867.668000	786.318359	-7.603034
19418.394947	16867.668000	785.125000	-15.060745
19418.394947	16867.668000	783.931641	38.454483
19418.394947	16867.668000	782.738281	32.463440
19418.394947	16867.668000	781.544922	-30.024078
19418.394947	16867.668000	780.350586	-12.231684
19418.394947	16867.668000	779.156250	-4.856369
19418.394947	16867.668000	777.961914	69.364586
19418.394947	16867.668000	776.767578	17.288391
19418.394947	16867.668000	775.572266	36.509739
19418.394947	16867.668000	774.376953	2.262814
19418.394947	16867.668000	773.181641	9.586449
19418.394947	16867.668000	771.986328	16.897648
19418.394947	16867.668000	770.790039	-36.640564
19418.394947	16867.668000	769.593750	129.397659
19418.394947	16867.668000	768.397461	66.939812
19418.394947	16867.668000	767.201172	169.101868
19418.394947	16867.668000	766.003906	219.320251
19418.394947	16867.668000	764.806641	235.414368
19418.394947	16867.668000	763.609375	288.540741
19418.394947	16867.668000	762.412109	177.166367
19418.394947	16867.668000	761.213867	243.593124
19418.394947	16867.668000	760.015625	256.662170
19418.394947	16867.668000	758.817383	268.233154
19418.394947	16867.668000	757.618164	251.658890
19418.394947	16867.668000	756.419922	332.768311
19418.394947	16867.668000	755.220703	292.485138
19418.394947	16867.668000	754.021484	303.989166
19418.394947	16867.668000	752.821289	206.013138
19418.394947	16867.668000	751.621094	105.106491
19418.394947	16867.668000	750.420898	162.439148
19418.394947	16867.668000	749.220703	86.687111
19418.394947	16867.668000	748.020508	120.323494
19418.394947	16867.668000	746.819336	187.918060
19418.394947	16867.668000	745.618164	215.580673
19418.394947	16867.668000	744.416992	170.840347
19418.394947	16867.668000	743.214844	216.185745
19418.394947	16867.668000	742.012695	316.124969
19418.394947	16867.668000	740.810547	435.196014
19418.394947	16867.668000	739.608398	627.992920
19418.394947	16867.668000	738.406250	785.280212
19418.394947	16867.668000	737.203125	862.823181
19418.394947	16867.668000	736.000000	854.772034
19418.394947	16867.668000	734.795898	719.891235
19418.394947	16867.668000	733.592773	616.009094
19418.394947	16867.668000	732.388672	482.672729
19418.394947	16867.668000	731.184570	465.793823
19418.394947	16867.668000	729.979492	422.382874
19418.394947	16867.668000	728.775391	383.390442
19418.394947	16867.668000	727.570313	238.356873
19418.394947	16867.668000	726.365234	302.451233
19418.394947	16867.668000	725.160156	226.646408
19418.394947	16867.668000	723.954102	236.218948
19418.394947	16867.668000	722.748047	61.827259
19418.394947	16867.668000	721.541992	149.363419
19418.394947	16867.668000	720.334961	144.174927
19418.394947	16867.668000	719.128906	162.497070
19418.394947	16867.668000	717.921875	205.784653
19418.394947	16867.668000	716.714844	124.084160
19418.394947	16867.668000	715.506836	202.589462
19418.394947	16867.668000	714.298828	144.388824
19418.394947	16867.668000	713.090820	224.281021
19418.394947	16867.668000	711.882813	393.710388
19418.394947	16867.668000	710.674805	342.779419
19418.394947	16867.668000	709.465820	347.635040
19418.394947	16867.668000	708.256836	279.073395
19418.394947	16867.668000	707.047852	322.047821
19418.394947	16867.668000	705.837891	244.668289
19418.394947	16867.668000	704.627930	187.832809
19418.394947	16867.668000	703.417969	274.722534
19418.394947	16867.668000	702.208008	175.332275
19418.394947	16867.668000	700.998047	225.487991
19418.394947	16867.668000	699.787109	181.793488
19418.394947	16867.668000	698.576172	94.130486
19418.394947	16867.668000	697.364258	199.864502
19418.394947	16867.668000	696.153320	201.530838
19418.394947	16867.668000	694.941406	140.198395
19418.394947	16867.668000	693.729492	216.492874
19418.394947	16867.668000	692.516602	166.838547
19418.394947	16867.668000	691.304688	124.495529
19418.394947	16867.668000	690.091797	32.392891
19418.394947	16867.668000	688.878906	88.053658
19418.394947	16867.668000	687.665039	83.695717
19418.394947	16867.668000	686.451172	54.452019
19418.394947	16867.668000	685.237305	47.121403
19418.394947	16867.668000	684.023438	35.379688
19418.394947	16867.668000	682.809570	30.920509
19418.394947	16867.668000	681.594727	95.102531
19418.394947	16867.668000	680.379883	-16.062275
19418.394947	16867.668000	679.165039	129.827255
19418.394947	16867.668000	677.949219	157.353622
19418.394947	16867.668000	676.733398	116.226120
19418.394947	16867.668000	675.517578	41.516361
19418.394947	16867.668000	674.301758	176.933380
19418.394947	16867.668000	673.084961	121.145027
19418.394947	16867.668000	671.869141	186.413193
19418.394947	16867.668000	670.651367	120.374527
19418.394947	16867.668000	669.434570	131.605927
19418.394947	16867.668000	668.216797	97.611839
19418.394947	16867.668000	667.000000	35.911232
19418.394947	16867.668000	665.781250	58.711750
19418.394947	16867.668000	664.563477	69.816917
19418.394947	16867.668000	663.344727	108.556465
19418.394947	16867.668000	662.125977	45.317310
19418.394947	16867.668000	660.907227	171.329788
19418.394947	16867.668000	659.688477	131.326462
19418.394947	16867.668000	658.468750	162.611130
19418.394947	16867.668000	657.249023	122.558662
19418.394947	16867.668000	656.029297	152.310776
19418.394947	16867.668000	654.808594	215.463974
19418.394947	16867.668000	653.587891	179.685684
19418.394947	16867.668000	652.367188	234.016556
19418.394947	16867.668000	651.146484	163.301025
19418.394947	16867.668000	649.924805	124.546852
19418.394947	16867.668000	648.704102	111.926208
19418.394947	16867.668000	647.482422	74.583633
19418.394947	16867.668000	646.259766	144.679398
19418.394947	16867.668000	645.037109	159.541550
19418.394947	16867.668000	643.815430	178.718674
19418.394947	16867.668000	642.591797	226.874847
19418.394947	16867.668000	641.369141	305.446503
19418.394947	16867.668000	640.145508	289.659241
19418.394947	16867.668000	638.921875	240.486786
19418.394947	16867.668000	637.698242	263.800201
19418.394947	16867.668000	636.474609	308.814301
19418.394947	16867.668000	635.250000	263.911194
19418.394947	16867.668000	634.025391	295.792969
19418.394947	16867.668000	632.800781	281.266052
19418.394947	16867.668000	631.575195	218.909225
19418.394947	16867.668000	630.349609	289.774078
19418.394947	16867.668000	629.124023	379.395782
19418.394947	16867.668000	627.898438	477.630127
19418.394947	16867.668000	626.671875	488.952026
19418.394947	16867.668000	625.445313	410.525024
19418.394947	16867.668000	624.218750	342.222748
19418.394947	16867.668000	622.992188	298.502045
19418.394947	16867.668000	621.764648	248.979126
19418.394947	16867.668000	620.537109	135.831848
19418.394947	16867.668000	619.309570	87.740715
19418.394947	16867.668000	618.081055	84.431030
19418.394947	16867.668000	616.852539	135.989914
19418.394947	16867.668000	615.624023	73.379410
19418.394947	16867.668000	614.395508	120.517593
19418.394947	16867.668000	613.166992	167.601883
19418.394947	16867.668000	611.937500	200.194397
19418.394947	16867.668000	610.708008	237.068939
19418.394947	16867.668000	609.477539	372.011475
19418.394947	16867.668000	608.248047	498.209839
19418.394947	16867.668000	607.017578	811.820679
19418.394947	16867.668000	605.787109	1017.113403
19418.394947	16867.668000	604.555664	1023.327698
19418.394947	16867.668000	603.325195	944.465637
19418.394947	16867.668000	602.093750	584.587708
19418.394947	16867.668000	600.861328	474.084747
19418.394947	16867.668000	599.629883	314.622253
19418.394947	16867.668000	598.397461	299.210907
19418.394947	16867.668000	597.165039	164.264542
19418.394947	16867.668000	595.932617	98.443054
19418.394947	16867.668000	594.699219	15.344455
19418.394947	16867.668000	593.465820	57.438587
19418.394947	16867.668000	592.232422	34.745003
19418.394947	16867.668000	590.999023	104.083801
19418.394947	16867.668000	589.764648	-26.526905
19418.394947	16867.668000	588.530273	-16.214806
19418.394947	16867.668000	587.295898	37.185673
19418.394947	16867.668000	586.061523	31.611603
19418.394947	16867.668000	584.826172	-70.258308
19418.394947	16867.668000	583.590820	-38.519169
19418.394947	16867.668000	582.355469	-19.748053
19418.394947	16867.668000	581.119141	-74.246758
19418.394947	16867.668000	579.882813	-48.357876
19418.394947	16867.668000	578.646484	4.762451
19418.394947	16867.668000	577.410156	-48.355392
19418.394947	16867.668000	576.172852	-75.656830
19418.394947	16867.668000	574.935547	-52.770695
19418.394947	16867.668000	573.698242	-72.942482
19418.394947	16867.668000	572.460938	-75.926926
19418.394947	16867.668000	571.222656	-76.072090
19418.394947	16867.668000	569.984375	-44.713501
19418.394947	16867.668000	568.746094	61.113834
19418.394947	16867.668000	567.506836	75.186584
19418.394947	16867.668000	566.267578	-42.535065
19418.394947	16867.668000	565.028320	8.735444
19418.394947	16867.668000	563.789063	35.623280
19418.394947	16867.668000	562.548828	13.809111
19418.394947	16867.668000	561.309570	26.328609
19418.394947	16867.668000	560.068359	-5.537106
19418.394947	16867.668000	558.828125	-13.091476
19418.394947	16867.668000	557.586914	-20.667250
19418.394947	16867.668000	556.345703	-8.243999
19418.394947	16867.668000	555.104492	57.043716
19418.394947	16867.668000	553.863281	57.971252
19418.394947	16867.668000	552.621094	21.725050
19418.394947	16867.668000	551.378906	79.759445
19418.394947	16867.668000	550.136719	17.777786
19418.394947	16867.668000	548.893555	-1.360914
19418.394947	16867.668000	547.650391	75.142220
19418.394947	16867.668000	546.407227	70.237358
19418.394947	16867.668000	545.164063	-20.303547
19418.394947	16867.668000	543.919922	80.354324
19418.394947	16867.668000	542.675781	168.115112
19418.394947	16867.668000	541.431641	240.135788
19418.394947	16867.668000	540.186523	313.532867
19418.394947	16867.668000	538.941406	331.289398
19418.394947	16867.668000	537.696289	356.150238
19418.394947	16867.668000	536.451172	356.763550
19418.394947	16867.668000	535.205078	314.622559
19418.394947	16867.668000	533.959961	205.549362
19418.394947	16867.668000	532.712891	112.167145
19418.394947	16867.668000	531.466797	70.068527
19418.394947	16867.668000	530.219727	30.819695
19418.394947	16867.668000	528.972656	74.113716
19418.394947	16867.668000	527.725586	77.541374
19418.394947	16867.668000	526.478516	-1.543848
19418.394947	16867.668000	525.230469	-45.054848
19418.394947	16867.668000	523.982422	-75.759979
19418.394947	16867.668000	522.734375	2.996719
19418.394947	16867.668000	521.485352	-68.941826
19418.394947	16867.668000	520.236328	-7.291233
19418.394947	16867.668000	518.987305	-73.529594
19418.394947	16867.668000	517.737305	-64.473930
19418.394947	16867.668000	516.488281	-58.265354
19418.394947	16867.668000	515.238281	70.024178
19418.394947	16867.668000	513.988281	22.248604
19418.394947	16867.668000	512.737305	-87.955521
19418.394947	16867.668000	511.486328	41.656364
19418.394947	16867.668000	510.235352	52.055798
19418.394947	16867.668000	508.984375	-65.189247
19418.394947	16867.668000	507.732422	-101.573135
19418.394947	16867.668000	506.480469	-119.517113
19418.394947	16867.668000	505.228516	-41.083618
19418.394947	16867.668000	503.976563	-179.480621
19418.394947	16867.668000	502.723633	-82.661278
19418.394947	16867.668000	501.470703	-170.010757
19418.394947	16867.668000	500.217773	-186.523453
19418.394947	16867.668000	498.963867	-115.259506
19418.394947	16867.668000	497.709961	-103.476204
19418.394947	16867.668000	496.456055	-53.491482
19418.394947	16867.668000	495.202148	-62.952621
19418.394947	16867.668000	493.947266	-100.704758
19418.394947	16867.668000	492.692383	-77.631493
19418.394947	16867.668000	491.437500	-20.635534
19418.394947	16867.668000	490.181641	3.818283
19418.394947	16867.668000	488.926758	-39.574543
19418.394947	16867.668000	487.670898	72.475700
19418.394947	16867.668000	486.414063	112.426048
19418.394947	16867.668000	485.158203	40.783199
19418.394947	16867.668000	483.901367	56.715450
19418.394947	16867.668000	482.644531	102.286751
19418.394947	16867.668000	481.386719	27.858515
19418.394947	16867.668000	480.128906	46.597660
19418.394947	16867.668000	478.871094	79.435661
19418.394947	16867.668000	477.613281	78.404053
19418.394947	16867.668000	476.355469	106.986267
19418.394947	16867.668000	475.096680	118.630692
19418.394947	16867.668000	473.837891	107.713066
19418.394947	16867.668000	472.578125	170.079437
19418.394947	16867.668000	471.319336	29.517618
19418.394947	16867.668000	470.059570	117.223862
19418.394947	16867.668000	468.799805	64.044937
19418.394947	16867.668000	467.539063	72.838181
19418.394947	16867.668000	466.278320	37.979839
19418.394947	16867.668000	465.017578	41.133621
19418.394947	16867.668000	463.756836	48.501045
19418.394947	16867.668000	462.495117	58.668274
19418.394947	16867.668000	461.233398	5.526005
19418.394947	16867.668000	459.971680	26.931864
19418.394947	16867.668000	458.709961	62.378674
19418.394947	16867.668000	457.447266	-21.687765
19418.394947	16867.668000	456.184570	95.241707
19418.394947	16867.668000	454.921875	82.839943
19418.394947	16867.668000	453.658203	133.641891
19418.394947	16867.668000	452.394531	98.733963
19418.394947	16867.668000	451.130859	31.529299
19418.394947	16867.668000	449.867188	120.166573
19418.394947	16867.668000	448.602539	34.700962
19418.394947	16867.668000	447.337891	61.514076
19418.394947	16867.668000	446.073242	130.383057
19418.394947	16867.668000	444.807617	103.815483
19418.394947	16867.668000	443.542969	-15.316735
19418.394947	16867.668000	442.276367	18.392998
19418.394947	16867.668000	441.010742	-19.424961
19418.394947	16867.668000	439.744141	-19.420624
19418.394947	16867.668000	438.478516	88.444283
19418.394947	16867.668000	437.210938	49.133659
19418.394947	16867.668000	435.944336	-6.997828
19418.394947	16867.668000	434.676758	109.082413
19418.394947	16867.668000	433.409180	78.080299
19418.394947	16867.668000	432.141602	23.256029
19418.394947	16867.668000	430.873047	42.571358
19418.394947	16867.668000	429.604492	87.014008
19418.394947	16867.668000	428.335938	69.844627
19418.394947	16867.668000	427.067383	133.738556
19418.394947	16867.668000	425.797852	68.919991
19418.394947	16867.668000	424.528320	108.907394
19418.394947	16867.668000	423.258789	28.631437
19418.394947	16867.668000	421.988281	-12.555968
19418.394947	16867.668000	420.717773	76.119087
19418.394947	16867.668000	419.447266	111.614784
19418.394947	16867.668000	418.175781	22.747139
19418.394947	16867.668000	416.905273	173.955673
19418.394947	16867.668000	415.633789	185.444595
19418.394947	16867.668000	414.362305	148.005814
19418.394947	16867.668000	413.089844	224.886505
19418.394947	16867.668000	411.817383	209.586243
19418.394947	16867.668000	410.544922	170.489868
19418.394947	16867.668000	409.272461	69.965752
19418.394947	16867.668000	407.999023	149.184586
19418.394947	16867.668000	406.725586	129.315857
19418.394947	16867.668000	405.452148	142.779541
19418.394947	16867.668000	404.177734	186.758331
19418.394947	16867.668000	402.903320	85.756538
19418.394947	16867.668000	401.628906	41.755924
19418.394947	16867.668000	400.354492	107.612183
19418.394947	16867.668000	399.079102	-4.850368
19418.394947	16867.668000	397.803711	-50.620117
19418.394947	16867.668000	396.528320	27.290722
19418.394947	16867.668000	395.251953	-22.953285
19418.394947	16867.668000	393.976563	33.738853
19418.394947	16867.668000	392.700195	22.108585
19418.394947	16867.668000	391.422852	26.980539
19418.394947	16867.668000	390.145508	63.628963
19418.394947	16867.668000	388.869141	-40.244755
19418.394947	16867.668000	387.590820	0.176783
19418.394947	16867.668000	386.313477	51.493790
19418.394947	16867.668000	385.035156	-25.165136
19418.394947	16867.668000	383.756836	60.401535
19418.394947	16867.668000	382.478516	43.005840
19418.394947	16867.668000	381.199219	-12.087269
19418.394947	16867.668000	379.919922	-28.556488
19418.394947	16867.668000	378.640625	-38.334774
19418.394947	16867.668000	377.360352	-84.428368
19418.394947	16867.668000	376.080078	-35.113960
19418.394947	16867.668000	374.799805	-8.274604
19418.394947	16867.668000	373.519531	-3.904639
19418.394947	16867.668000	372.238281	8.471608
19418.394947	16867.668000	370.957031	8.070297
19418.394947	16867.668000	369.675781	26.741373
19418.394947	16867.668000	368.394531	-8.917158
19418.394947	16867.668000	367.112305	11.847047
19418.394947	16867.668000	365.830078	-10.646121
19418.394947	16867.668000	364.546875	41.217438
19418.394947	16867.668000	363.264648	-35.947407
19418.394947	16867.668000	361.981445	-87.192650
19418.394947	16867.668000	360.698242	-54.462532
19418.394947	16867.668000	359.414063	5.485221
19418.394947	16867.668000	358.129883	-8.260405
19418.394947	16867.668000	356.845703	56.333302
19418.394947	16867.668000	355.561523	-99.200729
19418.394947	16867.668000	354.276367	-94.916107
19418.394947	16867.668000	352.991211	-41.389721
19418.394947	16867.668000	351.706055	-61.539715
19418.394947	16867.668000	350.420898	-13.162918
19418.394947	16867.668000	349.134766	-60.550461
19418.394947	16867.668000	347.848633	-113.962143
19418.394947	16867.668000	346.561523	-52.036716
19418.394947	16867.668000	345.275391	-66.528389
19418.394947	16867.668000	343.988281	-34.722172
19418.394947	16867.668000	342.700195	-11.804329
19418.394947	16867.668000	341.413086	73.912445
19418.394947	16867.668000	340.125000	52.857769
19418.394947	16867.668000	338.836914	117.961868
19418.394947	16867.668000	337.548828	165.855789
19418.394947	16867.668000	336.259766	73.962265
19418.394947	16867.668000	334.970703	113.579041
19418.394947	16867.668000	333.681641	2.443021
19418.394947	16867.668000	332.391602	47.480080
19418.394947	16867.668000	331.101563	75.239822
19418.394947	16867.668000	329.811523	60.955574
19418.394947	16867.668000	328.521484	250.791916
19418.394947	16867.668000	327.230469	199.109772
19418.394947	16867.668000	325.939453	153.494110
19418.394947	16867.668000	324.648438	164.766479
19418.394947	16867.668000	323.356445	176.511230
19418.394947	16867.668000	322.064453	246.423752
19418.394947	16867.668000	320.772461	178.048950
19418.394947	16867.668000	319.480469	101.898567
19418.394947	16867.668000	318.187500	100.292198
19418.394947	16867.668000	316.894531	234.945663
19418.394947	16867.668000	315.601563	143.489014
19418.394947	16867.668000	314.307617	19.451033
19418.394947	16867.668000	313.013672	30.188972
19418.394947	16867.668000	311.719727	22.005276
19418.394947	16867.668000	310.425781	-103.825417
19418.394947	16867.668000	309.130859	-8.726296
19418.394947	16867.668000	307.835938	1.565376
19418.394947	16867.668000	306.541016	14.763168
19418.394947	16867.668000	305.245117	-33.578896
19418.394947	16867.668000	303.949219	-31.118435
19418.394947	16867.668000	302.653320	108.341415
19418.394947	16867.668000	301.356445	105.388260
19418.394947	16867.668000	300.060547	181.872833
19418.394947	16867.668000	298.763672	107.761169
