#X		#Y		#Wave		#Intensity
19414.779787	16947.238833	2000.043945	15.539493
19414.779787	16947.238833	1999.080078	-31.249306
19414.779787	16947.238833	1998.116211	-118.071297
19414.779787	16947.238833	1997.151367	-68.944794
19414.779787	16947.238833	1996.186523	-233.305359
19414.779787	16947.238833	1995.222656	-31.359674
19414.779787	16947.238833	1994.256836	38.899715
19414.779787	16947.238833	1993.291992	-5.145088
19414.779787	16947.238833	1992.327148	-56.945732
19414.779787	16947.238833	1991.361328	56.798439
19414.779787	16947.238833	1990.395508	11.778052
19414.779787	16947.238833	1989.429688	176.786682
19414.779787	16947.238833	1988.463867	170.717316
19414.779787	16947.238833	1987.497070	228.672409
19414.779787	16947.238833	1986.531250	318.457153
19414.779787	16947.238833	1985.564453	76.598732
19414.779787	16947.238833	1984.597656	111.441063
19414.779787	16947.238833	1983.630859	71.851891
19414.779787	16947.238833	1982.664063	-39.646904
19414.779787	16947.238833	1981.696289	41.374557
19414.779787	16947.238833	1980.728516	30.721575
19414.779787	16947.238833	1979.761719	-32.038002
19414.779787	16947.238833	1978.792969	280.365509
19414.779787	16947.238833	1977.825195	-64.321571
19414.779787	16947.238833	1976.857422	106.826462
19414.779787	16947.238833	1975.888672	48.180580
19414.779787	16947.238833	1974.919922	-92.073509
19414.779787	16947.238833	1973.951172	135.135498
19414.779787	16947.238833	1972.982422	117.872910
19414.779787	16947.238833	1972.013672	-0.678933
19414.779787	16947.238833	1971.043945	97.632500
19414.779787	16947.238833	1970.075195	94.658798
19414.779787	16947.238833	1969.105469	293.646423
19414.779787	16947.238833	1968.135742	130.137863
19414.779787	16947.238833	1967.165039	124.237671
19414.779787	16947.238833	1966.195313	209.340149
19414.779787	16947.238833	1965.224609	40.584534
19414.779787	16947.238833	1964.253906	305.170685
19414.779787	16947.238833	1963.283203	227.297379
19414.779787	16947.238833	1962.312500	154.254028
19414.779787	16947.238833	1961.341797	287.860229
19414.779787	16947.238833	1960.370117	-26.545958
19414.779787	16947.238833	1959.399414	197.854599
19414.779787	16947.238833	1958.427734	53.098923
19414.779787	16947.238833	1957.455078	-15.459009
19414.779787	16947.238833	1956.483398	83.117378
19414.779787	16947.238833	1955.511719	220.902695
19414.779787	16947.238833	1954.539063	243.028687
19414.779787	16947.238833	1953.566406	-44.585045
19414.779787	16947.238833	1952.593750	259.987518
19414.779787	16947.238833	1951.621094	80.419281
19414.779787	16947.238833	1950.647461	-113.886215
19414.779787	16947.238833	1949.674805	99.460136
19414.779787	16947.238833	1948.701172	40.134212
19414.779787	16947.238833	1947.727539	140.333771
19414.779787	16947.238833	1946.753906	299.345551
19414.779787	16947.238833	1945.780273	92.618225
19414.779787	16947.238833	1944.805664	165.611053
19414.779787	16947.238833	1943.831055	91.354630
19414.779787	16947.238833	1942.856445	191.211487
19414.779787	16947.238833	1941.881836	-20.417881
19414.779787	16947.238833	1940.907227	-60.393810
19414.779787	16947.238833	1939.932617	171.688904
19414.779787	16947.238833	1938.957031	283.572906
19414.779787	16947.238833	1937.981445	-48.103054
19414.779787	16947.238833	1937.005859	102.923378
19414.779787	16947.238833	1936.030273	180.391068
19414.779787	16947.238833	1935.054688	98.634491
19414.779787	16947.238833	1934.078125	92.793221
19414.779787	16947.238833	1933.101563	118.760612
19414.779787	16947.238833	1932.125000	-80.464050
19414.779787	16947.238833	1931.148438	38.488552
19414.779787	16947.238833	1930.171875	135.368515
19414.779787	16947.238833	1929.194336	134.361877
19414.779787	16947.238833	1928.217773	223.837784
19414.779787	16947.238833	1927.240234	-151.311356
19414.779787	16947.238833	1926.262695	40.861080
19414.779787	16947.238833	1925.284180	-141.014832
19414.779787	16947.238833	1924.306641	-188.411972
19414.779787	16947.238833	1923.328125	6.108623
19414.779787	16947.238833	1922.350586	-80.377220
19414.779787	16947.238833	1921.372070	192.220718
19414.779787	16947.238833	1920.392578	161.914566
19414.779787	16947.238833	1919.414063	-119.852875
19414.779787	16947.238833	1918.434570	-103.688812
19414.779787	16947.238833	1917.456055	183.391373
19414.779787	16947.238833	1916.476563	-27.422703
19414.779787	16947.238833	1915.497070	-6.368726
19414.779787	16947.238833	1914.516602	29.329283
19414.779787	16947.238833	1913.537109	8.934890
19414.779787	16947.238833	1912.556641	232.403229
19414.779787	16947.238833	1911.576172	116.934837
19414.779787	16947.238833	1910.595703	3.965063
19414.779787	16947.238833	1909.615234	-155.247513
19414.779787	16947.238833	1908.633789	207.043594
19414.779787	16947.238833	1907.653320	79.562355
19414.779787	16947.238833	1906.671875	10.606606
19414.779787	16947.238833	1905.690430	175.476059
19414.779787	16947.238833	1904.708984	-71.164696
19414.779787	16947.238833	1903.727539	-120.513435
19414.779787	16947.238833	1902.745117	27.319715
19414.779787	16947.238833	1901.762695	265.156677
19414.779787	16947.238833	1900.780273	1.747787
19414.779787	16947.238833	1899.797852	-203.160553
19414.779787	16947.238833	1898.815430	-31.006575
19414.779787	16947.238833	1897.832031	-182.287186
19414.779787	16947.238833	1896.849609	138.144440
19414.779787	16947.238833	1895.866211	-30.075937
19414.779787	16947.238833	1894.882813	42.380001
19414.779787	16947.238833	1893.898438	-140.285507
19414.779787	16947.238833	1892.915039	-89.649612
19414.779787	16947.238833	1891.930664	-22.003237
19414.779787	16947.238833	1890.947266	-104.918808
19414.779787	16947.238833	1889.962891	-17.822010
19414.779787	16947.238833	1888.977539	171.223663
19414.779787	16947.238833	1887.993164	-297.498016
19414.779787	16947.238833	1887.007813	22.611778
19414.779787	16947.238833	1886.023438	58.771198
19414.779787	16947.238833	1885.038086	58.558582
19414.779787	16947.238833	1884.051758	-2.257689
19414.779787	16947.238833	1883.066406	-89.700859
19414.779787	16947.238833	1882.081055	-46.177246
19414.779787	16947.238833	1881.094727	101.580750
19414.779787	16947.238833	1880.108398	55.435772
19414.779787	16947.238833	1879.122070	-80.316666
19414.779787	16947.238833	1878.135742	-140.899628
19414.779787	16947.238833	1877.148438	-116.665627
19414.779787	16947.238833	1876.162109	106.145767
19414.779787	16947.238833	1875.174805	14.154096
19414.779787	16947.238833	1874.187500	-26.949163
19414.779787	16947.238833	1873.199219	4.590867
19414.779787	16947.238833	1872.211914	-29.197058
19414.779787	16947.238833	1871.223633	-118.593704
19414.779787	16947.238833	1870.236328	60.548706
19414.779787	16947.238833	1869.248047	152.583237
19414.779787	16947.238833	1868.258789	-74.563911
19414.779787	16947.238833	1867.270508	15.077169
19414.779787	16947.238833	1866.282227	107.117737
19414.779787	16947.238833	1865.292969	119.395683
19414.779787	16947.238833	1864.303711	51.950752
19414.779787	16947.238833	1863.314453	49.768589
19414.779787	16947.238833	1862.324219	235.989807
19414.779787	16947.238833	1861.334961	-68.044861
19414.779787	16947.238833	1860.344727	103.667191
19414.779787	16947.238833	1859.354492	210.151886
19414.779787	16947.238833	1858.364258	17.346004
19414.779787	16947.238833	1857.374023	0.766362
19414.779787	16947.238833	1856.383789	220.627045
19414.779787	16947.238833	1855.392578	117.202446
19414.779787	16947.238833	1854.401367	13.824063
19414.779787	16947.238833	1853.410156	192.593643
19414.779787	16947.238833	1852.418945	192.911774
19414.779787	16947.238833	1851.426758	-33.323174
19414.779787	16947.238833	1850.435547	123.681404
19414.779787	16947.238833	1849.443359	58.977001
19414.779787	16947.238833	1848.451172	199.052261
19414.779787	16947.238833	1847.458984	302.950287
19414.779787	16947.238833	1846.466797	149.158554
19414.779787	16947.238833	1845.473633	19.503153
19414.779787	16947.238833	1844.480469	17.468782
19414.779787	16947.238833	1843.487305	17.840731
19414.779787	16947.238833	1842.494141	102.424789
19414.779787	16947.238833	1841.500977	150.889038
19414.779787	16947.238833	1840.506836	98.313469
19414.779787	16947.238833	1839.513672	77.011116
19414.779787	16947.238833	1838.519531	24.458221
19414.779787	16947.238833	1837.525391	34.418785
19414.779787	16947.238833	1836.530273	-8.503817
19414.779787	16947.238833	1835.536133	157.636322
19414.779787	16947.238833	1834.541016	133.908142
19414.779787	16947.238833	1833.545898	86.157715
19414.779787	16947.238833	1832.550781	228.142944
19414.779787	16947.238833	1831.555664	146.753586
19414.779787	16947.238833	1830.560547	70.183128
19414.779787	16947.238833	1829.564453	68.038773
19414.779787	16947.238833	1828.568359	106.677361
19414.779787	16947.238833	1827.572266	-87.451759
19414.779787	16947.238833	1826.576172	78.311684
19414.779787	16947.238833	1825.580078	107.283241
19414.779787	16947.238833	1824.583008	141.024139
19414.779787	16947.238833	1823.585938	136.372787
19414.779787	16947.238833	1822.588867	-38.490036
19414.779787	16947.238833	1821.591797	45.529552
19414.779787	16947.238833	1820.594727	64.798882
19414.779787	16947.238833	1819.596680	105.602737
19414.779787	16947.238833	1818.599609	155.946182
19414.779787	16947.238833	1817.601563	292.463074
19414.779787	16947.238833	1816.603516	172.704865
19414.779787	16947.238833	1815.604492	-150.516388
19414.779787	16947.238833	1814.606445	234.826065
19414.779787	16947.238833	1813.607422	182.073929
19414.779787	16947.238833	1812.608398	2.506300
19414.779787	16947.238833	1811.609375	-95.691071
19414.779787	16947.238833	1810.610352	33.328674
19414.779787	16947.238833	1809.610352	152.706558
19414.779787	16947.238833	1808.611328	28.147465
19414.779787	16947.238833	1807.611328	66.146088
19414.779787	16947.238833	1806.611328	178.182922
19414.779787	16947.238833	1805.610352	287.757294
19414.779787	16947.238833	1804.610352	110.577301
19414.779787	16947.238833	1803.609375	-30.740534
19414.779787	16947.238833	1802.608398	324.674103
19414.779787	16947.238833	1801.607422	54.365437
19414.779787	16947.238833	1800.606445	187.550522
19414.779787	16947.238833	1799.605469	24.694481
19414.779787	16947.238833	1798.603516	207.870667
19414.779787	16947.238833	1797.601563	102.256241
19414.779787	16947.238833	1796.599609	-62.993210
19414.779787	16947.238833	1795.597656	162.901932
19414.779787	16947.238833	1794.595703	38.156826
19414.779787	16947.238833	1793.592773	-5.526419
19414.779787	16947.238833	1792.589844	12.736639
19414.779787	16947.238833	1791.587891	128.653854
19414.779787	16947.238833	1790.583984	268.312073
19414.779787	16947.238833	1789.581055	-80.478294
19414.779787	16947.238833	1788.577148	256.759583
19414.779787	16947.238833	1787.574219	229.486237
19414.779787	16947.238833	1786.570313	130.751633
19414.779787	16947.238833	1785.566406	89.136879
19414.779787	16947.238833	1784.561523	80.809570
19414.779787	16947.238833	1783.557617	134.302948
19414.779787	16947.238833	1782.552734	56.880482
19414.779787	16947.238833	1781.547852	112.639137
19414.779787	16947.238833	1780.542969	99.359657
19414.779787	16947.238833	1779.538086	26.593323
19414.779787	16947.238833	1778.532227	34.629589
19414.779787	16947.238833	1777.527344	18.842182
19414.779787	16947.238833	1776.521484	52.912029
19414.779787	16947.238833	1775.515625	105.923752
19414.779787	16947.238833	1774.508789	113.730148
19414.779787	16947.238833	1773.502930	332.850891
19414.779787	16947.238833	1772.496094	8.070042
19414.779787	16947.238833	1771.489258	-69.739403
19414.779787	16947.238833	1770.482422	-195.045609
19414.779787	16947.238833	1769.475586	87.824898
19414.779787	16947.238833	1768.467773	142.751007
19414.779787	16947.238833	1767.460938	131.176956
19414.779787	16947.238833	1766.453125	72.114754
19414.779787	16947.238833	1765.445313	-88.949913
19414.779787	16947.238833	1764.437500	-81.676544
19414.779787	16947.238833	1763.428711	188.658295
19414.779787	16947.238833	1762.420898	148.360748
19414.779787	16947.238833	1761.412109	278.628906
19414.779787	16947.238833	1760.403320	-29.496578
19414.779787	16947.238833	1759.393555	-69.905701
19414.779787	16947.238833	1758.384766	76.730621
19414.779787	16947.238833	1757.375000	-18.259056
19414.779787	16947.238833	1756.366211	-68.293427
19414.779787	16947.238833	1755.356445	120.683395
19414.779787	16947.238833	1754.345703	110.750153
19414.779787	16947.238833	1753.335938	261.645782
19414.779787	16947.238833	1752.325195	220.816467
19414.779787	16947.238833	1751.315430	279.275818
19414.779787	16947.238833	1750.304688	193.410217
19414.779787	16947.238833	1749.292969	249.364944
19414.779787	16947.238833	1748.282227	328.875610
19414.779787	16947.238833	1747.270508	-17.092537
19414.779787	16947.238833	1746.259766	55.227638
19414.779787	16947.238833	1745.248047	186.516006
19414.779787	16947.238833	1744.235352	-109.811638
19414.779787	16947.238833	1743.223633	132.323761
19414.779787	16947.238833	1742.211914	223.200546
19414.779787	16947.238833	1741.199219	-11.775254
19414.779787	16947.238833	1740.186523	-69.716827
19414.779787	16947.238833	1739.173828	20.960800
19414.779787	16947.238833	1738.160156	-112.583534
19414.779787	16947.238833	1737.147461	102.957542
19414.779787	16947.238833	1736.133789	-30.674543
19414.779787	16947.238833	1735.120117	-18.131683
19414.779787	16947.238833	1734.106445	-62.232162
19414.779787	16947.238833	1733.091797	-261.938477
19414.779787	16947.238833	1732.078125	14.384558
19414.779787	16947.238833	1731.063477	-105.277046
19414.779787	16947.238833	1730.048828	-62.418571
19414.779787	16947.238833	1729.034180	-52.610203
19414.779787	16947.238833	1728.019531	-221.823456
19414.779787	16947.238833	1727.003906	6.832405
19414.779787	16947.238833	1725.988281	65.866287
19414.779787	16947.238833	1724.972656	-105.811478
19414.779787	16947.238833	1723.957031	11.922368
19414.779787	16947.238833	1722.941406	157.779953
19414.779787	16947.238833	1721.924805	-68.096260
19414.779787	16947.238833	1720.909180	-129.336288
19414.779787	16947.238833	1719.892578	-282.306793
19414.779787	16947.238833	1718.875977	-136.747452
19414.779787	16947.238833	1717.858398	-151.119446
19414.779787	16947.238833	1716.841797	-127.945892
19414.779787	16947.238833	1715.824219	45.511623
19414.779787	16947.238833	1714.806641	-48.924759
19414.779787	16947.238833	1713.789063	-119.899254
19414.779787	16947.238833	1712.770508	-256.650635
19414.779787	16947.238833	1711.752930	123.044701
19414.779787	16947.238833	1710.734375	56.595566
19414.779787	16947.238833	1709.715820	13.579313
19414.779787	16947.238833	1708.697266	-52.938255
19414.779787	16947.238833	1707.678711	-13.930393
19414.779787	16947.238833	1706.659180	62.526966
19414.779787	16947.238833	1705.640625	-4.129969
19414.779787	16947.238833	1704.621094	-270.090607
19414.779787	16947.238833	1703.600586	19.496902
19414.779787	16947.238833	1702.581055	-138.677979
19414.779787	16947.238833	1701.561523	-71.917786
19414.779787	16947.238833	1700.541016	25.212030
19414.779787	16947.238833	1699.520508	-13.590427
19414.779787	16947.238833	1698.500000	10.793474
19414.779787	16947.238833	1697.478516	63.205410
19414.779787	16947.238833	1696.458008	-174.703552
19414.779787	16947.238833	1695.436523	121.011162
19414.779787	16947.238833	1694.415039	51.544987
19414.779787	16947.238833	1693.393555	103.703140
19414.779787	16947.238833	1692.372070	8.436349
19414.779787	16947.238833	1691.349609	4.354619
19414.779787	16947.238833	1690.327148	30.620426
19414.779787	16947.238833	1689.304688	178.381790
19414.779787	16947.238833	1688.282227	40.904903
19414.779787	16947.238833	1687.259766	109.064369
19414.779787	16947.238833	1686.236328	114.066696
19414.779787	16947.238833	1685.213867	252.165604
19414.779787	16947.238833	1684.190430	4.827249
19414.779787	16947.238833	1683.166016	117.109711
19414.779787	16947.238833	1682.142578	210.633209
19414.779787	16947.238833	1681.119141	98.683327
19414.779787	16947.238833	1680.094727	112.740791
19414.779787	16947.238833	1679.070313	19.426645
19414.779787	16947.238833	1678.045898	98.722992
19414.779787	16947.238833	1677.020508	222.254013
19414.779787	16947.238833	1675.996094	133.510590
19414.779787	16947.238833	1674.970703	91.382980
19414.779787	16947.238833	1673.945313	212.391891
19414.779787	16947.238833	1672.919922	209.802673
19414.779787	16947.238833	1671.893555	202.510834
19414.779787	16947.238833	1670.868164	174.223465
19414.779787	16947.238833	1669.841797	301.951630
19414.779787	16947.238833	1668.815430	154.817780
19414.779787	16947.238833	1667.789063	268.459381
19414.779787	16947.238833	1666.761719	39.843102
19414.779787	16947.238833	1665.735352	88.229111
19414.779787	16947.238833	1664.708008	306.416290
19414.779787	16947.238833	1663.680664	182.509705
19414.779787	16947.238833	1662.653320	302.840179
19414.779787	16947.238833	1661.625000	309.139954
19414.779787	16947.238833	1660.597656	236.359909
19414.779787	16947.238833	1659.569336	105.459785
19414.779787	16947.238833	1658.541016	323.198181
19414.779787	16947.238833	1657.512695	296.837555
19414.779787	16947.238833	1656.483398	105.506531
19414.779787	16947.238833	1655.455078	260.320343
19414.779787	16947.238833	1654.425781	152.619400
19414.779787	16947.238833	1653.396484	216.754196
19414.779787	16947.238833	1652.366211	280.833740
19414.779787	16947.238833	1651.336914	307.734192
19414.779787	16947.238833	1650.306641	346.198181
19414.779787	16947.238833	1649.276367	76.054802
19414.779787	16947.238833	1648.246094	411.417206
19414.779787	16947.238833	1647.215820	329.176788
19414.779787	16947.238833	1646.185547	323.466248
19414.779787	16947.238833	1645.154297	250.502914
19414.779787	16947.238833	1644.123047	309.665802
19414.779787	16947.238833	1643.091797	371.106110
19414.779787	16947.238833	1642.060547	193.861847
19414.779787	16947.238833	1641.028320	306.225433
19414.779787	16947.238833	1639.997070	536.653564
19414.779787	16947.238833	1638.964844	540.044678
19414.779787	16947.238833	1637.931641	554.991516
19414.779787	16947.238833	1636.899414	616.219299
19414.779787	16947.238833	1635.867188	364.989197
19414.779787	16947.238833	1634.833984	528.008728
19414.779787	16947.238833	1633.800781	443.427551
19414.779787	16947.238833	1632.767578	622.540527
19414.779787	16947.238833	1631.734375	450.082855
19414.779787	16947.238833	1630.700195	342.415314
19414.779787	16947.238833	1629.666016	470.561676
19414.779787	16947.238833	1628.631836	462.297241
19414.779787	16947.238833	1627.597656	687.406982
19414.779787	16947.238833	1626.563477	688.335266
19414.779787	16947.238833	1625.528320	733.140015
19414.779787	16947.238833	1624.493164	620.892883
19414.779787	16947.238833	1623.458008	799.603577
19414.779787	16947.238833	1622.422852	950.542542
19414.779787	16947.238833	1621.387695	489.815002
19414.779787	16947.238833	1620.351563	721.515259
19414.779787	16947.238833	1619.315430	768.562622
19414.779787	16947.238833	1618.279297	804.061401
19414.779787	16947.238833	1617.243164	613.546692
19414.779787	16947.238833	1616.207031	462.307434
19414.779787	16947.238833	1615.169922	751.433044
19414.779787	16947.238833	1614.132813	561.051697
19414.779787	16947.238833	1613.095703	684.144775
19414.779787	16947.238833	1612.058594	791.071533
19414.779787	16947.238833	1611.020508	810.428223
19414.779787	16947.238833	1609.983398	712.338501
19414.779787	16947.238833	1608.945313	828.432434
19414.779787	16947.238833	1607.907227	760.322510
19414.779787	16947.238833	1606.868164	724.470337
19414.779787	16947.238833	1605.830078	663.337341
19414.779787	16947.238833	1604.791016	675.862244
19414.779787	16947.238833	1603.751953	791.912476
19414.779787	16947.238833	1602.712891	786.039673
19414.779787	16947.238833	1601.673828	690.508362
19414.779787	16947.238833	1600.633789	578.934387
19414.779787	16947.238833	1599.594727	786.924622
19414.779787	16947.238833	1598.554688	785.722656
19414.779787	16947.238833	1597.513672	497.331329
19414.779787	16947.238833	1596.473633	700.677612
19414.779787	16947.238833	1595.433594	655.919373
19414.779787	16947.238833	1594.392578	937.270386
19414.779787	16947.238833	1593.351563	830.537231
19414.779787	16947.238833	1592.310547	861.594788
19414.779787	16947.238833	1591.268555	807.748596
19414.779787	16947.238833	1590.227539	666.764099
19414.779787	16947.238833	1589.185547	897.492859
19414.779787	16947.238833	1588.143555	951.552856
19414.779787	16947.238833	1587.100586	1040.013306
19414.779787	16947.238833	1586.058594	986.326172
19414.779787	16947.238833	1585.015625	675.953430
19414.779787	16947.238833	1583.972656	764.509033
19414.779787	16947.238833	1582.929688	896.598267
19414.779787	16947.238833	1581.886719	1097.396729
19414.779787	16947.238833	1580.843750	1041.618286
19414.779787	16947.238833	1579.799805	1084.363525
19414.779787	16947.238833	1578.755859	1010.360657
19414.779787	16947.238833	1577.711914	835.702148
19414.779787	16947.238833	1576.666992	803.041687
19414.779787	16947.238833	1575.623047	877.984619
19414.779787	16947.238833	1574.578125	872.860840
19414.779787	16947.238833	1573.533203	831.181335
19414.779787	16947.238833	1572.488281	597.461670
19414.779787	16947.238833	1571.443359	578.800110
19414.779787	16947.238833	1570.397461	674.482483
19414.779787	16947.238833	1569.351563	667.322266
19414.779787	16947.238833	1568.305664	657.923767
19414.779787	16947.238833	1567.259766	753.666748
19414.779787	16947.238833	1566.213867	792.313538
19414.779787	16947.238833	1565.166992	867.526978
19414.779787	16947.238833	1564.120117	737.263123
19414.779787	16947.238833	1563.073242	561.440552
19414.779787	16947.238833	1562.026367	591.151855
19414.779787	16947.238833	1560.978516	474.852966
19414.779787	16947.238833	1559.930664	429.375610
19414.779787	16947.238833	1558.883789	520.834473
19414.779787	16947.238833	1557.834961	432.134399
19414.779787	16947.238833	1556.787109	423.330933
19414.779787	16947.238833	1555.739258	508.050995
19414.779787	16947.238833	1554.690430	346.629791
19414.779787	16947.238833	1553.641602	472.456268
19414.779787	16947.238833	1552.592773	479.814331
19414.779787	16947.238833	1551.542969	389.271637
19414.779787	16947.238833	1550.494141	328.432159
19414.779787	16947.238833	1549.444336	550.020569
19414.779787	16947.238833	1548.394531	291.225281
19414.779787	16947.238833	1547.344727	387.664185
19414.779787	16947.238833	1546.293945	292.965790
19414.779787	16947.238833	1545.244141	328.056671
19414.779787	16947.238833	1544.193359	426.884644
19414.779787	16947.238833	1543.142578	59.499218
19414.779787	16947.238833	1542.090820	203.939301
19414.779787	16947.238833	1541.040039	221.077209
19414.779787	16947.238833	1539.988281	213.266556
19414.779787	16947.238833	1538.936523	296.424713
19414.779787	16947.238833	1537.884766	118.324745
19414.779787	16947.238833	1536.833008	144.808014
19414.779787	16947.238833	1535.780273	282.633484
19414.779787	16947.238833	1534.727539	266.060089
19414.779787	16947.238833	1533.674805	163.290482
19414.779787	16947.238833	1532.622070	428.343781
19414.779787	16947.238833	1531.569336	470.959808
19414.779787	16947.238833	1530.515625	524.971008
19414.779787	16947.238833	1529.461914	358.986542
19414.779787	16947.238833	1528.408203	245.302826
19414.779787	16947.238833	1527.354492	279.129333
19414.779787	16947.238833	1526.299805	285.806610
19414.779787	16947.238833	1525.246094	9.215697
19414.779787	16947.238833	1524.191406	217.785248
19414.779787	16947.238833	1523.136719	102.333931
19414.779787	16947.238833	1522.081055	-26.591440
19414.779787	16947.238833	1521.026367	111.870071
19414.779787	16947.238833	1519.970703	422.449402
19414.779787	16947.238833	1518.915039	194.143631
19414.779787	16947.238833	1517.859375	119.927780
19414.779787	16947.238833	1516.802734	414.704468
19414.779787	16947.238833	1515.747070	499.013580
19414.779787	16947.238833	1514.690430	287.014435
19414.779787	16947.238833	1513.633789	222.191025
19414.779787	16947.238833	1512.577148	293.152130
19414.779787	16947.238833	1511.519531	192.335846
19414.779787	16947.238833	1510.461914	154.929993
19414.779787	16947.238833	1509.405273	201.239258
19414.779787	16947.238833	1508.346680	182.081528
19414.779787	16947.238833	1507.289063	18.430641
19414.779787	16947.238833	1506.231445	157.583221
19414.779787	16947.238833	1505.172852	48.359615
19414.779787	16947.238833	1504.114258	-62.997211
19414.779787	16947.238833	1503.055664	173.396851
19414.779787	16947.238833	1501.996094	114.130905
19414.779787	16947.238833	1500.937500	97.843193
19414.779787	16947.238833	1499.877930	122.251686
19414.779787	16947.238833	1498.818359	-198.359055
19414.779787	16947.238833	1497.757813	-42.940693
19414.779787	16947.238833	1496.698242	-79.142738
19414.779787	16947.238833	1495.637695	-160.328659
19414.779787	16947.238833	1494.577148	-63.353889
19414.779787	16947.238833	1493.516602	35.920475
19414.779787	16947.238833	1492.456055	-227.464325
19414.779787	16947.238833	1491.394531	-107.754410
19414.779787	16947.238833	1490.333008	-100.602478
19414.779787	16947.238833	1489.271484	52.979004
19414.779787	16947.238833	1488.209961	28.753895
19414.779787	16947.238833	1487.148438	92.397194
19414.779787	16947.238833	1486.085938	-102.662086
19414.779787	16947.238833	1485.023438	-223.316315
19414.779787	16947.238833	1483.960938	22.790148
19414.779787	16947.238833	1482.898438	-27.953884
19414.779787	16947.238833	1481.834961	209.197311
19414.779787	16947.238833	1480.772461	145.120972
19414.779787	16947.238833	1479.708984	231.731293
19414.779787	16947.238833	1478.644531	-0.645187
19414.779787	16947.238833	1477.581055	81.620224
19414.779787	16947.238833	1476.517578	148.264557
19414.779787	16947.238833	1475.453125	-11.818574
19414.779787	16947.238833	1474.388672	93.155296
19414.779787	16947.238833	1473.323242	-140.637848
19414.779787	16947.238833	1472.258789	-13.163945
19414.779787	16947.238833	1471.193359	42.595966
19414.779787	16947.238833	1470.127930	-42.800583
19414.779787	16947.238833	1469.062500	178.933563
19414.779787	16947.238833	1467.997070	145.347244
19414.779787	16947.238833	1466.930664	76.038780
19414.779787	16947.238833	1465.865234	221.743332
19414.779787	16947.238833	1464.798828	42.892918
19414.779787	16947.238833	1463.731445	468.422333
19414.779787	16947.238833	1462.665039	251.981262
19414.779787	16947.238833	1461.597656	182.992432
19414.779787	16947.238833	1460.530273	440.707855
19414.779787	16947.238833	1459.462891	320.727112
19414.779787	16947.238833	1458.395508	439.424164
19414.779787	16947.238833	1457.327148	174.407730
19414.779787	16947.238833	1456.259766	336.353821
19414.779787	16947.238833	1455.191406	225.895081
19414.779787	16947.238833	1454.123047	276.105225
19414.779787	16947.238833	1453.053711	582.622559
19414.779787	16947.238833	1451.985352	416.852905
19414.779787	16947.238833	1450.916016	320.512482
19414.779787	16947.238833	1449.846680	384.084839
19414.779787	16947.238833	1448.776367	430.530853
19414.779787	16947.238833	1447.707031	318.285889
19414.779787	16947.238833	1446.636719	567.434937
19414.779787	16947.238833	1445.566406	325.307953
19414.779787	16947.238833	1444.496094	172.344147
19414.779787	16947.238833	1443.425781	406.496490
19414.779787	16947.238833	1442.354492	449.597412
19414.779787	16947.238833	1441.283203	197.730316
19414.779787	16947.238833	1440.211914	329.275848
19414.779787	16947.238833	1439.140625	349.170349
19414.779787	16947.238833	1438.069336	307.935089
19414.779787	16947.238833	1436.997070	264.997559
19414.779787	16947.238833	1435.924805	207.034485
19414.779787	16947.238833	1434.852539	250.771210
19414.779787	16947.238833	1433.780273	276.543427
19414.779787	16947.238833	1432.707031	68.802361
19414.779787	16947.238833	1431.633789	51.834713
19414.779787	16947.238833	1430.560547	-87.378319
19414.779787	16947.238833	1429.487305	76.403214
19414.779787	16947.238833	1428.413086	3.229441
19414.779787	16947.238833	1427.339844	-115.228203
19414.779787	16947.238833	1426.265625	-51.293926
19414.779787	16947.238833	1425.191406	-78.874886
19414.779787	16947.238833	1424.116211	10.773665
19414.779787	16947.238833	1423.041992	-72.982193
19414.779787	16947.238833	1421.966797	-34.976810
19414.779787	16947.238833	1420.891602	-60.380383
19414.779787	16947.238833	1419.816406	-169.615128
19414.779787	16947.238833	1418.740234	-81.233818
19414.779787	16947.238833	1417.665039	-124.207100
19414.779787	16947.238833	1416.588867	52.619686
19414.779787	16947.238833	1415.512695	-163.761978
19414.779787	16947.238833	1414.435547	-122.962189
19414.779787	16947.238833	1413.359375	-12.526461
19414.779787	16947.238833	1412.282227	66.547112
19414.779787	16947.238833	1411.205078	-38.672176
19414.779787	16947.238833	1410.127930	-16.826342
19414.779787	16947.238833	1409.049805	25.593008
19414.779787	16947.238833	1407.972656	68.266159
19414.779787	16947.238833	1406.894531	103.964272
19414.779787	16947.238833	1405.816406	86.493530
19414.779787	16947.238833	1404.737305	-25.198942
19414.779787	16947.238833	1403.659180	59.895653
19414.779787	16947.238833	1402.580078	71.879082
19414.779787	16947.238833	1401.500977	-50.380264
19414.779787	16947.238833	1400.421875	144.661087
19414.779787	16947.238833	1399.341797	228.767960
19414.779787	16947.238833	1398.262695	325.161285
19414.779787	16947.238833	1397.182617	212.767746
19414.779787	16947.238833	1396.102539	85.632088
19414.779787	16947.238833	1395.021484	212.451996
19414.779787	16947.238833	1393.941406	51.201767
19414.779787	16947.238833	1392.860352	192.620087
19414.779787	16947.238833	1391.779297	145.558060
19414.779787	16947.238833	1390.698242	250.235870
19414.779787	16947.238833	1389.616211	45.191345
19414.779787	16947.238833	1388.535156	177.070923
19414.779787	16947.238833	1387.453125	19.228207
19414.779787	16947.238833	1386.371094	-81.739983
19414.779787	16947.238833	1385.288086	66.219070
19414.779787	16947.238833	1384.206055	95.860657
19414.779787	16947.238833	1383.123047	123.636497
19414.779787	16947.238833	1382.040039	239.351166
19414.779787	16947.238833	1380.957031	167.047043
19414.779787	16947.238833	1379.873047	185.107224
19414.779787	16947.238833	1378.789063	102.594841
19414.779787	16947.238833	1377.705078	74.561073
19414.779787	16947.238833	1376.621094	129.471146
19414.779787	16947.238833	1375.537109	368.252197
19414.779787	16947.238833	1374.452148	337.852020
19414.779787	16947.238833	1373.367188	210.644958
19414.779787	16947.238833	1372.282227	190.619659
19414.779787	16947.238833	1371.197266	170.883911
19414.779787	16947.238833	1370.112305	246.257416
19414.779787	16947.238833	1369.026367	149.951874
19414.779787	16947.238833	1367.940430	287.216339
19414.779787	16947.238833	1366.854492	246.509171
19414.779787	16947.238833	1365.767578	270.281494
19414.779787	16947.238833	1364.681641	249.883057
19414.779787	16947.238833	1363.594727	102.957085
19414.779787	16947.238833	1362.507813	392.003296
19414.779787	16947.238833	1361.419922	304.157532
19414.779787	16947.238833	1360.333008	305.198883
19414.779787	16947.238833	1359.245117	299.009216
19414.779787	16947.238833	1358.157227	319.541107
19414.779787	16947.238833	1357.069336	263.212830
19414.779787	16947.238833	1355.981445	319.834320
19414.779787	16947.238833	1354.892578	289.085632
19414.779787	16947.238833	1353.803711	141.785416
19414.779787	16947.238833	1352.714844	246.663452
19414.779787	16947.238833	1351.625000	297.492767
19414.779787	16947.238833	1350.536133	278.896179
19414.779787	16947.238833	1349.446289	29.804274
19414.779787	16947.238833	1348.356445	104.162354
19414.779787	16947.238833	1347.266602	349.691406
19414.779787	16947.238833	1346.175781	298.961517
19414.779787	16947.238833	1345.085938	191.201553
19414.779787	16947.238833	1343.995117	292.132477
19414.779787	16947.238833	1342.903320	178.838730
19414.779787	16947.238833	1341.812500	307.762695
19414.779787	16947.238833	1340.720703	392.166656
19414.779787	16947.238833	1339.629883	220.170624
19414.779787	16947.238833	1338.538086	270.701080
19414.779787	16947.238833	1337.445313	159.952759
19414.779787	16947.238833	1336.353516	271.442871
19414.779787	16947.238833	1335.260742	302.737762
19414.779787	16947.238833	1334.167969	203.676727
19414.779787	16947.238833	1333.075195	246.179947
19414.779787	16947.238833	1331.981445	6.288678
19414.779787	16947.238833	1330.888672	143.060806
19414.779787	16947.238833	1329.794922	91.998566
19414.779787	16947.238833	1328.701172	354.730133
19414.779787	16947.238833	1327.606445	268.555695
19414.779787	16947.238833	1326.512695	387.047516
19414.779787	16947.238833	1325.417969	410.984436
19414.779787	16947.238833	1324.323242	226.818726
19414.779787	16947.238833	1323.227539	506.875092
19414.779787	16947.238833	1322.132813	541.811462
19414.779787	16947.238833	1321.037109	332.518311
19414.779787	16947.238833	1319.941406	399.937927
19414.779787	16947.238833	1318.845703	201.168274
19414.779787	16947.238833	1317.750000	309.042542
19414.779787	16947.238833	1316.653320	73.586784
19414.779787	16947.238833	1315.556641	200.891693
19414.779787	16947.238833	1314.459961	181.325653
19414.779787	16947.238833	1313.363281	177.464096
19414.779787	16947.238833	1312.265625	181.751114
19414.779787	16947.238833	1311.167969	273.286102
19414.779787	16947.238833	1310.070313	180.696213
19414.779787	16947.238833	1308.972656	171.439697
19414.779787	16947.238833	1307.874023	26.033007
19414.779787	16947.238833	1306.776367	138.110931
19414.779787	16947.238833	1305.677734	259.097778
19414.779787	16947.238833	1304.579102	303.042023
19414.779787	16947.238833	1303.479492	247.302948
19414.779787	16947.238833	1302.380859	56.443890
19414.779787	16947.238833	1301.281250	244.094406
19414.779787	16947.238833	1300.181641	222.094879
19414.779787	16947.238833	1299.081055	385.178680
19414.779787	16947.238833	1297.981445	178.458847
19414.779787	16947.238833	1296.880859	217.682236
19414.779787	16947.238833	1295.780273	335.741882
19414.779787	16947.238833	1294.679688	192.189789
19414.779787	16947.238833	1293.578125	62.099262
19414.779787	16947.238833	1292.476563	169.296906
19414.779787	16947.238833	1291.375000	203.121841
19414.779787	16947.238833	1290.273438	240.728607
19414.779787	16947.238833	1289.171875	293.207275
19414.779787	16947.238833	1288.069336	274.299194
19414.779787	16947.238833	1286.966797	146.269379
19414.779787	16947.238833	1285.864258	54.516541
19414.779787	16947.238833	1284.761719	126.735252
19414.779787	16947.238833	1283.658203	49.365143
19414.779787	16947.238833	1282.554688	55.028629
19414.779787	16947.238833	1281.451172	27.058977
19414.779787	16947.238833	1280.347656	93.149803
19414.779787	16947.238833	1279.244141	-69.878311
19414.779787	16947.238833	1278.139648	55.174038
19414.779787	16947.238833	1277.035156	3.162669
19414.779787	16947.238833	1275.930664	-34.313522
19414.779787	16947.238833	1274.825195	-7.188895
19414.779787	16947.238833	1273.720703	-50.400551
19414.779787	16947.238833	1272.615234	67.632713
19414.779787	16947.238833	1271.508789	109.050827
19414.779787	16947.238833	1270.403320	-42.779591
19414.779787	16947.238833	1269.297852	84.355545
19414.779787	16947.238833	1268.191406	11.742594
19414.779787	16947.238833	1267.084961	123.275459
19414.779787	16947.238833	1265.977539	146.437744
19414.779787	16947.238833	1264.871094	88.033638
19414.779787	16947.238833	1263.763672	-61.728741
19414.779787	16947.238833	1262.656250	79.347290
19414.779787	16947.238833	1261.548828	5.531566
19414.779787	16947.238833	1260.440430	76.614326
19414.779787	16947.238833	1259.333008	130.327545
19414.779787	16947.238833	1258.224609	-122.804276
19414.779787	16947.238833	1257.115234	-84.513260
19414.779787	16947.238833	1256.006836	80.979492
19414.779787	16947.238833	1254.897461	205.941605
19414.779787	16947.238833	1253.788086	-28.803196
19414.779787	16947.238833	1252.678711	-69.282913
19414.779787	16947.238833	1251.569336	18.136585
19414.779787	16947.238833	1250.458984	-114.221306
19414.779787	16947.238833	1249.349609	-47.280670
19414.779787	16947.238833	1248.239258	-75.215385
19414.779787	16947.238833	1247.127930	-53.258526
19414.779787	16947.238833	1246.017578	44.380756
19414.779787	16947.238833	1244.906250	-70.741020
19414.779787	16947.238833	1243.794922	46.999805
19414.779787	16947.238833	1242.683594	-76.107338
19414.779787	16947.238833	1241.571289	-18.680555
19414.779787	16947.238833	1240.459961	-118.491302
19414.779787	16947.238833	1239.347656	-93.688278
19414.779787	16947.238833	1238.234375	87.899750
19414.779787	16947.238833	1237.122070	-209.948761
19414.779787	16947.238833	1236.008789	170.785370
19414.779787	16947.238833	1234.896484	11.050615
19414.779787	16947.238833	1233.782227	72.477936
19414.779787	16947.238833	1232.668945	66.607109
19414.779787	16947.238833	1231.555664	82.271141
19414.779787	16947.238833	1230.441406	22.290266
19414.779787	16947.238833	1229.327148	-52.553371
19414.779787	16947.238833	1228.211914	60.307491
19414.779787	16947.238833	1227.097656	-44.552372
19414.779787	16947.238833	1225.982422	68.714005
19414.779787	16947.238833	1224.867188	40.003139
19414.779787	16947.238833	1223.751953	23.918030
19414.779787	16947.238833	1222.635742	-37.172398
19414.779787	16947.238833	1221.520508	22.258062
19414.779787	16947.238833	1220.404297	94.878433
19414.779787	16947.238833	1219.287109	55.665684
19414.779787	16947.238833	1218.170898	-77.001282
19414.779787	16947.238833	1217.053711	-29.031698
19414.779787	16947.238833	1215.936523	-99.069824
19414.779787	16947.238833	1214.819336	41.597721
19414.779787	16947.238833	1213.702148	-8.912334
19414.779787	16947.238833	1212.583984	19.781443
19414.779787	16947.238833	1211.465820	-61.773674
19414.779787	16947.238833	1210.347656	119.465805
19414.779787	16947.238833	1209.229492	81.414482
19414.779787	16947.238833	1208.110352	-58.400799
19414.779787	16947.238833	1206.992188	52.114334
19414.779787	16947.238833	1205.873047	-48.568031
19414.779787	16947.238833	1204.752930	-131.315598
19414.779787	16947.238833	1203.633789	-129.009369
19414.779787	16947.238833	1202.513672	-48.235058
19414.779787	16947.238833	1201.393555	-18.905993
19414.779787	16947.238833	1200.273438	-149.878036
19414.779787	16947.238833	1199.152344	-49.256405
19414.779787	16947.238833	1198.032227	-127.763527
19414.779787	16947.238833	1196.911133	-160.235413
19414.779787	16947.238833	1195.790039	3.876716
19414.779787	16947.238833	1194.667969	15.196061
19414.779787	16947.238833	1193.545898	-21.035170
19414.779787	16947.238833	1192.424805	-75.085365
19414.779787	16947.238833	1191.301758	-93.790413
19414.779787	16947.238833	1190.179688	-110.965500
19414.779787	16947.238833	1189.056641	-110.078903
19414.779787	16947.238833	1187.933594	-152.938019
19414.779787	16947.238833	1186.810547	-56.760944
19414.779787	16947.238833	1185.687500	-77.901497
19414.779787	16947.238833	1184.563477	-91.739677
19414.779787	16947.238833	1183.440430	-185.310394
19414.779787	16947.238833	1182.316406	-125.558907
19414.779787	16947.238833	1181.191406	-8.988531
19414.779787	16947.238833	1180.067383	-85.624184
19414.779787	16947.238833	1178.942383	-105.561714
19414.779787	16947.238833	1177.817383	102.331352
19414.779787	16947.238833	1176.692383	-37.485302
19414.779787	16947.238833	1175.566406	1.552424
19414.779787	16947.238833	1174.440430	26.605438
19414.779787	16947.238833	1173.314453	-1.423184
19414.779787	16947.238833	1172.188477	-15.707504
19414.779787	16947.238833	1171.062500	-77.386421
19414.779787	16947.238833	1169.935547	-73.115738
19414.779787	16947.238833	1168.808594	239.339905
19414.779787	16947.238833	1167.681641	59.898273
19414.779787	16947.238833	1166.553711	-12.766462
19414.779787	16947.238833	1165.426758	38.844360
19414.779787	16947.238833	1164.298828	-52.421703
19414.779787	16947.238833	1163.170898	-44.815392
19414.779787	16947.238833	1162.041992	35.337341
19414.779787	16947.238833	1160.914063	69.438828
19414.779787	16947.238833	1159.785156	87.108780
19414.779787	16947.238833	1158.656250	-126.181671
19414.779787	16947.238833	1157.526367	-30.555487
19414.779787	16947.238833	1156.397461	149.863647
19414.779787	16947.238833	1155.267578	-39.535324
19414.779787	16947.238833	1154.137695	-39.956860
19414.779787	16947.238833	1153.006836	67.153671
19414.779787	16947.238833	1151.876953	-43.005772
19414.779787	16947.238833	1150.746094	-32.547523
19414.779787	16947.238833	1149.615234	15.252868
19414.779787	16947.238833	1148.484375	-67.524620
19414.779787	16947.238833	1147.352539	-114.382179
19414.779787	16947.238833	1146.220703	-36.650887
19414.779787	16947.238833	1145.088867	-8.496824
19414.779787	16947.238833	1143.957031	-31.007952
19414.779787	16947.238833	1142.825195	-122.376717
19414.779787	16947.238833	1141.692383	-74.584991
19414.779787	16947.238833	1140.559570	-1.913792
19414.779787	16947.238833	1139.426758	104.403442
19414.779787	16947.238833	1138.292969	1.901330
19414.779787	16947.238833	1137.159180	-43.270329
19414.779787	16947.238833	1136.025391	0.572035
19414.779787	16947.238833	1134.891602	1.811220
19414.779787	16947.238833	1133.757813	-37.491261
19414.779787	16947.238833	1132.623047	264.686310
19414.779787	16947.238833	1131.488281	34.416878
19414.779787	16947.238833	1130.353516	94.991432
19414.779787	16947.238833	1129.217773	122.870079
19414.779787	16947.238833	1128.083008	107.845520
19414.779787	16947.238833	1126.947266	38.831074
19414.779787	16947.238833	1125.811523	-49.714363
19414.779787	16947.238833	1124.674805	-18.932407
19414.779787	16947.238833	1123.539063	125.549118
19414.779787	16947.238833	1122.402344	94.043602
19414.779787	16947.238833	1121.265625	25.410521
19414.779787	16947.238833	1120.127930	132.464172
19414.779787	16947.238833	1118.990234	90.291679
19414.779787	16947.238833	1117.853516	123.356323
19414.779787	16947.238833	1116.714844	142.085953
19414.779787	16947.238833	1115.577148	14.935709
19414.779787	16947.238833	1114.439453	25.299894
19414.779787	16947.238833	1113.300781	20.789459
19414.779787	16947.238833	1112.162109	102.436157
19414.779787	16947.238833	1111.022461	156.512970
19414.779787	16947.238833	1109.883789	155.698837
19414.779787	16947.238833	1108.744141	-27.953573
19414.779787	16947.238833	1107.604492	57.959747
19414.779787	16947.238833	1106.463867	-6.749299
19414.779787	16947.238833	1105.324219	147.027298
19414.779787	16947.238833	1104.183594	-15.241112
19414.779787	16947.238833	1103.042969	58.542049
19414.779787	16947.238833	1101.902344	79.719711
19414.779787	16947.238833	1100.760742	76.621178
19414.779787	16947.238833	1099.619141	141.728912
19414.779787	16947.238833	1098.477539	141.853653
19414.779787	16947.238833	1097.335938	184.200653
19414.779787	16947.238833	1096.193359	103.888107
19414.779787	16947.238833	1095.051758	225.242615
19414.779787	16947.238833	1093.909180	131.889069
19414.779787	16947.238833	1092.765625	161.226944
19414.779787	16947.238833	1091.623047	165.854584
19414.779787	16947.238833	1090.479492	238.489426
19414.779787	16947.238833	1089.335938	228.124115
19414.779787	16947.238833	1088.192383	159.140701
19414.779787	16947.238833	1087.047852	270.357330
19414.779787	16947.238833	1085.903320	221.868347
19414.779787	16947.238833	1084.758789	356.033356
19414.779787	16947.238833	1083.614258	279.839905
19414.779787	16947.238833	1082.469727	16.543100
19414.779787	16947.238833	1081.324219	204.310532
19414.779787	16947.238833	1080.178711	66.605911
19414.779787	16947.238833	1079.033203	288.825958
19414.779787	16947.238833	1077.886719	338.908691
19414.779787	16947.238833	1076.740234	37.114761
19414.779787	16947.238833	1075.593750	140.656403
19414.779787	16947.238833	1074.447266	57.666683
19414.779787	16947.238833	1073.300781	164.904663
19414.779787	16947.238833	1072.153320	338.581604
19414.779787	16947.238833	1071.005859	132.520905
19414.779787	16947.238833	1069.858398	124.979713
19414.779787	16947.238833	1068.709961	208.583237
19414.779787	16947.238833	1067.561523	323.003632
19414.779787	16947.238833	1066.413086	107.509789
19414.779787	16947.238833	1065.264648	184.382263
19414.779787	16947.238833	1064.116211	93.422157
19414.779787	16947.238833	1062.966797	249.664658
19414.779787	16947.238833	1061.817383	206.245041
19414.779787	16947.238833	1060.667969	111.652893
19414.779787	16947.238833	1059.517578	15.186978
19414.779787	16947.238833	1058.368164	119.883492
19414.779787	16947.238833	1057.217773	54.081825
19414.779787	16947.238833	1056.067383	9.779754
19414.779787	16947.238833	1054.916016	100.282761
19414.779787	16947.238833	1053.764648	-2.098797
19414.779787	16947.238833	1052.613281	141.298492
19414.779787	16947.238833	1051.461914	132.090210
19414.779787	16947.238833	1050.310547	232.106781
19414.779787	16947.238833	1049.158203	100.984596
19414.779787	16947.238833	1048.005859	178.735352
19414.779787	16947.238833	1046.853516	74.023468
19414.779787	16947.238833	1045.700195	-18.871195
19414.779787	16947.238833	1044.547852	192.385239
19414.779787	16947.238833	1043.394531	73.783768
19414.779787	16947.238833	1042.240234	80.862747
19414.779787	16947.238833	1041.086914	3.946474
19414.779787	16947.238833	1039.932617	175.426163
19414.779787	16947.238833	1038.778320	145.630173
19414.779787	16947.238833	1037.624023	153.203415
19414.779787	16947.238833	1036.469727	195.093506
19414.779787	16947.238833	1035.314453	294.353516
19414.779787	16947.238833	1034.159180	295.000427
19414.779787	16947.238833	1033.003906	516.027771
19414.779787	16947.238833	1031.847656	479.065643
19414.779787	16947.238833	1030.692383	606.682068
19414.779787	16947.238833	1029.536133	567.005981
19414.779787	16947.238833	1028.378906	443.954803
19414.779787	16947.238833	1027.222656	402.349518
19414.779787	16947.238833	1026.065430	300.234039
19414.779787	16947.238833	1024.908203	284.610901
19414.779787	16947.238833	1023.750977	261.840851
19414.779787	16947.238833	1022.593750	73.449661
19414.779787	16947.238833	1021.435547	5.743990
19414.779787	16947.238833	1020.277344	117.507744
19414.779787	16947.238833	1019.119141	38.112396
19414.779787	16947.238833	1017.959961	-59.513378
19414.779787	16947.238833	1016.800781	41.342125
19414.779787	16947.238833	1015.641602	16.652925
19414.779787	16947.238833	1014.482422	-36.913597
19414.779787	16947.238833	1013.323242	66.142944
19414.779787	16947.238833	1012.163086	43.330204
19414.779787	16947.238833	1011.002930	229.350250
19414.779787	16947.238833	1009.842773	149.980804
19414.779787	16947.238833	1008.681641	-68.987343
19414.779787	16947.238833	1007.520508	10.563964
19414.779787	16947.238833	1006.359375	181.285492
19414.779787	16947.238833	1005.198242	118.791878
19414.779787	16947.238833	1004.037109	246.084503
19414.779787	16947.238833	1002.875000	7.289978
19414.779787	16947.238833	1001.712891	63.195499
19414.779787	16947.238833	1000.550781	-26.746408
19414.779787	16947.238833	999.387695	48.548840
19414.779787	16947.238833	998.224609	73.560867
19414.779787	16947.238833	997.061523	51.023449
19414.779787	16947.238833	995.898438	-108.949760
19414.779787	16947.238833	994.734375	-78.763496
19414.779787	16947.238833	993.571289	52.290298
19414.779787	16947.238833	992.407227	25.575567
19414.779787	16947.238833	991.242188	181.113144
19414.779787	16947.238833	990.078125	12.615088
19414.779787	16947.238833	988.913086	43.192314
19414.779787	16947.238833	987.748047	38.460327
19414.779787	16947.238833	986.583008	-49.922310
19414.779787	16947.238833	985.416992	-56.112434
19414.779787	16947.238833	984.250977	45.636360
19414.779787	16947.238833	983.084961	-37.927521
19414.779787	16947.238833	981.918945	156.670898
19414.779787	16947.238833	980.751953	159.916290
19414.779787	16947.238833	979.584961	39.094204
19414.779787	16947.238833	978.417969	44.078999
19414.779787	16947.238833	977.250977	43.623947
19414.779787	16947.238833	976.083008	198.470535
19414.779787	16947.238833	974.915039	19.023457
19414.779787	16947.238833	973.747070	55.880707
19414.779787	16947.238833	972.579102	-175.834320
19414.779787	16947.238833	971.410156	-56.445656
19414.779787	16947.238833	970.242188	80.917412
19414.779787	16947.238833	969.072266	-22.447357
19414.779787	16947.238833	967.903320	35.250820
19414.779787	16947.238833	966.733398	98.284416
19414.779787	16947.238833	965.563477	140.965424
19414.779787	16947.238833	964.393555	-101.616974
19414.779787	16947.238833	963.223633	-19.862848
19414.779787	16947.238833	962.052734	75.608757
19414.779787	16947.238833	960.881836	12.501463
19414.779787	16947.238833	959.710938	-35.814312
19414.779787	16947.238833	958.540039	-26.877327
19414.779787	16947.238833	957.368164	-37.956085
19414.779787	16947.238833	956.196289	-70.728783
19414.779787	16947.238833	955.024414	-153.672668
19414.779787	16947.238833	953.851563	-64.840462
19414.779787	16947.238833	952.679688	-15.366129
19414.779787	16947.238833	951.506836	57.315506
19414.779787	16947.238833	950.333984	-46.867287
19414.779787	16947.238833	949.160156	-70.855942
19414.779787	16947.238833	947.986328	-143.341324
19414.779787	16947.238833	946.812500	-257.667908
19414.779787	16947.238833	945.638672	-140.536591
19414.779787	16947.238833	944.464844	52.052853
19414.779787	16947.238833	943.290039	-93.880112
19414.779787	16947.238833	942.115234	-62.056610
19414.779787	16947.238833	940.940430	-107.012550
19414.779787	16947.238833	939.764648	75.873070
19414.779787	16947.238833	938.588867	-44.711708
19414.779787	16947.238833	937.413086	50.960880
19414.779787	16947.238833	936.237305	88.853935
19414.779787	16947.238833	935.060547	69.342331
19414.779787	16947.238833	933.883789	-143.954254
19414.779787	16947.238833	932.707031	-171.280746
19414.779787	16947.238833	931.530273	19.158978
19414.779787	16947.238833	930.352539	-67.480980
19414.779787	16947.238833	929.175781	20.013180
19414.779787	16947.238833	927.998047	121.302048
19414.779787	16947.238833	926.819336	34.661179
19414.779787	16947.238833	925.641602	31.122730
19414.779787	16947.238833	924.462891	-31.790442
19414.779787	16947.238833	923.284180	-59.067062
19414.779787	16947.238833	922.104492	58.012367
19414.779787	16947.238833	920.924805	70.268677
19414.779787	16947.238833	919.746094	74.518814
19414.779787	16947.238833	919.551758	152.397018
19414.779787	16947.238833	918.386719	210.026627
19414.779787	16947.238833	917.220703	16.715040
19414.779787	16947.238833	916.054688	-26.392693
19414.779787	16947.238833	914.887695	-105.029274
19414.779787	16947.238833	913.721680	-98.733841
19414.779787	16947.238833	912.554688	156.304428
19414.779787	16947.238833	911.387695	-184.831940
19414.779787	16947.238833	910.220703	188.518295
19414.779787	16947.238833	909.052734	68.485657
19414.779787	16947.238833	907.885742	-154.074478
19414.779787	16947.238833	906.717773	96.771744
19414.779787	16947.238833	905.548828	35.985317
19414.779787	16947.238833	904.380859	-64.207306
19414.779787	16947.238833	903.211914	-168.298080
19414.779787	16947.238833	902.042969	-41.794373
19414.779787	16947.238833	900.874023	35.404453
19414.779787	16947.238833	899.704102	-19.396305
19414.779787	16947.238833	898.535156	-19.037598
19414.779787	16947.238833	897.365234	67.957321
19414.779787	16947.238833	896.194336	150.983002
19414.779787	16947.238833	895.024414	117.851822
19414.779787	16947.238833	893.853516	-119.904831
19414.779787	16947.238833	892.682617	-50.663483
19414.779787	16947.238833	891.511719	50.021175
19414.779787	16947.238833	890.340820	5.142303
19414.779787	16947.238833	889.168945	-75.105225
19414.779787	16947.238833	887.997070	3.903018
19414.779787	16947.238833	886.825195	-82.208000
19414.779787	16947.238833	885.653320	89.120277
19414.779787	16947.238833	884.480469	124.829781
19414.779787	16947.238833	883.307617	78.032219
19414.779787	16947.238833	882.134766	43.036121
19414.779787	16947.238833	880.961914	80.695930
19414.779787	16947.238833	879.788086	-79.908760
19414.779787	16947.238833	878.614258	-89.337173
19414.779787	16947.238833	877.440430	99.410622
19414.779787	16947.238833	876.266602	7.558171
19414.779787	16947.238833	875.091797	172.675278
19414.779787	16947.238833	873.916992	108.299377
19414.779787	16947.238833	872.742188	-40.351841
19414.779787	16947.238833	871.567383	61.948067
19414.779787	16947.238833	870.391602	138.732742
19414.779787	16947.238833	869.215820	25.433149
19414.779787	16947.238833	868.040039	90.437859
19414.779787	16947.238833	866.864258	90.783836
19414.779787	16947.238833	865.687500	110.713676
19414.779787	16947.238833	864.510742	-12.279156
19414.779787	16947.238833	863.333984	-51.059071
19414.779787	16947.238833	862.157227	82.380615
19414.779787	16947.238833	860.979492	-19.011488
19414.779787	16947.238833	859.802734	-59.729755
19414.779787	16947.238833	858.625000	91.226685
19414.779787	16947.238833	857.446289	-129.380630
19414.779787	16947.238833	856.268555	-35.169125
19414.779787	16947.238833	855.089844	84.412819
19414.779787	16947.238833	853.911133	-151.699951
19414.779787	16947.238833	852.731445	-84.895813
19414.779787	16947.238833	851.552734	-107.976753
19414.779787	16947.238833	850.373047	-187.682205
19414.779787	16947.238833	849.193359	39.178497
19414.779787	16947.238833	848.013672	80.495781
19414.779787	16947.238833	846.833008	-83.131477
19414.779787	16947.238833	845.652344	-73.032112
19414.779787	16947.238833	844.471680	-31.728830
19414.779787	16947.238833	843.291016	235.806458
19414.779787	16947.238833	842.110352	70.311783
19414.779787	16947.238833	840.928711	-221.846451
19414.779787	16947.238833	839.747070	-170.819336
19414.779787	16947.238833	838.564453	-61.349873
19414.779787	16947.238833	837.382813	46.115482
19414.779787	16947.238833	836.200195	-121.143372
19414.779787	16947.238833	835.017578	29.128704
19414.779787	16947.238833	833.834961	-66.024620
19414.779787	16947.238833	832.651367	-100.788773
19414.779787	16947.238833	831.467773	-5.135172
19414.779787	16947.238833	830.284180	74.901718
19414.779787	16947.238833	829.100586	-29.939154
19414.779787	16947.238833	827.916992	18.928831
19414.779787	16947.238833	826.732422	-157.832169
19414.779787	16947.238833	825.547852	-29.250177
19414.779787	16947.238833	824.363281	50.666664
19414.779787	16947.238833	823.177734	35.305096
19414.779787	16947.238833	821.992188	109.328499
19414.779787	16947.238833	820.806641	-71.202911
19414.779787	16947.238833	819.621094	-28.288479
19414.779787	16947.238833	818.434570	-202.910675
19414.779787	16947.238833	817.249023	28.328970
19414.779787	16947.238833	816.062500	-14.251919
19414.779787	16947.238833	814.875000	53.803310
19414.779787	16947.238833	813.688477	137.338501
19414.779787	16947.238833	812.500977	110.245399
19414.779787	16947.238833	811.313477	-9.952191
19414.779787	16947.238833	810.125977	40.538342
19414.779787	16947.238833	808.937500	110.385780
19414.779787	16947.238833	807.749023	-64.055008
19414.779787	16947.238833	806.560547	-108.589073
19414.779787	16947.238833	805.372070	-65.927727
19414.779787	16947.238833	804.182617	-40.731350
19414.779787	16947.238833	802.994141	30.919291
19414.779787	16947.238833	801.803711	-137.589066
19414.779787	16947.238833	800.614258	183.769165
19414.779787	16947.238833	799.424805	28.811113
19414.779787	16947.238833	798.234375	181.603851
19414.779787	16947.238833	797.043945	38.285561
19414.779787	16947.238833	795.852539	88.454521
19414.779787	16947.238833	794.662109	154.052628
19414.779787	16947.238833	793.470703	61.048290
19414.779787	16947.238833	792.279297	215.516281
19414.779787	16947.238833	791.087891	184.348785
19414.779787	16947.238833	789.895508	23.702562
19414.779787	16947.238833	788.703125	-63.480373
19414.779787	16947.238833	787.510742	15.470469
19414.779787	16947.238833	786.318359	3.598633
19414.779787	16947.238833	785.125000	86.322540
19414.779787	16947.238833	783.931641	186.363556
19414.779787	16947.238833	782.738281	23.856022
19414.779787	16947.238833	781.544922	-61.423100
19414.779787	16947.238833	780.350586	133.049011
19414.779787	16947.238833	779.156250	126.818993
19414.779787	16947.238833	777.961914	130.207718
19414.779787	16947.238833	776.767578	245.394470
19414.779787	16947.238833	775.572266	71.366859
19414.779787	16947.238833	774.376953	1.455757
19414.779787	16947.238833	773.181641	-60.746460
19414.779787	16947.238833	771.986328	196.836960
19414.779787	16947.238833	770.790039	42.119278
19414.779787	16947.238833	769.593750	16.453962
19414.779787	16947.238833	768.397461	194.844513
19414.779787	16947.238833	767.201172	36.287594
19414.779787	16947.238833	766.003906	183.754013
19414.779787	16947.238833	764.806641	111.789711
19414.779787	16947.238833	763.609375	112.923584
19414.779787	16947.238833	762.412109	179.415970
19414.779787	16947.238833	761.213867	32.418255
19414.779787	16947.238833	760.015625	148.822174
19414.779787	16947.238833	758.817383	94.086319
19414.779787	16947.238833	757.618164	79.696968
19414.779787	16947.238833	756.419922	101.781967
19414.779787	16947.238833	755.220703	43.152096
19414.779787	16947.238833	754.021484	55.569359
19414.779787	16947.238833	752.821289	110.189842
19414.779787	16947.238833	751.621094	-32.967567
19414.779787	16947.238833	750.420898	198.147552
19414.779787	16947.238833	749.220703	10.828772
19414.779787	16947.238833	748.020508	49.926327
19414.779787	16947.238833	746.819336	104.317856
19414.779787	16947.238833	745.618164	85.781197
19414.779787	16947.238833	744.416992	71.049408
19414.779787	16947.238833	743.214844	123.377968
19414.779787	16947.238833	742.012695	242.722565
19414.779787	16947.238833	740.810547	310.245941
19414.779787	16947.238833	739.608398	180.395035
19414.779787	16947.238833	738.406250	226.760330
19414.779787	16947.238833	737.203125	225.197800
19414.779787	16947.238833	736.000000	233.169128
19414.779787	16947.238833	734.795898	275.551697
19414.779787	16947.238833	733.592773	361.888641
19414.779787	16947.238833	732.388672	230.044373
19414.779787	16947.238833	731.184570	214.895767
19414.779787	16947.238833	729.979492	148.078903
19414.779787	16947.238833	728.775391	186.409653
19414.779787	16947.238833	727.570313	255.269745
19414.779787	16947.238833	726.365234	138.670044
19414.779787	16947.238833	725.160156	104.243095
19414.779787	16947.238833	723.954102	35.402161
19414.779787	16947.238833	722.748047	193.839859
19414.779787	16947.238833	721.541992	82.911392
19414.779787	16947.238833	720.334961	44.538750
19414.779787	16947.238833	719.128906	105.395821
19414.779787	16947.238833	717.921875	-74.276779
19414.779787	16947.238833	716.714844	-61.207111
19414.779787	16947.238833	715.506836	-36.739933
19414.779787	16947.238833	714.298828	94.476845
19414.779787	16947.238833	713.090820	101.650063
19414.779787	16947.238833	711.882813	139.278564
19414.779787	16947.238833	710.674805	64.390511
19414.779787	16947.238833	709.465820	35.224979
19414.779787	16947.238833	708.256836	-192.117661
19414.779787	16947.238833	707.047852	-95.588737
19414.779787	16947.238833	705.837891	-231.486343
19414.779787	16947.238833	704.627930	76.265602
19414.779787	16947.238833	703.417969	-139.656265
19414.779787	16947.238833	702.208008	-170.919052
19414.779787	16947.238833	700.998047	-120.394913
19414.779787	16947.238833	699.787109	19.477276
19414.779787	16947.238833	698.576172	-139.374603
19414.779787	16947.238833	697.364258	-12.960766
19414.779787	16947.238833	696.153320	-67.265915
19414.779787	16947.238833	694.941406	-115.890488
19414.779787	16947.238833	693.729492	-200.651535
19414.779787	16947.238833	692.516602	90.784370
19414.779787	16947.238833	691.304688	45.814693
19414.779787	16947.238833	690.091797	-122.633904
19414.779787	16947.238833	688.878906	10.857055
19414.779787	16947.238833	687.665039	30.337700
19414.779787	16947.238833	686.451172	-56.526310
19414.779787	16947.238833	685.237305	2.716230
19414.779787	16947.238833	684.023438	-69.022522
19414.779787	16947.238833	682.809570	166.509445
19414.779787	16947.238833	681.594727	43.468552
19414.779787	16947.238833	680.379883	119.516815
19414.779787	16947.238833	679.165039	123.450218
19414.779787	16947.238833	677.949219	81.849930
19414.779787	16947.238833	676.733398	102.750153
19414.779787	16947.238833	675.517578	40.238918
19414.779787	16947.238833	674.301758	55.363228
19414.779787	16947.238833	673.084961	-3.417917
19414.779787	16947.238833	671.869141	60.840225
19414.779787	16947.238833	670.651367	24.702726
19414.779787	16947.238833	669.434570	54.770893
19414.779787	16947.238833	668.216797	98.024933
19414.779787	16947.238833	667.000000	-38.492420
19414.779787	16947.238833	665.781250	-29.372730
19414.779787	16947.238833	664.563477	121.513145
19414.779787	16947.238833	663.344727	109.709610
19414.779787	16947.238833	662.125977	216.939957
19414.779787	16947.238833	660.907227	365.652679
19414.779787	16947.238833	659.688477	102.398888
19414.779787	16947.238833	658.468750	160.317917
19414.779787	16947.238833	657.249023	225.722122
19414.779787	16947.238833	656.029297	136.233887
19414.779787	16947.238833	654.808594	203.415390
19414.779787	16947.238833	653.587891	159.176758
19414.779787	16947.238833	652.367188	199.822052
19414.779787	16947.238833	651.146484	66.853630
19414.779787	16947.238833	649.924805	94.214401
19414.779787	16947.238833	648.704102	17.809683
19414.779787	16947.238833	647.482422	39.430229
19414.779787	16947.238833	646.259766	159.011917
19414.779787	16947.238833	645.037109	-23.012342
19414.779787	16947.238833	643.815430	56.887196
19414.779787	16947.238833	642.591797	63.247158
19414.779787	16947.238833	641.369141	114.765251
19414.779787	16947.238833	640.145508	-33.363781
19414.779787	16947.238833	638.921875	67.019775
19414.779787	16947.238833	637.698242	118.387123
19414.779787	16947.238833	636.474609	73.730972
19414.779787	16947.238833	635.250000	57.274330
19414.779787	16947.238833	634.025391	-60.779984
19414.779787	16947.238833	632.800781	221.723877
19414.779787	16947.238833	631.575195	143.094772
19414.779787	16947.238833	630.349609	55.064983
19414.779787	16947.238833	629.124023	-21.686207
19414.779787	16947.238833	627.898438	-42.071270
19414.779787	16947.238833	626.671875	-195.855606
19414.779787	16947.238833	625.445313	-146.771652
19414.779787	16947.238833	624.218750	56.230061
19414.779787	16947.238833	622.992188	114.562279
19414.779787	16947.238833	621.764648	-114.328522
19414.779787	16947.238833	620.537109	-59.799641
19414.779787	16947.238833	619.309570	52.836113
19414.779787	16947.238833	618.081055	15.336706
19414.779787	16947.238833	616.852539	-119.691200
19414.779787	16947.238833	615.624023	-31.574053
19414.779787	16947.238833	614.395508	-29.748632
19414.779787	16947.238833	613.166992	56.385391
19414.779787	16947.238833	611.937500	-37.420914
19414.779787	16947.238833	610.708008	-13.192575
19414.779787	16947.238833	609.477539	-78.900223
19414.779787	16947.238833	608.248047	-103.406021
19414.779787	16947.238833	607.017578	-21.214487
19414.779787	16947.238833	605.787109	-62.612263
19414.779787	16947.238833	604.555664	-29.162783
19414.779787	16947.238833	603.325195	-94.904823
19414.779787	16947.238833	602.093750	-44.667210
19414.779787	16947.238833	600.861328	168.231476
19414.779787	16947.238833	599.629883	-2.273813
19414.779787	16947.238833	598.397461	-62.433834
19414.779787	16947.238833	597.165039	-64.646423
19414.779787	16947.238833	595.932617	-10.817007
19414.779787	16947.238833	594.699219	29.895203
19414.779787	16947.238833	593.465820	29.486963
19414.779787	16947.238833	592.232422	-79.241104
19414.779787	16947.238833	590.999023	51.036045
19414.779787	16947.238833	589.764648	-42.743164
19414.779787	16947.238833	588.530273	-129.028214
19414.779787	16947.238833	587.295898	-168.641525
19414.779787	16947.238833	586.061523	30.520254
19414.779787	16947.238833	584.826172	-9.129842
19414.779787	16947.238833	583.590820	-82.331322
19414.779787	16947.238833	582.355469	-93.990593
19414.779787	16947.238833	581.119141	32.267262
19414.779787	16947.238833	579.882813	-5.511122
19414.779787	16947.238833	578.646484	-177.410873
19414.779787	16947.238833	577.410156	-166.708511
19414.779787	16947.238833	576.172852	2.271629
19414.779787	16947.238833	574.935547	66.917969
19414.779787	16947.238833	573.698242	73.832870
19414.779787	16947.238833	572.460938	-107.215309
19414.779787	16947.238833	571.222656	-107.710091
19414.779787	16947.238833	569.984375	61.075787
19414.779787	16947.238833	568.746094	112.624527
19414.779787	16947.238833	567.506836	-38.522999
19414.779787	16947.238833	566.267578	-37.163006
19414.779787	16947.238833	565.028320	73.858559
19414.779787	16947.238833	563.789063	30.605881
19414.779787	16947.238833	562.548828	-112.945618
19414.779787	16947.238833	561.309570	-35.394104
19414.779787	16947.238833	560.068359	51.412815
19414.779787	16947.238833	558.828125	13.798683
19414.779787	16947.238833	557.586914	22.614004
19414.779787	16947.238833	556.345703	107.523338
19414.779787	16947.238833	555.104492	3.151304
19414.779787	16947.238833	553.863281	26.833445
19414.779787	16947.238833	552.621094	-92.293762
19414.779787	16947.238833	551.378906	-126.062950
19414.779787	16947.238833	550.136719	138.665070
19414.779787	16947.238833	548.893555	78.935921
19414.779787	16947.238833	547.650391	-84.526489
19414.779787	16947.238833	546.407227	-79.311584
19414.779787	16947.238833	545.164063	-59.268547
19414.779787	16947.238833	543.919922	-50.331322
19414.779787	16947.238833	542.675781	60.447475
19414.779787	16947.238833	541.431641	69.384567
19414.779787	16947.238833	540.186523	104.241272
19414.779787	16947.238833	538.941406	-21.875977
19414.779787	16947.238833	537.696289	186.907043
19414.779787	16947.238833	536.451172	53.459667
19414.779787	16947.238833	535.205078	140.127106
19414.779787	16947.238833	533.959961	-8.009224
19414.779787	16947.238833	532.712891	-22.992081
19414.779787	16947.238833	531.466797	93.251656
19414.779787	16947.238833	530.219727	83.830147
19414.779787	16947.238833	528.972656	81.816193
19414.779787	16947.238833	527.725586	-40.216125
19414.779787	16947.238833	526.478516	48.300407
19414.779787	16947.238833	525.230469	110.950027
19414.779787	16947.238833	523.982422	40.710526
19414.779787	16947.238833	522.734375	-118.049278
19414.779787	16947.238833	521.485352	-40.601730
19414.779787	16947.238833	520.236328	73.714363
19414.779787	16947.238833	518.987305	121.612373
19414.779787	16947.238833	517.737305	-73.845238
19414.779787	16947.238833	516.488281	95.738297
19414.779787	16947.238833	515.238281	90.199295
19414.779787	16947.238833	513.988281	239.431015
19414.779787	16947.238833	512.737305	64.423431
19414.779787	16947.238833	511.486328	151.003220
19414.779787	16947.238833	510.235352	217.301254
19414.779787	16947.238833	508.984375	224.673920
19414.779787	16947.238833	507.732422	221.006439
19414.779787	16947.238833	506.480469	313.025543
19414.779787	16947.238833	505.228516	335.103973
19414.779787	16947.238833	503.976563	265.216919
19414.779787	16947.238833	502.723633	263.395813
19414.779787	16947.238833	501.470703	324.079926
19414.779787	16947.238833	500.217773	364.519531
19414.779787	16947.238833	498.963867	342.456757
19414.779787	16947.238833	497.709961	426.957489
19414.779787	16947.238833	496.456055	388.347992
19414.779787	16947.238833	495.202148	270.778564
19414.779787	16947.238833	493.947266	498.421539
19414.779787	16947.238833	492.692383	571.759460
19414.779787	16947.238833	491.437500	628.533142
19414.779787	16947.238833	490.181641	488.934143
19414.779787	16947.238833	488.926758	576.847412
19414.779787	16947.238833	487.670898	794.914917
19414.779787	16947.238833	486.414063	607.623169
19414.779787	16947.238833	485.158203	765.037598
19414.779787	16947.238833	483.901367	935.180481
19414.779787	16947.238833	482.644531	793.694763
19414.779787	16947.238833	481.386719	813.451538
19414.779787	16947.238833	480.128906	780.039795
19414.779787	16947.238833	478.871094	872.954895
19414.779787	16947.238833	477.613281	885.221619
19414.779787	16947.238833	476.355469	987.123108
19414.779787	16947.238833	475.096680	818.066895
19414.779787	16947.238833	473.837891	960.072937
19414.779787	16947.238833	472.578125	939.140991
19414.779787	16947.238833	471.319336	866.940186
19414.779787	16947.238833	470.059570	962.918335
19414.779787	16947.238833	468.799805	1055.118408
19414.779787	16947.238833	467.539063	1017.423035
19414.779787	16947.238833	466.278320	1171.524414
19414.779787	16947.238833	465.017578	1161.039551
19414.779787	16947.238833	463.756836	997.028259
19414.779787	16947.238833	462.495117	1305.954346
19414.779787	16947.238833	461.233398	1185.579834
19414.779787	16947.238833	459.971680	1176.486816
19414.779787	16947.238833	458.709961	1127.123047
19414.779787	16947.238833	457.447266	1137.859497
19414.779787	16947.238833	456.184570	1163.046509
19414.779787	16947.238833	454.921875	1366.811279
19414.779787	16947.238833	453.658203	1211.122192
19414.779787	16947.238833	452.394531	1303.271973
19414.779787	16947.238833	451.130859	1358.762817
19414.779787	16947.238833	449.867188	1293.788574
19414.779787	16947.238833	448.602539	1321.570923
19414.779787	16947.238833	447.337891	1272.651367
19414.779787	16947.238833	446.073242	1465.751953
19414.779787	16947.238833	444.807617	1396.385376
19414.779787	16947.238833	443.542969	1330.476929
19414.779787	16947.238833	442.276367	1344.437378
19414.779787	16947.238833	441.010742	1234.438232
19414.779787	16947.238833	439.744141	1449.849609
19414.779787	16947.238833	438.478516	1428.491577
19414.779787	16947.238833	437.210938	1330.501221
19414.779787	16947.238833	435.944336	1384.984741
19414.779787	16947.238833	434.676758	1241.046875
19414.779787	16947.238833	433.409180	1387.609985
19414.779787	16947.238833	432.141602	1408.449951
19414.779787	16947.238833	430.873047	1358.117310
19414.779787	16947.238833	429.604492	1498.146362
19414.779787	16947.238833	428.335938	1557.887329
19414.779787	16947.238833	427.067383	1390.355347
19414.779787	16947.238833	425.797852	1641.722778
19414.779787	16947.238833	424.528320	1509.771606
19414.779787	16947.238833	423.258789	1713.061768
19414.779787	16947.238833	421.988281	1496.913330
19414.779787	16947.238833	420.717773	1686.583496
19414.779787	16947.238833	419.447266	1663.637451
19414.779787	16947.238833	418.175781	1509.746338
19414.779787	16947.238833	416.905273	1634.507446
19414.779787	16947.238833	415.633789	1557.632446
19414.779787	16947.238833	414.362305	1675.900146
19414.779787	16947.238833	413.089844	1540.074707
19414.779787	16947.238833	411.817383	1541.364746
19414.779787	16947.238833	410.544922	1502.281738
19414.779787	16947.238833	409.272461	1504.267578
19414.779787	16947.238833	407.999023	1532.790894
19414.779787	16947.238833	406.725586	1470.254883
19414.779787	16947.238833	405.452148	1334.781738
19414.779787	16947.238833	404.177734	1516.928223
19414.779787	16947.238833	402.903320	1839.329224
19414.779787	16947.238833	401.628906	1461.490112
19414.779787	16947.238833	400.354492	1462.556152
19414.779787	16947.238833	399.079102	1665.207275
19414.779787	16947.238833	397.803711	1664.738403
19414.779787	16947.238833	396.528320	1461.261963
19414.779787	16947.238833	395.251953	1553.134521
19414.779787	16947.238833	393.976563	1546.705200
19414.779787	16947.238833	392.700195	1607.993408
19414.779787	16947.238833	391.422852	1538.474121
19414.779787	16947.238833	390.145508	1536.640015
19414.779787	16947.238833	388.869141	1470.797729
19414.779787	16947.238833	387.590820	1369.746216
19414.779787	16947.238833	386.313477	1412.002441
19414.779787	16947.238833	385.035156	1577.575806
19414.779787	16947.238833	383.756836	1369.090088
19414.779787	16947.238833	382.478516	1300.157715
19414.779787	16947.238833	381.199219	1311.200928
19414.779787	16947.238833	379.919922	1477.787354
19414.779787	16947.238833	378.640625	1331.730957
19414.779787	16947.238833	377.360352	1526.514282
19414.779787	16947.238833	376.080078	1394.319580
19414.779787	16947.238833	374.799805	1451.655640
19414.779787	16947.238833	373.519531	1322.448364
19414.779787	16947.238833	372.238281	1319.651611
19414.779787	16947.238833	370.957031	1279.574829
19414.779787	16947.238833	369.675781	1070.991943
19414.779787	16947.238833	368.394531	1130.671021
19414.779787	16947.238833	367.112305	1052.312134
19414.779787	16947.238833	365.830078	1146.765259
19414.779787	16947.238833	364.546875	1061.841919
19414.779787	16947.238833	363.264648	1219.647705
19414.779787	16947.238833	361.981445	1140.607300
19414.779787	16947.238833	360.698242	1040.243042
19414.779787	16947.238833	359.414063	1002.821960
19414.779787	16947.238833	358.129883	848.907471
19414.779787	16947.238833	356.845703	1026.926758
19414.779787	16947.238833	355.561523	943.079407
19414.779787	16947.238833	354.276367	1022.334961
19414.779787	16947.238833	352.991211	1146.293335
19414.779787	16947.238833	351.706055	908.096191
19414.779787	16947.238833	350.420898	897.374817
19414.779787	16947.238833	349.134766	893.560486
19414.779787	16947.238833	347.848633	945.007324
19414.779787	16947.238833	346.561523	856.414246
19414.779787	16947.238833	345.275391	500.846619
19414.779787	16947.238833	343.988281	526.168701
19414.779787	16947.238833	342.700195	771.042847
19414.779787	16947.238833	341.413086	628.967346
19414.779787	16947.238833	340.125000	536.409119
19414.779787	16947.238833	338.836914	546.987183
19414.779787	16947.238833	337.548828	544.379944
19414.779787	16947.238833	336.259766	351.526001
19414.779787	16947.238833	334.970703	354.537201
19414.779787	16947.238833	333.681641	478.195587
19414.779787	16947.238833	332.391602	407.924164
19414.779787	16947.238833	331.101563	104.578758
19414.779787	16947.238833	329.811523	380.593750
19414.779787	16947.238833	328.521484	344.826355
19414.779787	16947.238833	327.230469	266.805298
19414.779787	16947.238833	325.939453	373.170898
19414.779787	16947.238833	324.648438	207.082886
19414.779787	16947.238833	323.356445	291.102997
19414.779787	16947.238833	322.064453	95.531143
19414.779787	16947.238833	320.772461	80.404778
19414.779787	16947.238833	319.480469	-48.535587
19414.779787	16947.238833	318.187500	166.552429
19414.779787	16947.238833	316.894531	-61.941174
19414.779787	16947.238833	315.601563	35.629875
19414.779787	16947.238833	314.307617	-48.628025
19414.779787	16947.238833	313.013672	-92.027786
19414.779787	16947.238833	311.719727	-85.770393
19414.779787	16947.238833	310.425781	-63.778702
19414.779787	16947.238833	309.130859	-141.904831
19414.779787	16947.238833	307.835938	-71.022934
19414.779787	16947.238833	306.541016	-2.469759
19414.779787	16947.238833	305.245117	-162.261703
19414.779787	16947.238833	303.949219	-38.261112
19414.779787	16947.238833	302.653320	72.467766
19414.779787	16947.238833	301.356445	70.206436
19414.779787	16947.238833	300.060547	228.789444
19414.779787	16947.238833	298.763672	329.285461
