#X		#Y		#Wave		#Intensity
19385.858511	16894.844500	2000.043945	227.697495
19385.858511	16894.844500	1999.080078	350.664001
19385.858511	16894.844500	1998.116211	122.058472
19385.858511	16894.844500	1997.151367	-656.911499
19385.858511	16894.844500	1996.186523	-306.059479
19385.858511	16894.844500	1995.222656	257.407562
19385.858511	16894.844500	1994.256836	-212.421127
19385.858511	16894.844500	1993.291992	444.364685
19385.858511	16894.844500	1992.327148	88.014442
19385.858511	16894.844500	1991.361328	-112.504875
19385.858511	16894.844500	1990.395508	-36.017418
19385.858511	16894.844500	1989.429688	280.222168
19385.858511	16894.844500	1988.463867	-12.505681
19385.858511	16894.844500	1987.497070	60.733345
19385.858511	16894.844500	1986.531250	66.938469
19385.858511	16894.844500	1985.564453	236.119522
19385.858511	16894.844500	1984.597656	259.164185
19385.858511	16894.844500	1983.630859	351.200012
19385.858511	16894.844500	1982.664063	-202.001053
19385.858511	16894.844500	1981.696289	62.645821
19385.858511	16894.844500	1980.728516	151.614716
19385.858511	16894.844500	1979.761719	-579.646973
19385.858511	16894.844500	1978.792969	-127.945633
19385.858511	16894.844500	1977.825195	-98.783371
19385.858511	16894.844500	1976.857422	127.681557
19385.858511	16894.844500	1975.888672	-198.940323
19385.858511	16894.844500	1974.919922	333.126373
19385.858511	16894.844500	1973.951172	391.152710
19385.858511	16894.844500	1972.982422	409.550354
19385.858511	16894.844500	1972.013672	203.367554
19385.858511	16894.844500	1971.043945	542.069092
19385.858511	16894.844500	1970.075195	328.279755
19385.858511	16894.844500	1969.105469	466.919800
19385.858511	16894.844500	1968.135742	694.108704
19385.858511	16894.844500	1967.165039	386.419769
19385.858511	16894.844500	1966.195313	1083.837891
19385.858511	16894.844500	1965.224609	455.781799
19385.858511	16894.844500	1964.253906	-66.249786
19385.858511	16894.844500	1963.283203	261.239746
19385.858511	16894.844500	1962.312500	381.739136
19385.858511	16894.844500	1961.341797	379.041748
19385.858511	16894.844500	1960.370117	393.485291
19385.858511	16894.844500	1959.399414	609.586487
19385.858511	16894.844500	1958.427734	53.149147
19385.858511	16894.844500	1957.455078	879.005066
19385.858511	16894.844500	1956.483398	150.460373
19385.858511	16894.844500	1955.511719	363.703674
19385.858511	16894.844500	1954.539063	628.423340
19385.858511	16894.844500	1953.566406	580.879639
19385.858511	16894.844500	1952.593750	390.791046
19385.858511	16894.844500	1951.621094	576.582886
19385.858511	16894.844500	1950.647461	101.552299
19385.858511	16894.844500	1949.674805	257.767365
19385.858511	16894.844500	1948.701172	215.006363
19385.858511	16894.844500	1947.727539	277.783356
19385.858511	16894.844500	1946.753906	53.343647
19385.858511	16894.844500	1945.780273	10.541791
19385.858511	16894.844500	1944.805664	441.232941
19385.858511	16894.844500	1943.831055	332.091156
19385.858511	16894.844500	1942.856445	-108.122932
19385.858511	16894.844500	1941.881836	307.569946
19385.858511	16894.844500	1940.907227	-9.936926
19385.858511	16894.844500	1939.932617	-236.652679
19385.858511	16894.844500	1938.957031	36.648411
19385.858511	16894.844500	1937.981445	153.018997
19385.858511	16894.844500	1937.005859	7.211482
19385.858511	16894.844500	1936.030273	-189.978867
19385.858511	16894.844500	1935.054688	-107.936531
19385.858511	16894.844500	1934.078125	813.880249
19385.858511	16894.844500	1933.101563	-144.667480
19385.858511	16894.844500	1932.125000	-197.288696
19385.858511	16894.844500	1931.148438	97.596748
19385.858511	16894.844500	1930.171875	152.611862
19385.858511	16894.844500	1929.194336	395.966125
19385.858511	16894.844500	1928.217773	465.597687
19385.858511	16894.844500	1927.240234	278.470398
19385.858511	16894.844500	1926.262695	86.534569
19385.858511	16894.844500	1925.284180	114.671364
19385.858511	16894.844500	1924.306641	18.177971
19385.858511	16894.844500	1923.328125	601.002502
19385.858511	16894.844500	1922.350586	47.668480
19385.858511	16894.844500	1921.372070	-60.911148
19385.858511	16894.844500	1920.392578	-198.731079
19385.858511	16894.844500	1919.414063	508.302246
19385.858511	16894.844500	1918.434570	104.398575
19385.858511	16894.844500	1917.456055	30.155195
19385.858511	16894.844500	1916.476563	-183.124390
19385.858511	16894.844500	1915.497070	345.388214
19385.858511	16894.844500	1914.516602	73.648071
19385.858511	16894.844500	1913.537109	50.794941
19385.858511	16894.844500	1912.556641	-57.355892
19385.858511	16894.844500	1911.576172	470.859589
19385.858511	16894.844500	1910.595703	31.239035
19385.858511	16894.844500	1909.615234	40.224644
19385.858511	16894.844500	1908.633789	56.552624
19385.858511	16894.844500	1907.653320	418.834686
19385.858511	16894.844500	1906.671875	213.515182
19385.858511	16894.844500	1905.690430	417.417755
19385.858511	16894.844500	1904.708984	185.464813
19385.858511	16894.844500	1903.727539	182.457611
19385.858511	16894.844500	1902.745117	-29.820789
19385.858511	16894.844500	1901.762695	-18.109556
19385.858511	16894.844500	1900.780273	-6.361460
19385.858511	16894.844500	1899.797852	-1.876970
19385.858511	16894.844500	1898.815430	143.699661
19385.858511	16894.844500	1897.832031	544.573364
19385.858511	16894.844500	1896.849609	296.237274
19385.858511	16894.844500	1895.866211	96.647903
19385.858511	16894.844500	1894.882813	-204.895432
19385.858511	16894.844500	1893.898438	171.609070
19385.858511	16894.844500	1892.915039	-207.490417
19385.858511	16894.844500	1891.930664	-107.932564
19385.858511	16894.844500	1890.947266	-154.072556
19385.858511	16894.844500	1889.962891	-389.527893
19385.858511	16894.844500	1888.977539	-93.243866
19385.858511	16894.844500	1887.993164	120.451340
19385.858511	16894.844500	1887.007813	113.291931
19385.858511	16894.844500	1886.023438	-332.952850
19385.858511	16894.844500	1885.038086	-70.697151
19385.858511	16894.844500	1884.051758	-254.734055
19385.858511	16894.844500	1883.066406	-96.779068
19385.858511	16894.844500	1882.081055	-16.420252
19385.858511	16894.844500	1881.094727	-280.237732
19385.858511	16894.844500	1880.108398	212.179977
19385.858511	16894.844500	1879.122070	40.566837
19385.858511	16894.844500	1878.135742	-341.698700
19385.858511	16894.844500	1877.148438	-408.919373
19385.858511	16894.844500	1876.162109	-570.522339
19385.858511	16894.844500	1875.174805	54.828747
19385.858511	16894.844500	1874.187500	203.119232
19385.858511	16894.844500	1873.199219	51.280766
19385.858511	16894.844500	1872.211914	175.385788
19385.858511	16894.844500	1871.223633	-116.639282
19385.858511	16894.844500	1870.236328	-350.472229
19385.858511	16894.844500	1869.248047	-165.799774
19385.858511	16894.844500	1868.258789	-283.407715
19385.858511	16894.844500	1867.270508	-108.427177
19385.858511	16894.844500	1866.282227	23.010977
19385.858511	16894.844500	1865.292969	-210.470078
19385.858511	16894.844500	1864.303711	-16.178572
19385.858511	16894.844500	1863.314453	165.986252
19385.858511	16894.844500	1862.324219	-325.731293
19385.858511	16894.844500	1861.334961	-116.958969
19385.858511	16894.844500	1860.344727	-48.269875
19385.858511	16894.844500	1859.354492	409.050964
19385.858511	16894.844500	1858.364258	38.428402
19385.858511	16894.844500	1857.374023	519.732666
19385.858511	16894.844500	1856.383789	105.849571
19385.858511	16894.844500	1855.392578	27.417974
19385.858511	16894.844500	1854.401367	74.437790
19385.858511	16894.844500	1853.410156	51.536964
19385.858511	16894.844500	1852.418945	264.905945
19385.858511	16894.844500	1851.426758	328.785156
19385.858511	16894.844500	1850.435547	127.577477
19385.858511	16894.844500	1849.443359	-104.860207
19385.858511	16894.844500	1848.451172	84.358543
19385.858511	16894.844500	1847.458984	18.224880
19385.858511	16894.844500	1846.466797	236.269012
19385.858511	16894.844500	1845.473633	-299.303741
19385.858511	16894.844500	1844.480469	-336.403931
19385.858511	16894.844500	1843.487305	-128.009201
19385.858511	16894.844500	1842.494141	61.066895
19385.858511	16894.844500	1841.500977	-60.258785
19385.858511	16894.844500	1840.506836	152.801117
19385.858511	16894.844500	1839.513672	214.281876
19385.858511	16894.844500	1838.519531	-272.443817
19385.858511	16894.844500	1837.525391	632.861755
19385.858511	16894.844500	1836.530273	-406.541321
19385.858511	16894.844500	1835.536133	335.050079
19385.858511	16894.844500	1834.541016	-2.370260
19385.858511	16894.844500	1833.545898	-385.306793
19385.858511	16894.844500	1832.550781	202.157288
19385.858511	16894.844500	1831.555664	373.989594
19385.858511	16894.844500	1830.560547	176.040558
19385.858511	16894.844500	1829.564453	110.179497
19385.858511	16894.844500	1828.568359	217.120682
19385.858511	16894.844500	1827.572266	76.878593
19385.858511	16894.844500	1826.576172	171.772369
19385.858511	16894.844500	1825.580078	314.589935
19385.858511	16894.844500	1824.583008	-226.088531
19385.858511	16894.844500	1823.585938	285.947418
19385.858511	16894.844500	1822.588867	126.587204
19385.858511	16894.844500	1821.591797	317.181244
19385.858511	16894.844500	1820.594727	550.818237
19385.858511	16894.844500	1819.596680	147.086090
19385.858511	16894.844500	1818.599609	440.508575
19385.858511	16894.844500	1817.601563	410.504883
19385.858511	16894.844500	1816.603516	232.035553
19385.858511	16894.844500	1815.604492	352.852539
19385.858511	16894.844500	1814.606445	200.741409
19385.858511	16894.844500	1813.607422	247.289246
19385.858511	16894.844500	1812.608398	516.300415
19385.858511	16894.844500	1811.609375	328.285400
19385.858511	16894.844500	1810.610352	176.188492
19385.858511	16894.844500	1809.610352	201.073959
19385.858511	16894.844500	1808.611328	527.149597
19385.858511	16894.844500	1807.611328	269.834198
19385.858511	16894.844500	1806.611328	-35.212219
19385.858511	16894.844500	1805.610352	261.957367
19385.858511	16894.844500	1804.610352	432.359619
19385.858511	16894.844500	1803.609375	585.944336
19385.858511	16894.844500	1802.608398	672.567017
19385.858511	16894.844500	1801.607422	563.332031
19385.858511	16894.844500	1800.606445	308.480469
19385.858511	16894.844500	1799.605469	457.042542
19385.858511	16894.844500	1798.603516	469.488495
19385.858511	16894.844500	1797.601563	-21.521292
19385.858511	16894.844500	1796.599609	207.988678
19385.858511	16894.844500	1795.597656	363.435333
19385.858511	16894.844500	1794.595703	-48.721375
19385.858511	16894.844500	1793.592773	-253.362961
19385.858511	16894.844500	1792.589844	421.554016
19385.858511	16894.844500	1791.587891	500.389618
19385.858511	16894.844500	1790.583984	490.989410
19385.858511	16894.844500	1789.581055	574.443359
19385.858511	16894.844500	1788.577148	462.512634
19385.858511	16894.844500	1787.574219	529.168640
19385.858511	16894.844500	1786.570313	560.027771
19385.858511	16894.844500	1785.566406	114.747284
19385.858511	16894.844500	1784.561523	431.156189
19385.858511	16894.844500	1783.557617	592.722412
19385.858511	16894.844500	1782.552734	149.894150
19385.858511	16894.844500	1781.547852	537.297485
19385.858511	16894.844500	1780.542969	413.197174
19385.858511	16894.844500	1779.538086	541.115784
19385.858511	16894.844500	1778.532227	167.327515
19385.858511	16894.844500	1777.527344	69.324425
19385.858511	16894.844500	1776.521484	-111.875618
19385.858511	16894.844500	1775.515625	581.252380
19385.858511	16894.844500	1774.508789	207.482361
19385.858511	16894.844500	1773.502930	482.158539
19385.858511	16894.844500	1772.496094	459.845184
19385.858511	16894.844500	1771.489258	807.829346
19385.858511	16894.844500	1770.482422	607.305542
19385.858511	16894.844500	1769.475586	442.382507
19385.858511	16894.844500	1768.467773	460.154175
19385.858511	16894.844500	1767.460938	496.824951
19385.858511	16894.844500	1766.453125	182.384277
19385.858511	16894.844500	1765.445313	242.662567
19385.858511	16894.844500	1764.437500	376.342773
19385.858511	16894.844500	1763.428711	211.221756
19385.858511	16894.844500	1762.420898	508.239044
19385.858511	16894.844500	1761.412109	442.524078
19385.858511	16894.844500	1760.403320	490.478027
19385.858511	16894.844500	1759.393555	121.452209
19385.858511	16894.844500	1758.384766	576.625061
19385.858511	16894.844500	1757.375000	262.027863
19385.858511	16894.844500	1756.366211	167.628448
19385.858511	16894.844500	1755.356445	274.367981
19385.858511	16894.844500	1754.345703	411.753601
19385.858511	16894.844500	1753.335938	-333.496399
19385.858511	16894.844500	1752.325195	437.746277
19385.858511	16894.844500	1751.315430	307.528412
19385.858511	16894.844500	1750.304688	28.306143
19385.858511	16894.844500	1749.292969	113.188225
19385.858511	16894.844500	1748.282227	278.323517
19385.858511	16894.844500	1747.270508	-119.140846
19385.858511	16894.844500	1746.259766	-112.500977
19385.858511	16894.844500	1745.248047	68.866547
19385.858511	16894.844500	1744.235352	127.261978
19385.858511	16894.844500	1743.223633	414.616272
19385.858511	16894.844500	1742.211914	-41.942642
19385.858511	16894.844500	1741.199219	2.021400
19385.858511	16894.844500	1740.186523	296.055939
19385.858511	16894.844500	1739.173828	49.531902
19385.858511	16894.844500	1738.160156	121.506348
19385.858511	16894.844500	1737.147461	-139.213684
19385.858511	16894.844500	1736.133789	201.443207
19385.858511	16894.844500	1735.120117	159.915680
19385.858511	16894.844500	1734.106445	-107.995628
19385.858511	16894.844500	1733.091797	185.059082
19385.858511	16894.844500	1732.078125	-108.850578
19385.858511	16894.844500	1731.063477	0.146873
19385.858511	16894.844500	1730.048828	-135.966446
19385.858511	16894.844500	1729.034180	-213.237457
19385.858511	16894.844500	1728.019531	255.724487
19385.858511	16894.844500	1727.003906	267.694550
19385.858511	16894.844500	1725.988281	-290.047882
19385.858511	16894.844500	1724.972656	-96.948059
19385.858511	16894.844500	1723.957031	-327.529358
19385.858511	16894.844500	1722.941406	-518.119812
19385.858511	16894.844500	1721.924805	-235.975815
19385.858511	16894.844500	1720.909180	-290.295288
19385.858511	16894.844500	1719.892578	167.858109
19385.858511	16894.844500	1718.875977	-373.282440
19385.858511	16894.844500	1717.858398	-366.704010
19385.858511	16894.844500	1716.841797	152.028976
19385.858511	16894.844500	1715.824219	-10.819593
19385.858511	16894.844500	1714.806641	-161.953613
19385.858511	16894.844500	1713.789063	-472.802490
19385.858511	16894.844500	1712.770508	-135.591949
19385.858511	16894.844500	1711.752930	-181.233124
19385.858511	16894.844500	1710.734375	61.740288
19385.858511	16894.844500	1709.715820	88.648308
19385.858511	16894.844500	1708.697266	556.538147
19385.858511	16894.844500	1707.678711	-268.320251
19385.858511	16894.844500	1706.659180	450.225952
19385.858511	16894.844500	1705.640625	-278.323181
19385.858511	16894.844500	1704.621094	1.384514
19385.858511	16894.844500	1703.600586	-417.580414
19385.858511	16894.844500	1702.581055	-128.744751
19385.858511	16894.844500	1701.561523	-343.846313
19385.858511	16894.844500	1700.541016	-205.228683
19385.858511	16894.844500	1699.520508	193.229935
19385.858511	16894.844500	1698.500000	106.729271
19385.858511	16894.844500	1697.478516	-101.566566
19385.858511	16894.844500	1696.458008	-0.874798
19385.858511	16894.844500	1695.436523	256.491547
19385.858511	16894.844500	1694.415039	-52.564049
19385.858511	16894.844500	1693.393555	-258.646454
19385.858511	16894.844500	1692.372070	-71.786247
19385.858511	16894.844500	1691.349609	-79.171242
19385.858511	16894.844500	1690.327148	-135.733551
19385.858511	16894.844500	1689.304688	139.590027
19385.858511	16894.844500	1688.282227	5.729898
19385.858511	16894.844500	1687.259766	117.202400
19385.858511	16894.844500	1686.236328	163.135895
19385.858511	16894.844500	1685.213867	134.236786
19385.858511	16894.844500	1684.190430	51.557896
19385.858511	16894.844500	1683.166016	293.384979
19385.858511	16894.844500	1682.142578	231.573318
19385.858511	16894.844500	1681.119141	531.489502
19385.858511	16894.844500	1680.094727	317.828003
19385.858511	16894.844500	1679.070313	794.778748
19385.858511	16894.844500	1678.045898	1103.530151
19385.858511	16894.844500	1677.020508	439.553802
19385.858511	16894.844500	1675.996094	589.557495
19385.858511	16894.844500	1674.970703	765.077393
19385.858511	16894.844500	1673.945313	642.116272
19385.858511	16894.844500	1672.919922	283.765015
19385.858511	16894.844500	1671.893555	391.475555
19385.858511	16894.844500	1670.868164	778.631897
19385.858511	16894.844500	1669.841797	653.176208
19385.858511	16894.844500	1668.815430	397.302917
19385.858511	16894.844500	1667.789063	602.450623
19385.858511	16894.844500	1666.761719	947.117920
19385.858511	16894.844500	1665.735352	497.998138
19385.858511	16894.844500	1664.708008	905.263367
19385.858511	16894.844500	1663.680664	512.041992
19385.858511	16894.844500	1662.653320	1028.354614
19385.858511	16894.844500	1661.625000	1056.059326
19385.858511	16894.844500	1660.597656	832.607544
19385.858511	16894.844500	1659.569336	1360.018677
19385.858511	16894.844500	1658.541016	883.159790
19385.858511	16894.844500	1657.512695	1101.211670
19385.858511	16894.844500	1656.483398	1000.844666
19385.858511	16894.844500	1655.455078	1318.573364
19385.858511	16894.844500	1654.425781	1682.576782
19385.858511	16894.844500	1653.396484	1438.062256
19385.858511	16894.844500	1652.366211	1581.274048
19385.858511	16894.844500	1651.336914	1538.715454
19385.858511	16894.844500	1650.306641	1633.037964
19385.858511	16894.844500	1649.276367	1757.445190
19385.858511	16894.844500	1648.246094	2190.278076
19385.858511	16894.844500	1647.215820	1753.213867
19385.858511	16894.844500	1646.185547	2118.566162
19385.858511	16894.844500	1645.154297	1753.478027
19385.858511	16894.844500	1644.123047	2183.512207
19385.858511	16894.844500	1643.091797	2166.095703
19385.858511	16894.844500	1642.060547	1933.183472
19385.858511	16894.844500	1641.028320	2321.140381
19385.858511	16894.844500	1639.997070	2449.532959
19385.858511	16894.844500	1638.964844	2383.329102
19385.858511	16894.844500	1637.931641	2224.518066
19385.858511	16894.844500	1636.899414	2248.611816
19385.858511	16894.844500	1635.867188	2457.815430
19385.858511	16894.844500	1634.833984	2213.404541
19385.858511	16894.844500	1633.800781	1976.012817
19385.858511	16894.844500	1632.767578	2143.450195
19385.858511	16894.844500	1631.734375	2421.804199
19385.858511	16894.844500	1630.700195	2517.381348
19385.858511	16894.844500	1629.666016	1979.541992
19385.858511	16894.844500	1628.631836	2229.986816
19385.858511	16894.844500	1627.597656	2919.350342
19385.858511	16894.844500	1626.563477	2319.340820
19385.858511	16894.844500	1625.528320	2581.093262
19385.858511	16894.844500	1624.493164	2306.975830
19385.858511	16894.844500	1623.458008	2561.689453
19385.858511	16894.844500	1622.422852	2913.254639
19385.858511	16894.844500	1621.387695	2632.302490
19385.858511	16894.844500	1620.351563	2584.510498
19385.858511	16894.844500	1619.315430	2490.598389
19385.858511	16894.844500	1618.279297	2668.907959
19385.858511	16894.844500	1617.243164	2579.635742
19385.858511	16894.844500	1616.207031	2596.470947
19385.858511	16894.844500	1615.169922	2239.849121
19385.858511	16894.844500	1614.132813	2535.635010
19385.858511	16894.844500	1613.095703	2640.060303
19385.858511	16894.844500	1612.058594	2707.591797
19385.858511	16894.844500	1611.020508	2671.449951
19385.858511	16894.844500	1609.983398	2858.737061
19385.858511	16894.844500	1608.945313	3025.241211
19385.858511	16894.844500	1607.907227	2666.814941
19385.858511	16894.844500	1606.868164	2665.304199
19385.858511	16894.844500	1605.830078	3466.951660
19385.858511	16894.844500	1604.791016	3101.806885
19385.858511	16894.844500	1603.751953	2955.367188
19385.858511	16894.844500	1602.712891	3266.684814
19385.858511	16894.844500	1601.673828	3614.702881
19385.858511	16894.844500	1600.633789	3378.670166
19385.858511	16894.844500	1599.594727	3227.812988
19385.858511	16894.844500	1598.554688	3267.783203
19385.858511	16894.844500	1597.513672	2956.231201
19385.858511	16894.844500	1596.473633	3308.730957
19385.858511	16894.844500	1595.433594	3011.155762
19385.858511	16894.844500	1594.392578	3485.286133
19385.858511	16894.844500	1593.351563	3410.567871
19385.858511	16894.844500	1592.310547	3391.014404
19385.858511	16894.844500	1591.268555	3268.238037
19385.858511	16894.844500	1590.227539	3542.507324
19385.858511	16894.844500	1589.185547	3373.963379
19385.858511	16894.844500	1588.143555	3905.087158
19385.858511	16894.844500	1587.100586	3883.401367
19385.858511	16894.844500	1586.058594	3655.439697
19385.858511	16894.844500	1585.015625	3542.230469
19385.858511	16894.844500	1583.972656	3974.574463
19385.858511	16894.844500	1582.929688	4102.059570
19385.858511	16894.844500	1581.886719	3627.046387
19385.858511	16894.844500	1580.843750	3024.021484
19385.858511	16894.844500	1579.799805	3277.753906
19385.858511	16894.844500	1578.755859	2913.270752
19385.858511	16894.844500	1577.711914	2938.147705
19385.858511	16894.844500	1576.666992	2928.752441
19385.858511	16894.844500	1575.623047	3118.515625
19385.858511	16894.844500	1574.578125	3305.982178
19385.858511	16894.844500	1573.533203	2866.726074
19385.858511	16894.844500	1572.488281	2697.569336
19385.858511	16894.844500	1571.443359	2910.392578
19385.858511	16894.844500	1570.397461	2830.605957
19385.858511	16894.844500	1569.351563	2620.654297
19385.858511	16894.844500	1568.305664	2689.648438
19385.858511	16894.844500	1567.259766	1997.922119
19385.858511	16894.844500	1566.213867	2425.805176
19385.858511	16894.844500	1565.166992	2234.708496
19385.858511	16894.844500	1564.120117	2310.927490
19385.858511	16894.844500	1563.073242	2231.975830
19385.858511	16894.844500	1562.026367	1972.839478
19385.858511	16894.844500	1560.978516	2357.406250
19385.858511	16894.844500	1559.930664	2584.494629
19385.858511	16894.844500	1558.883789	2394.169189
19385.858511	16894.844500	1557.834961	1985.071289
19385.858511	16894.844500	1556.787109	2043.671997
19385.858511	16894.844500	1555.739258	2061.320313
19385.858511	16894.844500	1554.690430	2047.158936
19385.858511	16894.844500	1553.641602	2338.466553
19385.858511	16894.844500	1552.592773	2044.232788
19385.858511	16894.844500	1551.542969	2331.089111
19385.858511	16894.844500	1550.494141	2091.855957
19385.858511	16894.844500	1549.444336	2053.204346
19385.858511	16894.844500	1548.394531	1689.139282
19385.858511	16894.844500	1547.344727	1983.130737
19385.858511	16894.844500	1546.293945	2222.505859
19385.858511	16894.844500	1545.244141	1858.978638
19385.858511	16894.844500	1544.193359	1770.963257
19385.858511	16894.844500	1543.142578	1699.026489
19385.858511	16894.844500	1542.090820	1834.163696
19385.858511	16894.844500	1541.040039	2235.369141
19385.858511	16894.844500	1539.988281	1750.081543
19385.858511	16894.844500	1538.936523	2044.593506
19385.858511	16894.844500	1537.884766	2077.832275
19385.858511	16894.844500	1536.833008	1824.967529
19385.858511	16894.844500	1535.780273	2101.522461
19385.858511	16894.844500	1534.727539	1774.089966
19385.858511	16894.844500	1533.674805	1490.058350
19385.858511	16894.844500	1532.622070	1857.725952
19385.858511	16894.844500	1531.569336	1503.719238
19385.858511	16894.844500	1530.515625	1288.401855
19385.858511	16894.844500	1529.461914	1041.557617
19385.858511	16894.844500	1528.408203	965.059021
19385.858511	16894.844500	1527.354492	995.313660
19385.858511	16894.844500	1526.299805	1336.307007
19385.858511	16894.844500	1525.246094	686.763855
19385.858511	16894.844500	1524.191406	855.751404
19385.858511	16894.844500	1523.136719	934.193115
19385.858511	16894.844500	1522.081055	802.078918
19385.858511	16894.844500	1521.026367	785.687073
19385.858511	16894.844500	1519.970703	678.875000
19385.858511	16894.844500	1518.915039	567.741333
19385.858511	16894.844500	1517.859375	794.084290
19385.858511	16894.844500	1516.802734	705.925598
19385.858511	16894.844500	1515.747070	701.682617
19385.858511	16894.844500	1514.690430	514.366577
19385.858511	16894.844500	1513.633789	567.040161
19385.858511	16894.844500	1512.577148	807.548340
19385.858511	16894.844500	1511.519531	846.913574
19385.858511	16894.844500	1510.461914	590.319275
19385.858511	16894.844500	1509.405273	89.916672
19385.858511	16894.844500	1508.346680	595.381409
19385.858511	16894.844500	1507.289063	452.462006
19385.858511	16894.844500	1506.231445	363.978180
19385.858511	16894.844500	1505.172852	-189.476318
19385.858511	16894.844500	1504.114258	499.226044
19385.858511	16894.844500	1503.055664	300.715271
19385.858511	16894.844500	1501.996094	551.581604
19385.858511	16894.844500	1500.937500	687.444702
19385.858511	16894.844500	1499.877930	-2.234463
19385.858511	16894.844500	1498.818359	43.834728
19385.858511	16894.844500	1497.757813	290.778412
19385.858511	16894.844500	1496.698242	393.511597
19385.858511	16894.844500	1495.637695	160.520020
19385.858511	16894.844500	1494.577148	207.273300
19385.858511	16894.844500	1493.516602	260.955994
19385.858511	16894.844500	1492.456055	436.463501
19385.858511	16894.844500	1491.394531	447.669067
19385.858511	16894.844500	1490.333008	263.150848
19385.858511	16894.844500	1489.271484	403.108978
19385.858511	16894.844500	1488.209961	799.821655
19385.858511	16894.844500	1487.148438	615.922607
19385.858511	16894.844500	1486.085938	283.793549
19385.858511	16894.844500	1485.023438	397.429749
19385.858511	16894.844500	1483.960938	553.953064
19385.858511	16894.844500	1482.898438	593.680725
19385.858511	16894.844500	1481.834961	970.842896
19385.858511	16894.844500	1480.772461	678.192627
19385.858511	16894.844500	1479.708984	421.830322
19385.858511	16894.844500	1478.644531	345.522736
19385.858511	16894.844500	1477.581055	561.506348
19385.858511	16894.844500	1476.517578	856.120972
19385.858511	16894.844500	1475.453125	140.519516
19385.858511	16894.844500	1474.388672	-114.394577
19385.858511	16894.844500	1473.323242	225.719543
19385.858511	16894.844500	1472.258789	758.943970
19385.858511	16894.844500	1471.193359	29.323187
19385.858511	16894.844500	1470.127930	42.673840
19385.858511	16894.844500	1469.062500	-163.694931
19385.858511	16894.844500	1467.997070	-163.778656
19385.858511	16894.844500	1466.930664	446.354431
19385.858511	16894.844500	1465.865234	225.225357
19385.858511	16894.844500	1464.798828	243.962921
19385.858511	16894.844500	1463.731445	177.853348
19385.858511	16894.844500	1462.665039	529.631287
19385.858511	16894.844500	1461.597656	567.512634
19385.858511	16894.844500	1460.530273	127.679199
19385.858511	16894.844500	1459.462891	440.904877
19385.858511	16894.844500	1458.395508	483.486938
19385.858511	16894.844500	1457.327148	523.639954
19385.858511	16894.844500	1456.259766	858.373535
19385.858511	16894.844500	1455.191406	781.534607
19385.858511	16894.844500	1454.123047	860.467896
19385.858511	16894.844500	1453.053711	634.802734
19385.858511	16894.844500	1451.985352	709.988525
19385.858511	16894.844500	1450.916016	677.104126
19385.858511	16894.844500	1449.846680	652.298096
19385.858511	16894.844500	1448.776367	358.403687
19385.858511	16894.844500	1447.707031	518.556030
19385.858511	16894.844500	1446.636719	995.425415
19385.858511	16894.844500	1445.566406	658.038391
19385.858511	16894.844500	1444.496094	260.395081
19385.858511	16894.844500	1443.425781	494.890198
19385.858511	16894.844500	1442.354492	833.318970
19385.858511	16894.844500	1441.283203	423.789124
19385.858511	16894.844500	1440.211914	392.191315
19385.858511	16894.844500	1439.140625	209.900574
19385.858511	16894.844500	1438.069336	504.288055
19385.858511	16894.844500	1436.997070	158.743744
19385.858511	16894.844500	1435.924805	710.764771
19385.858511	16894.844500	1434.852539	91.710503
19385.858511	16894.844500	1433.780273	164.233246
19385.858511	16894.844500	1432.707031	-158.612244
19385.858511	16894.844500	1431.633789	154.842194
19385.858511	16894.844500	1430.560547	-83.610550
19385.858511	16894.844500	1429.487305	-489.806549
19385.858511	16894.844500	1428.413086	-329.784058
19385.858511	16894.844500	1427.339844	-72.681625
19385.858511	16894.844500	1426.265625	298.233124
19385.858511	16894.844500	1425.191406	-469.697205
19385.858511	16894.844500	1424.116211	-344.115601
19385.858511	16894.844500	1423.041992	-588.420105
19385.858511	16894.844500	1421.966797	-524.642395
19385.858511	16894.844500	1420.891602	-551.253296
19385.858511	16894.844500	1419.816406	-263.346863
19385.858511	16894.844500	1418.740234	-588.779968
19385.858511	16894.844500	1417.665039	-506.909790
19385.858511	16894.844500	1416.588867	-179.106018
19385.858511	16894.844500	1415.512695	71.909515
19385.858511	16894.844500	1414.435547	-257.961609
19385.858511	16894.844500	1413.359375	-110.316483
19385.858511	16894.844500	1412.282227	-110.640465
19385.858511	16894.844500	1411.205078	-434.636749
19385.858511	16894.844500	1410.127930	-188.020599
19385.858511	16894.844500	1409.049805	-117.225502
19385.858511	16894.844500	1407.972656	-99.811554
19385.858511	16894.844500	1406.894531	156.159653
19385.858511	16894.844500	1405.816406	338.483856
19385.858511	16894.844500	1404.737305	219.728302
19385.858511	16894.844500	1403.659180	43.624214
19385.858511	16894.844500	1402.580078	286.423981
19385.858511	16894.844500	1401.500977	84.262360
19385.858511	16894.844500	1400.421875	205.130890
19385.858511	16894.844500	1399.341797	507.199280
19385.858511	16894.844500	1398.262695	130.809982
19385.858511	16894.844500	1397.182617	9.643027
19385.858511	16894.844500	1396.102539	-0.101501
19385.858511	16894.844500	1395.021484	-30.897757
19385.858511	16894.844500	1393.941406	-342.736908
19385.858511	16894.844500	1392.860352	-357.933533
19385.858511	16894.844500	1391.779297	140.746719
19385.858511	16894.844500	1390.698242	-324.669586
19385.858511	16894.844500	1389.616211	-188.733841
19385.858511	16894.844500	1388.535156	-102.419647
19385.858511	16894.844500	1387.453125	119.819527
19385.858511	16894.844500	1386.371094	24.072523
19385.858511	16894.844500	1385.288086	-109.859840
19385.858511	16894.844500	1384.206055	195.559006
19385.858511	16894.844500	1383.123047	377.853577
19385.858511	16894.844500	1382.040039	255.147064
19385.858511	16894.844500	1380.957031	126.903374
19385.858511	16894.844500	1379.873047	-180.603195
19385.858511	16894.844500	1378.789063	217.679626
19385.858511	16894.844500	1377.705078	222.364151
19385.858511	16894.844500	1376.621094	289.863434
19385.858511	16894.844500	1375.537109	1.070967
19385.858511	16894.844500	1374.452148	481.754089
19385.858511	16894.844500	1373.367188	343.385925
19385.858511	16894.844500	1372.282227	275.227173
19385.858511	16894.844500	1371.197266	248.362671
19385.858511	16894.844500	1370.112305	623.349915
19385.858511	16894.844500	1369.026367	632.042969
19385.858511	16894.844500	1367.940430	195.468628
19385.858511	16894.844500	1366.854492	883.348511
19385.858511	16894.844500	1365.767578	466.962830
19385.858511	16894.844500	1364.681641	633.915771
19385.858511	16894.844500	1363.594727	483.358917
19385.858511	16894.844500	1362.507813	527.107361
19385.858511	16894.844500	1361.419922	581.848206
19385.858511	16894.844500	1360.333008	627.012268
19385.858511	16894.844500	1359.245117	592.334595
19385.858511	16894.844500	1358.157227	851.699768
19385.858511	16894.844500	1357.069336	513.563538
19385.858511	16894.844500	1355.981445	473.600403
19385.858511	16894.844500	1354.892578	899.033508
19385.858511	16894.844500	1353.803711	822.946045
19385.858511	16894.844500	1352.714844	770.188171
19385.858511	16894.844500	1351.625000	781.377991
19385.858511	16894.844500	1350.536133	955.607544
19385.858511	16894.844500	1349.446289	1144.204224
19385.858511	16894.844500	1348.356445	1050.469238
19385.858511	16894.844500	1347.266602	970.244751
19385.858511	16894.844500	1346.175781	1099.719971
19385.858511	16894.844500	1345.085938	1082.403320
19385.858511	16894.844500	1343.995117	1170.830566
19385.858511	16894.844500	1342.903320	1575.430542
19385.858511	16894.844500	1341.812500	1609.101196
19385.858511	16894.844500	1340.720703	1361.945801
19385.858511	16894.844500	1339.629883	1467.686157
19385.858511	16894.844500	1338.538086	1605.671875
19385.858511	16894.844500	1337.445313	1697.866821
19385.858511	16894.844500	1336.353516	1692.999756
19385.858511	16894.844500	1335.260742	2040.128052
19385.858511	16894.844500	1334.167969	1865.351807
19385.858511	16894.844500	1333.075195	2108.126221
19385.858511	16894.844500	1331.981445	2255.462646
19385.858511	16894.844500	1330.888672	2173.455078
19385.858511	16894.844500	1329.794922	2175.592773
19385.858511	16894.844500	1328.701172	2150.458496
19385.858511	16894.844500	1327.606445	2183.021240
19385.858511	16894.844500	1326.512695	1954.159546
19385.858511	16894.844500	1325.417969	2072.827637
19385.858511	16894.844500	1324.323242	1885.776367
19385.858511	16894.844500	1323.227539	1739.619385
19385.858511	16894.844500	1322.132813	1855.687256
19385.858511	16894.844500	1321.037109	1730.892456
19385.858511	16894.844500	1319.941406	1975.485352
19385.858511	16894.844500	1318.845703	2016.784424
19385.858511	16894.844500	1317.750000	1875.600586
19385.858511	16894.844500	1316.653320	1455.215942
19385.858511	16894.844500	1315.556641	2241.966309
19385.858511	16894.844500	1314.459961	1825.104004
19385.858511	16894.844500	1313.363281	1650.537231
19385.858511	16894.844500	1312.265625	1646.650269
19385.858511	16894.844500	1311.167969	1518.602417
19385.858511	16894.844500	1310.070313	1440.720337
19385.858511	16894.844500	1308.972656	1435.564697
19385.858511	16894.844500	1307.874023	1144.387085
19385.858511	16894.844500	1306.776367	1255.542358
19385.858511	16894.844500	1305.677734	1245.246582
19385.858511	16894.844500	1304.579102	1162.354004
19385.858511	16894.844500	1303.479492	1078.253296
19385.858511	16894.844500	1302.380859	1109.247681
19385.858511	16894.844500	1301.281250	1431.635986
19385.858511	16894.844500	1300.181641	944.127563
19385.858511	16894.844500	1299.081055	872.252014
19385.858511	16894.844500	1297.981445	808.089233
19385.858511	16894.844500	1296.880859	1290.356689
19385.858511	16894.844500	1295.780273	869.278870
19385.858511	16894.844500	1294.679688	922.643066
19385.858511	16894.844500	1293.578125	709.975403
19385.858511	16894.844500	1292.476563	509.379059
19385.858511	16894.844500	1291.375000	542.945984
19385.858511	16894.844500	1290.273438	620.947693
19385.858511	16894.844500	1289.171875	579.343323
19385.858511	16894.844500	1288.069336	337.710144
19385.858511	16894.844500	1286.966797	330.916595
19385.858511	16894.844500	1285.864258	266.917847
19385.858511	16894.844500	1284.761719	466.348724
19385.858511	16894.844500	1283.658203	278.220367
19385.858511	16894.844500	1282.554688	250.154800
19385.858511	16894.844500	1281.451172	224.665787
19385.858511	16894.844500	1280.347656	261.247559
19385.858511	16894.844500	1279.244141	603.609192
19385.858511	16894.844500	1278.139648	499.930054
19385.858511	16894.844500	1277.035156	526.952942
19385.858511	16894.844500	1275.930664	387.843933
19385.858511	16894.844500	1274.825195	285.020874
19385.858511	16894.844500	1273.720703	367.357452
19385.858511	16894.844500	1272.615234	-123.207298
19385.858511	16894.844500	1271.508789	439.496826
19385.858511	16894.844500	1270.403320	353.929108
19385.858511	16894.844500	1269.297852	199.718399
19385.858511	16894.844500	1268.191406	73.075752
19385.858511	16894.844500	1267.084961	-51.115871
19385.858511	16894.844500	1265.977539	224.233551
19385.858511	16894.844500	1264.871094	231.274338
19385.858511	16894.844500	1263.763672	0.813449
19385.858511	16894.844500	1262.656250	-44.879597
19385.858511	16894.844500	1261.548828	103.611305
19385.858511	16894.844500	1260.440430	36.704483
19385.858511	16894.844500	1259.333008	223.846802
19385.858511	16894.844500	1258.224609	16.142412
19385.858511	16894.844500	1257.115234	130.316116
19385.858511	16894.844500	1256.006836	-160.033051
19385.858511	16894.844500	1254.897461	91.402382
19385.858511	16894.844500	1253.788086	262.489349
19385.858511	16894.844500	1252.678711	383.136169
19385.858511	16894.844500	1251.569336	494.184723
19385.858511	16894.844500	1250.458984	399.217682
19385.858511	16894.844500	1249.349609	220.904129
19385.858511	16894.844500	1248.239258	415.997070
19385.858511	16894.844500	1247.127930	302.553345
19385.858511	16894.844500	1246.017578	267.449066
19385.858511	16894.844500	1244.906250	305.659912
19385.858511	16894.844500	1243.794922	460.240295
19385.858511	16894.844500	1242.683594	299.020386
19385.858511	16894.844500	1241.571289	326.723541
19385.858511	16894.844500	1240.459961	-15.231213
19385.858511	16894.844500	1239.347656	257.003021
19385.858511	16894.844500	1238.234375	396.733063
19385.858511	16894.844500	1237.122070	428.210022
19385.858511	16894.844500	1236.008789	41.120598
19385.858511	16894.844500	1234.896484	-14.643395
19385.858511	16894.844500	1233.782227	16.872786
19385.858511	16894.844500	1232.668945	346.597595
19385.858511	16894.844500	1231.555664	112.875458
19385.858511	16894.844500	1230.441406	-89.082024
19385.858511	16894.844500	1229.327148	129.072556
19385.858511	16894.844500	1228.211914	105.382797
19385.858511	16894.844500	1227.097656	-223.642120
19385.858511	16894.844500	1225.982422	119.274231
19385.858511	16894.844500	1224.867188	188.389496
19385.858511	16894.844500	1223.751953	103.780121
19385.858511	16894.844500	1222.635742	-374.486938
19385.858511	16894.844500	1221.520508	-369.312408
19385.858511	16894.844500	1220.404297	32.986221
19385.858511	16894.844500	1219.287109	-134.256882
19385.858511	16894.844500	1218.170898	-70.293816
19385.858511	16894.844500	1217.053711	-118.524254
19385.858511	16894.844500	1215.936523	37.844864
19385.858511	16894.844500	1214.819336	186.116608
19385.858511	16894.844500	1213.702148	-45.706718
19385.858511	16894.844500	1212.583984	-297.128662
19385.858511	16894.844500	1211.465820	-95.184135
19385.858511	16894.844500	1210.347656	259.390930
19385.858511	16894.844500	1209.229492	-119.100334
19385.858511	16894.844500	1208.110352	-28.923338
19385.858511	16894.844500	1206.992188	67.639389
19385.858511	16894.844500	1205.873047	115.898445
19385.858511	16894.844500	1204.752930	189.934204
19385.858511	16894.844500	1203.633789	200.780853
19385.858511	16894.844500	1202.513672	105.631546
19385.858511	16894.844500	1201.393555	406.717499
19385.858511	16894.844500	1200.273438	368.845825
19385.858511	16894.844500	1199.152344	245.641495
19385.858511	16894.844500	1198.032227	223.897003
19385.858511	16894.844500	1196.911133	253.453537
19385.858511	16894.844500	1195.790039	-49.969112
19385.858511	16894.844500	1194.667969	379.359314
19385.858511	16894.844500	1193.545898	199.338409
19385.858511	16894.844500	1192.424805	281.293884
19385.858511	16894.844500	1191.301758	218.477493
19385.858511	16894.844500	1190.179688	194.412064
19385.858511	16894.844500	1189.056641	215.434082
19385.858511	16894.844500	1187.933594	231.947464
19385.858511	16894.844500	1186.810547	78.224304
19385.858511	16894.844500	1185.687500	149.497665
19385.858511	16894.844500	1184.563477	224.548096
19385.858511	16894.844500	1183.440430	118.173820
19385.858511	16894.844500	1182.316406	-196.617508
19385.858511	16894.844500	1181.191406	58.922649
19385.858511	16894.844500	1180.067383	-53.219532
19385.858511	16894.844500	1178.942383	-138.099274
19385.858511	16894.844500	1177.817383	-210.823654
19385.858511	16894.844500	1176.692383	-155.393860
19385.858511	16894.844500	1175.566406	15.431075
19385.858511	16894.844500	1174.440430	-221.881409
19385.858511	16894.844500	1173.314453	-293.434052
19385.858511	16894.844500	1172.188477	-433.485779
19385.858511	16894.844500	1171.062500	-128.444016
19385.858511	16894.844500	1169.935547	257.978790
19385.858511	16894.844500	1168.808594	-205.194748
19385.858511	16894.844500	1167.681641	-90.918877
19385.858511	16894.844500	1166.553711	-124.308601
19385.858511	16894.844500	1165.426758	-342.707489
19385.858511	16894.844500	1164.298828	-297.309387
19385.858511	16894.844500	1163.170898	-669.188904
19385.858511	16894.844500	1162.041992	-583.828491
19385.858511	16894.844500	1160.914063	-454.184204
19385.858511	16894.844500	1159.785156	-545.681091
19385.858511	16894.844500	1158.656250	-486.061249
19385.858511	16894.844500	1157.526367	-553.698120
19385.858511	16894.844500	1156.397461	-468.058624
19385.858511	16894.844500	1155.267578	-703.017700
19385.858511	16894.844500	1154.137695	-407.645172
19385.858511	16894.844500	1153.006836	-394.232727
19385.858511	16894.844500	1151.876953	-445.012146
19385.858511	16894.844500	1150.746094	-346.948853
19385.858511	16894.844500	1149.615234	-482.834900
19385.858511	16894.844500	1148.484375	-374.495270
19385.858511	16894.844500	1147.352539	-99.296341
19385.858511	16894.844500	1146.220703	-337.623505
19385.858511	16894.844500	1145.088867	-88.458046
19385.858511	16894.844500	1143.957031	-327.417847
19385.858511	16894.844500	1142.825195	98.008072
19385.858511	16894.844500	1141.692383	-228.660324
19385.858511	16894.844500	1140.559570	-248.995377
19385.858511	16894.844500	1139.426758	254.533463
19385.858511	16894.844500	1138.292969	-143.983749
19385.858511	16894.844500	1137.159180	5.494252
19385.858511	16894.844500	1136.025391	257.322327
19385.858511	16894.844500	1134.891602	43.984222
19385.858511	16894.844500	1133.757813	293.967651
19385.858511	16894.844500	1132.623047	384.955933
19385.858511	16894.844500	1131.488281	598.459717
19385.858511	16894.844500	1130.353516	999.208984
19385.858511	16894.844500	1129.217773	857.457031
19385.858511	16894.844500	1128.083008	899.527588
19385.858511	16894.844500	1126.947266	869.513672
19385.858511	16894.844500	1125.811523	1037.961792
19385.858511	16894.844500	1124.674805	964.917847
19385.858511	16894.844500	1123.539063	720.979980
19385.858511	16894.844500	1122.402344	483.009949
19385.858511	16894.844500	1121.265625	348.355530
19385.858511	16894.844500	1120.127930	162.823959
19385.858511	16894.844500	1118.990234	352.259369
19385.858511	16894.844500	1117.853516	594.197693
19385.858511	16894.844500	1116.714844	478.146912
19385.858511	16894.844500	1115.577148	231.078903
19385.858511	16894.844500	1114.439453	147.613312
19385.858511	16894.844500	1113.300781	450.568604
19385.858511	16894.844500	1112.162109	292.941986
19385.858511	16894.844500	1111.022461	527.500916
19385.858511	16894.844500	1109.883789	540.303406
19385.858511	16894.844500	1108.744141	335.150177
19385.858511	16894.844500	1107.604492	-26.093840
19385.858511	16894.844500	1106.463867	52.834526
19385.858511	16894.844500	1105.324219	332.916138
19385.858511	16894.844500	1104.183594	505.525085
19385.858511	16894.844500	1103.042969	275.487732
19385.858511	16894.844500	1101.902344	346.620453
19385.858511	16894.844500	1100.760742	277.959320
19385.858511	16894.844500	1099.619141	390.518646
19385.858511	16894.844500	1098.477539	801.079590
19385.858511	16894.844500	1097.335938	1078.384399
19385.858511	16894.844500	1096.193359	761.824158
19385.858511	16894.844500	1095.051758	869.975769
19385.858511	16894.844500	1093.909180	809.305176
19385.858511	16894.844500	1092.765625	908.776917
19385.858511	16894.844500	1091.623047	586.738037
19385.858511	16894.844500	1090.479492	884.958618
19385.858511	16894.844500	1089.335938	730.321167
19385.858511	16894.844500	1088.192383	711.341553
19385.858511	16894.844500	1087.047852	519.613281
19385.858511	16894.844500	1085.903320	111.699051
19385.858511	16894.844500	1084.758789	82.876381
19385.858511	16894.844500	1083.614258	-69.999077
19385.858511	16894.844500	1082.469727	-24.509184
19385.858511	16894.844500	1081.324219	184.982086
19385.858511	16894.844500	1080.178711	151.979538
19385.858511	16894.844500	1079.033203	36.651360
19385.858511	16894.844500	1077.886719	322.656708
19385.858511	16894.844500	1076.740234	-164.311691
19385.858511	16894.844500	1075.593750	205.281570
19385.858511	16894.844500	1074.447266	35.257103
19385.858511	16894.844500	1073.300781	-132.353531
19385.858511	16894.844500	1072.153320	185.612259
19385.858511	16894.844500	1071.005859	98.125137
19385.858511	16894.844500	1069.858398	-89.478607
19385.858511	16894.844500	1068.709961	149.705521
19385.858511	16894.844500	1067.561523	786.078247
19385.858511	16894.844500	1066.413086	181.725937
19385.858511	16894.844500	1065.264648	285.820831
19385.858511	16894.844500	1064.116211	316.968903
19385.858511	16894.844500	1062.966797	202.382675
19385.858511	16894.844500	1061.817383	-53.708332
19385.858511	16894.844500	1060.667969	263.758850
19385.858511	16894.844500	1059.517578	410.004364
19385.858511	16894.844500	1058.368164	-164.527878
19385.858511	16894.844500	1057.217773	300.609589
19385.858511	16894.844500	1056.067383	165.959412
19385.858511	16894.844500	1054.916016	238.452255
19385.858511	16894.844500	1053.764648	10.177842
19385.858511	16894.844500	1052.613281	191.980499
19385.858511	16894.844500	1051.461914	222.079544
19385.858511	16894.844500	1050.310547	-26.805662
19385.858511	16894.844500	1049.158203	156.524597
19385.858511	16894.844500	1048.005859	-261.151855
19385.858511	16894.844500	1046.853516	58.114857
19385.858511	16894.844500	1045.700195	56.836670
19385.858511	16894.844500	1044.547852	-60.035839
19385.858511	16894.844500	1043.394531	-78.530266
19385.858511	16894.844500	1042.240234	180.525635
19385.858511	16894.844500	1041.086914	26.356527
19385.858511	16894.844500	1039.932617	-216.475922
19385.858511	16894.844500	1038.778320	250.482834
19385.858511	16894.844500	1037.624023	-39.586815
19385.858511	16894.844500	1036.469727	98.394005
19385.858511	16894.844500	1035.314453	295.912994
19385.858511	16894.844500	1034.159180	460.421234
19385.858511	16894.844500	1033.003906	778.298340
19385.858511	16894.844500	1031.847656	634.836548
19385.858511	16894.844500	1030.692383	769.125610
19385.858511	16894.844500	1029.536133	872.127869
19385.858511	16894.844500	1028.378906	356.656311
19385.858511	16894.844500	1027.222656	923.914673
19385.858511	16894.844500	1026.065430	564.923340
19385.858511	16894.844500	1024.908203	339.403717
19385.858511	16894.844500	1023.750977	459.454376
19385.858511	16894.844500	1022.593750	326.072174
19385.858511	16894.844500	1021.435547	224.236023
19385.858511	16894.844500	1020.277344	148.949020
19385.858511	16894.844500	1019.119141	457.758911
19385.858511	16894.844500	1017.959961	249.425552
19385.858511	16894.844500	1016.800781	575.487549
19385.858511	16894.844500	1015.641602	351.254303
19385.858511	16894.844500	1014.482422	339.648651
19385.858511	16894.844500	1013.323242	465.343353
19385.858511	16894.844500	1012.163086	662.093933
19385.858511	16894.844500	1011.002930	1205.744141
19385.858511	16894.844500	1009.842773	1144.154297
19385.858511	16894.844500	1008.681641	1270.704712
19385.858511	16894.844500	1007.520508	1439.661133
19385.858511	16894.844500	1006.359375	1328.356689
19385.858511	16894.844500	1005.198242	1269.417358
19385.858511	16894.844500	1004.037109	1622.972778
19385.858511	16894.844500	1002.875000	1415.989014
19385.858511	16894.844500	1001.712891	1483.212769
19385.858511	16894.844500	1000.550781	1135.976929
19385.858511	16894.844500	999.387695	1137.278564
19385.858511	16894.844500	998.224609	971.110779
19385.858511	16894.844500	997.061523	998.150208
19385.858511	16894.844500	995.898438	561.796387
19385.858511	16894.844500	994.734375	664.733337
19385.858511	16894.844500	993.571289	513.326111
19385.858511	16894.844500	992.407227	454.813019
19385.858511	16894.844500	991.242188	537.690979
19385.858511	16894.844500	990.078125	653.977783
19385.858511	16894.844500	988.913086	385.637817
19385.858511	16894.844500	987.748047	665.899353
19385.858511	16894.844500	986.583008	482.497681
19385.858511	16894.844500	985.416992	261.057831
19385.858511	16894.844500	984.250977	598.280823
19385.858511	16894.844500	983.084961	483.503601
19385.858511	16894.844500	981.918945	294.746643
19385.858511	16894.844500	980.751953	170.779221
19385.858511	16894.844500	979.584961	426.158112
19385.858511	16894.844500	978.417969	328.255402
19385.858511	16894.844500	977.250977	755.700928
19385.858511	16894.844500	976.083008	579.267700
19385.858511	16894.844500	974.915039	488.797821
19385.858511	16894.844500	973.747070	326.741486
19385.858511	16894.844500	972.579102	859.502014
19385.858511	16894.844500	971.410156	748.305237
19385.858511	16894.844500	970.242188	701.327393
19385.858511	16894.844500	969.072266	680.728088
19385.858511	16894.844500	967.903320	735.689453
19385.858511	16894.844500	966.733398	606.021240
19385.858511	16894.844500	965.563477	416.733978
19385.858511	16894.844500	964.393555	348.289581
19385.858511	16894.844500	963.223633	774.212463
19385.858511	16894.844500	962.052734	369.911530
19385.858511	16894.844500	960.881836	336.655396
19385.858511	16894.844500	959.710938	144.202789
19385.858511	16894.844500	958.540039	70.597626
19385.858511	16894.844500	957.368164	35.365807
19385.858511	16894.844500	956.196289	266.420654
19385.858511	16894.844500	955.024414	181.528702
19385.858511	16894.844500	953.851563	398.176636
19385.858511	16894.844500	952.679688	28.936693
19385.858511	16894.844500	951.506836	-206.878845
19385.858511	16894.844500	950.333984	-64.911163
19385.858511	16894.844500	949.160156	219.709076
19385.858511	16894.844500	947.986328	70.043877
19385.858511	16894.844500	946.812500	-102.737907
19385.858511	16894.844500	945.638672	280.118469
19385.858511	16894.844500	944.464844	13.547444
19385.858511	16894.844500	943.290039	-162.663940
19385.858511	16894.844500	942.115234	-198.426132
19385.858511	16894.844500	940.940430	-19.757858
19385.858511	16894.844500	939.764648	196.776230
19385.858511	16894.844500	938.588867	-59.538925
19385.858511	16894.844500	937.413086	-206.561890
19385.858511	16894.844500	936.237305	87.551842
19385.858511	16894.844500	935.060547	125.589012
19385.858511	16894.844500	933.883789	140.166702
19385.858511	16894.844500	932.707031	465.555206
19385.858511	16894.844500	931.530273	274.497437
19385.858511	16894.844500	930.352539	91.639328
19385.858511	16894.844500	929.175781	194.468536
19385.858511	16894.844500	927.998047	108.217522
19385.858511	16894.844500	926.819336	78.769699
19385.858511	16894.844500	925.641602	-15.808996
19385.858511	16894.844500	924.462891	-74.688660
19385.858511	16894.844500	923.284180	76.150345
19385.858511	16894.844500	922.104492	-41.462769
19385.858511	16894.844500	920.924805	212.042465
19385.858511	16894.844500	919.746094	231.388916
19385.858511	16894.844500	919.551758	-214.740326
19385.858511	16894.844500	918.386719	-110.378380
19385.858511	16894.844500	917.220703	107.077621
19385.858511	16894.844500	916.054688	-138.547913
19385.858511	16894.844500	914.887695	13.863037
19385.858511	16894.844500	913.721680	118.009644
19385.858511	16894.844500	912.554688	-194.521088
19385.858511	16894.844500	911.387695	211.009354
19385.858511	16894.844500	910.220703	-61.699287
19385.858511	16894.844500	909.052734	-321.747925
19385.858511	16894.844500	907.885742	-219.831787
19385.858511	16894.844500	906.717773	423.725739
19385.858511	16894.844500	905.548828	-250.336716
19385.858511	16894.844500	904.380859	1.977155
19385.858511	16894.844500	903.211914	-65.613281
19385.858511	16894.844500	902.042969	-208.428040
19385.858511	16894.844500	900.874023	-432.689362
19385.858511	16894.844500	899.704102	-514.814880
19385.858511	16894.844500	898.535156	-477.901855
19385.858511	16894.844500	897.365234	-641.457825
19385.858511	16894.844500	896.194336	-293.478546
19385.858511	16894.844500	895.024414	-183.615967
19385.858511	16894.844500	893.853516	-44.588676
19385.858511	16894.844500	892.682617	-241.536942
19385.858511	16894.844500	891.511719	-192.284714
19385.858511	16894.844500	890.340820	-32.534836
19385.858511	16894.844500	889.168945	-6.298972
19385.858511	16894.844500	887.997070	-30.119715
19385.858511	16894.844500	886.825195	121.124245
19385.858511	16894.844500	885.653320	159.769043
19385.858511	16894.844500	884.480469	-16.193193
19385.858511	16894.844500	883.307617	168.253540
19385.858511	16894.844500	882.134766	-36.824196
19385.858511	16894.844500	880.961914	87.140137
19385.858511	16894.844500	879.788086	-119.935677
19385.858511	16894.844500	878.614258	-70.945786
19385.858511	16894.844500	877.440430	-151.007294
19385.858511	16894.844500	876.266602	-151.991211
19385.858511	16894.844500	875.091797	-132.175217
19385.858511	16894.844500	873.916992	6.148128
19385.858511	16894.844500	872.742188	-229.837570
19385.858511	16894.844500	871.567383	-91.581528
19385.858511	16894.844500	870.391602	-202.771683
19385.858511	16894.844500	869.215820	-131.079529
19385.858511	16894.844500	868.040039	-51.122292
19385.858511	16894.844500	866.864258	103.557007
19385.858511	16894.844500	865.687500	-101.073463
19385.858511	16894.844500	864.510742	78.447624
19385.858511	16894.844500	863.333984	-36.868114
19385.858511	16894.844500	862.157227	-152.153610
19385.858511	16894.844500	860.979492	187.004471
19385.858511	16894.844500	859.802734	115.251678
19385.858511	16894.844500	858.625000	91.227272
19385.858511	16894.844500	857.446289	-337.135376
19385.858511	16894.844500	856.268555	-12.796182
19385.858511	16894.844500	855.089844	-190.194122
19385.858511	16894.844500	853.911133	279.022766
19385.858511	16894.844500	852.731445	145.126984
19385.858511	16894.844500	851.552734	-137.888184
19385.858511	16894.844500	850.373047	326.850586
19385.858511	16894.844500	849.193359	124.640541
19385.858511	16894.844500	848.013672	777.485291
19385.858511	16894.844500	846.833008	103.340805
19385.858511	16894.844500	845.652344	155.789459
19385.858511	16894.844500	844.471680	162.682495
19385.858511	16894.844500	843.291016	-8.335933
19385.858511	16894.844500	842.110352	120.561913
19385.858511	16894.844500	840.928711	-9.054947
19385.858511	16894.844500	839.747070	6.067832
19385.858511	16894.844500	838.564453	-109.032059
19385.858511	16894.844500	837.382813	-17.482096
19385.858511	16894.844500	836.200195	111.203629
19385.858511	16894.844500	835.017578	-70.009567
19385.858511	16894.844500	833.834961	-19.883888
19385.858511	16894.844500	832.651367	162.352554
19385.858511	16894.844500	831.467773	150.446335
19385.858511	16894.844500	830.284180	289.182098
19385.858511	16894.844500	829.100586	211.176498
19385.858511	16894.844500	827.916992	-168.012436
19385.858511	16894.844500	826.732422	-272.741913
19385.858511	16894.844500	825.547852	241.176102
19385.858511	16894.844500	824.363281	163.151199
19385.858511	16894.844500	823.177734	-209.613419
19385.858511	16894.844500	821.992188	-87.656204
19385.858511	16894.844500	820.806641	-29.653587
19385.858511	16894.844500	819.621094	-243.619858
19385.858511	16894.844500	818.434570	203.599182
19385.858511	16894.844500	817.249023	-148.351791
19385.858511	16894.844500	816.062500	-102.847343
19385.858511	16894.844500	814.875000	-108.839432
19385.858511	16894.844500	813.688477	76.504265
19385.858511	16894.844500	812.500977	125.959358
19385.858511	16894.844500	811.313477	193.874252
19385.858511	16894.844500	810.125977	84.855682
19385.858511	16894.844500	808.937500	282.227417
19385.858511	16894.844500	807.749023	101.222725
19385.858511	16894.844500	806.560547	14.799847
19385.858511	16894.844500	805.372070	-61.350563
19385.858511	16894.844500	804.182617	-47.102158
19385.858511	16894.844500	802.994141	-162.319336
19385.858511	16894.844500	801.803711	385.815826
19385.858511	16894.844500	800.614258	128.815887
19385.858511	16894.844500	799.424805	36.102036
19385.858511	16894.844500	798.234375	-29.926172
19385.858511	16894.844500	797.043945	170.777298
19385.858511	16894.844500	795.852539	-43.034580
19385.858511	16894.844500	794.662109	319.528198
19385.858511	16894.844500	793.470703	64.665741
19385.858511	16894.844500	792.279297	-7.669570
19385.858511	16894.844500	791.087891	73.707001
19385.858511	16894.844500	789.895508	-92.957657
19385.858511	16894.844500	788.703125	84.615158
19385.858511	16894.844500	787.510742	-127.153511
19385.858511	16894.844500	786.318359	-48.059422
19385.858511	16894.844500	785.125000	71.913643
19385.858511	16894.844500	783.931641	-51.838242
19385.858511	16894.844500	782.738281	141.660645
19385.858511	16894.844500	781.544922	1.460230
19385.858511	16894.844500	780.350586	-81.437126
19385.858511	16894.844500	779.156250	-311.637115
19385.858511	16894.844500	777.961914	81.957069
19385.858511	16894.844500	776.767578	119.551628
19385.858511	16894.844500	775.572266	202.056900
19385.858511	16894.844500	774.376953	73.951393
19385.858511	16894.844500	773.181641	315.693268
19385.858511	16894.844500	771.986328	-251.751526
19385.858511	16894.844500	770.790039	-230.754105
19385.858511	16894.844500	769.593750	139.373276
19385.858511	16894.844500	768.397461	145.856339
19385.858511	16894.844500	767.201172	366.606415
19385.858511	16894.844500	766.003906	-71.992020
19385.858511	16894.844500	764.806641	126.139679
19385.858511	16894.844500	763.609375	52.799519
19385.858511	16894.844500	762.412109	211.930099
19385.858511	16894.844500	761.213867	-0.191712
19385.858511	16894.844500	760.015625	160.792267
19385.858511	16894.844500	758.817383	240.103912
19385.858511	16894.844500	757.618164	-53.614780
19385.858511	16894.844500	756.419922	-98.726242
19385.858511	16894.844500	755.220703	-103.141129
19385.858511	16894.844500	754.021484	-227.791946
19385.858511	16894.844500	752.821289	126.050957
19385.858511	16894.844500	751.621094	44.013824
19385.858511	16894.844500	750.420898	291.656525
19385.858511	16894.844500	749.220703	103.644409
19385.858511	16894.844500	748.020508	-64.023170
19385.858511	16894.844500	746.819336	209.703476
19385.858511	16894.844500	745.618164	-4.841984
19385.858511	16894.844500	744.416992	107.968765
19385.858511	16894.844500	743.214844	243.023132
19385.858511	16894.844500	742.012695	477.524200
19385.858511	16894.844500	740.810547	250.590576
19385.858511	16894.844500	739.608398	564.053711
19385.858511	16894.844500	738.406250	686.376038
19385.858511	16894.844500	737.203125	1068.501343
19385.858511	16894.844500	736.000000	1283.898682
19385.858511	16894.844500	734.795898	957.162231
19385.858511	16894.844500	733.592773	1541.672729
19385.858511	16894.844500	732.388672	1766.728027
19385.858511	16894.844500	731.184570	1340.434570
19385.858511	16894.844500	729.979492	983.194580
19385.858511	16894.844500	728.775391	840.944336
19385.858511	16894.844500	727.570313	451.346527
19385.858511	16894.844500	726.365234	556.374939
19385.858511	16894.844500	725.160156	375.540985
19385.858511	16894.844500	723.954102	263.588715
19385.858511	16894.844500	722.748047	285.279419
19385.858511	16894.844500	721.541992	292.694885
19385.858511	16894.844500	720.334961	-155.542114
19385.858511	16894.844500	719.128906	33.968868
19385.858511	16894.844500	717.921875	14.856326
19385.858511	16894.844500	716.714844	-145.983215
19385.858511	16894.844500	715.506836	-223.891998
19385.858511	16894.844500	714.298828	-30.826811
19385.858511	16894.844500	713.090820	-303.043457
19385.858511	16894.844500	711.882813	-164.817322
19385.858511	16894.844500	710.674805	-275.365051
19385.858511	16894.844500	709.465820	-167.691238
19385.858511	16894.844500	708.256836	-359.187683
19385.858511	16894.844500	707.047852	-265.865875
19385.858511	16894.844500	705.837891	-128.230515
19385.858511	16894.844500	704.627930	-239.112503
19385.858511	16894.844500	703.417969	-168.345520
19385.858511	16894.844500	702.208008	-204.673355
19385.858511	16894.844500	700.998047	-97.802658
19385.858511	16894.844500	699.787109	-91.933632
19385.858511	16894.844500	698.576172	-49.849724
19385.858511	16894.844500	697.364258	439.842560
19385.858511	16894.844500	696.153320	-135.361053
19385.858511	16894.844500	694.941406	-85.488518
19385.858511	16894.844500	693.729492	-205.022049
19385.858511	16894.844500	692.516602	134.837967
19385.858511	16894.844500	691.304688	51.396622
19385.858511	16894.844500	690.091797	-106.610802
19385.858511	16894.844500	688.878906	-10.906288
19385.858511	16894.844500	687.665039	-42.159073
19385.858511	16894.844500	686.451172	-63.415131
19385.858511	16894.844500	685.237305	122.535461
19385.858511	16894.844500	684.023438	-21.646173
19385.858511	16894.844500	682.809570	-163.837921
19385.858511	16894.844500	681.594727	-60.675926
19385.858511	16894.844500	680.379883	78.558083
19385.858511	16894.844500	679.165039	-136.165985
19385.858511	16894.844500	677.949219	-101.640564
19385.858511	16894.844500	676.733398	95.565842
19385.858511	16894.844500	675.517578	-205.635300
19385.858511	16894.844500	674.301758	471.431183
19385.858511	16894.844500	673.084961	87.802902
19385.858511	16894.844500	671.869141	11.451840
19385.858511	16894.844500	670.651367	266.296478
19385.858511	16894.844500	669.434570	91.472176
19385.858511	16894.844500	668.216797	175.503815
19385.858511	16894.844500	667.000000	151.100342
19385.858511	16894.844500	665.781250	88.548965
19385.858511	16894.844500	664.563477	328.751495
19385.858511	16894.844500	663.344727	272.084198
19385.858511	16894.844500	662.125977	75.073570
19385.858511	16894.844500	660.907227	347.026245
19385.858511	16894.844500	659.688477	159.993027
19385.858511	16894.844500	658.468750	225.390411
19385.858511	16894.844500	657.249023	539.050049
19385.858511	16894.844500	656.029297	506.128357
19385.858511	16894.844500	654.808594	651.352478
19385.858511	16894.844500	653.587891	147.997620
19385.858511	16894.844500	652.367188	391.200897
19385.858511	16894.844500	651.146484	-25.937691
19385.858511	16894.844500	649.924805	99.119568
19385.858511	16894.844500	648.704102	174.091507
19385.858511	16894.844500	647.482422	380.963409
19385.858511	16894.844500	646.259766	375.839355
19385.858511	16894.844500	645.037109	566.544006
19385.858511	16894.844500	643.815430	725.169739
19385.858511	16894.844500	642.591797	438.243073
19385.858511	16894.844500	641.369141	792.524231
19385.858511	16894.844500	640.145508	551.598267
19385.858511	16894.844500	638.921875	416.569489
19385.858511	16894.844500	637.698242	497.153717
19385.858511	16894.844500	636.474609	168.609787
19385.858511	16894.844500	635.250000	372.905579
19385.858511	16894.844500	634.025391	393.602722
19385.858511	16894.844500	632.800781	31.391867
19385.858511	16894.844500	631.575195	500.784027
19385.858511	16894.844500	630.349609	3.172988
19385.858511	16894.844500	629.124023	245.190979
19385.858511	16894.844500	627.898438	293.841278
19385.858511	16894.844500	626.671875	167.185959
19385.858511	16894.844500	625.445313	132.226425
19385.858511	16894.844500	624.218750	342.239563
19385.858511	16894.844500	622.992188	241.615601
19385.858511	16894.844500	621.764648	176.901230
19385.858511	16894.844500	620.537109	249.562805
19385.858511	16894.844500	619.309570	23.791489
19385.858511	16894.844500	618.081055	-44.686134
19385.858511	16894.844500	616.852539	42.037766
19385.858511	16894.844500	615.624023	-239.068207
19385.858511	16894.844500	614.395508	64.452858
19385.858511	16894.844500	613.166992	-97.172523
19385.858511	16894.844500	611.937500	144.718201
19385.858511	16894.844500	610.708008	199.827774
19385.858511	16894.844500	609.477539	-279.307983
19385.858511	16894.844500	608.248047	-57.176540
19385.858511	16894.844500	607.017578	-271.840912
19385.858511	16894.844500	605.787109	-337.455902
19385.858511	16894.844500	604.555664	-174.725555
19385.858511	16894.844500	603.325195	49.530293
19385.858511	16894.844500	602.093750	-360.996857
19385.858511	16894.844500	600.861328	-75.103439
19385.858511	16894.844500	599.629883	-203.654572
19385.858511	16894.844500	598.397461	-70.352768
19385.858511	16894.844500	597.165039	-184.747650
19385.858511	16894.844500	595.932617	65.639603
19385.858511	16894.844500	594.699219	-311.985992
19385.858511	16894.844500	593.465820	-188.191849
19385.858511	16894.844500	592.232422	-28.672941
19385.858511	16894.844500	590.999023	285.348450
19385.858511	16894.844500	589.764648	53.038750
19385.858511	16894.844500	588.530273	72.316467
19385.858511	16894.844500	587.295898	14.566769
19385.858511	16894.844500	586.061523	61.840797
19385.858511	16894.844500	584.826172	-13.366437
19385.858511	16894.844500	583.590820	-104.197395
19385.858511	16894.844500	582.355469	-222.501328
19385.858511	16894.844500	581.119141	-123.155922
19385.858511	16894.844500	579.882813	-82.962234
19385.858511	16894.844500	578.646484	-186.832062
19385.858511	16894.844500	577.410156	-79.120583
19385.858511	16894.844500	576.172852	147.236435
19385.858511	16894.844500	574.935547	132.804459
19385.858511	16894.844500	573.698242	-33.424095
19385.858511	16894.844500	572.460938	276.257965
19385.858511	16894.844500	571.222656	244.661484
19385.858511	16894.844500	569.984375	-220.719131
19385.858511	16894.844500	568.746094	134.803665
19385.858511	16894.844500	567.506836	-393.015533
19385.858511	16894.844500	566.267578	122.533806
19385.858511	16894.844500	565.028320	76.330544
19385.858511	16894.844500	563.789063	211.677231
19385.858511	16894.844500	562.548828	-5.462122
19385.858511	16894.844500	561.309570	370.630371
19385.858511	16894.844500	560.068359	161.917969
19385.858511	16894.844500	558.828125	-28.752851
19385.858511	16894.844500	557.586914	-81.285217
19385.858511	16894.844500	556.345703	-7.581857
19385.858511	16894.844500	555.104492	463.821381
19385.858511	16894.844500	553.863281	333.290863
19385.858511	16894.844500	552.621094	-117.507347
19385.858511	16894.844500	551.378906	440.936920
19385.858511	16894.844500	550.136719	175.645996
19385.858511	16894.844500	548.893555	681.268616
19385.858511	16894.844500	547.650391	742.815979
19385.858511	16894.844500	546.407227	555.087341
19385.858511	16894.844500	545.164063	632.905273
19385.858511	16894.844500	543.919922	616.715759
19385.858511	16894.844500	542.675781	651.866455
19385.858511	16894.844500	541.431641	1250.693237
19385.858511	16894.844500	540.186523	927.112915
19385.858511	16894.844500	538.941406	800.184937
19385.858511	16894.844500	537.696289	1407.322754
19385.858511	16894.844500	536.451172	1145.589966
19385.858511	16894.844500	535.205078	1090.182983
19385.858511	16894.844500	533.959961	1450.713989
19385.858511	16894.844500	532.712891	1491.916870
19385.858511	16894.844500	531.466797	1364.843750
19385.858511	16894.844500	530.219727	1334.144775
19385.858511	16894.844500	528.972656	1801.307251
19385.858511	16894.844500	527.725586	1438.180786
19385.858511	16894.844500	526.478516	1167.534180
19385.858511	16894.844500	525.230469	1363.228149
19385.858511	16894.844500	523.982422	1273.380981
19385.858511	16894.844500	522.734375	1354.106812
19385.858511	16894.844500	521.485352	1167.084351
19385.858511	16894.844500	520.236328	1391.182617
19385.858511	16894.844500	518.987305	1204.811523
19385.858511	16894.844500	517.737305	1425.487427
19385.858511	16894.844500	516.488281	1660.015991
19385.858511	16894.844500	515.238281	1855.658447
19385.858511	16894.844500	513.988281	2141.369141
19385.858511	16894.844500	512.737305	2038.523315
19385.858511	16894.844500	511.486328	2185.974609
19385.858511	16894.844500	510.235352	2062.218506
19385.858511	16894.844500	508.984375	1987.582275
19385.858511	16894.844500	507.732422	2424.610352
19385.858511	16894.844500	506.480469	2994.392578
19385.858511	16894.844500	505.228516	2805.273926
19385.858511	16894.844500	503.976563	2712.047363
19385.858511	16894.844500	502.723633	3077.381348
19385.858511	16894.844500	501.470703	3403.788818
19385.858511	16894.844500	500.217773	3322.886719
19385.858511	16894.844500	498.963867	3386.460205
19385.858511	16894.844500	497.709961	3668.428711
19385.858511	16894.844500	496.456055	3981.634277
19385.858511	16894.844500	495.202148	4355.262695
19385.858511	16894.844500	493.947266	4407.645996
19385.858511	16894.844500	492.692383	4210.990234
19385.858511	16894.844500	491.437500	4473.897461
19385.858511	16894.844500	490.181641	4557.831055
19385.858511	16894.844500	488.926758	4416.159668
19385.858511	16894.844500	487.670898	4593.673828
19385.858511	16894.844500	486.414063	4899.578125
19385.858511	16894.844500	485.158203	5197.633789
19385.858511	16894.844500	483.901367	5033.039063
19385.858511	16894.844500	482.644531	4975.459473
19385.858511	16894.844500	481.386719	5325.979492
19385.858511	16894.844500	480.128906	5474.353027
19385.858511	16894.844500	478.871094	5579.944824
19385.858511	16894.844500	477.613281	5815.564453
19385.858511	16894.844500	476.355469	5907.405273
19385.858511	16894.844500	475.096680	5993.352051
19385.858511	16894.844500	473.837891	5733.795410
19385.858511	16894.844500	472.578125	5984.502441
19385.858511	16894.844500	471.319336	5961.480469
19385.858511	16894.844500	470.059570	6316.493652
19385.858511	16894.844500	468.799805	6731.292480
19385.858511	16894.844500	467.539063	6692.179688
19385.858511	16894.844500	466.278320	7102.470215
19385.858511	16894.844500	465.017578	6931.091309
19385.858511	16894.844500	463.756836	7007.473145
19385.858511	16894.844500	462.495117	7228.795898
19385.858511	16894.844500	461.233398	7643.325195
19385.858511	16894.844500	459.971680	7130.062500
19385.858511	16894.844500	458.709961	7441.121582
19385.858511	16894.844500	457.447266	7660.700684
19385.858511	16894.844500	456.184570	7545.059570
19385.858511	16894.844500	454.921875	7405.772949
19385.858511	16894.844500	453.658203	7561.902344
19385.858511	16894.844500	452.394531	7719.345703
19385.858511	16894.844500	451.130859	7653.838379
19385.858511	16894.844500	449.867188	7952.967285
19385.858511	16894.844500	448.602539	7973.091797
19385.858511	16894.844500	447.337891	7944.200195
19385.858511	16894.844500	446.073242	8169.485352
19385.858511	16894.844500	444.807617	8007.722656
19385.858511	16894.844500	443.542969	8202.290039
19385.858511	16894.844500	442.276367	8573.466797
19385.858511	16894.844500	441.010742	8069.434570
19385.858511	16894.844500	439.744141	8540.786133
19385.858511	16894.844500	438.478516	8910.581055
19385.858511	16894.844500	437.210938	8924.338867
19385.858511	16894.844500	435.944336	8668.956055
19385.858511	16894.844500	434.676758	8682.333008
19385.858511	16894.844500	433.409180	9050.944336
19385.858511	16894.844500	432.141602	9196.516602
19385.858511	16894.844500	430.873047	9383.025391
19385.858511	16894.844500	429.604492	9492.907227
19385.858511	16894.844500	428.335938	9624.338867
19385.858511	16894.844500	427.067383	9910.069336
19385.858511	16894.844500	425.797852	9961.168945
19385.858511	16894.844500	424.528320	9808.505859
19385.858511	16894.844500	423.258789	9677.218750
19385.858511	16894.844500	421.988281	9773.006836
19385.858511	16894.844500	420.717773	9849.528320
19385.858511	16894.844500	419.447266	9793.291016
19385.858511	16894.844500	418.175781	10180.909180
19385.858511	16894.844500	416.905273	9932.071289
19385.858511	16894.844500	415.633789	9732.970703
19385.858511	16894.844500	414.362305	9990.702148
19385.858511	16894.844500	413.089844	9671.708984
19385.858511	16894.844500	411.817383	9432.917969
19385.858511	16894.844500	410.544922	9523.719727
19385.858511	16894.844500	409.272461	9584.943359
19385.858511	16894.844500	407.999023	9954.170898
19385.858511	16894.844500	406.725586	9915.609375
19385.858511	16894.844500	405.452148	9442.572266
19385.858511	16894.844500	404.177734	10245.588867
19385.858511	16894.844500	402.903320	10232.248047
19385.858511	16894.844500	401.628906	9832.309570
19385.858511	16894.844500	400.354492	9837.303711
19385.858511	16894.844500	399.079102	9993.936523
19385.858511	16894.844500	397.803711	9779.127930
19385.858511	16894.844500	396.528320	9939.842773
19385.858511	16894.844500	395.251953	10062.125977
19385.858511	16894.844500	393.976563	9937.333008
19385.858511	16894.844500	392.700195	9816.097656
19385.858511	16894.844500	391.422852	9728.897461
19385.858511	16894.844500	390.145508	10008.470703
19385.858511	16894.844500	388.869141	10008.097656
19385.858511	16894.844500	387.590820	9926.477539
19385.858511	16894.844500	386.313477	9886.073242
19385.858511	16894.844500	385.035156	9657.226563
19385.858511	16894.844500	383.756836	9595.389648
19385.858511	16894.844500	382.478516	9564.671875
19385.858511	16894.844500	381.199219	9627.838867
19385.858511	16894.844500	379.919922	9297.823242
19385.858511	16894.844500	378.640625	9437.651367
19385.858511	16894.844500	377.360352	9514.226563
19385.858511	16894.844500	376.080078	9758.412109
19385.858511	16894.844500	374.799805	9189.280273
19385.858511	16894.844500	373.519531	9304.561523
19385.858511	16894.844500	372.238281	9182.396484
19385.858511	16894.844500	370.957031	9044.046875
19385.858511	16894.844500	369.675781	8935.091797
19385.858511	16894.844500	368.394531	9055.439453
19385.858511	16894.844500	367.112305	9025.421875
19385.858511	16894.844500	365.830078	8824.128906
19385.858511	16894.844500	364.546875	8702.719727
19385.858511	16894.844500	363.264648	8409.894531
19385.858511	16894.844500	361.981445	8512.560547
19385.858511	16894.844500	360.698242	7923.601563
19385.858511	16894.844500	359.414063	8055.041992
19385.858511	16894.844500	358.129883	7833.343262
19385.858511	16894.844500	356.845703	7941.365723
19385.858511	16894.844500	355.561523	7950.785156
19385.858511	16894.844500	354.276367	7536.118652
19385.858511	16894.844500	352.991211	7667.023438
19385.858511	16894.844500	351.706055	7090.521973
19385.858511	16894.844500	350.420898	7321.139648
19385.858511	16894.844500	349.134766	6988.251953
19385.858511	16894.844500	347.848633	6920.236816
19385.858511	16894.844500	346.561523	6939.821289
19385.858511	16894.844500	345.275391	6644.729492
19385.858511	16894.844500	343.988281	6643.620117
19385.858511	16894.844500	342.700195	5979.640625
19385.858511	16894.844500	341.413086	5746.237793
19385.858511	16894.844500	340.125000	5432.058105
19385.858511	16894.844500	338.836914	5638.267578
19385.858511	16894.844500	337.548828	5509.190918
19385.858511	16894.844500	336.259766	5364.741699
19385.858511	16894.844500	334.970703	4956.684082
19385.858511	16894.844500	333.681641	4902.524902
19385.858511	16894.844500	332.391602	4178.473145
19385.858511	16894.844500	331.101563	4273.517578
19385.858511	16894.844500	329.811523	3825.428467
19385.858511	16894.844500	328.521484	3716.353760
19385.858511	16894.844500	327.230469	3282.934326
19385.858511	16894.844500	325.939453	3344.705078
19385.858511	16894.844500	324.648438	3170.772461
19385.858511	16894.844500	323.356445	2779.405029
19385.858511	16894.844500	322.064453	2647.295166
19385.858511	16894.844500	320.772461	2745.545410
19385.858511	16894.844500	319.480469	2476.341553
19385.858511	16894.844500	318.187500	2035.577393
19385.858511	16894.844500	316.894531	1867.406860
19385.858511	16894.844500	315.601563	1585.917358
19385.858511	16894.844500	314.307617	1292.216675
19385.858511	16894.844500	313.013672	978.842041
19385.858511	16894.844500	311.719727	1026.680298
19385.858511	16894.844500	310.425781	910.419739
19385.858511	16894.844500	309.130859	515.921814
19385.858511	16894.844500	307.835938	149.074036
19385.858511	16894.844500	306.541016	-90.641220
19385.858511	16894.844500	305.245117	-38.489491
19385.858511	16894.844500	303.949219	-18.765812
19385.858511	16894.844500	302.653320	214.965332
19385.858511	16894.844500	301.356445	-58.434887
19385.858511	16894.844500	300.060547	-99.259369
19385.858511	16894.844500	298.763672	-47.076481
