#X		#Y		#Wave		#Intensity
2738.734362	17475.061000	2000.043945	-144.333252
2738.734362	17475.061000	1999.080078	-88.311882
2738.734362	17475.061000	1998.116211	34.794708
2738.734362	17475.061000	1997.151367	-95.575043
2738.734362	17475.061000	1996.186523	16.266277
2738.734362	17475.061000	1995.222656	-75.710403
2738.734362	17475.061000	1994.256836	-34.497227
2738.734362	17475.061000	1993.291992	28.382166
2738.734362	17475.061000	1992.327148	-124.735687
2738.734362	17475.061000	1991.361328	-62.985718
2738.734362	17475.061000	1990.395508	-38.922115
2738.734362	17475.061000	1989.429688	61.318584
2738.734362	17475.061000	1988.463867	0.205923
2738.734362	17475.061000	1987.497070	-29.209078
2738.734362	17475.061000	1986.531250	-31.888371
2738.734362	17475.061000	1985.564453	21.854437
2738.734362	17475.061000	1984.597656	-70.723259
2738.734362	17475.061000	1983.630859	71.122711
2738.734362	17475.061000	1982.664063	116.126404
2738.734362	17475.061000	1981.696289	-12.234173
2738.734362	17475.061000	1980.728516	-44.585918
2738.734362	17475.061000	1979.761719	-5.668775
2738.734362	17475.061000	1978.792969	121.786339
2738.734362	17475.061000	1977.825195	135.278290
2738.734362	17475.061000	1976.857422	7.732969
2738.734362	17475.061000	1975.888672	-36.162697
2738.734362	17475.061000	1974.919922	191.091705
2738.734362	17475.061000	1973.951172	235.405167
2738.734362	17475.061000	1972.982422	54.954906
2738.734362	17475.061000	1972.013672	199.849533
2738.734362	17475.061000	1971.043945	48.544613
2738.734362	17475.061000	1970.075195	5.525599
2738.734362	17475.061000	1969.105469	166.873886
2738.734362	17475.061000	1968.135742	5.105529
2738.734362	17475.061000	1967.165039	-53.329777
2738.734362	17475.061000	1966.195313	30.938915
2738.734362	17475.061000	1965.224609	55.871082
2738.734362	17475.061000	1964.253906	92.925972
2738.734362	17475.061000	1963.283203	-113.953339
2738.734362	17475.061000	1962.312500	-57.523216
2738.734362	17475.061000	1961.341797	87.334702
2738.734362	17475.061000	1960.370117	86.809349
2738.734362	17475.061000	1959.399414	123.052628
2738.734362	17475.061000	1958.427734	107.495567
2738.734362	17475.061000	1957.455078	96.740578
2738.734362	17475.061000	1956.483398	88.336113
2738.734362	17475.061000	1955.511719	183.084946
2738.734362	17475.061000	1954.539063	39.272598
2738.734362	17475.061000	1953.566406	13.383744
2738.734362	17475.061000	1952.593750	14.447803
2738.734362	17475.061000	1951.621094	91.589676
2738.734362	17475.061000	1950.647461	38.452126
2738.734362	17475.061000	1949.674805	122.791397
2738.734362	17475.061000	1948.701172	94.095993
2738.734362	17475.061000	1947.727539	205.281509
2738.734362	17475.061000	1946.753906	53.764828
2738.734362	17475.061000	1945.780273	-38.844036
2738.734362	17475.061000	1944.805664	25.561081
2738.734362	17475.061000	1943.831055	35.945034
2738.734362	17475.061000	1942.856445	-37.085621
2738.734362	17475.061000	1941.881836	29.655571
2738.734362	17475.061000	1940.907227	125.773834
2738.734362	17475.061000	1939.932617	42.911324
2738.734362	17475.061000	1938.957031	36.040230
2738.734362	17475.061000	1937.981445	-41.890141
2738.734362	17475.061000	1937.005859	63.941566
2738.734362	17475.061000	1936.030273	91.359467
2738.734362	17475.061000	1935.054688	6.126966
2738.734362	17475.061000	1934.078125	70.286781
2738.734362	17475.061000	1933.101563	-49.158852
2738.734362	17475.061000	1932.125000	-90.222374
2738.734362	17475.061000	1931.148438	44.935207
2738.734362	17475.061000	1930.171875	50.396862
2738.734362	17475.061000	1929.194336	80.342384
2738.734362	17475.061000	1928.217773	90.741638
2738.734362	17475.061000	1927.240234	167.186569
2738.734362	17475.061000	1926.262695	16.274939
2738.734362	17475.061000	1925.284180	-9.888064
2738.734362	17475.061000	1924.306641	-229.063843
2738.734362	17475.061000	1923.328125	52.772911
2738.734362	17475.061000	1922.350586	-202.895477
2738.734362	17475.061000	1921.372070	-214.179535
2738.734362	17475.061000	1920.392578	-12.961296
2738.734362	17475.061000	1919.414063	31.971409
2738.734362	17475.061000	1918.434570	-150.090637
2738.734362	17475.061000	1917.456055	-129.458145
2738.734362	17475.061000	1916.476563	-33.139175
2738.734362	17475.061000	1915.497070	33.919315
2738.734362	17475.061000	1914.516602	-40.475124
2738.734362	17475.061000	1913.537109	46.175533
2738.734362	17475.061000	1912.556641	76.764603
2738.734362	17475.061000	1911.576172	19.631613
2738.734362	17475.061000	1910.595703	-42.298073
2738.734362	17475.061000	1909.615234	-128.520096
2738.734362	17475.061000	1908.633789	-80.643173
2738.734362	17475.061000	1907.653320	-25.418556
2738.734362	17475.061000	1906.671875	-123.604179
2738.734362	17475.061000	1905.690430	87.573181
2738.734362	17475.061000	1904.708984	-85.958710
2738.734362	17475.061000	1903.727539	117.944603
2738.734362	17475.061000	1902.745117	-138.165588
2738.734362	17475.061000	1901.762695	-182.419922
2738.734362	17475.061000	1900.780273	23.989901
2738.734362	17475.061000	1899.797852	-88.274384
2738.734362	17475.061000	1898.815430	98.696945
2738.734362	17475.061000	1897.832031	-144.732407
2738.734362	17475.061000	1896.849609	-118.162498
2738.734362	17475.061000	1895.866211	-11.338131
2738.734362	17475.061000	1894.882813	-69.752159
2738.734362	17475.061000	1893.898438	-96.505768
2738.734362	17475.061000	1892.915039	5.555188
2738.734362	17475.061000	1891.930664	-227.549271
2738.734362	17475.061000	1890.947266	47.013386
2738.734362	17475.061000	1889.962891	-219.901764
2738.734362	17475.061000	1888.977539	120.195580
2738.734362	17475.061000	1887.993164	93.735138
2738.734362	17475.061000	1887.007813	23.653179
2738.734362	17475.061000	1886.023438	-87.601326
2738.734362	17475.061000	1885.038086	17.112074
2738.734362	17475.061000	1884.051758	7.843971
2738.734362	17475.061000	1883.066406	107.734329
2738.734362	17475.061000	1882.081055	81.564598
2738.734362	17475.061000	1881.094727	-145.734238
2738.734362	17475.061000	1880.108398	-140.266876
2738.734362	17475.061000	1879.122070	-122.652031
2738.734362	17475.061000	1878.135742	47.605835
2738.734362	17475.061000	1877.148438	-67.965630
2738.734362	17475.061000	1876.162109	131.341110
2738.734362	17475.061000	1875.174805	-56.775501
2738.734362	17475.061000	1874.187500	38.423153
2738.734362	17475.061000	1873.199219	-11.600725
2738.734362	17475.061000	1872.211914	141.677429
2738.734362	17475.061000	1871.223633	94.119247
2738.734362	17475.061000	1870.236328	15.155396
2738.734362	17475.061000	1869.248047	47.485424
2738.734362	17475.061000	1868.258789	-36.240108
2738.734362	17475.061000	1867.270508	68.643654
2738.734362	17475.061000	1866.282227	-68.200981
2738.734362	17475.061000	1865.292969	-103.485687
2738.734362	17475.061000	1864.303711	-49.352211
2738.734362	17475.061000	1863.314453	-99.104248
2738.734362	17475.061000	1862.324219	172.390244
2738.734362	17475.061000	1861.334961	-171.975616
2738.734362	17475.061000	1860.344727	-43.008076
2738.734362	17475.061000	1859.354492	-119.265022
2738.734362	17475.061000	1858.364258	-67.586357
2738.734362	17475.061000	1857.374023	-59.364731
2738.734362	17475.061000	1856.383789	168.384155
2738.734362	17475.061000	1855.392578	51.118389
2738.734362	17475.061000	1854.401367	-78.172081
2738.734362	17475.061000	1853.410156	-142.325256
2738.734362	17475.061000	1852.418945	-172.720154
2738.734362	17475.061000	1851.426758	131.901031
2738.734362	17475.061000	1850.435547	103.839691
2738.734362	17475.061000	1849.443359	193.825409
2738.734362	17475.061000	1848.451172	23.597178
2738.734362	17475.061000	1847.458984	58.122654
2738.734362	17475.061000	1846.466797	25.184904
2738.734362	17475.061000	1845.473633	23.527924
2738.734362	17475.061000	1844.480469	60.352711
2738.734362	17475.061000	1843.487305	145.262650
2738.734362	17475.061000	1842.494141	18.364065
2738.734362	17475.061000	1841.500977	-60.411530
2738.734362	17475.061000	1840.506836	-67.039055
2738.734362	17475.061000	1839.513672	-1.563197
2738.734362	17475.061000	1838.519531	140.783081
2738.734362	17475.061000	1837.525391	124.372925
2738.734362	17475.061000	1836.530273	71.869926
2738.734362	17475.061000	1835.536133	-124.842491
2738.734362	17475.061000	1834.541016	-76.476143
2738.734362	17475.061000	1833.545898	-42.595181
2738.734362	17475.061000	1832.550781	-109.650833
2738.734362	17475.061000	1831.555664	84.987709
2738.734362	17475.061000	1830.560547	80.232521
2738.734362	17475.061000	1829.564453	37.011517
2738.734362	17475.061000	1828.568359	99.334122
2738.734362	17475.061000	1827.572266	-85.567245
2738.734362	17475.061000	1826.576172	74.975388
2738.734362	17475.061000	1825.580078	14.728665
2738.734362	17475.061000	1824.583008	43.157341
2738.734362	17475.061000	1823.585938	222.546616
2738.734362	17475.061000	1822.588867	140.507874
2738.734362	17475.061000	1821.591797	-54.221470
2738.734362	17475.061000	1820.594727	122.453407
2738.734362	17475.061000	1819.596680	100.131729
2738.734362	17475.061000	1818.599609	37.015751
2738.734362	17475.061000	1817.601563	151.054718
2738.734362	17475.061000	1816.603516	90.172195
2738.734362	17475.061000	1815.604492	22.039379
2738.734362	17475.061000	1814.606445	114.205956
2738.734362	17475.061000	1813.607422	-21.094263
2738.734362	17475.061000	1812.608398	8.648604
2738.734362	17475.061000	1811.609375	119.616486
2738.734362	17475.061000	1810.610352	43.893654
2738.734362	17475.061000	1809.610352	-89.292442
2738.734362	17475.061000	1808.611328	105.007530
2738.734362	17475.061000	1807.611328	72.048843
2738.734362	17475.061000	1806.611328	153.710251
2738.734362	17475.061000	1805.610352	63.194458
2738.734362	17475.061000	1804.610352	130.277863
2738.734362	17475.061000	1803.609375	-137.167770
2738.734362	17475.061000	1802.608398	68.212349
2738.734362	17475.061000	1801.607422	77.616997
2738.734362	17475.061000	1800.606445	113.163887
2738.734362	17475.061000	1799.605469	74.591866
2738.734362	17475.061000	1798.603516	4.894048
2738.734362	17475.061000	1797.601563	40.077309
2738.734362	17475.061000	1796.599609	-10.744446
2738.734362	17475.061000	1795.597656	9.878671
2738.734362	17475.061000	1794.595703	-76.929611
2738.734362	17475.061000	1793.592773	-61.322124
2738.734362	17475.061000	1792.589844	97.167679
2738.734362	17475.061000	1791.587891	176.832062
2738.734362	17475.061000	1790.583984	122.901825
2738.734362	17475.061000	1789.581055	135.567703
2738.734362	17475.061000	1788.577148	-35.299671
2738.734362	17475.061000	1787.574219	46.186893
2738.734362	17475.061000	1786.570313	110.839966
2738.734362	17475.061000	1785.566406	44.412312
2738.734362	17475.061000	1784.561523	-43.549606
2738.734362	17475.061000	1783.557617	-114.952354
2738.734362	17475.061000	1782.552734	1.472733
2738.734362	17475.061000	1781.547852	191.451706
2738.734362	17475.061000	1780.542969	50.658474
2738.734362	17475.061000	1779.538086	-64.066002
2738.734362	17475.061000	1778.532227	-7.734461
2738.734362	17475.061000	1777.527344	-39.500751
2738.734362	17475.061000	1776.521484	-175.961884
2738.734362	17475.061000	1775.515625	153.157013
2738.734362	17475.061000	1774.508789	54.422852
2738.734362	17475.061000	1773.502930	48.211296
2738.734362	17475.061000	1772.496094	-95.872498
2738.734362	17475.061000	1771.489258	44.839558
2738.734362	17475.061000	1770.482422	47.681850
2738.734362	17475.061000	1769.475586	59.866707
2738.734362	17475.061000	1768.467773	-98.944901
2738.734362	17475.061000	1767.460938	50.557182
2738.734362	17475.061000	1766.453125	2.983424
2738.734362	17475.061000	1765.445313	33.533218
2738.734362	17475.061000	1764.437500	-92.560448
2738.734362	17475.061000	1763.428711	-168.985794
2738.734362	17475.061000	1762.420898	-22.745558
2738.734362	17475.061000	1761.412109	94.844650
2738.734362	17475.061000	1760.403320	60.613987
2738.734362	17475.061000	1759.393555	-44.825451
2738.734362	17475.061000	1758.384766	-126.688011
2738.734362	17475.061000	1757.375000	96.759453
2738.734362	17475.061000	1756.366211	7.491717
2738.734362	17475.061000	1755.356445	26.969925
2738.734362	17475.061000	1754.345703	32.077316
2738.734362	17475.061000	1753.335938	81.991760
2738.734362	17475.061000	1752.325195	-149.773636
2738.734362	17475.061000	1751.315430	55.940094
2738.734362	17475.061000	1750.304688	-45.989227
2738.734362	17475.061000	1749.292969	-148.044434
2738.734362	17475.061000	1748.282227	-58.746250
2738.734362	17475.061000	1747.270508	-99.627808
2738.734362	17475.061000	1746.259766	119.270309
2738.734362	17475.061000	1745.248047	224.526733
2738.734362	17475.061000	1744.235352	-133.356842
2738.734362	17475.061000	1743.223633	-66.187630
2738.734362	17475.061000	1742.211914	99.964256
2738.734362	17475.061000	1741.199219	-12.659343
2738.734362	17475.061000	1740.186523	-49.871307
2738.734362	17475.061000	1739.173828	134.582581
2738.734362	17475.061000	1738.160156	9.745581
2738.734362	17475.061000	1737.147461	-124.622208
2738.734362	17475.061000	1736.133789	-44.498196
2738.734362	17475.061000	1735.120117	61.376892
2738.734362	17475.061000	1734.106445	-54.536533
2738.734362	17475.061000	1733.091797	-55.080570
2738.734362	17475.061000	1732.078125	-95.825577
2738.734362	17475.061000	1731.063477	-122.583252
2738.734362	17475.061000	1730.048828	-38.769276
2738.734362	17475.061000	1729.034180	49.571053
2738.734362	17475.061000	1728.019531	246.043793
2738.734362	17475.061000	1727.003906	-23.862761
2738.734362	17475.061000	1725.988281	-58.436668
2738.734362	17475.061000	1724.972656	40.993660
2738.734362	17475.061000	1723.957031	102.592018
2738.734362	17475.061000	1722.941406	76.978287
2738.734362	17475.061000	1721.924805	-71.091270
2738.734362	17475.061000	1720.909180	166.417892
2738.734362	17475.061000	1719.892578	-0.712992
2738.734362	17475.061000	1718.875977	31.879559
2738.734362	17475.061000	1717.858398	207.663284
2738.734362	17475.061000	1716.841797	183.521576
2738.734362	17475.061000	1715.824219	81.705376
2738.734362	17475.061000	1714.806641	177.088577
2738.734362	17475.061000	1713.789063	110.255135
2738.734362	17475.061000	1712.770508	301.565826
2738.734362	17475.061000	1711.752930	272.014771
2738.734362	17475.061000	1710.734375	331.508087
2738.734362	17475.061000	1709.715820	531.637146
2738.734362	17475.061000	1708.697266	656.476257
2738.734362	17475.061000	1707.678711	513.721863
2738.734362	17475.061000	1706.659180	975.945984
2738.734362	17475.061000	1705.640625	858.709839
2738.734362	17475.061000	1704.621094	994.559753
2738.734362	17475.061000	1703.600586	750.498474
2738.734362	17475.061000	1702.581055	1005.570435
2738.734362	17475.061000	1701.561523	1014.401245
2738.734362	17475.061000	1700.541016	952.806580
2738.734362	17475.061000	1699.520508	1050.371460
2738.734362	17475.061000	1698.500000	1150.114746
2738.734362	17475.061000	1697.478516	823.579346
2738.734362	17475.061000	1696.458008	1185.244751
2738.734362	17475.061000	1695.436523	1101.972778
2738.734362	17475.061000	1694.415039	1056.050171
2738.734362	17475.061000	1693.393555	972.595703
2738.734362	17475.061000	1692.372070	914.782471
2738.734362	17475.061000	1691.349609	938.704651
2738.734362	17475.061000	1690.327148	1203.321411
2738.734362	17475.061000	1689.304688	1152.145142
2738.734362	17475.061000	1688.282227	885.857788
2738.734362	17475.061000	1687.259766	1049.514526
2738.734362	17475.061000	1686.236328	874.222900
2738.734362	17475.061000	1685.213867	869.421753
2738.734362	17475.061000	1684.190430	1093.361450
2738.734362	17475.061000	1683.166016	1067.256226
2738.734362	17475.061000	1682.142578	875.327759
2738.734362	17475.061000	1681.119141	846.750916
2738.734362	17475.061000	1680.094727	1056.088501
2738.734362	17475.061000	1679.070313	1010.935913
2738.734362	17475.061000	1678.045898	1278.278076
2738.734362	17475.061000	1677.020508	1109.279419
2738.734362	17475.061000	1675.996094	1238.734131
2738.734362	17475.061000	1674.970703	1009.003479
2738.734362	17475.061000	1673.945313	818.895081
2738.734362	17475.061000	1672.919922	1027.269043
2738.734362	17475.061000	1671.893555	750.821533
2738.734362	17475.061000	1670.868164	693.387817
2738.734362	17475.061000	1669.841797	933.990479
2738.734362	17475.061000	1668.815430	881.011780
2738.734362	17475.061000	1667.789063	702.249451
2738.734362	17475.061000	1666.761719	660.790955
2738.734362	17475.061000	1665.735352	893.906860
2738.734362	17475.061000	1664.708008	733.604431
2738.734362	17475.061000	1663.680664	824.535034
2738.734362	17475.061000	1662.653320	831.623291
2738.734362	17475.061000	1661.625000	759.551147
2738.734362	17475.061000	1660.597656	973.434570
2738.734362	17475.061000	1659.569336	922.144592
2738.734362	17475.061000	1658.541016	805.732239
2738.734362	17475.061000	1657.512695	861.252075
2738.734362	17475.061000	1656.483398	949.192505
2738.734362	17475.061000	1655.455078	941.822510
2738.734362	17475.061000	1654.425781	920.443115
2738.734362	17475.061000	1653.396484	729.515930
2738.734362	17475.061000	1652.366211	1035.372070
2738.734362	17475.061000	1651.336914	920.978882
2738.734362	17475.061000	1650.306641	890.096252
2738.734362	17475.061000	1649.276367	854.534607
2738.734362	17475.061000	1648.246094	890.846680
2738.734362	17475.061000	1647.215820	892.310608
2738.734362	17475.061000	1646.185547	1171.976196
2738.734362	17475.061000	1645.154297	934.493713
2738.734362	17475.061000	1644.123047	757.324951
2738.734362	17475.061000	1643.091797	1018.171265
2738.734362	17475.061000	1642.060547	1137.547119
2738.734362	17475.061000	1641.028320	1048.335083
2738.734362	17475.061000	1639.997070	1308.867676
2738.734362	17475.061000	1638.964844	906.988098
2738.734362	17475.061000	1637.931641	1130.301758
2738.734362	17475.061000	1636.899414	1082.702759
2738.734362	17475.061000	1635.867188	1206.349976
2738.734362	17475.061000	1634.833984	975.894470
2738.734362	17475.061000	1633.800781	944.453735
2738.734362	17475.061000	1632.767578	1278.442871
2738.734362	17475.061000	1631.734375	1570.659546
2738.734362	17475.061000	1630.700195	1340.214844
2738.734362	17475.061000	1629.666016	1082.106201
2738.734362	17475.061000	1628.631836	1339.461548
2738.734362	17475.061000	1627.597656	1693.753540
2738.734362	17475.061000	1626.563477	1675.956787
2738.734362	17475.061000	1625.528320	1586.537720
2738.734362	17475.061000	1624.493164	1550.262329
2738.734362	17475.061000	1623.458008	1525.542725
2738.734362	17475.061000	1622.422852	1544.691406
2738.734362	17475.061000	1621.387695	1508.443848
2738.734362	17475.061000	1620.351563	1603.720337
2738.734362	17475.061000	1619.315430	1602.068359
2738.734362	17475.061000	1618.279297	1503.547485
2738.734362	17475.061000	1617.243164	1414.297241
2738.734362	17475.061000	1616.207031	1537.219971
2738.734362	17475.061000	1615.169922	1609.371216
2738.734362	17475.061000	1614.132813	1752.958008
2738.734362	17475.061000	1613.095703	1719.069580
2738.734362	17475.061000	1612.058594	1521.635254
2738.734362	17475.061000	1611.020508	1602.997803
2738.734362	17475.061000	1609.983398	1398.797119
2738.734362	17475.061000	1608.945313	1641.380615
2738.734362	17475.061000	1607.907227	1909.218140
2738.734362	17475.061000	1606.868164	1698.211914
2738.734362	17475.061000	1605.830078	1664.532959
2738.734362	17475.061000	1604.791016	1808.039551
2738.734362	17475.061000	1603.751953	1875.613525
2738.734362	17475.061000	1602.712891	1848.902222
2738.734362	17475.061000	1601.673828	1921.114624
2738.734362	17475.061000	1600.633789	1857.679565
2738.734362	17475.061000	1599.594727	1920.750977
2738.734362	17475.061000	1598.554688	2050.465820
2738.734362	17475.061000	1597.513672	1644.805664
2738.734362	17475.061000	1596.473633	1806.778564
2738.734362	17475.061000	1595.433594	1886.054688
2738.734362	17475.061000	1594.392578	2144.441895
2738.734362	17475.061000	1593.351563	2131.872314
2738.734362	17475.061000	1592.310547	2252.496338
2738.734362	17475.061000	1591.268555	2279.016846
2738.734362	17475.061000	1590.227539	2395.092041
2738.734362	17475.061000	1589.185547	2366.637451
2738.734362	17475.061000	1588.143555	2292.385010
2738.734362	17475.061000	1587.100586	2137.945313
2738.734362	17475.061000	1586.058594	2343.607910
2738.734362	17475.061000	1585.015625	2297.089111
2738.734362	17475.061000	1583.972656	2317.122070
2738.734362	17475.061000	1582.929688	2229.525146
2738.734362	17475.061000	1581.886719	2416.944580
2738.734362	17475.061000	1580.843750	2194.374023
2738.734362	17475.061000	1579.799805	2223.850342
2738.734362	17475.061000	1578.755859	1923.695923
2738.734362	17475.061000	1577.711914	2054.093994
2738.734362	17475.061000	1576.666992	1907.576660
2738.734362	17475.061000	1575.623047	1811.559814
2738.734362	17475.061000	1574.578125	2230.396484
2738.734362	17475.061000	1573.533203	2200.841553
2738.734362	17475.061000	1572.488281	2153.092773
2738.734362	17475.061000	1571.443359	2272.363037
2738.734362	17475.061000	1570.397461	2279.647949
2738.734362	17475.061000	1569.351563	2088.183838
2738.734362	17475.061000	1568.305664	2225.941895
2738.734362	17475.061000	1567.259766	2169.550293
2738.734362	17475.061000	1566.213867	2357.688721
2738.734362	17475.061000	1565.166992	2059.399658
2738.734362	17475.061000	1564.120117	2341.286377
2738.734362	17475.061000	1563.073242	2294.438232
2738.734362	17475.061000	1562.026367	2348.139160
2738.734362	17475.061000	1560.978516	2347.141846
2738.734362	17475.061000	1559.930664	2280.092285
2738.734362	17475.061000	1558.883789	2128.797119
2738.734362	17475.061000	1557.834961	2486.213379
2738.734362	17475.061000	1556.787109	2357.947510
2738.734362	17475.061000	1555.739258	2485.175049
2738.734362	17475.061000	1554.690430	2432.391113
2738.734362	17475.061000	1553.641602	2341.005859
2738.734362	17475.061000	1552.592773	2397.870850
2738.734362	17475.061000	1551.542969	2149.577637
2738.734362	17475.061000	1550.494141	2368.401855
2738.734362	17475.061000	1549.444336	2279.850098
2738.734362	17475.061000	1548.394531	2293.904785
2738.734362	17475.061000	1547.344727	2085.021973
2738.734362	17475.061000	1546.293945	2065.215088
2738.734362	17475.061000	1545.244141	1836.240234
2738.734362	17475.061000	1544.193359	1648.418213
2738.734362	17475.061000	1543.142578	1629.102661
2738.734362	17475.061000	1542.090820	1489.398193
2738.734362	17475.061000	1541.040039	1534.047974
2738.734362	17475.061000	1539.988281	1226.489136
2738.734362	17475.061000	1538.936523	1321.427490
2738.734362	17475.061000	1537.884766	1161.994995
2738.734362	17475.061000	1536.833008	1216.300293
2738.734362	17475.061000	1535.780273	1225.287231
2738.734362	17475.061000	1534.727539	993.715637
2738.734362	17475.061000	1533.674805	812.326965
2738.734362	17475.061000	1532.622070	901.265747
2738.734362	17475.061000	1531.569336	752.031250
2738.734362	17475.061000	1530.515625	671.057129
2738.734362	17475.061000	1529.461914	758.133789
2738.734362	17475.061000	1528.408203	883.884338
2738.734362	17475.061000	1527.354492	603.834167
2738.734362	17475.061000	1526.299805	630.101135
2738.734362	17475.061000	1525.246094	602.123596
2738.734362	17475.061000	1524.191406	746.534851
2738.734362	17475.061000	1523.136719	705.248230
2738.734362	17475.061000	1522.081055	616.550171
2738.734362	17475.061000	1521.026367	589.210632
2738.734362	17475.061000	1519.970703	419.367035
2738.734362	17475.061000	1518.915039	460.305115
2738.734362	17475.061000	1517.859375	453.852905
2738.734362	17475.061000	1516.802734	304.976196
2738.734362	17475.061000	1515.747070	86.191353
2738.734362	17475.061000	1514.690430	191.143158
2738.734362	17475.061000	1513.633789	90.397713
2738.734362	17475.061000	1512.577148	1.163812
2738.734362	17475.061000	1511.519531	20.643320
2738.734362	17475.061000	1510.461914	71.930138
2738.734362	17475.061000	1509.405273	-55.163746
2738.734362	17475.061000	1508.346680	-136.868286
2738.734362	17475.061000	1507.289063	-204.805634
2738.734362	17475.061000	1506.231445	-335.786407
2738.734362	17475.061000	1505.172852	-231.700607
2738.734362	17475.061000	1504.114258	-23.627314
2738.734362	17475.061000	1503.055664	-36.679173
2738.734362	17475.061000	1501.996094	-69.872734
2738.734362	17475.061000	1500.937500	174.668839
2738.734362	17475.061000	1499.877930	-110.869263
2738.734362	17475.061000	1498.818359	-32.982044
2738.734362	17475.061000	1497.757813	58.573334
2738.734362	17475.061000	1496.698242	-16.563049
2738.734362	17475.061000	1495.637695	88.834320
2738.734362	17475.061000	1494.577148	23.085138
2738.734362	17475.061000	1493.516602	137.803131
2738.734362	17475.061000	1492.456055	176.060028
2738.734362	17475.061000	1491.394531	164.921860
2738.734362	17475.061000	1490.333008	208.015137
2738.734362	17475.061000	1489.271484	127.442825
2738.734362	17475.061000	1488.209961	164.136917
2738.734362	17475.061000	1487.148438	309.027435
2738.734362	17475.061000	1486.085938	265.025879
2738.734362	17475.061000	1485.023438	313.462006
2738.734362	17475.061000	1483.960938	611.727661
2738.734362	17475.061000	1482.898438	592.977417
2738.734362	17475.061000	1481.834961	515.951538
2738.734362	17475.061000	1480.772461	551.530823
2738.734362	17475.061000	1479.708984	429.963196
2738.734362	17475.061000	1478.644531	508.595093
2738.734362	17475.061000	1477.581055	847.914612
2738.734362	17475.061000	1476.517578	704.485413
2738.734362	17475.061000	1475.453125	639.856445
2738.734362	17475.061000	1474.388672	728.035095
2738.734362	17475.061000	1473.323242	737.849731
2738.734362	17475.061000	1472.258789	1019.287720
2738.734362	17475.061000	1471.193359	1125.821167
2738.734362	17475.061000	1470.127930	929.877930
2738.734362	17475.061000	1469.062500	1036.725342
2738.734362	17475.061000	1467.997070	890.339233
2738.734362	17475.061000	1466.930664	1178.910156
2738.734362	17475.061000	1465.865234	977.166382
2738.734362	17475.061000	1464.798828	1093.618286
2738.734362	17475.061000	1463.731445	1051.119873
2738.734362	17475.061000	1462.665039	843.268188
2738.734362	17475.061000	1461.597656	1112.317993
2738.734362	17475.061000	1460.530273	902.836731
2738.734362	17475.061000	1459.462891	765.727600
2738.734362	17475.061000	1458.395508	496.518707
2738.734362	17475.061000	1457.327148	665.040894
2738.734362	17475.061000	1456.259766	766.999512
2738.734362	17475.061000	1455.191406	713.153992
2738.734362	17475.061000	1454.123047	696.934998
2738.734362	17475.061000	1453.053711	470.121124
2738.734362	17475.061000	1451.985352	343.620422
2738.734362	17475.061000	1450.916016	406.446594
2738.734362	17475.061000	1449.846680	260.445496
2738.734362	17475.061000	1448.776367	376.543884
2738.734362	17475.061000	1447.707031	272.597504
2738.734362	17475.061000	1446.636719	210.955383
2738.734362	17475.061000	1445.566406	328.002655
2738.734362	17475.061000	1444.496094	493.882538
2738.734362	17475.061000	1443.425781	376.549744
2738.734362	17475.061000	1442.354492	449.063751
2738.734362	17475.061000	1441.283203	436.471069
2738.734362	17475.061000	1440.211914	368.565186
2738.734362	17475.061000	1439.140625	391.547852
2738.734362	17475.061000	1438.069336	443.641266
2738.734362	17475.061000	1436.997070	332.801239
2738.734362	17475.061000	1435.924805	309.881897
2738.734362	17475.061000	1434.852539	395.250854
2738.734362	17475.061000	1433.780273	110.950645
2738.734362	17475.061000	1432.707031	342.021637
2738.734362	17475.061000	1431.633789	369.566223
2738.734362	17475.061000	1430.560547	477.140503
2738.734362	17475.061000	1429.487305	409.386475
2738.734362	17475.061000	1428.413086	300.951569
2738.734362	17475.061000	1427.339844	196.444580
2738.734362	17475.061000	1426.265625	316.907196
2738.734362	17475.061000	1425.191406	346.260101
2738.734362	17475.061000	1424.116211	252.623001
2738.734362	17475.061000	1423.041992	425.115967
2738.734362	17475.061000	1421.966797	457.719482
2738.734362	17475.061000	1420.891602	471.054657
2738.734362	17475.061000	1419.816406	563.775085
2738.734362	17475.061000	1418.740234	663.633057
2738.734362	17475.061000	1417.665039	644.574097
2738.734362	17475.061000	1416.588867	736.133972
2738.734362	17475.061000	1415.512695	802.458252
2738.734362	17475.061000	1414.435547	629.161255
2738.734362	17475.061000	1413.359375	786.447754
2738.734362	17475.061000	1412.282227	951.091125
2738.734362	17475.061000	1411.205078	665.096680
2738.734362	17475.061000	1410.127930	910.812134
2738.734362	17475.061000	1409.049805	709.553650
2738.734362	17475.061000	1407.972656	763.861389
2738.734362	17475.061000	1406.894531	845.826599
2738.734362	17475.061000	1405.816406	867.746704
2738.734362	17475.061000	1404.737305	781.588684
2738.734362	17475.061000	1403.659180	746.619934
2738.734362	17475.061000	1402.580078	612.634155
2738.734362	17475.061000	1401.500977	600.614441
2738.734362	17475.061000	1400.421875	408.994568
2738.734362	17475.061000	1399.341797	507.921844
2738.734362	17475.061000	1398.262695	611.624146
2738.734362	17475.061000	1397.182617	658.402222
2738.734362	17475.061000	1396.102539	705.105835
2738.734362	17475.061000	1395.021484	535.611328
2738.734362	17475.061000	1393.941406	374.391449
2738.734362	17475.061000	1392.860352	658.280396
2738.734362	17475.061000	1391.779297	503.592957
2738.734362	17475.061000	1390.698242	686.446228
2738.734362	17475.061000	1389.616211	837.845337
2738.734362	17475.061000	1388.535156	596.524170
2738.734362	17475.061000	1387.453125	663.237183
2738.734362	17475.061000	1386.371094	835.065063
2738.734362	17475.061000	1385.288086	808.323853
2738.734362	17475.061000	1384.206055	786.355835
2738.734362	17475.061000	1383.123047	941.224976
2738.734362	17475.061000	1382.040039	1029.282959
2738.734362	17475.061000	1380.957031	864.601807
2738.734362	17475.061000	1379.873047	946.889954
2738.734362	17475.061000	1378.789063	937.025818
2738.734362	17475.061000	1377.705078	1078.368530
2738.734362	17475.061000	1376.621094	974.349670
2738.734362	17475.061000	1375.537109	915.647644
2738.734362	17475.061000	1374.452148	847.914795
2738.734362	17475.061000	1373.367188	961.173462
2738.734362	17475.061000	1372.282227	1037.573730
2738.734362	17475.061000	1371.197266	868.267700
2738.734362	17475.061000	1370.112305	1080.323608
2738.734362	17475.061000	1369.026367	974.612915
2738.734362	17475.061000	1367.940430	1012.682739
2738.734362	17475.061000	1366.854492	919.670593
2738.734362	17475.061000	1365.767578	895.265625
2738.734362	17475.061000	1364.681641	576.760498
2738.734362	17475.061000	1363.594727	712.907227
2738.734362	17475.061000	1362.507813	600.422119
2738.734362	17475.061000	1361.419922	664.399231
2738.734362	17475.061000	1360.333008	790.509094
2738.734362	17475.061000	1359.245117	710.878601
2738.734362	17475.061000	1358.157227	629.805725
2738.734362	17475.061000	1357.069336	757.101563
2738.734362	17475.061000	1355.981445	748.970947
2738.734362	17475.061000	1354.892578	808.055359
2738.734362	17475.061000	1353.803711	634.457947
2738.734362	17475.061000	1352.714844	798.126587
2738.734362	17475.061000	1351.625000	847.263550
2738.734362	17475.061000	1350.536133	806.691772
2738.734362	17475.061000	1349.446289	967.186462
2738.734362	17475.061000	1348.356445	1058.394165
2738.734362	17475.061000	1347.266602	1088.339844
2738.734362	17475.061000	1346.175781	1237.546631
2738.734362	17475.061000	1345.085938	1150.782715
2738.734362	17475.061000	1343.995117	1105.721680
2738.734362	17475.061000	1342.903320	1253.093018
2738.734362	17475.061000	1341.812500	1155.445435
2738.734362	17475.061000	1340.720703	1130.491211
2738.734362	17475.061000	1339.629883	1294.002319
2738.734362	17475.061000	1338.538086	1444.987549
2738.734362	17475.061000	1337.445313	1206.707275
2738.734362	17475.061000	1336.353516	1496.120605
2738.734362	17475.061000	1335.260742	1319.680908
2738.734362	17475.061000	1334.167969	1391.652710
2738.734362	17475.061000	1333.075195	1280.177856
2738.734362	17475.061000	1331.981445	1526.726196
2738.734362	17475.061000	1330.888672	1382.470581
2738.734362	17475.061000	1329.794922	1435.305664
2738.734362	17475.061000	1328.701172	1457.718994
2738.734362	17475.061000	1327.606445	1548.219604
2738.734362	17475.061000	1326.512695	1455.698608
2738.734362	17475.061000	1325.417969	1452.849854
2738.734362	17475.061000	1324.323242	1437.921631
2738.734362	17475.061000	1323.227539	1334.228638
2738.734362	17475.061000	1322.132813	1353.355835
2738.734362	17475.061000	1321.037109	1235.213623
2738.734362	17475.061000	1319.941406	1230.292847
2738.734362	17475.061000	1318.845703	1028.267944
2738.734362	17475.061000	1317.750000	1048.454834
2738.734362	17475.061000	1316.653320	938.281128
2738.734362	17475.061000	1315.556641	762.911194
2738.734362	17475.061000	1314.459961	800.351440
2738.734362	17475.061000	1313.363281	576.122864
2738.734362	17475.061000	1312.265625	631.257813
2738.734362	17475.061000	1311.167969	243.878403
2738.734362	17475.061000	1310.070313	275.999878
2738.734362	17475.061000	1308.972656	349.017242
2738.734362	17475.061000	1307.874023	323.487457
2738.734362	17475.061000	1306.776367	71.639099
2738.734362	17475.061000	1305.677734	134.035751
2738.734362	17475.061000	1304.579102	197.874451
2738.734362	17475.061000	1303.479492	-1.728085
2738.734362	17475.061000	1302.380859	135.262009
2738.734362	17475.061000	1301.281250	235.945801
2738.734362	17475.061000	1300.181641	108.570938
2738.734362	17475.061000	1299.081055	252.726959
2738.734362	17475.061000	1297.981445	247.749146
2738.734362	17475.061000	1296.880859	77.962540
2738.734362	17475.061000	1295.780273	139.066803
2738.734362	17475.061000	1294.679688	313.197205
2738.734362	17475.061000	1293.578125	224.464996
2738.734362	17475.061000	1292.476563	275.098022
2738.734362	17475.061000	1291.375000	222.136826
2738.734362	17475.061000	1290.273438	258.879852
2738.734362	17475.061000	1289.171875	291.237823
2738.734362	17475.061000	1288.069336	278.412933
2738.734362	17475.061000	1286.966797	287.953186
2738.734362	17475.061000	1285.864258	254.664825
2738.734362	17475.061000	1284.761719	75.398979
2738.734362	17475.061000	1283.658203	332.518158
2738.734362	17475.061000	1282.554688	162.241165
2738.734362	17475.061000	1281.451172	175.163300
2738.734362	17475.061000	1280.347656	404.618134
2738.734362	17475.061000	1279.244141	263.535004
2738.734362	17475.061000	1278.139648	240.619308
2738.734362	17475.061000	1277.035156	233.254761
2738.734362	17475.061000	1275.930664	125.791588
2738.734362	17475.061000	1274.825195	80.604187
2738.734362	17475.061000	1273.720703	272.934845
2738.734362	17475.061000	1272.615234	205.731049
2738.734362	17475.061000	1271.508789	143.865494
2738.734362	17475.061000	1270.403320	342.044312
2738.734362	17475.061000	1269.297852	362.539368
2738.734362	17475.061000	1268.191406	517.822876
2738.734362	17475.061000	1267.084961	412.522644
2738.734362	17475.061000	1265.977539	265.440857
2738.734362	17475.061000	1264.871094	385.298248
2738.734362	17475.061000	1263.763672	345.625458
2738.734362	17475.061000	1262.656250	271.406677
2738.734362	17475.061000	1261.548828	267.301819
2738.734362	17475.061000	1260.440430	263.652222
2738.734362	17475.061000	1259.333008	289.115112
2738.734362	17475.061000	1258.224609	390.372528
2738.734362	17475.061000	1257.115234	535.794312
2738.734362	17475.061000	1256.006836	485.868835
2738.734362	17475.061000	1254.897461	466.836670
2738.734362	17475.061000	1253.788086	488.134247
2738.734362	17475.061000	1252.678711	585.339478
2738.734362	17475.061000	1251.569336	363.879822
2738.734362	17475.061000	1250.458984	382.413116
2738.734362	17475.061000	1249.349609	430.181641
2738.734362	17475.061000	1248.239258	354.939697
2738.734362	17475.061000	1247.127930	320.474182
2738.734362	17475.061000	1246.017578	270.339996
2738.734362	17475.061000	1244.906250	242.047211
2738.734362	17475.061000	1243.794922	200.182800
2738.734362	17475.061000	1242.683594	168.345215
2738.734362	17475.061000	1241.571289	225.774231
2738.734362	17475.061000	1240.459961	228.715378
2738.734362	17475.061000	1239.347656	64.871010
2738.734362	17475.061000	1238.234375	109.978249
2738.734362	17475.061000	1237.122070	22.022982
2738.734362	17475.061000	1236.008789	147.435028
2738.734362	17475.061000	1234.896484	245.404480
2738.734362	17475.061000	1233.782227	102.570633
2738.734362	17475.061000	1232.668945	215.999054
2738.734362	17475.061000	1231.555664	255.546677
2738.734362	17475.061000	1230.441406	150.805679
2738.734362	17475.061000	1229.327148	1.988353
2738.734362	17475.061000	1228.211914	64.071617
2738.734362	17475.061000	1227.097656	270.520386
2738.734362	17475.061000	1225.982422	116.421349
2738.734362	17475.061000	1224.867188	326.626587
2738.734362	17475.061000	1223.751953	289.502289
2738.734362	17475.061000	1222.635742	185.913925
2738.734362	17475.061000	1221.520508	248.571899
2738.734362	17475.061000	1220.404297	154.730576
2738.734362	17475.061000	1219.287109	149.086151
2738.734362	17475.061000	1218.170898	130.295547
2738.734362	17475.061000	1217.053711	111.573891
2738.734362	17475.061000	1215.936523	72.390808
2738.734362	17475.061000	1214.819336	92.492447
2738.734362	17475.061000	1213.702148	125.159142
2738.734362	17475.061000	1212.583984	10.815677
2738.734362	17475.061000	1211.465820	-9.224382
2738.734362	17475.061000	1210.347656	132.327148
2738.734362	17475.061000	1209.229492	243.635391
2738.734362	17475.061000	1208.110352	106.698273
2738.734362	17475.061000	1206.992188	262.402130
2738.734362	17475.061000	1205.873047	205.495514
2738.734362	17475.061000	1204.752930	279.972626
2738.734362	17475.061000	1203.633789	242.944702
2738.734362	17475.061000	1202.513672	66.957932
2738.734362	17475.061000	1201.393555	120.187691
2738.734362	17475.061000	1200.273438	-2.788681
2738.734362	17475.061000	1199.152344	-59.116154
2738.734362	17475.061000	1198.032227	107.920563
2738.734362	17475.061000	1196.911133	28.651426
2738.734362	17475.061000	1195.790039	87.033348
2738.734362	17475.061000	1194.667969	46.643860
2738.734362	17475.061000	1193.545898	312.192932
2738.734362	17475.061000	1192.424805	269.053833
2738.734362	17475.061000	1191.301758	359.557983
2738.734362	17475.061000	1190.179688	349.906738
2738.734362	17475.061000	1189.056641	324.504608
2738.734362	17475.061000	1187.933594	309.382172
2738.734362	17475.061000	1186.810547	315.128601
2738.734362	17475.061000	1185.687500	55.277477
2738.734362	17475.061000	1184.563477	57.192986
2738.734362	17475.061000	1183.440430	-99.867981
2738.734362	17475.061000	1182.316406	-140.370682
2738.734362	17475.061000	1181.191406	-256.970215
2738.734362	17475.061000	1180.067383	-175.945450
2738.734362	17475.061000	1178.942383	-28.009035
2738.734362	17475.061000	1177.817383	-213.331909
2738.734362	17475.061000	1176.692383	-318.352112
2738.734362	17475.061000	1175.566406	-45.315228
2738.734362	17475.061000	1174.440430	-102.702477
2738.734362	17475.061000	1173.314453	-78.656006
2738.734362	17475.061000	1172.188477	-61.809139
2738.734362	17475.061000	1171.062500	-13.388946
2738.734362	17475.061000	1169.935547	60.918350
2738.734362	17475.061000	1168.808594	38.759781
2738.734362	17475.061000	1167.681641	-60.362198
2738.734362	17475.061000	1166.553711	43.820133
2738.734362	17475.061000	1165.426758	-64.044548
2738.734362	17475.061000	1164.298828	-155.228012
2738.734362	17475.061000	1163.170898	-105.615067
2738.734362	17475.061000	1162.041992	-184.259521
2738.734362	17475.061000	1160.914063	-197.753311
2738.734362	17475.061000	1159.785156	-138.772034
2738.734362	17475.061000	1158.656250	-104.287094
2738.734362	17475.061000	1157.526367	-198.398422
2738.734362	17475.061000	1156.397461	-99.202263
2738.734362	17475.061000	1155.267578	-141.635437
2738.734362	17475.061000	1154.137695	-211.072372
2738.734362	17475.061000	1153.006836	-229.078079
2738.734362	17475.061000	1151.876953	-184.272598
2738.734362	17475.061000	1150.746094	-226.329605
2738.734362	17475.061000	1149.615234	-131.029449
2738.734362	17475.061000	1148.484375	-117.727882
2738.734362	17475.061000	1147.352539	0.666053
2738.734362	17475.061000	1146.220703	-29.760569
2738.734362	17475.061000	1145.088867	-117.233582
2738.734362	17475.061000	1143.957031	-120.877251
2738.734362	17475.061000	1142.825195	-54.379299
2738.734362	17475.061000	1141.692383	-143.664703
2738.734362	17475.061000	1140.559570	-4.227035
2738.734362	17475.061000	1139.426758	-27.725662
2738.734362	17475.061000	1138.292969	106.644722
2738.734362	17475.061000	1137.159180	-53.796692
2738.734362	17475.061000	1136.025391	-20.620396
2738.734362	17475.061000	1134.891602	-84.715210
2738.734362	17475.061000	1133.757813	-140.745331
2738.734362	17475.061000	1132.623047	-139.832535
2738.734362	17475.061000	1131.488281	-150.959946
2738.734362	17475.061000	1130.353516	-3.652098
2738.734362	17475.061000	1129.217773	-11.278979
2738.734362	17475.061000	1128.083008	10.097265
2738.734362	17475.061000	1126.947266	-49.229122
2738.734362	17475.061000	1125.811523	-56.454727
2738.734362	17475.061000	1124.674805	2.552158
2738.734362	17475.061000	1123.539063	-41.914516
2738.734362	17475.061000	1122.402344	1.041488
2738.734362	17475.061000	1121.265625	-39.698936
2738.734362	17475.061000	1120.127930	42.734917
2738.734362	17475.061000	1118.990234	5.656733
2738.734362	17475.061000	1117.853516	-7.266967
2738.734362	17475.061000	1116.714844	90.103889
2738.734362	17475.061000	1115.577148	-112.896126
2738.734362	17475.061000	1114.439453	-69.073181
2738.734362	17475.061000	1113.300781	177.508484
2738.734362	17475.061000	1112.162109	-26.741236
2738.734362	17475.061000	1111.022461	-61.775402
2738.734362	17475.061000	1109.883789	114.714531
2738.734362	17475.061000	1108.744141	170.561615
2738.734362	17475.061000	1107.604492	171.092072
2738.734362	17475.061000	1106.463867	75.788162
2738.734362	17475.061000	1105.324219	92.636772
2738.734362	17475.061000	1104.183594	126.364937
2738.734362	17475.061000	1103.042969	301.028717
2738.734362	17475.061000	1101.902344	261.521759
2738.734362	17475.061000	1100.760742	272.355316
2738.734362	17475.061000	1099.619141	405.916748
2738.734362	17475.061000	1098.477539	474.089996
2738.734362	17475.061000	1097.335938	431.486511
2738.734362	17475.061000	1096.193359	583.326294
2738.734362	17475.061000	1095.051758	730.024353
2738.734362	17475.061000	1093.909180	718.950989
2738.734362	17475.061000	1092.765625	772.751770
2738.734362	17475.061000	1091.623047	802.554993
2738.734362	17475.061000	1090.479492	498.984589
2738.734362	17475.061000	1089.335938	465.138550
2738.734362	17475.061000	1088.192383	485.709473
2738.734362	17475.061000	1087.047852	407.682434
2738.734362	17475.061000	1085.903320	468.268982
2738.734362	17475.061000	1084.758789	349.787720
2738.734362	17475.061000	1083.614258	327.281921
2738.734362	17475.061000	1082.469727	455.401215
2738.734362	17475.061000	1081.324219	338.150879
2738.734362	17475.061000	1080.178711	439.147156
2738.734362	17475.061000	1079.033203	341.979187
2738.734362	17475.061000	1077.886719	319.136414
2738.734362	17475.061000	1076.740234	296.787079
2738.734362	17475.061000	1075.593750	116.149292
2738.734362	17475.061000	1074.447266	177.028992
2738.734362	17475.061000	1073.300781	97.852303
2738.734362	17475.061000	1072.153320	175.627853
2738.734362	17475.061000	1071.005859	316.281128
2738.734362	17475.061000	1069.858398	135.767548
2738.734362	17475.061000	1068.709961	214.356293
2738.734362	17475.061000	1067.561523	290.473053
2738.734362	17475.061000	1066.413086	76.915108
2738.734362	17475.061000	1065.264648	74.427887
2738.734362	17475.061000	1064.116211	46.020573
2738.734362	17475.061000	1062.966797	41.215958
2738.734362	17475.061000	1061.817383	160.314133
2738.734362	17475.061000	1060.667969	53.119190
2738.734362	17475.061000	1059.517578	139.630310
2738.734362	17475.061000	1058.368164	-144.147797
2738.734362	17475.061000	1057.217773	73.255424
2738.734362	17475.061000	1056.067383	4.176572
2738.734362	17475.061000	1054.916016	151.573563
2738.734362	17475.061000	1053.764648	105.606361
2738.734362	17475.061000	1052.613281	58.794907
2738.734362	17475.061000	1051.461914	69.654274
2738.734362	17475.061000	1050.310547	91.287437
2738.734362	17475.061000	1049.158203	104.484070
2738.734362	17475.061000	1048.005859	182.264816
2738.734362	17475.061000	1046.853516	205.549042
2738.734362	17475.061000	1045.700195	241.492493
2738.734362	17475.061000	1044.547852	184.393402
2738.734362	17475.061000	1043.394531	193.891800
2738.734362	17475.061000	1042.240234	171.820984
2738.734362	17475.061000	1041.086914	100.245178
2738.734362	17475.061000	1039.932617	137.065811
2738.734362	17475.061000	1038.778320	261.879211
2738.734362	17475.061000	1037.624023	184.115570
2738.734362	17475.061000	1036.469727	219.514603
2738.734362	17475.061000	1035.314453	243.454163
2738.734362	17475.061000	1034.159180	343.493774
2738.734362	17475.061000	1033.003906	276.907318
2738.734362	17475.061000	1031.847656	472.651642
2738.734362	17475.061000	1030.692383	563.087952
2738.734362	17475.061000	1029.536133	576.941833
2738.734362	17475.061000	1028.378906	339.662842
2738.734362	17475.061000	1027.222656	422.321503
2738.734362	17475.061000	1026.065430	398.750488
2738.734362	17475.061000	1024.908203	493.645538
2738.734362	17475.061000	1023.750977	396.814728
2738.734362	17475.061000	1022.593750	392.795715
2738.734362	17475.061000	1021.435547	349.727417
2738.734362	17475.061000	1020.277344	181.145645
2738.734362	17475.061000	1019.119141	144.134872
2738.734362	17475.061000	1017.959961	357.451080
2738.734362	17475.061000	1016.800781	293.686859
2738.734362	17475.061000	1015.641602	66.563423
2738.734362	17475.061000	1014.482422	1.027569
2738.734362	17475.061000	1013.323242	225.254608
2738.734362	17475.061000	1012.163086	224.013977
2738.734362	17475.061000	1011.002930	246.632858
2738.734362	17475.061000	1009.842773	26.484844
2738.734362	17475.061000	1008.681641	9.096998
2738.734362	17475.061000	1007.520508	52.027157
2738.734362	17475.061000	1006.359375	39.235798
2738.734362	17475.061000	1005.198242	107.276169
2738.734362	17475.061000	1004.037109	352.924164
2738.734362	17475.061000	1002.875000	180.416626
2738.734362	17475.061000	1001.712891	216.046951
2738.734362	17475.061000	1000.550781	240.058807
2738.734362	17475.061000	999.387695	221.648849
2738.734362	17475.061000	998.224609	46.437782
2738.734362	17475.061000	997.061523	216.225906
2738.734362	17475.061000	995.898438	73.357506
2738.734362	17475.061000	994.734375	41.082733
2738.734362	17475.061000	993.571289	-42.081642
2738.734362	17475.061000	992.407227	1.789951
2738.734362	17475.061000	991.242188	29.724258
2738.734362	17475.061000	990.078125	45.911152
2738.734362	17475.061000	988.913086	48.439026
2738.734362	17475.061000	987.748047	91.130142
2738.734362	17475.061000	986.583008	5.709600
2738.734362	17475.061000	985.416992	143.806137
2738.734362	17475.061000	984.250977	148.526321
2738.734362	17475.061000	983.084961	-54.611790
2738.734362	17475.061000	981.918945	101.609093
2738.734362	17475.061000	980.751953	38.693523
2738.734362	17475.061000	979.584961	109.190582
2738.734362	17475.061000	978.417969	81.608566
2738.734362	17475.061000	977.250977	188.543671
2738.734362	17475.061000	976.083008	85.211205
2738.734362	17475.061000	974.915039	-22.364002
2738.734362	17475.061000	973.747070	53.693516
2738.734362	17475.061000	972.579102	181.577591
2738.734362	17475.061000	971.410156	86.882301
2738.734362	17475.061000	970.242188	209.831009
2738.734362	17475.061000	969.072266	226.544739
2738.734362	17475.061000	967.903320	158.808670
2738.734362	17475.061000	966.733398	199.957764
2738.734362	17475.061000	965.563477	150.652817
2738.734362	17475.061000	964.393555	300.762451
2738.734362	17475.061000	963.223633	420.643585
2738.734362	17475.061000	962.052734	245.055954
2738.734362	17475.061000	960.881836	353.512115
2738.734362	17475.061000	959.710938	423.886475
2738.734362	17475.061000	958.540039	349.287903
2738.734362	17475.061000	957.368164	474.018036
2738.734362	17475.061000	956.196289	383.877563
2738.734362	17475.061000	955.024414	474.332703
2738.734362	17475.061000	953.851563	358.354950
2738.734362	17475.061000	952.679688	446.454681
2738.734362	17475.061000	951.506836	404.172089
2738.734362	17475.061000	950.333984	258.073608
2738.734362	17475.061000	949.160156	323.181305
2738.734362	17475.061000	947.986328	245.457260
2738.734362	17475.061000	946.812500	273.759216
2738.734362	17475.061000	945.638672	249.189148
2738.734362	17475.061000	944.464844	139.579453
2738.734362	17475.061000	943.290039	97.465759
2738.734362	17475.061000	942.115234	30.307251
2738.734362	17475.061000	940.940430	-180.335175
2738.734362	17475.061000	939.764648	122.633614
2738.734362	17475.061000	938.588867	5.027331
2738.734362	17475.061000	937.413086	141.131485
2738.734362	17475.061000	936.237305	178.505997
2738.734362	17475.061000	935.060547	47.278061
2738.734362	17475.061000	933.883789	258.817169
2738.734362	17475.061000	932.707031	135.296494
2738.734362	17475.061000	931.530273	83.461464
2738.734362	17475.061000	930.352539	112.863968
2738.734362	17475.061000	929.175781	258.487061
2738.734362	17475.061000	927.998047	161.926376
2738.734362	17475.061000	926.819336	100.271965
2738.734362	17475.061000	925.641602	166.348801
2738.734362	17475.061000	924.462891	319.510162
2738.734362	17475.061000	923.284180	176.465546
2738.734362	17475.061000	922.104492	333.393616
2738.734362	17475.061000	920.924805	445.741180
2738.734362	17475.061000	919.746094	447.655396
2738.734362	17475.061000	919.551758	509.965515
2738.734362	17475.061000	918.386719	606.677124
2738.734362	17475.061000	917.220703	728.464478
2738.734362	17475.061000	916.054688	745.779358
2738.734362	17475.061000	914.887695	689.612793
2738.734362	17475.061000	913.721680	621.846741
2738.734362	17475.061000	912.554688	656.489197
2738.734362	17475.061000	911.387695	499.850494
2738.734362	17475.061000	910.220703	374.153412
2738.734362	17475.061000	909.052734	198.280396
2738.734362	17475.061000	907.885742	155.661453
2738.734362	17475.061000	906.717773	311.844452
2738.734362	17475.061000	905.548828	-62.744736
2738.734362	17475.061000	904.380859	193.699982
2738.734362	17475.061000	903.211914	33.357178
2738.734362	17475.061000	902.042969	11.916104
2738.734362	17475.061000	900.874023	61.802689
2738.734362	17475.061000	899.704102	229.243881
2738.734362	17475.061000	898.535156	61.224648
2738.734362	17475.061000	897.365234	236.260239
2738.734362	17475.061000	896.194336	245.513809
2738.734362	17475.061000	895.024414	266.296570
2738.734362	17475.061000	893.853516	202.314117
2738.734362	17475.061000	892.682617	-9.924893
2738.734362	17475.061000	891.511719	341.940979
2738.734362	17475.061000	890.340820	414.566101
2738.734362	17475.061000	889.168945	323.576599
2738.734362	17475.061000	887.997070	199.898270
2738.734362	17475.061000	886.825195	141.645386
2738.734362	17475.061000	885.653320	427.627594
2738.734362	17475.061000	884.480469	294.324432
2738.734362	17475.061000	883.307617	391.730103
2738.734362	17475.061000	882.134766	454.479340
2738.734362	17475.061000	880.961914	465.300720
2738.734362	17475.061000	879.788086	433.831940
2738.734362	17475.061000	878.614258	402.354279
2738.734362	17475.061000	877.440430	537.937073
2738.734362	17475.061000	876.266602	418.089111
2738.734362	17475.061000	875.091797	447.994873
2738.734362	17475.061000	873.916992	431.806763
2738.734362	17475.061000	872.742188	379.146881
2738.734362	17475.061000	871.567383	232.485886
2738.734362	17475.061000	870.391602	269.990570
2738.734362	17475.061000	869.215820	251.847565
2738.734362	17475.061000	868.040039	17.047087
2738.734362	17475.061000	866.864258	60.257072
2738.734362	17475.061000	865.687500	132.173492
2738.734362	17475.061000	864.510742	39.261360
2738.734362	17475.061000	863.333984	21.073372
2738.734362	17475.061000	862.157227	23.938559
2738.734362	17475.061000	860.979492	44.014709
2738.734362	17475.061000	859.802734	10.454768
2738.734362	17475.061000	858.625000	49.620247
2738.734362	17475.061000	857.446289	60.043236
2738.734362	17475.061000	856.268555	24.519344
2738.734362	17475.061000	855.089844	-45.443554
2738.734362	17475.061000	853.911133	-178.513138
2738.734362	17475.061000	852.731445	95.725067
2738.734362	17475.061000	851.552734	-4.866809
2738.734362	17475.061000	850.373047	-38.543758
2738.734362	17475.061000	849.193359	-66.498787
2738.734362	17475.061000	848.013672	-25.687101
2738.734362	17475.061000	846.833008	-89.972694
2738.734362	17475.061000	845.652344	-11.025090
2738.734362	17475.061000	844.471680	65.955368
2738.734362	17475.061000	843.291016	-78.557831
2738.734362	17475.061000	842.110352	-173.414459
2738.734362	17475.061000	840.928711	58.040901
2738.734362	17475.061000	839.747070	-136.058456
2738.734362	17475.061000	838.564453	-127.919495
2738.734362	17475.061000	837.382813	-30.181578
2738.734362	17475.061000	836.200195	-1.146151
2738.734362	17475.061000	835.017578	22.132629
2738.734362	17475.061000	833.834961	154.007111
2738.734362	17475.061000	832.651367	81.920639
2738.734362	17475.061000	831.467773	-51.122322
2738.734362	17475.061000	830.284180	-69.859268
2738.734362	17475.061000	829.100586	-120.987663
2738.734362	17475.061000	827.916992	-107.390541
2738.734362	17475.061000	826.732422	-128.089539
2738.734362	17475.061000	825.547852	41.499996
2738.734362	17475.061000	824.363281	-95.338951
2738.734362	17475.061000	823.177734	-57.139832
2738.734362	17475.061000	821.992188	-174.940002
2738.734362	17475.061000	820.806641	-112.076607
2738.734362	17475.061000	819.621094	-112.005936
2738.734362	17475.061000	818.434570	36.292179
2738.734362	17475.061000	817.249023	-214.567078
2738.734362	17475.061000	816.062500	-201.262894
2738.734362	17475.061000	814.875000	-281.071960
2738.734362	17475.061000	813.688477	-110.190475
2738.734362	17475.061000	812.500977	-178.653259
2738.734362	17475.061000	811.313477	-190.167389
2738.734362	17475.061000	810.125977	-150.462646
2738.734362	17475.061000	808.937500	-329.026886
2738.734362	17475.061000	807.749023	-198.307358
2738.734362	17475.061000	806.560547	-310.463531
2738.734362	17475.061000	805.372070	-246.240753
2738.734362	17475.061000	804.182617	7.524326
2738.734362	17475.061000	802.994141	-38.355247
2738.734362	17475.061000	801.803711	-57.716984
2738.734362	17475.061000	800.614258	-61.944618
2738.734362	17475.061000	799.424805	-18.843540
2738.734362	17475.061000	798.234375	-11.780778
2738.734362	17475.061000	797.043945	161.886459
2738.734362	17475.061000	795.852539	30.630947
2738.734362	17475.061000	794.662109	14.861767
2738.734362	17475.061000	793.470703	-53.926483
2738.734362	17475.061000	792.279297	68.377853
2738.734362	17475.061000	791.087891	26.019608
2738.734362	17475.061000	789.895508	176.555389
2738.734362	17475.061000	788.703125	49.028568
2738.734362	17475.061000	787.510742	27.386137
2738.734362	17475.061000	786.318359	126.684456
2738.734362	17475.061000	785.125000	69.055206
2738.734362	17475.061000	783.931641	79.429581
2738.734362	17475.061000	782.738281	157.763351
2738.734362	17475.061000	781.544922	22.619711
2738.734362	17475.061000	780.350586	-6.770149
2738.734362	17475.061000	779.156250	-7.869462
2738.734362	17475.061000	777.961914	200.491425
2738.734362	17475.061000	776.767578	203.044662
2738.734362	17475.061000	775.572266	84.813293
2738.734362	17475.061000	774.376953	60.902588
2738.734362	17475.061000	773.181641	131.251724
2738.734362	17475.061000	771.986328	62.009869
2738.734362	17475.061000	770.790039	260.428436
2738.734362	17475.061000	769.593750	170.374588
2738.734362	17475.061000	768.397461	69.011101
2738.734362	17475.061000	767.201172	167.336777
2738.734362	17475.061000	766.003906	226.024796
2738.734362	17475.061000	764.806641	109.521530
2738.734362	17475.061000	763.609375	198.235901
2738.734362	17475.061000	762.412109	202.167679
2738.734362	17475.061000	761.213867	196.643234
2738.734362	17475.061000	760.015625	42.439163
2738.734362	17475.061000	758.817383	253.191956
2738.734362	17475.061000	757.618164	251.289429
2738.734362	17475.061000	756.419922	298.233551
2738.734362	17475.061000	755.220703	98.841171
2738.734362	17475.061000	754.021484	324.264069
2738.734362	17475.061000	752.821289	215.056931
2738.734362	17475.061000	751.621094	297.483917
2738.734362	17475.061000	750.420898	317.844635
2738.734362	17475.061000	749.220703	279.933807
2738.734362	17475.061000	748.020508	330.239502
2738.734362	17475.061000	746.819336	262.213745
2738.734362	17475.061000	745.618164	226.074982
2738.734362	17475.061000	744.416992	362.534943
2738.734362	17475.061000	743.214844	144.320938
2738.734362	17475.061000	742.012695	357.546082
2738.734362	17475.061000	740.810547	527.505127
2738.734362	17475.061000	739.608398	607.352234
2738.734362	17475.061000	738.406250	833.327454
2738.734362	17475.061000	737.203125	1205.333740
2738.734362	17475.061000	736.000000	1564.021606
2738.734362	17475.061000	734.795898	1918.763428
2738.734362	17475.061000	733.592773	2159.063721
2738.734362	17475.061000	732.388672	2286.863281
2738.734362	17475.061000	731.184570	2188.036133
2738.734362	17475.061000	729.979492	2100.429443
2738.734362	17475.061000	728.775391	1563.694214
2738.734362	17475.061000	727.570313	1309.643066
2738.734362	17475.061000	726.365234	1076.225708
2738.734362	17475.061000	725.160156	854.077515
2738.734362	17475.061000	723.954102	531.002686
2738.734362	17475.061000	722.748047	451.032928
2738.734362	17475.061000	721.541992	113.127190
2738.734362	17475.061000	720.334961	186.399872
2738.734362	17475.061000	719.128906	115.744095
2738.734362	17475.061000	717.921875	-9.100570
2738.734362	17475.061000	716.714844	15.450651
2738.734362	17475.061000	715.506836	288.252289
2738.734362	17475.061000	714.298828	153.964355
2738.734362	17475.061000	713.090820	152.186539
2738.734362	17475.061000	711.882813	109.311409
2738.734362	17475.061000	710.674805	187.658356
2738.734362	17475.061000	709.465820	161.476273
2738.734362	17475.061000	708.256836	-51.212238
2738.734362	17475.061000	707.047852	92.217903
2738.734362	17475.061000	705.837891	190.800659
2738.734362	17475.061000	704.627930	194.254120
2738.734362	17475.061000	703.417969	182.751190
2738.734362	17475.061000	702.208008	-67.223610
2738.734362	17475.061000	700.998047	-43.381115
2738.734362	17475.061000	699.787109	15.776384
2738.734362	17475.061000	698.576172	-66.618752
2738.734362	17475.061000	697.364258	-191.838379
2738.734362	17475.061000	696.153320	-30.492651
2738.734362	17475.061000	694.941406	89.804222
2738.734362	17475.061000	693.729492	48.183826
2738.734362	17475.061000	692.516602	-144.098480
2738.734362	17475.061000	691.304688	94.990105
2738.734362	17475.061000	690.091797	105.293106
2738.734362	17475.061000	688.878906	121.118073
2738.734362	17475.061000	687.665039	92.292557
2738.734362	17475.061000	686.451172	37.423996
2738.734362	17475.061000	685.237305	112.539040
2738.734362	17475.061000	684.023438	78.020760
2738.734362	17475.061000	682.809570	119.585281
2738.734362	17475.061000	681.594727	142.520935
2738.734362	17475.061000	680.379883	133.854385
2738.734362	17475.061000	679.165039	136.276367
2738.734362	17475.061000	677.949219	-19.018572
2738.734362	17475.061000	676.733398	42.683846
2738.734362	17475.061000	675.517578	28.296091
2738.734362	17475.061000	674.301758	84.311707
2738.734362	17475.061000	673.084961	25.347982
2738.734362	17475.061000	671.869141	123.869713
2738.734362	17475.061000	670.651367	48.157616
2738.734362	17475.061000	669.434570	231.741379
2738.734362	17475.061000	668.216797	231.875595
2738.734362	17475.061000	667.000000	198.645477
2738.734362	17475.061000	665.781250	209.802139
2738.734362	17475.061000	664.563477	270.884460
2738.734362	17475.061000	663.344727	217.181030
2738.734362	17475.061000	662.125977	352.142059
2738.734362	17475.061000	660.907227	623.864685
2738.734362	17475.061000	659.688477	560.754761
2738.734362	17475.061000	658.468750	549.390259
2738.734362	17475.061000	657.249023	502.874878
2738.734362	17475.061000	656.029297	548.734558
2738.734362	17475.061000	654.808594	535.412537
2738.734362	17475.061000	653.587891	570.083862
2738.734362	17475.061000	652.367188	418.187653
2738.734362	17475.061000	651.146484	380.789948
2738.734362	17475.061000	649.924805	585.184448
2738.734362	17475.061000	648.704102	387.136169
2738.734362	17475.061000	647.482422	257.403809
2738.734362	17475.061000	646.259766	402.555359
2738.734362	17475.061000	645.037109	313.378479
2738.734362	17475.061000	643.815430	281.374817
2738.734362	17475.061000	642.591797	203.255112
2738.734362	17475.061000	641.369141	182.280731
2738.734362	17475.061000	640.145508	133.637924
2738.734362	17475.061000	638.921875	236.064758
2738.734362	17475.061000	637.698242	364.207458
2738.734362	17475.061000	636.474609	315.471130
2738.734362	17475.061000	635.250000	281.454041
2738.734362	17475.061000	634.025391	317.376801
2738.734362	17475.061000	632.800781	439.759735
2738.734362	17475.061000	631.575195	374.374939
2738.734362	17475.061000	630.349609	323.709747
2738.734362	17475.061000	629.124023	280.400696
2738.734362	17475.061000	627.898438	213.182053
2738.734362	17475.061000	626.671875	366.586639
2738.734362	17475.061000	625.445313	297.492462
2738.734362	17475.061000	624.218750	351.536194
2738.734362	17475.061000	622.992188	484.542877
2738.734362	17475.061000	621.764648	494.395020
2738.734362	17475.061000	620.537109	340.770477
2738.734362	17475.061000	619.309570	264.314728
2738.734362	17475.061000	618.081055	217.243240
2738.734362	17475.061000	616.852539	300.489838
2738.734362	17475.061000	615.624023	385.523254
2738.734362	17475.061000	614.395508	217.330750
2738.734362	17475.061000	613.166992	388.529510
2738.734362	17475.061000	611.937500	260.724640
2738.734362	17475.061000	610.708008	283.307098
2738.734362	17475.061000	609.477539	135.390808
2738.734362	17475.061000	608.248047	152.475525
2738.734362	17475.061000	607.017578	169.541000
2738.734362	17475.061000	605.787109	107.822021
2738.734362	17475.061000	604.555664	2.163949
2738.734362	17475.061000	603.325195	-218.808411
2738.734362	17475.061000	602.093750	52.769501
2738.734362	17475.061000	600.861328	-29.029018
2738.734362	17475.061000	599.629883	-11.971732
2738.734362	17475.061000	598.397461	-187.029022
2738.734362	17475.061000	597.165039	-188.240479
2738.734362	17475.061000	595.932617	-79.721260
2738.734362	17475.061000	594.699219	-84.610306
2738.734362	17475.061000	593.465820	-171.752869
2738.734362	17475.061000	592.232422	-65.125435
2738.734362	17475.061000	590.999023	-64.514999
2738.734362	17475.061000	589.764648	-78.517479
2738.734362	17475.061000	588.530273	68.222031
2738.734362	17475.061000	587.295898	98.041534
2738.734362	17475.061000	586.061523	255.655975
2738.734362	17475.061000	584.826172	221.556412
2738.734362	17475.061000	583.590820	205.734451
2738.734362	17475.061000	582.355469	259.263428
2738.734362	17475.061000	581.119141	507.960632
2738.734362	17475.061000	579.882813	324.345917
2738.734362	17475.061000	578.646484	197.351074
2738.734362	17475.061000	577.410156	356.631439
2738.734362	17475.061000	576.172852	311.731934
2738.734362	17475.061000	574.935547	297.850067
2738.734362	17475.061000	573.698242	254.847260
2738.734362	17475.061000	572.460938	337.562500
2738.734362	17475.061000	571.222656	400.230164
2738.734362	17475.061000	569.984375	324.530151
2738.734362	17475.061000	568.746094	425.450806
2738.734362	17475.061000	567.506836	759.288086
2738.734362	17475.061000	566.267578	754.595886
2738.734362	17475.061000	565.028320	722.649536
2738.734362	17475.061000	563.789063	618.000977
2738.734362	17475.061000	562.548828	695.251831
2738.734362	17475.061000	561.309570	588.900024
2738.734362	17475.061000	560.068359	564.406006
2738.734362	17475.061000	558.828125	587.206726
2738.734362	17475.061000	557.586914	479.224609
2738.734362	17475.061000	556.345703	404.019897
2738.734362	17475.061000	555.104492	574.036987
2738.734362	17475.061000	553.863281	582.436890
2738.734362	17475.061000	552.621094	496.478821
2738.734362	17475.061000	551.378906	514.040283
2738.734362	17475.061000	550.136719	301.209137
2738.734362	17475.061000	548.893555	242.696640
2738.734362	17475.061000	547.650391	93.572632
2738.734362	17475.061000	546.407227	-19.178640
2738.734362	17475.061000	545.164063	181.784470
2738.734362	17475.061000	543.919922	157.959518
2738.734362	17475.061000	542.675781	277.344757
2738.734362	17475.061000	541.431641	269.909760
2738.734362	17475.061000	540.186523	510.668671
2738.734362	17475.061000	538.941406	481.549347
2738.734362	17475.061000	537.696289	468.787781
2738.734362	17475.061000	536.451172	559.258728
2738.734362	17475.061000	535.205078	374.659027
2738.734362	17475.061000	533.959961	367.511017
2738.734362	17475.061000	532.712891	222.929474
2738.734362	17475.061000	531.466797	288.262695
2738.734362	17475.061000	530.219727	297.563049
2738.734362	17475.061000	528.972656	223.756882
2738.734362	17475.061000	527.725586	204.258682
2738.734362	17475.061000	526.478516	192.053299
2738.734362	17475.061000	525.230469	246.750854
2738.734362	17475.061000	523.982422	212.975525
2738.734362	17475.061000	522.734375	139.543091
2738.734362	17475.061000	521.485352	167.302002
2738.734362	17475.061000	520.236328	18.208241
2738.734362	17475.061000	518.987305	186.863602
2738.734362	17475.061000	517.737305	93.876305
2738.734362	17475.061000	516.488281	85.775673
2738.734362	17475.061000	515.238281	178.731995
2738.734362	17475.061000	513.988281	-38.434933
2738.734362	17475.061000	512.737305	119.521820
2738.734362	17475.061000	511.486328	178.338867
2738.734362	17475.061000	510.235352	-103.385216
2738.734362	17475.061000	508.984375	-51.633911
2738.734362	17475.061000	507.732422	106.422699
2738.734362	17475.061000	506.480469	-72.283836
2738.734362	17475.061000	505.228516	-96.018410
2738.734362	17475.061000	503.976563	-209.685608
2738.734362	17475.061000	502.723633	65.477081
2738.734362	17475.061000	501.470703	-82.250542
2738.734362	17475.061000	500.217773	-186.683395
2738.734362	17475.061000	498.963867	-55.414463
2738.734362	17475.061000	497.709961	-46.416214
2738.734362	17475.061000	496.456055	-289.048645
2738.734362	17475.061000	495.202148	0.490249
2738.734362	17475.061000	493.947266	-159.281204
2738.734362	17475.061000	492.692383	65.534180
2738.734362	17475.061000	491.437500	67.580055
2738.734362	17475.061000	490.181641	-66.806015
2738.734362	17475.061000	488.926758	109.524139
2738.734362	17475.061000	487.670898	-51.638283
2738.734362	17475.061000	486.414063	17.028927
2738.734362	17475.061000	485.158203	-3.997416
2738.734362	17475.061000	483.901367	37.815125
2738.734362	17475.061000	482.644531	137.045486
2738.734362	17475.061000	481.386719	6.760470
2738.734362	17475.061000	480.128906	-17.658484
2738.734362	17475.061000	478.871094	79.851456
2738.734362	17475.061000	477.613281	19.667503
2738.734362	17475.061000	476.355469	131.534943
2738.734362	17475.061000	475.096680	110.841614
2738.734362	17475.061000	473.837891	421.482056
2738.734362	17475.061000	472.578125	322.021729
2738.734362	17475.061000	471.319336	442.802979
2738.734362	17475.061000	470.059570	506.290710
2738.734362	17475.061000	468.799805	508.941406
2738.734362	17475.061000	467.539063	609.998047
2738.734362	17475.061000	466.278320	626.972534
2738.734362	17475.061000	465.017578	441.906250
2738.734362	17475.061000	463.756836	346.318939
2738.734362	17475.061000	462.495117	347.294983
2738.734362	17475.061000	461.233398	341.132996
2738.734362	17475.061000	459.971680	231.360214
2738.734362	17475.061000	458.709961	432.425690
2738.734362	17475.061000	457.447266	354.824493
2738.734362	17475.061000	456.184570	477.213165
2738.734362	17475.061000	454.921875	547.777771
2738.734362	17475.061000	453.658203	570.115479
2738.734362	17475.061000	452.394531	474.670715
2738.734362	17475.061000	451.130859	609.361450
2738.734362	17475.061000	449.867188	460.405457
2738.734362	17475.061000	448.602539	543.282288
2738.734362	17475.061000	447.337891	476.348938
2738.734362	17475.061000	446.073242	450.401855
2738.734362	17475.061000	444.807617	566.975769
2738.734362	17475.061000	443.542969	621.104004
2738.734362	17475.061000	442.276367	562.946106
2738.734362	17475.061000	441.010742	362.303772
2738.734362	17475.061000	439.744141	494.611481
2738.734362	17475.061000	438.478516	520.002869
2738.734362	17475.061000	437.210938	669.880676
2738.734362	17475.061000	435.944336	533.171387
2738.734362	17475.061000	434.676758	488.937561
2738.734362	17475.061000	433.409180	425.074005
2738.734362	17475.061000	432.141602	446.491974
2738.734362	17475.061000	430.873047	567.349060
2738.734362	17475.061000	429.604492	650.727356
2738.734362	17475.061000	428.335938	421.229065
2738.734362	17475.061000	427.067383	666.037170
2738.734362	17475.061000	425.797852	594.465576
2738.734362	17475.061000	424.528320	751.863647
2738.734362	17475.061000	423.258789	553.987122
2738.734362	17475.061000	421.988281	503.370850
2738.734362	17475.061000	420.717773	591.041626
2738.734362	17475.061000	419.447266	465.611298
2738.734362	17475.061000	418.175781	560.017944
2738.734362	17475.061000	416.905273	514.111267
2738.734362	17475.061000	415.633789	388.251190
2738.734362	17475.061000	414.362305	402.294495
2738.734362	17475.061000	413.089844	487.017822
2738.734362	17475.061000	411.817383	440.377411
2738.734362	17475.061000	410.544922	469.713257
2738.734362	17475.061000	409.272461	557.257690
2738.734362	17475.061000	407.999023	462.139557
2738.734362	17475.061000	406.725586	388.060974
2738.734362	17475.061000	405.452148	457.126831
2738.734362	17475.061000	404.177734	387.866058
2738.734362	17475.061000	402.903320	314.822632
2738.734362	17475.061000	401.628906	469.702332
2738.734362	17475.061000	400.354492	484.513489
2738.734362	17475.061000	399.079102	292.146637
2738.734362	17475.061000	397.803711	447.773651
2738.734362	17475.061000	396.528320	613.609253
2738.734362	17475.061000	395.251953	492.790680
2738.734362	17475.061000	393.976563	569.529297
2738.734362	17475.061000	392.700195	610.542542
2738.734362	17475.061000	391.422852	716.486755
2738.734362	17475.061000	390.145508	749.619019
2738.734362	17475.061000	388.869141	874.122925
2738.734362	17475.061000	387.590820	777.571228
2738.734362	17475.061000	386.313477	737.098572
2738.734362	17475.061000	385.035156	863.758301
2738.734362	17475.061000	383.756836	637.224670
2738.734362	17475.061000	382.478516	704.752869
2738.734362	17475.061000	381.199219	1106.667480
2738.734362	17475.061000	379.919922	1070.867798
2738.734362	17475.061000	378.640625	1050.431274
2738.734362	17475.061000	377.360352	1143.967041
2738.734362	17475.061000	376.080078	1020.303955
2738.734362	17475.061000	374.799805	860.925476
2738.734362	17475.061000	373.519531	730.973633
2738.734362	17475.061000	372.238281	831.037842
2738.734362	17475.061000	370.957031	884.706665
2738.734362	17475.061000	369.675781	745.979980
2738.734362	17475.061000	368.394531	652.407837
2738.734362	17475.061000	367.112305	953.862976
2738.734362	17475.061000	365.830078	894.112427
2738.734362	17475.061000	364.546875	1002.423706
2738.734362	17475.061000	363.264648	944.813477
2738.734362	17475.061000	361.981445	875.946960
2738.734362	17475.061000	360.698242	792.316772
2738.734362	17475.061000	359.414063	778.191833
2738.734362	17475.061000	358.129883	863.372925
2738.734362	17475.061000	356.845703	791.487732
2738.734362	17475.061000	355.561523	778.487061
2738.734362	17475.061000	354.276367	627.772034
2738.734362	17475.061000	352.991211	670.986267
2738.734362	17475.061000	351.706055	604.562012
2738.734362	17475.061000	350.420898	463.621704
2738.734362	17475.061000	349.134766	497.108398
2738.734362	17475.061000	347.848633	298.278503
2738.734362	17475.061000	346.561523	121.326920
2738.734362	17475.061000	345.275391	239.568832
2738.734362	17475.061000	343.988281	248.127777
2738.734362	17475.061000	342.700195	141.794769
2738.734362	17475.061000	341.413086	-44.305775
2738.734362	17475.061000	340.125000	-115.906540
2738.734362	17475.061000	338.836914	37.176495
2738.734362	17475.061000	337.548828	57.839844
2738.734362	17475.061000	336.259766	-52.135849
2738.734362	17475.061000	334.970703	22.141903
2738.734362	17475.061000	333.681641	131.901611
2738.734362	17475.061000	332.391602	-65.572014
2738.734362	17475.061000	331.101563	48.631691
2738.734362	17475.061000	329.811523	67.146446
2738.734362	17475.061000	328.521484	89.584160
2738.734362	17475.061000	327.230469	-57.033546
2738.734362	17475.061000	325.939453	177.470978
2738.734362	17475.061000	324.648438	-1.537504
2738.734362	17475.061000	323.356445	-138.292572
2738.734362	17475.061000	322.064453	48.148041
2738.734362	17475.061000	320.772461	-51.356873
2738.734362	17475.061000	319.480469	-215.120773
2738.734362	17475.061000	318.187500	235.212540
2738.734362	17475.061000	316.894531	-25.844414
2738.734362	17475.061000	315.601563	44.558834
2738.734362	17475.061000	314.307617	186.450516
2738.734362	17475.061000	313.013672	251.694122
2738.734362	17475.061000	311.719727	-132.487030
2738.734362	17475.061000	310.425781	-32.304501
2738.734362	17475.061000	309.130859	32.938122
2738.734362	17475.061000	307.835938	293.079376
2738.734362	17475.061000	306.541016	262.357727
2738.734362	17475.061000	305.245117	334.139069
2738.734362	17475.061000	303.949219	421.392700
2738.734362	17475.061000	302.653320	480.587280
2738.734362	17475.061000	301.356445	391.654510
2738.734362	17475.061000	300.060547	386.015839
2738.734362	17475.061000	298.763672	136.665665
