#X		#Y		#Wave		#Intensity
2746.928723	17406.018000	2000.043945	30.098454
2746.928723	17406.018000	1999.080078	-13.986143
2746.928723	17406.018000	1998.116211	-154.290390
2746.928723	17406.018000	1997.151367	27.169262
2746.928723	17406.018000	1996.186523	69.365166
2746.928723	17406.018000	1995.222656	-30.097956
2746.928723	17406.018000	1994.256836	-8.562963
2746.928723	17406.018000	1993.291992	-66.691788
2746.928723	17406.018000	1992.327148	53.069160
2746.928723	17406.018000	1991.361328	13.987392
2746.928723	17406.018000	1990.395508	-50.199078
2746.928723	17406.018000	1989.429688	11.479806
2746.928723	17406.018000	1988.463867	-78.124321
2746.928723	17406.018000	1987.497070	15.019274
2746.928723	17406.018000	1986.531250	75.648781
2746.928723	17406.018000	1985.564453	2.426597
2746.928723	17406.018000	1984.597656	-31.515999
2746.928723	17406.018000	1983.630859	-75.624489
2746.928723	17406.018000	1982.664063	-223.790390
2746.928723	17406.018000	1981.696289	-21.313828
2746.928723	17406.018000	1980.728516	96.832779
2746.928723	17406.018000	1979.761719	86.246185
2746.928723	17406.018000	1978.792969	30.976791
2746.928723	17406.018000	1977.825195	-68.951477
2746.928723	17406.018000	1976.857422	67.911110
2746.928723	17406.018000	1975.888672	78.637192
2746.928723	17406.018000	1974.919922	2.784347
2746.928723	17406.018000	1973.951172	50.117802
2746.928723	17406.018000	1972.982422	40.507057
2746.928723	17406.018000	1972.013672	1.122201
2746.928723	17406.018000	1971.043945	163.769257
2746.928723	17406.018000	1970.075195	185.663803
2746.928723	17406.018000	1969.105469	-2.123620
2746.928723	17406.018000	1968.135742	34.264381
2746.928723	17406.018000	1967.165039	-65.024765
2746.928723	17406.018000	1966.195313	-16.609905
2746.928723	17406.018000	1965.224609	-22.532803
2746.928723	17406.018000	1964.253906	-3.956667
2746.928723	17406.018000	1963.283203	4.642392
2746.928723	17406.018000	1962.312500	128.820313
2746.928723	17406.018000	1961.341797	87.942451
2746.928723	17406.018000	1960.370117	278.284027
2746.928723	17406.018000	1959.399414	-18.677553
2746.928723	17406.018000	1958.427734	95.167404
2746.928723	17406.018000	1957.455078	90.831757
2746.928723	17406.018000	1956.483398	20.025406
2746.928723	17406.018000	1955.511719	-50.832848
2746.928723	17406.018000	1954.539063	165.846222
2746.928723	17406.018000	1953.566406	38.322659
2746.928723	17406.018000	1952.593750	109.804153
2746.928723	17406.018000	1951.621094	28.890825
2746.928723	17406.018000	1950.647461	171.461136
2746.928723	17406.018000	1949.674805	181.320633
2746.928723	17406.018000	1948.701172	166.575134
2746.928723	17406.018000	1947.727539	85.512535
2746.928723	17406.018000	1946.753906	237.602402
2746.928723	17406.018000	1945.780273	-39.829380
2746.928723	17406.018000	1944.805664	156.319214
2746.928723	17406.018000	1943.831055	-79.356636
2746.928723	17406.018000	1942.856445	-32.932800
2746.928723	17406.018000	1941.881836	-91.987206
2746.928723	17406.018000	1940.907227	45.088596
2746.928723	17406.018000	1939.932617	30.124649
2746.928723	17406.018000	1938.957031	-100.030785
2746.928723	17406.018000	1937.981445	63.877071
2746.928723	17406.018000	1937.005859	88.078308
2746.928723	17406.018000	1936.030273	11.841959
2746.928723	17406.018000	1935.054688	-69.268127
2746.928723	17406.018000	1934.078125	111.627014
2746.928723	17406.018000	1933.101563	118.649841
2746.928723	17406.018000	1932.125000	-1.596057
2746.928723	17406.018000	1931.148438	135.144165
2746.928723	17406.018000	1930.171875	-92.699913
2746.928723	17406.018000	1929.194336	70.924995
2746.928723	17406.018000	1928.217773	95.097107
2746.928723	17406.018000	1927.240234	87.481651
2746.928723	17406.018000	1926.262695	57.879116
2746.928723	17406.018000	1925.284180	50.297581
2746.928723	17406.018000	1924.306641	72.061867
2746.928723	17406.018000	1923.328125	-38.111263
2746.928723	17406.018000	1922.350586	44.766857
2746.928723	17406.018000	1921.372070	-11.589056
2746.928723	17406.018000	1920.392578	-75.232666
2746.928723	17406.018000	1919.414063	-129.065308
2746.928723	17406.018000	1918.434570	-63.243462
2746.928723	17406.018000	1917.456055	70.915283
2746.928723	17406.018000	1916.476563	-17.013197
2746.928723	17406.018000	1915.497070	-24.374971
2746.928723	17406.018000	1914.516602	26.832535
2746.928723	17406.018000	1913.537109	-2.436266
2746.928723	17406.018000	1912.556641	51.234272
2746.928723	17406.018000	1911.576172	-24.300138
2746.928723	17406.018000	1910.595703	-7.157383
2746.928723	17406.018000	1909.615234	70.929352
2746.928723	17406.018000	1908.633789	29.619644
2746.928723	17406.018000	1907.653320	-135.888626
2746.928723	17406.018000	1906.671875	15.323057
2746.928723	17406.018000	1905.690430	147.022995
2746.928723	17406.018000	1904.708984	-57.293758
2746.928723	17406.018000	1903.727539	-110.584358
2746.928723	17406.018000	1902.745117	52.780327
2746.928723	17406.018000	1901.762695	162.575119
2746.928723	17406.018000	1900.780273	116.647415
2746.928723	17406.018000	1899.797852	12.382629
2746.928723	17406.018000	1898.815430	-176.939316
2746.928723	17406.018000	1897.832031	98.258842
2746.928723	17406.018000	1896.849609	-112.841751
2746.928723	17406.018000	1895.866211	-2.995393
2746.928723	17406.018000	1894.882813	-87.583023
2746.928723	17406.018000	1893.898438	-130.811615
2746.928723	17406.018000	1892.915039	-54.968170
2746.928723	17406.018000	1891.930664	-47.139942
2746.928723	17406.018000	1890.947266	-124.286926
2746.928723	17406.018000	1889.962891	72.968460
2746.928723	17406.018000	1888.977539	241.038605
2746.928723	17406.018000	1887.993164	-18.089417
2746.928723	17406.018000	1887.007813	11.655335
2746.928723	17406.018000	1886.023438	-26.524382
2746.928723	17406.018000	1885.038086	107.545906
2746.928723	17406.018000	1884.051758	-42.166874
2746.928723	17406.018000	1883.066406	-102.094917
2746.928723	17406.018000	1882.081055	56.197155
2746.928723	17406.018000	1881.094727	153.845917
2746.928723	17406.018000	1880.108398	-19.949255
2746.928723	17406.018000	1879.122070	-74.946236
2746.928723	17406.018000	1878.135742	-35.438046
2746.928723	17406.018000	1877.148438	-41.956142
2746.928723	17406.018000	1876.162109	-123.532631
2746.928723	17406.018000	1875.174805	-115.493042
2746.928723	17406.018000	1874.187500	69.255356
2746.928723	17406.018000	1873.199219	7.077549
2746.928723	17406.018000	1872.211914	29.616114
2746.928723	17406.018000	1871.223633	-8.335371
2746.928723	17406.018000	1870.236328	-68.042572
2746.928723	17406.018000	1869.248047	140.710922
2746.928723	17406.018000	1868.258789	8.456118
2746.928723	17406.018000	1867.270508	-56.064873
2746.928723	17406.018000	1866.282227	-156.822113
2746.928723	17406.018000	1865.292969	-49.722233
2746.928723	17406.018000	1864.303711	-186.699005
2746.928723	17406.018000	1863.314453	-2.350387
2746.928723	17406.018000	1862.324219	121.539024
2746.928723	17406.018000	1861.334961	-140.990784
2746.928723	17406.018000	1860.344727	-79.918907
2746.928723	17406.018000	1859.354492	-67.161552
2746.928723	17406.018000	1858.364258	-138.892868
2746.928723	17406.018000	1857.374023	64.461029
2746.928723	17406.018000	1856.383789	16.821693
2746.928723	17406.018000	1855.392578	34.305744
2746.928723	17406.018000	1854.401367	1.118118
2746.928723	17406.018000	1853.410156	-46.545231
2746.928723	17406.018000	1852.418945	62.479424
2746.928723	17406.018000	1851.426758	58.158203
2746.928723	17406.018000	1850.435547	12.845905
2746.928723	17406.018000	1849.443359	-18.021004
2746.928723	17406.018000	1848.451172	230.522308
2746.928723	17406.018000	1847.458984	-5.147526
2746.928723	17406.018000	1846.466797	65.049225
2746.928723	17406.018000	1845.473633	77.406647
2746.928723	17406.018000	1844.480469	75.283257
2746.928723	17406.018000	1843.487305	157.355484
2746.928723	17406.018000	1842.494141	184.019501
2746.928723	17406.018000	1841.500977	-92.482834
2746.928723	17406.018000	1840.506836	61.617023
2746.928723	17406.018000	1839.513672	-29.670124
2746.928723	17406.018000	1838.519531	-17.578413
2746.928723	17406.018000	1837.525391	169.948212
2746.928723	17406.018000	1836.530273	-3.154847
2746.928723	17406.018000	1835.536133	100.103043
2746.928723	17406.018000	1834.541016	123.991356
2746.928723	17406.018000	1833.545898	-44.343819
2746.928723	17406.018000	1832.550781	41.906853
2746.928723	17406.018000	1831.555664	-138.456100
2746.928723	17406.018000	1830.560547	70.113014
2746.928723	17406.018000	1829.564453	201.739716
2746.928723	17406.018000	1828.568359	42.885838
2746.928723	17406.018000	1827.572266	131.169327
2746.928723	17406.018000	1826.576172	133.001160
2746.928723	17406.018000	1825.580078	-35.515347
2746.928723	17406.018000	1824.583008	78.934593
2746.928723	17406.018000	1823.585938	-5.716180
2746.928723	17406.018000	1822.588867	-18.484402
2746.928723	17406.018000	1821.591797	237.114182
2746.928723	17406.018000	1820.594727	51.652699
2746.928723	17406.018000	1819.596680	-88.287712
2746.928723	17406.018000	1818.599609	162.193817
2746.928723	17406.018000	1817.601563	125.129738
2746.928723	17406.018000	1816.603516	83.222939
2746.928723	17406.018000	1815.604492	156.168610
2746.928723	17406.018000	1814.606445	23.179724
2746.928723	17406.018000	1813.607422	64.857597
2746.928723	17406.018000	1812.608398	240.430832
2746.928723	17406.018000	1811.609375	138.377975
2746.928723	17406.018000	1810.610352	91.297707
2746.928723	17406.018000	1809.610352	65.677834
2746.928723	17406.018000	1808.611328	135.623886
2746.928723	17406.018000	1807.611328	-7.274335
2746.928723	17406.018000	1806.611328	119.857819
2746.928723	17406.018000	1805.610352	-56.596546
2746.928723	17406.018000	1804.610352	235.175781
2746.928723	17406.018000	1803.609375	123.094139
2746.928723	17406.018000	1802.608398	142.316757
2746.928723	17406.018000	1801.607422	104.146561
2746.928723	17406.018000	1800.606445	61.132595
2746.928723	17406.018000	1799.605469	1.343443
2746.928723	17406.018000	1798.603516	96.594391
2746.928723	17406.018000	1797.601563	186.952347
2746.928723	17406.018000	1796.599609	-9.054081
2746.928723	17406.018000	1795.597656	109.733612
2746.928723	17406.018000	1794.595703	-74.437187
2746.928723	17406.018000	1793.592773	149.032669
2746.928723	17406.018000	1792.589844	50.549461
2746.928723	17406.018000	1791.587891	128.366501
2746.928723	17406.018000	1790.583984	132.192184
2746.928723	17406.018000	1789.581055	119.253502
2746.928723	17406.018000	1788.577148	44.298664
2746.928723	17406.018000	1787.574219	59.772934
2746.928723	17406.018000	1786.570313	141.806030
2746.928723	17406.018000	1785.566406	14.240519
2746.928723	17406.018000	1784.561523	29.421019
2746.928723	17406.018000	1783.557617	206.309204
2746.928723	17406.018000	1782.552734	161.780243
2746.928723	17406.018000	1781.547852	193.287506
2746.928723	17406.018000	1780.542969	212.795456
2746.928723	17406.018000	1779.538086	101.425789
2746.928723	17406.018000	1778.532227	96.972900
2746.928723	17406.018000	1777.527344	170.861588
2746.928723	17406.018000	1776.521484	227.985596
2746.928723	17406.018000	1775.515625	216.088959
2746.928723	17406.018000	1774.508789	118.577118
2746.928723	17406.018000	1773.502930	18.633503
2746.928723	17406.018000	1772.496094	103.835747
2746.928723	17406.018000	1771.489258	184.157867
2746.928723	17406.018000	1770.482422	183.646561
2746.928723	17406.018000	1769.475586	7.421778
2746.928723	17406.018000	1768.467773	-38.343925
2746.928723	17406.018000	1767.460938	-53.346725
2746.928723	17406.018000	1766.453125	-23.386948
2746.928723	17406.018000	1765.445313	217.513031
2746.928723	17406.018000	1764.437500	178.452774
2746.928723	17406.018000	1763.428711	42.110291
2746.928723	17406.018000	1762.420898	-35.024952
2746.928723	17406.018000	1761.412109	160.261490
2746.928723	17406.018000	1760.403320	90.031792
2746.928723	17406.018000	1759.393555	-108.187675
2746.928723	17406.018000	1758.384766	6.178331
2746.928723	17406.018000	1757.375000	-9.835127
2746.928723	17406.018000	1756.366211	9.573195
2746.928723	17406.018000	1755.356445	-108.411591
2746.928723	17406.018000	1754.345703	33.844151
2746.928723	17406.018000	1753.335938	-48.813751
2746.928723	17406.018000	1752.325195	10.382302
2746.928723	17406.018000	1751.315430	5.604722
2746.928723	17406.018000	1750.304688	-44.205395
2746.928723	17406.018000	1749.292969	0.459713
2746.928723	17406.018000	1748.282227	97.017212
2746.928723	17406.018000	1747.270508	108.353012
2746.928723	17406.018000	1746.259766	8.539964
2746.928723	17406.018000	1745.248047	7.876716
2746.928723	17406.018000	1744.235352	-33.046837
2746.928723	17406.018000	1743.223633	-57.515629
2746.928723	17406.018000	1742.211914	64.308212
2746.928723	17406.018000	1741.199219	72.671394
2746.928723	17406.018000	1740.186523	7.770185
2746.928723	17406.018000	1739.173828	145.726105
2746.928723	17406.018000	1738.160156	-6.658705
2746.928723	17406.018000	1737.147461	-57.648441
2746.928723	17406.018000	1736.133789	-37.975231
2746.928723	17406.018000	1735.120117	-6.616081
2746.928723	17406.018000	1734.106445	-145.098816
2746.928723	17406.018000	1733.091797	-158.714401
2746.928723	17406.018000	1732.078125	-127.637207
2746.928723	17406.018000	1731.063477	-183.850159
2746.928723	17406.018000	1730.048828	-183.601227
2746.928723	17406.018000	1729.034180	-195.220871
2746.928723	17406.018000	1728.019531	73.278831
2746.928723	17406.018000	1727.003906	113.211929
2746.928723	17406.018000	1725.988281	2.394351
2746.928723	17406.018000	1724.972656	-28.458403
2746.928723	17406.018000	1723.957031	-129.976517
2746.928723	17406.018000	1722.941406	-139.800934
2746.928723	17406.018000	1721.924805	-97.977264
2746.928723	17406.018000	1720.909180	-70.357529
2746.928723	17406.018000	1719.892578	8.877389
2746.928723	17406.018000	1718.875977	102.097801
2746.928723	17406.018000	1717.858398	37.722664
2746.928723	17406.018000	1716.841797	-115.994843
2746.928723	17406.018000	1715.824219	33.310696
2746.928723	17406.018000	1714.806641	11.008017
2746.928723	17406.018000	1713.789063	56.733685
2746.928723	17406.018000	1712.770508	8.429773
2746.928723	17406.018000	1711.752930	-63.402626
2746.928723	17406.018000	1710.734375	-34.376331
2746.928723	17406.018000	1709.715820	-7.789143
2746.928723	17406.018000	1708.697266	-18.829626
2746.928723	17406.018000	1707.678711	157.710144
2746.928723	17406.018000	1706.659180	99.567795
2746.928723	17406.018000	1705.640625	78.898674
2746.928723	17406.018000	1704.621094	-12.180345
2746.928723	17406.018000	1703.600586	412.345154
2746.928723	17406.018000	1702.581055	457.005981
2746.928723	17406.018000	1701.561523	236.817001
2746.928723	17406.018000	1700.541016	449.999908
2746.928723	17406.018000	1699.520508	201.634674
2746.928723	17406.018000	1698.500000	145.309219
2746.928723	17406.018000	1697.478516	358.162079
2746.928723	17406.018000	1696.458008	231.466049
2746.928723	17406.018000	1695.436523	308.345764
2746.928723	17406.018000	1694.415039	373.429443
2746.928723	17406.018000	1693.393555	314.432953
2746.928723	17406.018000	1692.372070	374.681580
2746.928723	17406.018000	1691.349609	301.535278
2746.928723	17406.018000	1690.327148	387.342194
2746.928723	17406.018000	1689.304688	391.237274
2746.928723	17406.018000	1688.282227	425.453003
2746.928723	17406.018000	1687.259766	228.263016
2746.928723	17406.018000	1686.236328	246.012314
2746.928723	17406.018000	1685.213867	198.307144
2746.928723	17406.018000	1684.190430	339.715332
2746.928723	17406.018000	1683.166016	336.235931
2746.928723	17406.018000	1682.142578	302.369019
2746.928723	17406.018000	1681.119141	310.473267
2746.928723	17406.018000	1680.094727	199.498947
2746.928723	17406.018000	1679.070313	354.490234
2746.928723	17406.018000	1678.045898	320.426849
2746.928723	17406.018000	1677.020508	104.403481
2746.928723	17406.018000	1675.996094	231.196198
2746.928723	17406.018000	1674.970703	306.592804
2746.928723	17406.018000	1673.945313	344.621094
2746.928723	17406.018000	1672.919922	331.322388
2746.928723	17406.018000	1671.893555	350.591949
2746.928723	17406.018000	1670.868164	444.369385
2746.928723	17406.018000	1669.841797	379.681427
2746.928723	17406.018000	1668.815430	319.637115
2746.928723	17406.018000	1667.789063	420.221130
2746.928723	17406.018000	1666.761719	376.398041
2746.928723	17406.018000	1665.735352	230.169205
2746.928723	17406.018000	1664.708008	507.431244
2746.928723	17406.018000	1663.680664	582.158630
2746.928723	17406.018000	1662.653320	556.811646
2746.928723	17406.018000	1661.625000	447.713104
2746.928723	17406.018000	1660.597656	368.865723
2746.928723	17406.018000	1659.569336	382.990967
2746.928723	17406.018000	1658.541016	559.772522
2746.928723	17406.018000	1657.512695	520.359192
2746.928723	17406.018000	1656.483398	397.287506
2746.928723	17406.018000	1655.455078	662.157043
2746.928723	17406.018000	1654.425781	664.466614
2746.928723	17406.018000	1653.396484	546.017029
2746.928723	17406.018000	1652.366211	564.546143
2746.928723	17406.018000	1651.336914	840.691650
2746.928723	17406.018000	1650.306641	627.068420
2746.928723	17406.018000	1649.276367	886.810486
2746.928723	17406.018000	1648.246094	721.944519
2746.928723	17406.018000	1647.215820	768.175903
2746.928723	17406.018000	1646.185547	907.128113
2746.928723	17406.018000	1645.154297	786.355225
2746.928723	17406.018000	1644.123047	957.667053
2746.928723	17406.018000	1643.091797	1008.401855
2746.928723	17406.018000	1642.060547	920.095154
2746.928723	17406.018000	1641.028320	931.413391
2746.928723	17406.018000	1639.997070	766.718018
2746.928723	17406.018000	1638.964844	974.881653
2746.928723	17406.018000	1637.931641	1057.932007
2746.928723	17406.018000	1636.899414	1022.916077
2746.928723	17406.018000	1635.867188	1103.627319
2746.928723	17406.018000	1634.833984	1050.097412
2746.928723	17406.018000	1633.800781	996.593262
2746.928723	17406.018000	1632.767578	1135.085815
2746.928723	17406.018000	1631.734375	975.225891
2746.928723	17406.018000	1630.700195	898.655518
2746.928723	17406.018000	1629.666016	970.064392
2746.928723	17406.018000	1628.631836	935.145203
2746.928723	17406.018000	1627.597656	1290.753784
2746.928723	17406.018000	1626.563477	1144.922607
2746.928723	17406.018000	1625.528320	911.380920
2746.928723	17406.018000	1624.493164	1155.971558
2746.928723	17406.018000	1623.458008	1243.482788
2746.928723	17406.018000	1622.422852	1148.615234
2746.928723	17406.018000	1621.387695	1155.355591
2746.928723	17406.018000	1620.351563	1346.702637
2746.928723	17406.018000	1619.315430	1464.171753
2746.928723	17406.018000	1618.279297	1085.697998
2746.928723	17406.018000	1617.243164	1221.672241
2746.928723	17406.018000	1616.207031	1233.112427
2746.928723	17406.018000	1615.169922	1442.815186
2746.928723	17406.018000	1614.132813	1373.583130
2746.928723	17406.018000	1613.095703	1329.757324
2746.928723	17406.018000	1612.058594	1530.195435
2746.928723	17406.018000	1611.020508	1177.743286
2746.928723	17406.018000	1609.983398	1180.141968
2746.928723	17406.018000	1608.945313	1387.491699
2746.928723	17406.018000	1607.907227	1297.823364
2746.928723	17406.018000	1606.868164	1268.059937
2746.928723	17406.018000	1605.830078	1196.938232
2746.928723	17406.018000	1604.791016	1289.227905
2746.928723	17406.018000	1603.751953	1305.611938
2746.928723	17406.018000	1602.712891	1361.132446
2746.928723	17406.018000	1601.673828	1529.347534
2746.928723	17406.018000	1600.633789	1237.733765
2746.928723	17406.018000	1599.594727	1194.535522
2746.928723	17406.018000	1598.554688	1411.073608
2746.928723	17406.018000	1597.513672	1294.406982
2746.928723	17406.018000	1596.473633	1487.969727
2746.928723	17406.018000	1595.433594	1438.054443
2746.928723	17406.018000	1594.392578	1277.978027
2746.928723	17406.018000	1593.351563	1386.632080
2746.928723	17406.018000	1592.310547	1286.418091
2746.928723	17406.018000	1591.268555	1537.414795
2746.928723	17406.018000	1590.227539	1272.121338
2746.928723	17406.018000	1589.185547	1486.435669
2746.928723	17406.018000	1588.143555	1409.439209
2746.928723	17406.018000	1587.100586	1431.128174
2746.928723	17406.018000	1586.058594	1423.077026
2746.928723	17406.018000	1585.015625	1389.867065
2746.928723	17406.018000	1583.972656	1402.571411
2746.928723	17406.018000	1582.929688	1630.723633
2746.928723	17406.018000	1581.886719	1538.126465
2746.928723	17406.018000	1580.843750	1390.663696
2746.928723	17406.018000	1579.799805	1231.865112
2746.928723	17406.018000	1578.755859	1240.338013
2746.928723	17406.018000	1577.711914	1283.216309
2746.928723	17406.018000	1576.666992	1305.541382
2746.928723	17406.018000	1575.623047	1462.947266
2746.928723	17406.018000	1574.578125	1219.994507
2746.928723	17406.018000	1573.533203	1473.562622
2746.928723	17406.018000	1572.488281	1306.323364
2746.928723	17406.018000	1571.443359	1216.965332
2746.928723	17406.018000	1570.397461	1388.312622
2746.928723	17406.018000	1569.351563	1385.972900
2746.928723	17406.018000	1568.305664	1333.442261
2746.928723	17406.018000	1567.259766	1354.122803
2746.928723	17406.018000	1566.213867	1297.215698
2746.928723	17406.018000	1565.166992	957.221497
2746.928723	17406.018000	1564.120117	1179.134888
2746.928723	17406.018000	1563.073242	1490.077759
2746.928723	17406.018000	1562.026367	1410.695557
2746.928723	17406.018000	1560.978516	1345.114136
2746.928723	17406.018000	1559.930664	1450.760376
2746.928723	17406.018000	1558.883789	1125.345947
2746.928723	17406.018000	1557.834961	1301.862183
2746.928723	17406.018000	1556.787109	1202.511719
2746.928723	17406.018000	1555.739258	1324.423706
2746.928723	17406.018000	1554.690430	1209.329468
2746.928723	17406.018000	1553.641602	1237.938843
2746.928723	17406.018000	1552.592773	1385.106934
2746.928723	17406.018000	1551.542969	1069.888916
2746.928723	17406.018000	1550.494141	1294.657471
2746.928723	17406.018000	1549.444336	1294.002563
2746.928723	17406.018000	1548.394531	1218.319824
2746.928723	17406.018000	1547.344727	1242.914673
2746.928723	17406.018000	1546.293945	1055.954102
2746.928723	17406.018000	1545.244141	1046.643433
2746.928723	17406.018000	1544.193359	914.592407
2746.928723	17406.018000	1543.142578	935.074890
2746.928723	17406.018000	1542.090820	980.656616
2746.928723	17406.018000	1541.040039	735.334229
2746.928723	17406.018000	1539.988281	676.588196
2746.928723	17406.018000	1538.936523	740.688049
2746.928723	17406.018000	1537.884766	620.829773
2746.928723	17406.018000	1536.833008	744.190735
2746.928723	17406.018000	1535.780273	658.652649
2746.928723	17406.018000	1534.727539	643.649658
2746.928723	17406.018000	1533.674805	692.329773
2746.928723	17406.018000	1532.622070	965.814697
2746.928723	17406.018000	1531.569336	479.053223
2746.928723	17406.018000	1530.515625	711.844482
2746.928723	17406.018000	1529.461914	742.758850
2746.928723	17406.018000	1528.408203	735.215698
2746.928723	17406.018000	1527.354492	745.928406
2746.928723	17406.018000	1526.299805	507.356812
2746.928723	17406.018000	1525.246094	529.670898
2746.928723	17406.018000	1524.191406	633.668518
2746.928723	17406.018000	1523.136719	325.362732
2746.928723	17406.018000	1522.081055	533.790649
2746.928723	17406.018000	1521.026367	644.867615
2746.928723	17406.018000	1519.970703	325.760468
2746.928723	17406.018000	1518.915039	375.932800
2746.928723	17406.018000	1517.859375	346.976898
2746.928723	17406.018000	1516.802734	333.987030
2746.928723	17406.018000	1515.747070	402.582428
2746.928723	17406.018000	1514.690430	278.974945
2746.928723	17406.018000	1513.633789	239.220352
2746.928723	17406.018000	1512.577148	66.183258
2746.928723	17406.018000	1511.519531	1.852095
2746.928723	17406.018000	1510.461914	109.459991
2746.928723	17406.018000	1509.405273	16.012072
2746.928723	17406.018000	1508.346680	65.063492
2746.928723	17406.018000	1507.289063	186.513748
2746.928723	17406.018000	1506.231445	104.758698
2746.928723	17406.018000	1505.172852	210.585220
2746.928723	17406.018000	1504.114258	4.921989
2746.928723	17406.018000	1503.055664	25.194025
2746.928723	17406.018000	1501.996094	-98.861259
2746.928723	17406.018000	1500.937500	-139.252121
2746.928723	17406.018000	1499.877930	-111.829048
2746.928723	17406.018000	1498.818359	-95.570274
2746.928723	17406.018000	1497.757813	-45.370800
2746.928723	17406.018000	1496.698242	-44.664650
2746.928723	17406.018000	1495.637695	-122.733086
2746.928723	17406.018000	1494.577148	-45.138828
2746.928723	17406.018000	1493.516602	-12.515565
2746.928723	17406.018000	1492.456055	150.884857
2746.928723	17406.018000	1491.394531	-32.523308
2746.928723	17406.018000	1490.333008	-4.051375
2746.928723	17406.018000	1489.271484	123.600533
2746.928723	17406.018000	1488.209961	-117.841934
2746.928723	17406.018000	1487.148438	-59.733238
2746.928723	17406.018000	1486.085938	113.232994
2746.928723	17406.018000	1485.023438	41.041695
2746.928723	17406.018000	1483.960938	83.716309
2746.928723	17406.018000	1482.898438	-71.390633
2746.928723	17406.018000	1481.834961	43.489574
2746.928723	17406.018000	1480.772461	97.762932
2746.928723	17406.018000	1479.708984	156.638855
2746.928723	17406.018000	1478.644531	132.478943
2746.928723	17406.018000	1477.581055	211.791016
2746.928723	17406.018000	1476.517578	66.614449
2746.928723	17406.018000	1475.453125	240.471527
2746.928723	17406.018000	1474.388672	299.889832
2746.928723	17406.018000	1473.323242	209.103745
2746.928723	17406.018000	1472.258789	255.460648
2746.928723	17406.018000	1471.193359	377.906128
2746.928723	17406.018000	1470.127930	552.207458
2746.928723	17406.018000	1469.062500	511.169220
2746.928723	17406.018000	1467.997070	463.726715
2746.928723	17406.018000	1466.930664	649.117981
2746.928723	17406.018000	1465.865234	716.481812
2746.928723	17406.018000	1464.798828	579.384277
2746.928723	17406.018000	1463.731445	534.584412
2746.928723	17406.018000	1462.665039	536.924255
2746.928723	17406.018000	1461.597656	704.636719
2746.928723	17406.018000	1460.530273	662.798401
2746.928723	17406.018000	1459.462891	868.947144
2746.928723	17406.018000	1458.395508	708.348328
2746.928723	17406.018000	1457.327148	809.296448
2746.928723	17406.018000	1456.259766	574.048401
2746.928723	17406.018000	1455.191406	690.886047
2746.928723	17406.018000	1454.123047	801.037659
2746.928723	17406.018000	1453.053711	907.128296
2746.928723	17406.018000	1451.985352	935.263489
2746.928723	17406.018000	1450.916016	1008.110657
2746.928723	17406.018000	1449.846680	871.311646
2746.928723	17406.018000	1448.776367	606.601440
2746.928723	17406.018000	1447.707031	470.770905
2746.928723	17406.018000	1446.636719	736.605774
2746.928723	17406.018000	1445.566406	645.466980
2746.928723	17406.018000	1444.496094	559.484131
2746.928723	17406.018000	1443.425781	518.821716
2746.928723	17406.018000	1442.354492	517.517090
2746.928723	17406.018000	1441.283203	485.152466
2746.928723	17406.018000	1440.211914	552.895325
2746.928723	17406.018000	1439.140625	439.465027
2746.928723	17406.018000	1438.069336	268.283875
2746.928723	17406.018000	1436.997070	245.251968
2746.928723	17406.018000	1435.924805	423.347412
2746.928723	17406.018000	1434.852539	193.661514
2746.928723	17406.018000	1433.780273	258.861755
2746.928723	17406.018000	1432.707031	94.037041
2746.928723	17406.018000	1431.633789	-49.048836
2746.928723	17406.018000	1430.560547	-15.183503
2746.928723	17406.018000	1429.487305	302.148132
2746.928723	17406.018000	1428.413086	143.802933
2746.928723	17406.018000	1427.339844	200.082214
2746.928723	17406.018000	1426.265625	102.366394
2746.928723	17406.018000	1425.191406	54.672470
2746.928723	17406.018000	1424.116211	310.386993
2746.928723	17406.018000	1423.041992	35.984272
2746.928723	17406.018000	1421.966797	209.645264
2746.928723	17406.018000	1420.891602	146.999832
2746.928723	17406.018000	1419.816406	-34.844227
2746.928723	17406.018000	1418.740234	-212.588776
2746.928723	17406.018000	1417.665039	47.355633
2746.928723	17406.018000	1416.588867	139.136780
2746.928723	17406.018000	1415.512695	1.299000
2746.928723	17406.018000	1414.435547	32.844929
2746.928723	17406.018000	1413.359375	27.428581
2746.928723	17406.018000	1412.282227	96.407509
2746.928723	17406.018000	1411.205078	80.216248
2746.928723	17406.018000	1410.127930	196.061142
2746.928723	17406.018000	1409.049805	195.070267
2746.928723	17406.018000	1407.972656	219.430817
2746.928723	17406.018000	1406.894531	175.680969
2746.928723	17406.018000	1405.816406	301.658051
2746.928723	17406.018000	1404.737305	331.670166
2746.928723	17406.018000	1403.659180	333.754303
2746.928723	17406.018000	1402.580078	333.247253
2746.928723	17406.018000	1401.500977	594.162659
2746.928723	17406.018000	1400.421875	507.771240
2746.928723	17406.018000	1399.341797	633.206787
2746.928723	17406.018000	1398.262695	397.209412
2746.928723	17406.018000	1397.182617	398.230072
2746.928723	17406.018000	1396.102539	451.804352
2746.928723	17406.018000	1395.021484	415.907166
2746.928723	17406.018000	1393.941406	449.626587
2746.928723	17406.018000	1392.860352	435.178833
2746.928723	17406.018000	1391.779297	617.633362
2746.928723	17406.018000	1390.698242	537.892700
2746.928723	17406.018000	1389.616211	499.822723
2746.928723	17406.018000	1388.535156	558.718689
2746.928723	17406.018000	1387.453125	543.567139
2746.928723	17406.018000	1386.371094	736.938049
2746.928723	17406.018000	1385.288086	644.752319
2746.928723	17406.018000	1384.206055	611.125732
2746.928723	17406.018000	1383.123047	739.240845
2746.928723	17406.018000	1382.040039	667.374390
2746.928723	17406.018000	1380.957031	859.942383
2746.928723	17406.018000	1379.873047	727.079102
2746.928723	17406.018000	1378.789063	713.304993
2746.928723	17406.018000	1377.705078	678.809814
2746.928723	17406.018000	1376.621094	861.782959
2746.928723	17406.018000	1375.537109	803.523499
2746.928723	17406.018000	1374.452148	836.964722
2746.928723	17406.018000	1373.367188	880.414917
2746.928723	17406.018000	1372.282227	768.418091
2746.928723	17406.018000	1371.197266	879.181396
2746.928723	17406.018000	1370.112305	1119.587769
2746.928723	17406.018000	1369.026367	917.652954
2746.928723	17406.018000	1367.940430	1022.236511
2746.928723	17406.018000	1366.854492	860.146179
2746.928723	17406.018000	1365.767578	1196.869507
2746.928723	17406.018000	1364.681641	1036.795044
2746.928723	17406.018000	1363.594727	1081.666382
2746.928723	17406.018000	1362.507813	1096.000977
2746.928723	17406.018000	1361.419922	1115.609009
2746.928723	17406.018000	1360.333008	863.014160
2746.928723	17406.018000	1359.245117	1070.441040
2746.928723	17406.018000	1358.157227	1191.168579
2746.928723	17406.018000	1357.069336	1092.924316
2746.928723	17406.018000	1355.981445	972.363770
2746.928723	17406.018000	1354.892578	912.917419
2746.928723	17406.018000	1353.803711	865.498596
2746.928723	17406.018000	1352.714844	1014.313599
2746.928723	17406.018000	1351.625000	950.642639
2746.928723	17406.018000	1350.536133	1007.821777
2746.928723	17406.018000	1349.446289	873.035767
2746.928723	17406.018000	1348.356445	834.456482
2746.928723	17406.018000	1347.266602	736.872131
2746.928723	17406.018000	1346.175781	1039.486084
2746.928723	17406.018000	1345.085938	934.476685
2746.928723	17406.018000	1343.995117	1056.861206
2746.928723	17406.018000	1342.903320	894.341919
2746.928723	17406.018000	1341.812500	1108.185669
2746.928723	17406.018000	1340.720703	1253.310547
2746.928723	17406.018000	1339.629883	1262.374512
2746.928723	17406.018000	1338.538086	1158.789063
2746.928723	17406.018000	1337.445313	1351.250732
2746.928723	17406.018000	1336.353516	1082.525635
2746.928723	17406.018000	1335.260742	1243.531494
2746.928723	17406.018000	1334.167969	1194.388550
2746.928723	17406.018000	1333.075195	1203.433838
2746.928723	17406.018000	1331.981445	1101.519043
2746.928723	17406.018000	1330.888672	1207.320923
2746.928723	17406.018000	1329.794922	1154.620850
2746.928723	17406.018000	1328.701172	1024.880859
2746.928723	17406.018000	1327.606445	1003.432068
2746.928723	17406.018000	1326.512695	1083.613281
2746.928723	17406.018000	1325.417969	1058.508789
2746.928723	17406.018000	1324.323242	1052.819702
2746.928723	17406.018000	1323.227539	936.351013
2746.928723	17406.018000	1322.132813	1236.608154
2746.928723	17406.018000	1321.037109	1126.100586
2746.928723	17406.018000	1319.941406	1011.479431
2746.928723	17406.018000	1318.845703	1033.199829
2746.928723	17406.018000	1317.750000	896.303894
2746.928723	17406.018000	1316.653320	881.290039
2746.928723	17406.018000	1315.556641	871.562378
2746.928723	17406.018000	1314.459961	892.232300
2746.928723	17406.018000	1313.363281	754.411194
2746.928723	17406.018000	1312.265625	821.863281
2746.928723	17406.018000	1311.167969	878.817749
2746.928723	17406.018000	1310.070313	704.632019
2746.928723	17406.018000	1308.972656	837.587463
2746.928723	17406.018000	1307.874023	764.666199
2746.928723	17406.018000	1306.776367	737.574158
2746.928723	17406.018000	1305.677734	774.199402
2746.928723	17406.018000	1304.579102	783.481812
2746.928723	17406.018000	1303.479492	688.952515
2746.928723	17406.018000	1302.380859	792.409912
2746.928723	17406.018000	1301.281250	616.126160
2746.928723	17406.018000	1300.181641	688.884766
2746.928723	17406.018000	1299.081055	691.215942
2746.928723	17406.018000	1297.981445	668.249084
2746.928723	17406.018000	1296.880859	895.154907
2746.928723	17406.018000	1295.780273	598.032227
2746.928723	17406.018000	1294.679688	629.711304
2746.928723	17406.018000	1293.578125	582.226318
2746.928723	17406.018000	1292.476563	610.633240
2746.928723	17406.018000	1291.375000	558.138184
2746.928723	17406.018000	1290.273438	558.610413
2746.928723	17406.018000	1289.171875	590.219055
2746.928723	17406.018000	1288.069336	553.733765
2746.928723	17406.018000	1286.966797	517.706421
2746.928723	17406.018000	1285.864258	491.554230
2746.928723	17406.018000	1284.761719	468.388641
2746.928723	17406.018000	1283.658203	529.933472
2746.928723	17406.018000	1282.554688	351.516022
2746.928723	17406.018000	1281.451172	554.712585
2746.928723	17406.018000	1280.347656	442.187469
2746.928723	17406.018000	1279.244141	380.574554
2746.928723	17406.018000	1278.139648	364.702240
2746.928723	17406.018000	1277.035156	427.235718
2746.928723	17406.018000	1275.930664	535.700500
2746.928723	17406.018000	1274.825195	407.862549
2746.928723	17406.018000	1273.720703	415.032410
2746.928723	17406.018000	1272.615234	531.442871
2746.928723	17406.018000	1271.508789	591.298218
2746.928723	17406.018000	1270.403320	554.659119
2746.928723	17406.018000	1269.297852	635.981873
2746.928723	17406.018000	1268.191406	571.207153
2746.928723	17406.018000	1267.084961	600.031494
2746.928723	17406.018000	1265.977539	550.392578
2746.928723	17406.018000	1264.871094	674.298462
2746.928723	17406.018000	1263.763672	562.825562
2746.928723	17406.018000	1262.656250	569.690918
2746.928723	17406.018000	1261.548828	438.895752
2746.928723	17406.018000	1260.440430	440.256744
2746.928723	17406.018000	1259.333008	463.779938
2746.928723	17406.018000	1258.224609	520.666870
2746.928723	17406.018000	1257.115234	608.689209
2746.928723	17406.018000	1256.006836	505.543549
2746.928723	17406.018000	1254.897461	609.291687
2746.928723	17406.018000	1253.788086	548.537415
2746.928723	17406.018000	1252.678711	449.690186
2746.928723	17406.018000	1251.569336	546.193726
2746.928723	17406.018000	1250.458984	473.448639
2746.928723	17406.018000	1249.349609	382.407471
2746.928723	17406.018000	1248.239258	399.437653
2746.928723	17406.018000	1247.127930	518.443726
2746.928723	17406.018000	1246.017578	449.650787
2746.928723	17406.018000	1244.906250	628.228943
2746.928723	17406.018000	1243.794922	363.760651
2746.928723	17406.018000	1242.683594	440.919098
2746.928723	17406.018000	1241.571289	516.286499
2746.928723	17406.018000	1240.459961	525.421204
2746.928723	17406.018000	1239.347656	527.011597
2746.928723	17406.018000	1238.234375	502.032715
2746.928723	17406.018000	1237.122070	573.952087
2746.928723	17406.018000	1236.008789	382.760956
2746.928723	17406.018000	1234.896484	484.858551
2746.928723	17406.018000	1233.782227	411.643860
2746.928723	17406.018000	1232.668945	374.485352
2746.928723	17406.018000	1231.555664	513.181946
2746.928723	17406.018000	1230.441406	363.030640
2746.928723	17406.018000	1229.327148	459.937408
2746.928723	17406.018000	1228.211914	391.397369
2746.928723	17406.018000	1227.097656	497.720428
2746.928723	17406.018000	1225.982422	438.257690
2746.928723	17406.018000	1224.867188	477.839142
2746.928723	17406.018000	1223.751953	296.268951
2746.928723	17406.018000	1222.635742	428.732574
2746.928723	17406.018000	1221.520508	442.156372
2746.928723	17406.018000	1220.404297	560.148132
2746.928723	17406.018000	1219.287109	366.841034
2746.928723	17406.018000	1218.170898	504.428223
2746.928723	17406.018000	1217.053711	474.817108
2746.928723	17406.018000	1215.936523	647.251953
2746.928723	17406.018000	1214.819336	483.884766
2746.928723	17406.018000	1213.702148	515.713013
2746.928723	17406.018000	1212.583984	464.209106
2746.928723	17406.018000	1211.465820	418.676117
2746.928723	17406.018000	1210.347656	329.873352
2746.928723	17406.018000	1209.229492	470.866791
2746.928723	17406.018000	1208.110352	430.339661
2746.928723	17406.018000	1206.992188	270.289459
2746.928723	17406.018000	1205.873047	292.744202
2746.928723	17406.018000	1204.752930	151.144760
2746.928723	17406.018000	1203.633789	229.370682
2746.928723	17406.018000	1202.513672	263.659760
2746.928723	17406.018000	1201.393555	171.375931
2746.928723	17406.018000	1200.273438	207.336151
2746.928723	17406.018000	1199.152344	69.722542
2746.928723	17406.018000	1198.032227	68.280159
2746.928723	17406.018000	1196.911133	66.495567
2746.928723	17406.018000	1195.790039	64.702591
2746.928723	17406.018000	1194.667969	44.867378
2746.928723	17406.018000	1193.545898	149.467377
2746.928723	17406.018000	1192.424805	185.092484
2746.928723	17406.018000	1191.301758	177.733429
2746.928723	17406.018000	1190.179688	13.682075
2746.928723	17406.018000	1189.056641	126.200905
2746.928723	17406.018000	1187.933594	97.684570
2746.928723	17406.018000	1186.810547	18.763653
2746.928723	17406.018000	1185.687500	191.256210
2746.928723	17406.018000	1184.563477	77.766830
2746.928723	17406.018000	1183.440430	93.106026
2746.928723	17406.018000	1182.316406	-83.231682
2746.928723	17406.018000	1181.191406	138.773865
2746.928723	17406.018000	1180.067383	-46.576328
2746.928723	17406.018000	1178.942383	-71.105324
2746.928723	17406.018000	1177.817383	-131.019653
2746.928723	17406.018000	1176.692383	62.262512
2746.928723	17406.018000	1175.566406	103.589607
2746.928723	17406.018000	1174.440430	104.416374
2746.928723	17406.018000	1173.314453	90.077576
2746.928723	17406.018000	1172.188477	65.662842
2746.928723	17406.018000	1171.062500	-28.653204
2746.928723	17406.018000	1169.935547	-19.141415
2746.928723	17406.018000	1168.808594	34.868023
2746.928723	17406.018000	1167.681641	93.977470
2746.928723	17406.018000	1166.553711	-129.251984
2746.928723	17406.018000	1165.426758	-47.599304
2746.928723	17406.018000	1164.298828	57.585167
2746.928723	17406.018000	1163.170898	79.259560
2746.928723	17406.018000	1162.041992	-42.039581
2746.928723	17406.018000	1160.914063	-73.756905
2746.928723	17406.018000	1159.785156	-71.976433
2746.928723	17406.018000	1158.656250	-2.112905
2746.928723	17406.018000	1157.526367	10.215783
2746.928723	17406.018000	1156.397461	-138.101639
2746.928723	17406.018000	1155.267578	-213.571396
2746.928723	17406.018000	1154.137695	-107.744736
2746.928723	17406.018000	1153.006836	-115.316856
2746.928723	17406.018000	1151.876953	23.568125
2746.928723	17406.018000	1150.746094	-58.060177
2746.928723	17406.018000	1149.615234	-43.730377
2746.928723	17406.018000	1148.484375	-235.358566
2746.928723	17406.018000	1147.352539	-126.399857
2746.928723	17406.018000	1146.220703	-177.345627
2746.928723	17406.018000	1145.088867	-116.954712
2746.928723	17406.018000	1143.957031	-178.756454
2746.928723	17406.018000	1142.825195	-46.118092
2746.928723	17406.018000	1141.692383	-122.743935
2746.928723	17406.018000	1140.559570	7.946167
2746.928723	17406.018000	1139.426758	-33.960896
2746.928723	17406.018000	1138.292969	-183.162720
2746.928723	17406.018000	1137.159180	-29.938383
2746.928723	17406.018000	1136.025391	-69.899216
2746.928723	17406.018000	1134.891602	-93.185852
2746.928723	17406.018000	1133.757813	-198.235779
2746.928723	17406.018000	1132.623047	-37.060257
2746.928723	17406.018000	1131.488281	-205.809219
2746.928723	17406.018000	1130.353516	165.054459
2746.928723	17406.018000	1129.217773	104.881721
2746.928723	17406.018000	1128.083008	156.504913
2746.928723	17406.018000	1126.947266	170.526245
2746.928723	17406.018000	1125.811523	63.762802
2746.928723	17406.018000	1124.674805	24.880816
2746.928723	17406.018000	1123.539063	-49.529209
2746.928723	17406.018000	1122.402344	-83.614395
2746.928723	17406.018000	1121.265625	34.711094
2746.928723	17406.018000	1120.127930	-11.474562
2746.928723	17406.018000	1118.990234	12.693868
2746.928723	17406.018000	1117.853516	-16.904549
2746.928723	17406.018000	1116.714844	-115.810036
2746.928723	17406.018000	1115.577148	55.184780
2746.928723	17406.018000	1114.439453	17.455879
2746.928723	17406.018000	1113.300781	78.860519
2746.928723	17406.018000	1112.162109	-70.445747
2746.928723	17406.018000	1111.022461	43.224323
2746.928723	17406.018000	1109.883789	-20.614845
2746.928723	17406.018000	1108.744141	99.208008
2746.928723	17406.018000	1107.604492	63.159164
2746.928723	17406.018000	1106.463867	140.407181
2746.928723	17406.018000	1105.324219	166.730469
2746.928723	17406.018000	1104.183594	201.506042
2746.928723	17406.018000	1103.042969	330.834167
2746.928723	17406.018000	1101.902344	409.997162
2746.928723	17406.018000	1100.760742	383.149780
2746.928723	17406.018000	1099.619141	550.282959
2746.928723	17406.018000	1098.477539	457.924255
2746.928723	17406.018000	1097.335938	655.237793
2746.928723	17406.018000	1096.193359	644.638977
2746.928723	17406.018000	1095.051758	714.590515
2746.928723	17406.018000	1093.909180	583.679626
2746.928723	17406.018000	1092.765625	491.487518
2746.928723	17406.018000	1091.623047	430.844330
2746.928723	17406.018000	1090.479492	339.623199
2746.928723	17406.018000	1089.335938	403.652496
2746.928723	17406.018000	1088.192383	195.279022
2746.928723	17406.018000	1087.047852	242.071121
2746.928723	17406.018000	1085.903320	387.962708
2746.928723	17406.018000	1084.758789	275.477356
2746.928723	17406.018000	1083.614258	151.891663
2746.928723	17406.018000	1082.469727	95.973351
2746.928723	17406.018000	1081.324219	141.726151
2746.928723	17406.018000	1080.178711	111.219887
2746.928723	17406.018000	1079.033203	97.596359
2746.928723	17406.018000	1077.886719	164.480255
2746.928723	17406.018000	1076.740234	74.159317
2746.928723	17406.018000	1075.593750	49.876411
2746.928723	17406.018000	1074.447266	50.574116
2746.928723	17406.018000	1073.300781	83.806351
2746.928723	17406.018000	1072.153320	114.427620
2746.928723	17406.018000	1071.005859	98.010994
2746.928723	17406.018000	1069.858398	36.251030
2746.928723	17406.018000	1068.709961	159.777023
2746.928723	17406.018000	1067.561523	56.924858
2746.928723	17406.018000	1066.413086	118.948662
2746.928723	17406.018000	1065.264648	177.064957
2746.928723	17406.018000	1064.116211	117.177269
2746.928723	17406.018000	1062.966797	97.369339
2746.928723	17406.018000	1061.817383	74.108078
2746.928723	17406.018000	1060.667969	115.832207
2746.928723	17406.018000	1059.517578	106.060387
2746.928723	17406.018000	1058.368164	85.265167
2746.928723	17406.018000	1057.217773	32.664806
2746.928723	17406.018000	1056.067383	129.399765
2746.928723	17406.018000	1054.916016	52.864567
2746.928723	17406.018000	1053.764648	-18.346657
2746.928723	17406.018000	1052.613281	43.568081
2746.928723	17406.018000	1051.461914	39.851685
2746.928723	17406.018000	1050.310547	220.218246
2746.928723	17406.018000	1049.158203	234.654404
2746.928723	17406.018000	1048.005859	184.020584
2746.928723	17406.018000	1046.853516	228.868286
2746.928723	17406.018000	1045.700195	166.428696
2746.928723	17406.018000	1044.547852	176.048203
2746.928723	17406.018000	1043.394531	-59.932678
2746.928723	17406.018000	1042.240234	130.724960
2746.928723	17406.018000	1041.086914	185.319351
2746.928723	17406.018000	1039.932617	248.900818
2746.928723	17406.018000	1038.778320	177.458420
2746.928723	17406.018000	1037.624023	167.926010
2746.928723	17406.018000	1036.469727	163.267654
2746.928723	17406.018000	1035.314453	227.874420
2746.928723	17406.018000	1034.159180	213.736023
2746.928723	17406.018000	1033.003906	455.802887
2746.928723	17406.018000	1031.847656	434.073853
2746.928723	17406.018000	1030.692383	284.892181
2746.928723	17406.018000	1029.536133	369.994110
2746.928723	17406.018000	1028.378906	320.224030
2746.928723	17406.018000	1027.222656	292.338928
2746.928723	17406.018000	1026.065430	182.585617
2746.928723	17406.018000	1024.908203	150.985764
2746.928723	17406.018000	1023.750977	156.654343
2746.928723	17406.018000	1022.593750	110.164825
2746.928723	17406.018000	1021.435547	148.581711
2746.928723	17406.018000	1020.277344	188.147018
2746.928723	17406.018000	1019.119141	83.568481
2746.928723	17406.018000	1017.959961	155.289444
2746.928723	17406.018000	1016.800781	102.966530
2746.928723	17406.018000	1015.641602	51.368999
2746.928723	17406.018000	1014.482422	147.908203
2746.928723	17406.018000	1013.323242	80.147324
2746.928723	17406.018000	1012.163086	274.186310
2746.928723	17406.018000	1011.002930	397.715088
2746.928723	17406.018000	1009.842773	305.266144
2746.928723	17406.018000	1008.681641	234.728851
2746.928723	17406.018000	1007.520508	335.337677
2746.928723	17406.018000	1006.359375	284.341370
2746.928723	17406.018000	1005.198242	301.886627
2746.928723	17406.018000	1004.037109	305.605927
2746.928723	17406.018000	1002.875000	235.265976
2746.928723	17406.018000	1001.712891	316.999817
2746.928723	17406.018000	1000.550781	185.839874
2746.928723	17406.018000	999.387695	336.433624
2746.928723	17406.018000	998.224609	156.217361
2746.928723	17406.018000	997.061523	48.659569
2746.928723	17406.018000	995.898438	130.218414
2746.928723	17406.018000	994.734375	104.799072
2746.928723	17406.018000	993.571289	37.427143
2746.928723	17406.018000	992.407227	-10.035967
2746.928723	17406.018000	991.242188	30.390787
2746.928723	17406.018000	990.078125	143.586670
2746.928723	17406.018000	988.913086	101.665359
2746.928723	17406.018000	987.748047	-25.659737
2746.928723	17406.018000	986.583008	-8.549595
2746.928723	17406.018000	985.416992	-104.572899
2746.928723	17406.018000	984.250977	87.681084
2746.928723	17406.018000	983.084961	-27.801174
2746.928723	17406.018000	981.918945	-106.829590
2746.928723	17406.018000	980.751953	-6.525689
2746.928723	17406.018000	979.584961	-121.867325
2746.928723	17406.018000	978.417969	-61.832394
2746.928723	17406.018000	977.250977	-41.710316
2746.928723	17406.018000	976.083008	-140.573395
2746.928723	17406.018000	974.915039	10.796378
2746.928723	17406.018000	973.747070	-101.329384
2746.928723	17406.018000	972.579102	-116.440308
2746.928723	17406.018000	971.410156	58.899002
2746.928723	17406.018000	970.242188	-128.644348
2746.928723	17406.018000	969.072266	25.802456
2746.928723	17406.018000	967.903320	67.439079
2746.928723	17406.018000	966.733398	-55.478172
2746.928723	17406.018000	965.563477	114.677078
2746.928723	17406.018000	964.393555	65.880035
2746.928723	17406.018000	963.223633	58.788486
2746.928723	17406.018000	962.052734	224.037827
2746.928723	17406.018000	960.881836	220.670044
2746.928723	17406.018000	959.710938	26.745768
2746.928723	17406.018000	958.540039	84.334885
2746.928723	17406.018000	957.368164	161.320724
2746.928723	17406.018000	956.196289	66.850349
2746.928723	17406.018000	955.024414	184.021454
2746.928723	17406.018000	953.851563	83.007347
2746.928723	17406.018000	952.679688	26.680820
2746.928723	17406.018000	951.506836	-37.391396
2746.928723	17406.018000	950.333984	-35.504559
2746.928723	17406.018000	949.160156	85.464226
2746.928723	17406.018000	947.986328	61.536644
2746.928723	17406.018000	946.812500	-18.546555
2746.928723	17406.018000	945.638672	-43.001640
2746.928723	17406.018000	944.464844	-191.209442
2746.928723	17406.018000	943.290039	-145.255188
2746.928723	17406.018000	942.115234	60.823311
2746.928723	17406.018000	940.940430	108.785355
2746.928723	17406.018000	939.764648	-100.514915
2746.928723	17406.018000	938.588867	67.403793
2746.928723	17406.018000	937.413086	-113.389664
2746.928723	17406.018000	936.237305	-130.308380
2746.928723	17406.018000	935.060547	-4.438224
2746.928723	17406.018000	933.883789	-120.516617
2746.928723	17406.018000	932.707031	138.724518
2746.928723	17406.018000	931.530273	-171.651855
2746.928723	17406.018000	930.352539	95.070045
2746.928723	17406.018000	929.175781	-13.412000
2746.928723	17406.018000	927.998047	26.524448
2746.928723	17406.018000	926.819336	81.761620
2746.928723	17406.018000	925.641602	47.473999
2746.928723	17406.018000	924.462891	-45.847965
2746.928723	17406.018000	923.284180	-129.630951
2746.928723	17406.018000	922.104492	87.183380
2746.928723	17406.018000	920.924805	54.719177
2746.928723	17406.018000	919.746094	57.986382
2746.928723	17406.018000	919.551758	64.615395
2746.928723	17406.018000	918.386719	132.845490
2746.928723	17406.018000	917.220703	69.861206
2746.928723	17406.018000	916.054688	-48.238148
2746.928723	17406.018000	914.887695	40.805340
2746.928723	17406.018000	913.721680	-33.595657
2746.928723	17406.018000	912.554688	-20.617170
2746.928723	17406.018000	911.387695	-7.669104
2746.928723	17406.018000	910.220703	54.611748
2746.928723	17406.018000	909.052734	54.202908
2746.928723	17406.018000	907.885742	72.744781
2746.928723	17406.018000	906.717773	-32.079037
2746.928723	17406.018000	905.548828	-45.824356
2746.928723	17406.018000	904.380859	-31.142151
2746.928723	17406.018000	903.211914	-37.348965
2746.928723	17406.018000	902.042969	-58.746639
2746.928723	17406.018000	900.874023	-10.027172
2746.928723	17406.018000	899.704102	-20.101433
2746.928723	17406.018000	898.535156	83.484795
2746.928723	17406.018000	897.365234	44.926941
2746.928723	17406.018000	896.194336	23.405972
2746.928723	17406.018000	895.024414	-3.816148
2746.928723	17406.018000	893.853516	-31.051952
2746.928723	17406.018000	892.682617	148.013565
2746.928723	17406.018000	891.511719	82.854416
2746.928723	17406.018000	890.340820	212.574951
2746.928723	17406.018000	889.168945	50.901772
2746.928723	17406.018000	887.997070	87.850159
2746.928723	17406.018000	886.825195	130.428299
2746.928723	17406.018000	885.653320	42.515903
2746.928723	17406.018000	884.480469	-113.431015
2746.928723	17406.018000	883.307617	76.478386
2746.928723	17406.018000	882.134766	22.555490
2746.928723	17406.018000	880.961914	212.301620
2746.928723	17406.018000	879.788086	90.328896
2746.928723	17406.018000	878.614258	-7.076715
2746.928723	17406.018000	877.440430	142.829758
2746.928723	17406.018000	876.266602	15.195602
2746.928723	17406.018000	875.091797	-48.255333
2746.928723	17406.018000	873.916992	-2.284844
2746.928723	17406.018000	872.742188	-69.539093
2746.928723	17406.018000	871.567383	-108.507500
2746.928723	17406.018000	870.391602	-104.122581
2746.928723	17406.018000	869.215820	-30.021545
2746.928723	17406.018000	868.040039	-4.984333
2746.928723	17406.018000	866.864258	40.739372
2746.928723	17406.018000	865.687500	-98.211777
2746.928723	17406.018000	864.510742	-95.870384
2746.928723	17406.018000	863.333984	-16.351854
2746.928723	17406.018000	862.157227	32.977425
2746.928723	17406.018000	860.979492	27.667126
2746.928723	17406.018000	859.802734	16.678871
2746.928723	17406.018000	858.625000	-41.376617
2746.928723	17406.018000	857.446289	96.209381
2746.928723	17406.018000	856.268555	-1.401635
2746.928723	17406.018000	855.089844	45.791504
2746.928723	17406.018000	853.911133	-25.513098
2746.928723	17406.018000	852.731445	51.674946
2746.928723	17406.018000	851.552734	-47.858139
2746.928723	17406.018000	850.373047	-21.495192
2746.928723	17406.018000	849.193359	-38.383709
2746.928723	17406.018000	848.013672	74.292534
2746.928723	17406.018000	846.833008	-145.474762
2746.928723	17406.018000	845.652344	-153.042953
2746.928723	17406.018000	844.471680	-102.456177
2746.928723	17406.018000	843.291016	-157.015411
2746.928723	17406.018000	842.110352	-200.330200
2746.928723	17406.018000	840.928711	2.072453
2746.928723	17406.018000	839.747070	-146.352661
2746.928723	17406.018000	838.564453	-80.994904
2746.928723	17406.018000	837.382813	-13.826146
2746.928723	17406.018000	836.200195	0.799375
2746.928723	17406.018000	835.017578	-70.818222
2746.928723	17406.018000	833.834961	-37.525314
2746.928723	17406.018000	832.651367	57.530781
2746.928723	17406.018000	831.467773	197.456436
2746.928723	17406.018000	830.284180	69.538567
2746.928723	17406.018000	829.100586	179.377090
2746.928723	17406.018000	827.916992	103.844894
2746.928723	17406.018000	826.732422	56.374077
2746.928723	17406.018000	825.547852	44.430553
2746.928723	17406.018000	824.363281	125.975075
2746.928723	17406.018000	823.177734	119.554916
2746.928723	17406.018000	821.992188	120.577477
2746.928723	17406.018000	820.806641	-70.975479
2746.928723	17406.018000	819.621094	29.058956
2746.928723	17406.018000	818.434570	-61.575287
2746.928723	17406.018000	817.249023	55.149529
2746.928723	17406.018000	816.062500	-44.870903
2746.928723	17406.018000	814.875000	4.497928
2746.928723	17406.018000	813.688477	-2.203346
2746.928723	17406.018000	812.500977	93.720100
2746.928723	17406.018000	811.313477	4.809764
2746.928723	17406.018000	810.125977	46.502018
2746.928723	17406.018000	808.937500	-42.443348
2746.928723	17406.018000	807.749023	114.791145
2746.928723	17406.018000	806.560547	104.100876
2746.928723	17406.018000	805.372070	-98.645660
2746.928723	17406.018000	804.182617	58.378101
2746.928723	17406.018000	802.994141	-45.594193
2746.928723	17406.018000	801.803711	10.661942
2746.928723	17406.018000	800.614258	-84.027946
2746.928723	17406.018000	799.424805	-106.090256
2746.928723	17406.018000	798.234375	-74.189301
2746.928723	17406.018000	797.043945	-12.559504
2746.928723	17406.018000	795.852539	4.333480
2746.928723	17406.018000	794.662109	-73.724442
2746.928723	17406.018000	793.470703	-129.468201
2746.928723	17406.018000	792.279297	30.531029
2746.928723	17406.018000	791.087891	-172.209778
2746.928723	17406.018000	789.895508	8.096033
2746.928723	17406.018000	788.703125	-19.909733
2746.928723	17406.018000	787.510742	-77.683701
2746.928723	17406.018000	786.318359	-44.431030
2746.928723	17406.018000	785.125000	96.510765
2746.928723	17406.018000	783.931641	85.048805
2746.928723	17406.018000	782.738281	-86.149498
2746.928723	17406.018000	781.544922	-47.530506
2746.928723	17406.018000	780.350586	-146.329300
2746.928723	17406.018000	779.156250	-111.515083
2746.928723	17406.018000	777.961914	88.371086
2746.928723	17406.018000	776.767578	-73.599052
2746.928723	17406.018000	775.572266	1.845625
2746.928723	17406.018000	774.376953	-30.332752
2746.928723	17406.018000	773.181641	-81.080986
2746.928723	17406.018000	771.986328	-117.025574
2746.928723	17406.018000	770.790039	-95.555161
2746.928723	17406.018000	769.593750	3.674862
2746.928723	17406.018000	768.397461	28.725527
2746.928723	17406.018000	767.201172	50.016270
2746.928723	17406.018000	766.003906	13.854598
2746.928723	17406.018000	764.806641	103.541351
2746.928723	17406.018000	763.609375	141.323624
2746.928723	17406.018000	762.412109	227.155533
2746.928723	17406.018000	761.213867	225.954834
2746.928723	17406.018000	760.015625	-0.945255
2746.928723	17406.018000	758.817383	53.288334
2746.928723	17406.018000	757.618164	63.080570
2746.928723	17406.018000	756.419922	109.793541
2746.928723	17406.018000	755.220703	19.682890
2746.928723	17406.018000	754.021484	75.532257
2746.928723	17406.018000	752.821289	153.479889
2746.928723	17406.018000	751.621094	207.339783
2746.928723	17406.018000	750.420898	216.815140
2746.928723	17406.018000	749.220703	287.164886
2746.928723	17406.018000	748.020508	446.037537
2746.928723	17406.018000	746.819336	300.308014
2746.928723	17406.018000	745.618164	451.640137
2746.928723	17406.018000	744.416992	479.275269
2746.928723	17406.018000	743.214844	752.135559
2746.928723	17406.018000	742.012695	569.406494
2746.928723	17406.018000	740.810547	696.411926
2746.928723	17406.018000	739.608398	839.907410
2746.928723	17406.018000	738.406250	811.928223
2746.928723	17406.018000	737.203125	876.030273
2746.928723	17406.018000	736.000000	1113.202393
2746.928723	17406.018000	734.795898	1228.688843
2746.928723	17406.018000	733.592773	1303.579834
2746.928723	17406.018000	732.388672	1446.502197
2746.928723	17406.018000	731.184570	1226.765991
2746.928723	17406.018000	729.979492	1264.675659
2746.928723	17406.018000	728.775391	1092.813232
2746.928723	17406.018000	727.570313	832.694214
2746.928723	17406.018000	726.365234	546.897949
2746.928723	17406.018000	725.160156	551.656555
2746.928723	17406.018000	723.954102	361.532349
2746.928723	17406.018000	722.748047	406.671021
2746.928723	17406.018000	721.541992	429.701691
2746.928723	17406.018000	720.334961	261.638367
2746.928723	17406.018000	719.128906	157.886536
2746.928723	17406.018000	717.921875	184.501694
2746.928723	17406.018000	716.714844	88.069077
2746.928723	17406.018000	715.506836	72.391174
2746.928723	17406.018000	714.298828	97.049873
2746.928723	17406.018000	713.090820	99.643173
2746.928723	17406.018000	711.882813	32.496124
2746.928723	17406.018000	710.674805	137.719437
2746.928723	17406.018000	709.465820	-96.333267
2746.928723	17406.018000	708.256836	-114.022263
2746.928723	17406.018000	707.047852	13.041498
2746.928723	17406.018000	705.837891	130.849777
2746.928723	17406.018000	704.627930	116.672752
2746.928723	17406.018000	703.417969	159.242783
2746.928723	17406.018000	702.208008	253.031448
2746.928723	17406.018000	700.998047	335.759888
2746.928723	17406.018000	699.787109	237.206406
2746.928723	17406.018000	698.576172	156.959702
2746.928723	17406.018000	697.364258	23.649593
2746.928723	17406.018000	696.153320	89.750702
2746.928723	17406.018000	694.941406	100.922081
2746.928723	17406.018000	693.729492	26.117369
2746.928723	17406.018000	692.516602	93.898430
2746.928723	17406.018000	691.304688	123.239609
2746.928723	17406.018000	690.091797	68.477058
2746.928723	17406.018000	688.878906	148.899017
2746.928723	17406.018000	687.665039	194.548721
2746.928723	17406.018000	686.451172	351.544067
2746.928723	17406.018000	685.237305	249.182953
2746.928723	17406.018000	684.023438	300.168030
2746.928723	17406.018000	682.809570	60.926128
2746.928723	17406.018000	681.594727	217.697205
2746.928723	17406.018000	680.379883	95.265305
2746.928723	17406.018000	679.165039	211.782364
2746.928723	17406.018000	677.949219	227.929718
2746.928723	17406.018000	676.733398	240.397247
2746.928723	17406.018000	675.517578	223.670410
2746.928723	17406.018000	674.301758	316.264923
2746.928723	17406.018000	673.084961	288.544220
2746.928723	17406.018000	671.869141	371.929718
2746.928723	17406.018000	670.651367	285.880585
2746.928723	17406.018000	669.434570	270.858795
2746.928723	17406.018000	668.216797	294.046112
2746.928723	17406.018000	667.000000	300.825562
2746.928723	17406.018000	665.781250	263.902710
2746.928723	17406.018000	664.563477	277.917480
2746.928723	17406.018000	663.344727	220.967102
2746.928723	17406.018000	662.125977	280.404816
2746.928723	17406.018000	660.907227	517.972961
2746.928723	17406.018000	659.688477	391.879303
2746.928723	17406.018000	658.468750	394.848907
2746.928723	17406.018000	657.249023	412.336212
2746.928723	17406.018000	656.029297	338.972290
2746.928723	17406.018000	654.808594	494.459290
2746.928723	17406.018000	653.587891	357.522705
2746.928723	17406.018000	652.367188	423.956146
2746.928723	17406.018000	651.146484	314.291138
2746.928723	17406.018000	649.924805	288.129700
2746.928723	17406.018000	648.704102	220.242981
2746.928723	17406.018000	647.482422	357.339294
2746.928723	17406.018000	646.259766	213.271362
2746.928723	17406.018000	645.037109	80.133911
2746.928723	17406.018000	643.815430	287.840485
2746.928723	17406.018000	642.591797	248.964325
2746.928723	17406.018000	641.369141	248.152405
2746.928723	17406.018000	640.145508	321.605164
2746.928723	17406.018000	638.921875	235.636063
2746.928723	17406.018000	637.698242	149.697510
2746.928723	17406.018000	636.474609	94.568596
2746.928723	17406.018000	635.250000	314.582275
2746.928723	17406.018000	634.025391	134.564789
2746.928723	17406.018000	632.800781	151.832291
2746.928723	17406.018000	631.575195	40.655773
2746.928723	17406.018000	630.349609	-45.154675
2746.928723	17406.018000	629.124023	104.127289
2746.928723	17406.018000	627.898438	38.225544
2746.928723	17406.018000	626.671875	218.150848
2746.928723	17406.018000	625.445313	51.061443
2746.928723	17406.018000	624.218750	122.517143
2746.928723	17406.018000	622.992188	45.837048
2746.928723	17406.018000	621.764648	77.539749
2746.928723	17406.018000	620.537109	83.957764
2746.928723	17406.018000	619.309570	36.227581
2746.928723	17406.018000	618.081055	89.582634
2746.928723	17406.018000	616.852539	79.772423
2746.928723	17406.018000	615.624023	14.053045
2746.928723	17406.018000	614.395508	-67.861389
2746.928723	17406.018000	613.166992	-0.069763
2746.928723	17406.018000	611.937500	-13.425035
2746.928723	17406.018000	610.708008	113.822716
2746.928723	17406.018000	609.477539	8.566648
2746.928723	17406.018000	608.248047	-46.182976
2746.928723	17406.018000	607.017578	59.410229
2746.928723	17406.018000	605.787109	-115.960533
2746.928723	17406.018000	604.555664	-21.175014
2746.928723	17406.018000	603.325195	-180.223083
2746.928723	17406.018000	602.093750	-166.419632
2746.928723	17406.018000	600.861328	-73.438286
2746.928723	17406.018000	599.629883	-131.586380
2746.928723	17406.018000	598.397461	-180.702194
2746.928723	17406.018000	597.165039	-208.200577
2746.928723	17406.018000	595.932617	-82.855301
2746.928723	17406.018000	594.699219	-124.705742
2746.928723	17406.018000	593.465820	-193.472961
2746.928723	17406.018000	592.232422	37.849983
2746.928723	17406.018000	590.999023	-56.026836
2746.928723	17406.018000	589.764648	-29.520689
2746.928723	17406.018000	588.530273	-96.368385
2746.928723	17406.018000	587.295898	-179.319855
2746.928723	17406.018000	586.061523	14.176706
2746.928723	17406.018000	584.826172	15.617658
2746.928723	17406.018000	583.590820	-74.409248
2746.928723	17406.018000	582.355469	38.303040
2746.928723	17406.018000	581.119141	59.537506
2746.928723	17406.018000	579.882813	-69.807159
2746.928723	17406.018000	578.646484	152.248505
2746.928723	17406.018000	577.410156	60.627804
2746.928723	17406.018000	576.172852	108.822243
2746.928723	17406.018000	574.935547	237.632690
2746.928723	17406.018000	573.698242	235.680649
2746.928723	17406.018000	572.460938	140.652496
2746.928723	17406.018000	571.222656	99.395775
2746.928723	17406.018000	569.984375	40.289280
2746.928723	17406.018000	568.746094	24.183922
2746.928723	17406.018000	567.506836	8.113746
2746.928723	17406.018000	566.267578	40.373940
2746.928723	17406.018000	565.028320	72.652252
2746.928723	17406.018000	563.789063	49.525089
2746.928723	17406.018000	562.548828	3.200342
2746.928723	17406.018000	561.309570	130.277496
2746.928723	17406.018000	560.068359	175.139130
2746.928723	17406.018000	558.828125	2.085568
2746.928723	17406.018000	557.586914	155.963104
2746.928723	17406.018000	556.345703	102.683212
2746.928723	17406.018000	555.104492	188.702499
2746.928723	17406.018000	553.863281	139.073730
2746.928723	17406.018000	552.621094	52.023846
2746.928723	17406.018000	551.378906	73.870369
2746.928723	17406.018000	550.136719	102.875443
2746.928723	17406.018000	548.893555	219.278229
2746.928723	17406.018000	547.650391	242.954651
2746.928723	17406.018000	546.407227	211.395279
2746.928723	17406.018000	545.164063	254.731796
2746.928723	17406.018000	543.919922	264.226746
2746.928723	17406.018000	542.675781	42.172363
2746.928723	17406.018000	541.431641	0.124493
2746.928723	17406.018000	540.186523	63.179192
2746.928723	17406.018000	538.941406	154.721741
2746.928723	17406.018000	537.696289	116.328415
2746.928723	17406.018000	536.451172	-83.948479
2746.928723	17406.018000	535.205078	16.551527
2746.928723	17406.018000	533.959961	53.008080
2746.928723	17406.018000	532.712891	-79.465675
2746.928723	17406.018000	531.466797	-142.512787
2746.928723	17406.018000	530.219727	-114.851982
2746.928723	17406.018000	528.972656	-172.479340
2746.928723	17406.018000	527.725586	-34.608917
2746.928723	17406.018000	526.478516	-202.313248
2746.928723	17406.018000	525.230469	-151.471085
2746.928723	17406.018000	523.982422	-4.741858
2746.928723	17406.018000	522.734375	10.579132
2746.928723	17406.018000	521.485352	-59.280003
2746.928723	17406.018000	520.236328	-63.431053
2746.928723	17406.018000	518.987305	-7.239286
2746.928723	17406.018000	517.737305	-170.997177
2746.928723	17406.018000	516.488281	-116.540939
2746.928723	17406.018000	515.238281	23.009796
2746.928723	17406.018000	513.988281	-32.467831
2746.928723	17406.018000	512.737305	110.579254
2746.928723	17406.018000	511.486328	164.987534
2746.928723	17406.018000	510.235352	123.725861
2746.928723	17406.018000	508.984375	126.770363
2746.928723	17406.018000	507.732422	76.700806
2746.928723	17406.018000	506.480469	-14.056266
2746.928723	17406.018000	505.228516	47.445816
2746.928723	17406.018000	503.976563	77.075050
2746.928723	17406.018000	502.723633	104.923691
2746.928723	17406.018000	501.470703	256.576721
2746.928723	17406.018000	500.217773	335.659790
2746.928723	17406.018000	498.963867	138.892883
2746.928723	17406.018000	497.709961	302.806122
2746.928723	17406.018000	496.456055	318.193420
2746.928723	17406.018000	495.202148	328.264618
2746.928723	17406.018000	493.947266	522.035400
2746.928723	17406.018000	492.692383	528.502441
2746.928723	17406.018000	491.437500	459.023773
2746.928723	17406.018000	490.181641	481.356079
2746.928723	17406.018000	488.926758	598.969360
2746.928723	17406.018000	487.670898	501.227631
2746.928723	17406.018000	486.414063	592.273865
2746.928723	17406.018000	485.158203	478.649231
2746.928723	17406.018000	483.901367	574.894226
2746.928723	17406.018000	482.644531	535.308777
2746.928723	17406.018000	481.386719	721.328552
2746.928723	17406.018000	480.128906	637.595215
2746.928723	17406.018000	478.871094	724.764954
2746.928723	17406.018000	477.613281	711.444275
2746.928723	17406.018000	476.355469	571.276428
2746.928723	17406.018000	475.096680	633.609802
2746.928723	17406.018000	473.837891	579.674561
2746.928723	17406.018000	472.578125	566.184937
2746.928723	17406.018000	471.319336	550.882263
2746.928723	17406.018000	470.059570	607.652039
2746.928723	17406.018000	468.799805	493.714752
2746.928723	17406.018000	467.539063	453.612122
2746.928723	17406.018000	466.278320	422.242188
2746.928723	17406.018000	465.017578	492.758453
2746.928723	17406.018000	463.756836	498.137482
2746.928723	17406.018000	462.495117	485.855103
2746.928723	17406.018000	461.233398	371.602203
2746.928723	17406.018000	459.971680	543.572937
2746.928723	17406.018000	458.709961	516.957458
2746.928723	17406.018000	457.447266	664.039551
2746.928723	17406.018000	456.184570	781.113464
2746.928723	17406.018000	454.921875	750.627014
2746.928723	17406.018000	453.658203	1055.115356
2746.928723	17406.018000	452.394531	938.395203
2746.928723	17406.018000	451.130859	1095.160156
2746.928723	17406.018000	449.867188	1190.363525
2746.928723	17406.018000	448.602539	1292.395874
2746.928723	17406.018000	447.337891	1376.717896
2746.928723	17406.018000	446.073242	1422.311646
2746.928723	17406.018000	444.807617	1297.813477
2746.928723	17406.018000	443.542969	1413.146973
2746.928723	17406.018000	442.276367	1403.941772
2746.928723	17406.018000	441.010742	1121.489014
2746.928723	17406.018000	439.744141	1122.508911
2746.928723	17406.018000	438.478516	1025.363037
2746.928723	17406.018000	437.210938	1090.761353
2746.928723	17406.018000	435.944336	1037.007690
2746.928723	17406.018000	434.676758	907.882263
2746.928723	17406.018000	433.409180	962.177917
2746.928723	17406.018000	432.141602	986.525146
2746.928723	17406.018000	430.873047	991.417053
2746.928723	17406.018000	429.604492	823.114258
2746.928723	17406.018000	428.335938	876.494080
2746.928723	17406.018000	427.067383	660.669189
2746.928723	17406.018000	425.797852	760.716431
2746.928723	17406.018000	424.528320	631.791321
2746.928723	17406.018000	423.258789	663.227783
2746.928723	17406.018000	421.988281	631.562805
2746.928723	17406.018000	420.717773	414.722534
2746.928723	17406.018000	419.447266	532.567993
2746.928723	17406.018000	418.175781	526.262207
2746.928723	17406.018000	416.905273	418.555695
2746.928723	17406.018000	415.633789	524.974609
2746.928723	17406.018000	414.362305	552.618530
2746.928723	17406.018000	413.089844	396.988892
2746.928723	17406.018000	411.817383	378.707947
2746.928723	17406.018000	410.544922	292.181885
2746.928723	17406.018000	409.272461	473.480835
2746.928723	17406.018000	407.999023	455.898743
2746.928723	17406.018000	406.725586	377.051575
2746.928723	17406.018000	405.452148	412.708374
2746.928723	17406.018000	404.177734	505.368958
2746.928723	17406.018000	402.903320	404.550171
2746.928723	17406.018000	401.628906	226.871338
2746.928723	17406.018000	400.354492	295.726990
2746.928723	17406.018000	399.079102	258.106567
2746.928723	17406.018000	397.803711	506.800049
2746.928723	17406.018000	396.528320	471.769165
2746.928723	17406.018000	395.251953	408.508728
2746.928723	17406.018000	393.976563	551.489380
2746.928723	17406.018000	392.700195	402.254333
2746.928723	17406.018000	391.422852	448.746277
2746.928723	17406.018000	390.145508	539.859070
2746.928723	17406.018000	388.869141	606.164734
2746.928723	17406.018000	387.590820	512.320435
2746.928723	17406.018000	386.313477	412.817200
2746.928723	17406.018000	385.035156	314.553741
2746.928723	17406.018000	383.756836	259.140076
2746.928723	17406.018000	382.478516	227.471252
2746.928723	17406.018000	381.199219	231.635483
2746.928723	17406.018000	379.919922	176.329605
2746.928723	17406.018000	378.640625	265.964935
2746.928723	17406.018000	377.360352	193.910263
2746.928723	17406.018000	376.080078	251.135864
2746.928723	17406.018000	374.799805	181.369156
2746.928723	17406.018000	373.519531	181.964432
2746.928723	17406.018000	372.238281	45.223743
2746.928723	17406.018000	370.957031	115.473251
2746.928723	17406.018000	369.675781	51.870636
2746.928723	17406.018000	368.394531	170.905533
2746.928723	17406.018000	367.112305	83.477242
2746.928723	17406.018000	365.830078	54.155624
2746.928723	17406.018000	364.546875	-51.907368
2746.928723	17406.018000	363.264648	245.622635
2746.928723	17406.018000	361.981445	-34.597736
2746.928723	17406.018000	360.698242	-25.340696
2746.928723	17406.018000	359.414063	91.896645
2746.928723	17406.018000	358.129883	191.055878
2746.928723	17406.018000	356.845703	51.250774
2746.928723	17406.018000	355.561523	-137.593430
2746.928723	17406.018000	354.276367	12.616183
2746.928723	17406.018000	352.991211	79.163986
2746.928723	17406.018000	351.706055	55.194668
2746.928723	17406.018000	350.420898	211.385056
2746.928723	17406.018000	349.134766	-36.654232
2746.928723	17406.018000	347.848633	14.346664
2746.928723	17406.018000	346.561523	26.508585
2746.928723	17406.018000	345.275391	168.689240
2746.928723	17406.018000	343.988281	115.288788
2746.928723	17406.018000	342.700195	165.963013
2746.928723	17406.018000	341.413086	60.802952
2746.928723	17406.018000	340.125000	87.198586
2746.928723	17406.018000	338.836914	160.783310
2746.928723	17406.018000	337.548828	140.471497
2746.928723	17406.018000	336.259766	289.377808
2746.928723	17406.018000	334.970703	351.243011
2746.928723	17406.018000	333.681641	398.303619
2746.928723	17406.018000	332.391602	196.796753
2746.928723	17406.018000	331.101563	219.396957
2746.928723	17406.018000	329.811523	220.304413
2746.928723	17406.018000	328.521484	151.430191
2746.928723	17406.018000	327.230469	311.523682
2746.928723	17406.018000	325.939453	121.955696
2746.928723	17406.018000	324.648438	27.450695
2746.928723	17406.018000	323.356445	-56.190899
2746.928723	17406.018000	322.064453	-39.739445
2746.928723	17406.018000	320.772461	-245.723541
2746.928723	17406.018000	319.480469	-269.326111
2746.928723	17406.018000	318.187500	-71.301086
2746.928723	17406.018000	316.894531	-145.395020
2746.928723	17406.018000	315.601563	-107.591644
2746.928723	17406.018000	314.307617	-225.299103
2746.928723	17406.018000	313.013672	17.200644
2746.928723	17406.018000	311.719727	-34.526375
2746.928723	17406.018000	310.425781	-89.238350
2746.928723	17406.018000	309.130859	58.410576
2746.928723	17406.018000	307.835938	-132.475006
2746.928723	17406.018000	306.541016	53.517643
2746.928723	17406.018000	305.245117	24.184553
2746.928723	17406.018000	303.949219	-11.637234
2746.928723	17406.018000	302.653320	171.747284
2746.928723	17406.018000	301.356445	266.403625
2746.928723	17406.018000	300.060547	294.716553
2746.928723	17406.018000	298.763672	588.092773
