#X		#Y		#Wave		#Intensity
2707.941064	17401.226333	2000.043945	38.385727
2707.941064	17401.226333	1999.080078	-115.190193
2707.941064	17401.226333	1998.116211	-15.862303
2707.941064	17401.226333	1997.151367	-97.946854
2707.941064	17401.226333	1996.186523	-66.490204
2707.941064	17401.226333	1995.222656	177.539978
2707.941064	17401.226333	1994.256836	76.791786
2707.941064	17401.226333	1993.291992	-34.249485
2707.941064	17401.226333	1992.327148	32.610012
2707.941064	17401.226333	1991.361328	200.553345
2707.941064	17401.226333	1990.395508	-47.730709
2707.941064	17401.226333	1989.429688	10.553045
2707.941064	17401.226333	1988.463867	-186.357132
2707.941064	17401.226333	1987.497070	-91.644104
2707.941064	17401.226333	1986.531250	-17.076618
2707.941064	17401.226333	1985.564453	148.646027
2707.941064	17401.226333	1984.597656	140.958038
2707.941064	17401.226333	1983.630859	105.797340
2707.941064	17401.226333	1982.664063	-35.887676
2707.941064	17401.226333	1981.696289	98.951958
2707.941064	17401.226333	1980.728516	-114.829552
2707.941064	17401.226333	1979.761719	199.782913
2707.941064	17401.226333	1978.792969	37.453854
2707.941064	17401.226333	1977.825195	-78.127014
2707.941064	17401.226333	1976.857422	183.809128
2707.941064	17401.226333	1975.888672	218.389328
2707.941064	17401.226333	1974.919922	146.659088
2707.941064	17401.226333	1973.951172	3.228437
2707.941064	17401.226333	1972.982422	27.413187
2707.941064	17401.226333	1972.013672	51.426384
2707.941064	17401.226333	1971.043945	-82.530815
2707.941064	17401.226333	1970.075195	54.598545
2707.941064	17401.226333	1969.105469	100.341278
2707.941064	17401.226333	1968.135742	158.258026
2707.941064	17401.226333	1967.165039	201.248703
2707.941064	17401.226333	1966.195313	86.444641
2707.941064	17401.226333	1965.224609	-57.978870
2707.941064	17401.226333	1964.253906	36.418339
2707.941064	17401.226333	1963.283203	118.376556
2707.941064	17401.226333	1962.312500	35.287231
2707.941064	17401.226333	1961.341797	112.125580
2707.941064	17401.226333	1960.370117	124.881172
2707.941064	17401.226333	1959.399414	68.676392
2707.941064	17401.226333	1958.427734	-36.766346
2707.941064	17401.226333	1957.455078	74.196152
2707.941064	17401.226333	1956.483398	226.867722
2707.941064	17401.226333	1955.511719	64.755394
2707.941064	17401.226333	1954.539063	28.019136
2707.941064	17401.226333	1953.566406	74.815575
2707.941064	17401.226333	1952.593750	106.821350
2707.941064	17401.226333	1951.621094	-20.891590
2707.941064	17401.226333	1950.647461	30.718737
2707.941064	17401.226333	1949.674805	89.659523
2707.941064	17401.226333	1948.701172	-30.669722
2707.941064	17401.226333	1947.727539	-28.225512
2707.941064	17401.226333	1946.753906	106.745895
2707.941064	17401.226333	1945.780273	-69.979446
2707.941064	17401.226333	1944.805664	30.598406
2707.941064	17401.226333	1943.831055	89.441292
2707.941064	17401.226333	1942.856445	207.129501
2707.941064	17401.226333	1941.881836	-62.640625
2707.941064	17401.226333	1940.907227	91.828079
2707.941064	17401.226333	1939.932617	-241.522232
2707.941064	17401.226333	1938.957031	-74.792007
2707.941064	17401.226333	1937.981445	-11.012503
2707.941064	17401.226333	1937.005859	241.397675
2707.941064	17401.226333	1936.030273	138.588150
2707.941064	17401.226333	1935.054688	30.945717
2707.941064	17401.226333	1934.078125	204.937744
2707.941064	17401.226333	1933.101563	121.861359
2707.941064	17401.226333	1932.125000	78.008240
2707.941064	17401.226333	1931.148438	48.887749
2707.941064	17401.226333	1930.171875	-136.768234
2707.941064	17401.226333	1929.194336	-14.106973
2707.941064	17401.226333	1928.217773	35.175808
2707.941064	17401.226333	1927.240234	-62.232563
2707.941064	17401.226333	1926.262695	-12.880737
2707.941064	17401.226333	1925.284180	-102.830338
2707.941064	17401.226333	1924.306641	115.218277
2707.941064	17401.226333	1923.328125	-3.958779
2707.941064	17401.226333	1922.350586	-15.559294
2707.941064	17401.226333	1921.372070	-12.457575
2707.941064	17401.226333	1920.392578	-28.849390
2707.941064	17401.226333	1919.414063	-64.723106
2707.941064	17401.226333	1918.434570	-39.511639
2707.941064	17401.226333	1917.456055	-14.264250
2707.941064	17401.226333	1916.476563	-128.074005
2707.941064	17401.226333	1915.497070	-117.368988
2707.941064	17401.226333	1914.516602	178.774002
2707.941064	17401.226333	1913.537109	1.716160
2707.941064	17401.226333	1912.556641	-55.749813
2707.941064	17401.226333	1911.576172	81.883057
2707.941064	17401.226333	1910.595703	80.572350
2707.941064	17401.226333	1909.615234	-220.447098
2707.941064	17401.226333	1908.633789	-289.838196
2707.941064	17401.226333	1907.653320	-161.838364
2707.941064	17401.226333	1906.671875	-97.171417
2707.941064	17401.226333	1905.690430	-22.748045
2707.941064	17401.226333	1904.708984	-40.831772
2707.941064	17401.226333	1903.727539	-36.962551
2707.941064	17401.226333	1902.745117	137.311783
2707.941064	17401.226333	1901.762695	14.687571
2707.941064	17401.226333	1900.780273	62.447910
2707.941064	17401.226333	1899.797852	-1.667100
2707.941064	17401.226333	1898.815430	155.587463
2707.941064	17401.226333	1897.832031	96.407806
2707.941064	17401.226333	1896.849609	151.542358
2707.941064	17401.226333	1895.866211	-60.682693
2707.941064	17401.226333	1894.882813	-5.480786
2707.941064	17401.226333	1893.898438	49.729961
2707.941064	17401.226333	1892.915039	-9.232140
2707.941064	17401.226333	1891.930664	92.155457
2707.941064	17401.226333	1890.947266	-112.448311
2707.941064	17401.226333	1889.962891	90.936165
2707.941064	17401.226333	1888.977539	-21.303997
2707.941064	17401.226333	1887.993164	-133.485672
2707.941064	17401.226333	1887.007813	-119.427109
2707.941064	17401.226333	1886.023438	-66.542976
2707.941064	17401.226333	1885.038086	-76.731598
2707.941064	17401.226333	1884.051758	27.080479
2707.941064	17401.226333	1883.066406	77.516510
2707.941064	17401.226333	1882.081055	-82.970764
2707.941064	17401.226333	1881.094727	-27.670816
2707.941064	17401.226333	1880.108398	-146.871140
2707.941064	17401.226333	1879.122070	19.879469
2707.941064	17401.226333	1878.135742	48.487305
2707.941064	17401.226333	1877.148438	-60.971958
2707.941064	17401.226333	1876.162109	-22.679956
2707.941064	17401.226333	1875.174805	-32.829128
2707.941064	17401.226333	1874.187500	-9.093829
2707.941064	17401.226333	1873.199219	-53.140675
2707.941064	17401.226333	1872.211914	74.616264
2707.941064	17401.226333	1871.223633	-95.259735
2707.941064	17401.226333	1870.236328	10.657127
2707.941064	17401.226333	1869.248047	99.588257
2707.941064	17401.226333	1868.258789	-275.775116
2707.941064	17401.226333	1867.270508	-32.147789
2707.941064	17401.226333	1866.282227	51.839649
2707.941064	17401.226333	1865.292969	147.853333
2707.941064	17401.226333	1864.303711	45.679867
2707.941064	17401.226333	1863.314453	-20.251242
2707.941064	17401.226333	1862.324219	87.704559
2707.941064	17401.226333	1861.334961	55.528114
2707.941064	17401.226333	1860.344727	-70.830223
2707.941064	17401.226333	1859.354492	82.824478
2707.941064	17401.226333	1858.364258	-207.683746
2707.941064	17401.226333	1857.374023	49.609749
2707.941064	17401.226333	1856.383789	-28.576469
2707.941064	17401.226333	1855.392578	-34.418472
2707.941064	17401.226333	1854.401367	-165.712341
2707.941064	17401.226333	1853.410156	40.549564
2707.941064	17401.226333	1852.418945	135.786972
2707.941064	17401.226333	1851.426758	50.165405
2707.941064	17401.226333	1850.435547	72.955788
2707.941064	17401.226333	1849.443359	-19.970673
2707.941064	17401.226333	1848.451172	26.787552
2707.941064	17401.226333	1847.458984	-8.423014
2707.941064	17401.226333	1846.466797	91.157257
2707.941064	17401.226333	1845.473633	120.812691
2707.941064	17401.226333	1844.480469	-71.064682
2707.941064	17401.226333	1843.487305	-12.657591
2707.941064	17401.226333	1842.494141	115.429375
2707.941064	17401.226333	1841.500977	151.973465
2707.941064	17401.226333	1840.506836	-18.428827
2707.941064	17401.226333	1839.513672	78.082916
2707.941064	17401.226333	1838.519531	37.425350
2707.941064	17401.226333	1837.525391	54.390522
2707.941064	17401.226333	1836.530273	47.224056
2707.941064	17401.226333	1835.536133	-164.282227
2707.941064	17401.226333	1834.541016	147.947830
2707.941064	17401.226333	1833.545898	34.798485
2707.941064	17401.226333	1832.550781	-27.972403
2707.941064	17401.226333	1831.555664	-1.974158
2707.941064	17401.226333	1830.560547	2.306966
2707.941064	17401.226333	1829.564453	-39.123211
2707.941064	17401.226333	1828.568359	34.548828
2707.941064	17401.226333	1827.572266	290.437469
2707.941064	17401.226333	1826.576172	102.324127
2707.941064	17401.226333	1825.580078	-28.266628
2707.941064	17401.226333	1824.583008	88.071953
2707.941064	17401.226333	1823.585938	146.712616
2707.941064	17401.226333	1822.588867	145.286423
2707.941064	17401.226333	1821.591797	-33.607704
2707.941064	17401.226333	1820.594727	-6.482204
2707.941064	17401.226333	1819.596680	66.029175
2707.941064	17401.226333	1818.599609	238.995529
2707.941064	17401.226333	1817.601563	2.251503
2707.941064	17401.226333	1816.603516	110.262589
2707.941064	17401.226333	1815.604492	2.647568
2707.941064	17401.226333	1814.606445	136.688507
2707.941064	17401.226333	1813.607422	31.241640
2707.941064	17401.226333	1812.608398	-36.017986
2707.941064	17401.226333	1811.609375	209.983368
2707.941064	17401.226333	1810.610352	89.829208
2707.941064	17401.226333	1809.610352	22.186546
2707.941064	17401.226333	1808.611328	-0.141331
2707.941064	17401.226333	1807.611328	1.298059
2707.941064	17401.226333	1806.611328	91.020538
2707.941064	17401.226333	1805.610352	206.845978
2707.941064	17401.226333	1804.610352	4.754650
2707.941064	17401.226333	1803.609375	101.153122
2707.941064	17401.226333	1802.608398	92.293221
2707.941064	17401.226333	1801.607422	150.141525
2707.941064	17401.226333	1800.606445	-11.801159
2707.941064	17401.226333	1799.605469	100.638817
2707.941064	17401.226333	1798.603516	-32.906010
2707.941064	17401.226333	1797.601563	98.270172
2707.941064	17401.226333	1796.599609	-66.541702
2707.941064	17401.226333	1795.597656	92.899529
2707.941064	17401.226333	1794.595703	56.598743
2707.941064	17401.226333	1793.592773	-203.947876
2707.941064	17401.226333	1792.589844	202.838409
2707.941064	17401.226333	1791.587891	-12.671953
2707.941064	17401.226333	1790.583984	-30.513746
2707.941064	17401.226333	1789.581055	37.253300
2707.941064	17401.226333	1788.577148	52.427254
2707.941064	17401.226333	1787.574219	134.114029
2707.941064	17401.226333	1786.570313	65.606247
2707.941064	17401.226333	1785.566406	139.781799
2707.941064	17401.226333	1784.561523	-14.717785
2707.941064	17401.226333	1783.557617	-36.068409
2707.941064	17401.226333	1782.552734	-12.384849
2707.941064	17401.226333	1781.547852	-17.422251
2707.941064	17401.226333	1780.542969	-93.970253
2707.941064	17401.226333	1779.538086	124.171768
2707.941064	17401.226333	1778.532227	-214.217743
2707.941064	17401.226333	1777.527344	115.231369
2707.941064	17401.226333	1776.521484	166.344940
2707.941064	17401.226333	1775.515625	162.621918
2707.941064	17401.226333	1774.508789	191.973984
2707.941064	17401.226333	1773.502930	107.150658
2707.941064	17401.226333	1772.496094	100.537148
2707.941064	17401.226333	1771.489258	-51.067032
2707.941064	17401.226333	1770.482422	158.000931
2707.941064	17401.226333	1769.475586	224.424393
2707.941064	17401.226333	1768.467773	81.838829
2707.941064	17401.226333	1767.460938	114.688316
2707.941064	17401.226333	1766.453125	-61.381058
2707.941064	17401.226333	1765.445313	-19.393797
2707.941064	17401.226333	1764.437500	221.558212
2707.941064	17401.226333	1763.428711	-101.940025
2707.941064	17401.226333	1762.420898	-8.358658
2707.941064	17401.226333	1761.412109	-78.501343
2707.941064	17401.226333	1760.403320	-32.708004
2707.941064	17401.226333	1759.393555	72.096046
2707.941064	17401.226333	1758.384766	-69.599876
2707.941064	17401.226333	1757.375000	84.539001
2707.941064	17401.226333	1756.366211	-78.765831
2707.941064	17401.226333	1755.356445	72.595177
2707.941064	17401.226333	1754.345703	-20.031595
2707.941064	17401.226333	1753.335938	3.143812
2707.941064	17401.226333	1752.325195	149.126526
2707.941064	17401.226333	1751.315430	124.605659
2707.941064	17401.226333	1750.304688	-1.772660
2707.941064	17401.226333	1749.292969	-104.651161
2707.941064	17401.226333	1748.282227	-158.015442
2707.941064	17401.226333	1747.270508	-88.660690
2707.941064	17401.226333	1746.259766	37.213352
2707.941064	17401.226333	1745.248047	-59.210598
2707.941064	17401.226333	1744.235352	-21.158134
2707.941064	17401.226333	1743.223633	87.562714
2707.941064	17401.226333	1742.211914	196.067795
2707.941064	17401.226333	1741.199219	23.437138
2707.941064	17401.226333	1740.186523	214.156006
2707.941064	17401.226333	1739.173828	-164.047440
2707.941064	17401.226333	1738.160156	87.612495
2707.941064	17401.226333	1737.147461	27.664865
2707.941064	17401.226333	1736.133789	139.709625
2707.941064	17401.226333	1735.120117	53.481968
2707.941064	17401.226333	1734.106445	18.979731
2707.941064	17401.226333	1733.091797	-15.693675
2707.941064	17401.226333	1732.078125	-81.142273
2707.941064	17401.226333	1731.063477	-165.596649
2707.941064	17401.226333	1730.048828	-0.493520
2707.941064	17401.226333	1729.034180	39.557629
2707.941064	17401.226333	1728.019531	-233.747955
2707.941064	17401.226333	1727.003906	17.868174
2707.941064	17401.226333	1725.988281	137.411377
2707.941064	17401.226333	1724.972656	30.823097
2707.941064	17401.226333	1723.957031	37.053539
2707.941064	17401.226333	1722.941406	-133.314224
2707.941064	17401.226333	1721.924805	-162.673294
2707.941064	17401.226333	1720.909180	12.419858
2707.941064	17401.226333	1719.892578	41.503086
2707.941064	17401.226333	1718.875977	183.249008
2707.941064	17401.226333	1717.858398	87.395874
2707.941064	17401.226333	1716.841797	134.776169
2707.941064	17401.226333	1715.824219	158.473541
2707.941064	17401.226333	1714.806641	109.194504
2707.941064	17401.226333	1713.789063	-214.980621
2707.941064	17401.226333	1712.770508	-224.575882
2707.941064	17401.226333	1711.752930	-241.341293
2707.941064	17401.226333	1710.734375	-70.503036
2707.941064	17401.226333	1709.715820	-89.953445
2707.941064	17401.226333	1708.697266	59.381088
2707.941064	17401.226333	1707.678711	-47.167995
2707.941064	17401.226333	1706.659180	-99.898849
2707.941064	17401.226333	1705.640625	105.196083
2707.941064	17401.226333	1704.621094	174.079590
2707.941064	17401.226333	1703.600586	167.772247
2707.941064	17401.226333	1702.581055	123.852760
2707.941064	17401.226333	1701.561523	150.103867
2707.941064	17401.226333	1700.541016	244.123276
2707.941064	17401.226333	1699.520508	265.367798
2707.941064	17401.226333	1698.500000	398.870209
2707.941064	17401.226333	1697.478516	190.353928
2707.941064	17401.226333	1696.458008	243.972412
2707.941064	17401.226333	1695.436523	428.478394
2707.941064	17401.226333	1694.415039	434.958344
2707.941064	17401.226333	1693.393555	326.679443
2707.941064	17401.226333	1692.372070	368.010529
2707.941064	17401.226333	1691.349609	310.966431
2707.941064	17401.226333	1690.327148	492.304962
2707.941064	17401.226333	1689.304688	535.535583
2707.941064	17401.226333	1688.282227	669.781189
2707.941064	17401.226333	1687.259766	521.117554
2707.941064	17401.226333	1686.236328	563.948792
2707.941064	17401.226333	1685.213867	660.395813
2707.941064	17401.226333	1684.190430	464.753998
2707.941064	17401.226333	1683.166016	637.971252
2707.941064	17401.226333	1682.142578	815.705078
2707.941064	17401.226333	1681.119141	806.544067
2707.941064	17401.226333	1680.094727	923.273560
2707.941064	17401.226333	1679.070313	855.539307
2707.941064	17401.226333	1678.045898	878.703491
2707.941064	17401.226333	1677.020508	1027.678345
2707.941064	17401.226333	1675.996094	824.424194
2707.941064	17401.226333	1674.970703	938.189331
2707.941064	17401.226333	1673.945313	951.589722
2707.941064	17401.226333	1672.919922	960.232666
2707.941064	17401.226333	1671.893555	994.389404
2707.941064	17401.226333	1670.868164	1105.341553
2707.941064	17401.226333	1669.841797	1027.488037
2707.941064	17401.226333	1668.815430	1168.470459
2707.941064	17401.226333	1667.789063	864.635620
2707.941064	17401.226333	1666.761719	886.694763
2707.941064	17401.226333	1665.735352	1015.744873
2707.941064	17401.226333	1664.708008	937.557983
2707.941064	17401.226333	1663.680664	1122.206177
2707.941064	17401.226333	1662.653320	1055.511475
2707.941064	17401.226333	1661.625000	1249.200806
2707.941064	17401.226333	1660.597656	1089.365845
2707.941064	17401.226333	1659.569336	1145.688110
2707.941064	17401.226333	1658.541016	1362.287842
2707.941064	17401.226333	1657.512695	1086.122314
2707.941064	17401.226333	1656.483398	1283.915649
2707.941064	17401.226333	1655.455078	1233.061279
2707.941064	17401.226333	1654.425781	1275.037964
2707.941064	17401.226333	1653.396484	1152.090332
2707.941064	17401.226333	1652.366211	1451.612671
2707.941064	17401.226333	1651.336914	1326.254150
2707.941064	17401.226333	1650.306641	1435.243530
2707.941064	17401.226333	1649.276367	1613.746460
2707.941064	17401.226333	1648.246094	1722.546143
2707.941064	17401.226333	1647.215820	1506.575439
2707.941064	17401.226333	1646.185547	1721.932129
2707.941064	17401.226333	1645.154297	2050.737549
2707.941064	17401.226333	1644.123047	1901.905884
2707.941064	17401.226333	1643.091797	1994.104004
2707.941064	17401.226333	1642.060547	2097.819336
2707.941064	17401.226333	1641.028320	1761.307251
2707.941064	17401.226333	1639.997070	2043.302612
2707.941064	17401.226333	1638.964844	2114.419434
2707.941064	17401.226333	1637.931641	1940.056274
2707.941064	17401.226333	1636.899414	2136.112305
2707.941064	17401.226333	1635.867188	2262.645264
2707.941064	17401.226333	1634.833984	2097.548096
2707.941064	17401.226333	1633.800781	2055.106201
2707.941064	17401.226333	1632.767578	2218.514893
2707.941064	17401.226333	1631.734375	2515.970459
2707.941064	17401.226333	1630.700195	2346.252686
2707.941064	17401.226333	1629.666016	2511.767822
2707.941064	17401.226333	1628.631836	2508.502197
2707.941064	17401.226333	1627.597656	2817.172852
2707.941064	17401.226333	1626.563477	2959.387207
2707.941064	17401.226333	1625.528320	3117.691650
2707.941064	17401.226333	1624.493164	2945.706543
2707.941064	17401.226333	1623.458008	3258.651123
2707.941064	17401.226333	1622.422852	2902.045410
2707.941064	17401.226333	1621.387695	3064.875977
2707.941064	17401.226333	1620.351563	3241.476074
2707.941064	17401.226333	1619.315430	2806.651367
2707.941064	17401.226333	1618.279297	3066.298340
2707.941064	17401.226333	1617.243164	3026.061523
2707.941064	17401.226333	1616.207031	2932.830078
2707.941064	17401.226333	1615.169922	3150.841553
2707.941064	17401.226333	1614.132813	3057.641602
2707.941064	17401.226333	1613.095703	3190.332031
2707.941064	17401.226333	1612.058594	2982.018555
2707.941064	17401.226333	1611.020508	3087.063721
2707.941064	17401.226333	1609.983398	2904.246094
2707.941064	17401.226333	1608.945313	3083.014160
2707.941064	17401.226333	1607.907227	2805.928955
2707.941064	17401.226333	1606.868164	3072.160156
2707.941064	17401.226333	1605.830078	3071.409668
2707.941064	17401.226333	1604.791016	2944.135986
2707.941064	17401.226333	1603.751953	2934.271240
2707.941064	17401.226333	1602.712891	2889.959717
2707.941064	17401.226333	1601.673828	2983.680176
2707.941064	17401.226333	1600.633789	2923.358398
2707.941064	17401.226333	1599.594727	2991.853760
2707.941064	17401.226333	1598.554688	3085.633301
2707.941064	17401.226333	1597.513672	2997.896484
2707.941064	17401.226333	1596.473633	3181.341797
2707.941064	17401.226333	1595.433594	3075.387695
2707.941064	17401.226333	1594.392578	3049.884277
2707.941064	17401.226333	1593.351563	3192.051758
2707.941064	17401.226333	1592.310547	3185.030518
2707.941064	17401.226333	1591.268555	3226.251465
2707.941064	17401.226333	1590.227539	3354.738037
2707.941064	17401.226333	1589.185547	3430.462646
2707.941064	17401.226333	1588.143555	3292.926514
2707.941064	17401.226333	1587.100586	3561.386230
2707.941064	17401.226333	1586.058594	3515.740234
2707.941064	17401.226333	1585.015625	3286.789551
2707.941064	17401.226333	1583.972656	3151.974121
2707.941064	17401.226333	1582.929688	3278.510986
2707.941064	17401.226333	1581.886719	3125.591309
2707.941064	17401.226333	1580.843750	3238.513672
2707.941064	17401.226333	1579.799805	3074.367432
2707.941064	17401.226333	1578.755859	3137.043701
2707.941064	17401.226333	1577.711914	3346.292480
2707.941064	17401.226333	1576.666992	2857.489990
2707.941064	17401.226333	1575.623047	2973.085693
2707.941064	17401.226333	1574.578125	2862.224121
2707.941064	17401.226333	1573.533203	2600.543457
2707.941064	17401.226333	1572.488281	2677.526123
2707.941064	17401.226333	1571.443359	2740.863037
2707.941064	17401.226333	1570.397461	2449.933594
2707.941064	17401.226333	1569.351563	2582.047852
2707.941064	17401.226333	1568.305664	2549.695557
2707.941064	17401.226333	1567.259766	2501.474121
2707.941064	17401.226333	1566.213867	2430.543213
2707.941064	17401.226333	1565.166992	2252.398193
2707.941064	17401.226333	1564.120117	2172.619385
2707.941064	17401.226333	1563.073242	2083.861328
2707.941064	17401.226333	1562.026367	1972.431519
2707.941064	17401.226333	1560.978516	2178.339600
2707.941064	17401.226333	1559.930664	2261.087646
2707.941064	17401.226333	1558.883789	2211.647461
2707.941064	17401.226333	1557.834961	2187.399902
2707.941064	17401.226333	1556.787109	2078.944092
2707.941064	17401.226333	1555.739258	1982.058838
2707.941064	17401.226333	1554.690430	1967.376831
2707.941064	17401.226333	1553.641602	1845.729614
2707.941064	17401.226333	1552.592773	1724.263062
2707.941064	17401.226333	1551.542969	1858.088989
2707.941064	17401.226333	1550.494141	1707.335938
2707.941064	17401.226333	1549.444336	1763.970215
2707.941064	17401.226333	1548.394531	1470.132935
2707.941064	17401.226333	1547.344727	1360.917236
2707.941064	17401.226333	1546.293945	1326.968872
2707.941064	17401.226333	1545.244141	1306.846436
2707.941064	17401.226333	1544.193359	1491.589966
2707.941064	17401.226333	1543.142578	1173.782959
2707.941064	17401.226333	1542.090820	1017.679077
2707.941064	17401.226333	1541.040039	1123.249878
2707.941064	17401.226333	1539.988281	1267.552124
2707.941064	17401.226333	1538.936523	884.726257
2707.941064	17401.226333	1537.884766	813.479736
2707.941064	17401.226333	1536.833008	928.692627
2707.941064	17401.226333	1535.780273	787.356567
2707.941064	17401.226333	1534.727539	460.035370
2707.941064	17401.226333	1533.674805	591.601318
2707.941064	17401.226333	1532.622070	602.975464
2707.941064	17401.226333	1531.569336	573.658936
2707.941064	17401.226333	1530.515625	419.710571
2707.941064	17401.226333	1529.461914	297.746948
2707.941064	17401.226333	1528.408203	55.790661
2707.941064	17401.226333	1527.354492	299.366211
2707.941064	17401.226333	1526.299805	422.838654
2707.941064	17401.226333	1525.246094	93.107208
2707.941064	17401.226333	1524.191406	262.237915
2707.941064	17401.226333	1523.136719	139.186157
2707.941064	17401.226333	1522.081055	177.181839
2707.941064	17401.226333	1521.026367	-208.186768
2707.941064	17401.226333	1519.970703	221.965988
2707.941064	17401.226333	1518.915039	249.129944
2707.941064	17401.226333	1517.859375	190.446640
2707.941064	17401.226333	1516.802734	-12.889441
2707.941064	17401.226333	1515.747070	-107.342552
2707.941064	17401.226333	1514.690430	160.366165
2707.941064	17401.226333	1513.633789	129.594742
2707.941064	17401.226333	1512.577148	8.566659
2707.941064	17401.226333	1511.519531	138.714523
2707.941064	17401.226333	1510.461914	135.631119
2707.941064	17401.226333	1509.405273	173.426102
2707.941064	17401.226333	1508.346680	172.956223
2707.941064	17401.226333	1507.289063	308.231476
2707.941064	17401.226333	1506.231445	21.275518
2707.941064	17401.226333	1505.172852	93.663536
2707.941064	17401.226333	1504.114258	42.036949
2707.941064	17401.226333	1503.055664	-153.844788
2707.941064	17401.226333	1501.996094	-17.711668
2707.941064	17401.226333	1500.937500	154.673813
2707.941064	17401.226333	1499.877930	196.328674
2707.941064	17401.226333	1498.818359	407.323059
2707.941064	17401.226333	1497.757813	212.507660
2707.941064	17401.226333	1496.698242	90.122391
2707.941064	17401.226333	1495.637695	439.093872
2707.941064	17401.226333	1494.577148	592.048035
2707.941064	17401.226333	1493.516602	636.983521
2707.941064	17401.226333	1492.456055	821.774719
2707.941064	17401.226333	1491.394531	1008.932617
2707.941064	17401.226333	1490.333008	403.539337
2707.941064	17401.226333	1489.271484	595.609009
2707.941064	17401.226333	1488.209961	627.979980
2707.941064	17401.226333	1487.148438	268.936768
2707.941064	17401.226333	1486.085938	119.493141
2707.941064	17401.226333	1485.023438	10.805404
2707.941064	17401.226333	1483.960938	93.548706
2707.941064	17401.226333	1482.898438	-133.861588
2707.941064	17401.226333	1481.834961	-183.342697
2707.941064	17401.226333	1480.772461	30.420401
2707.941064	17401.226333	1479.708984	-357.993805
2707.941064	17401.226333	1478.644531	71.847176
2707.941064	17401.226333	1477.581055	-187.897171
2707.941064	17401.226333	1476.517578	91.635536
2707.941064	17401.226333	1475.453125	-8.099771
2707.941064	17401.226333	1474.388672	-6.650036
2707.941064	17401.226333	1473.323242	342.889252
2707.941064	17401.226333	1472.258789	257.284912
2707.941064	17401.226333	1471.193359	-12.123743
2707.941064	17401.226333	1470.127930	97.987549
2707.941064	17401.226333	1469.062500	-20.595955
2707.941064	17401.226333	1467.997070	134.528152
2707.941064	17401.226333	1466.930664	-1.350780
2707.941064	17401.226333	1465.865234	-38.421452
2707.941064	17401.226333	1464.798828	81.413483
2707.941064	17401.226333	1463.731445	-178.934265
2707.941064	17401.226333	1462.665039	34.835640
2707.941064	17401.226333	1461.597656	-142.752579
2707.941064	17401.226333	1460.530273	-22.146057
2707.941064	17401.226333	1459.462891	-1.859518
2707.941064	17401.226333	1458.395508	11.785669
2707.941064	17401.226333	1457.327148	35.848011
2707.941064	17401.226333	1456.259766	381.120514
2707.941064	17401.226333	1455.191406	211.573013
2707.941064	17401.226333	1454.123047	92.272713
2707.941064	17401.226333	1453.053711	133.351089
2707.941064	17401.226333	1451.985352	365.719635
2707.941064	17401.226333	1450.916016	235.976654
2707.941064	17401.226333	1449.846680	423.783203
2707.941064	17401.226333	1448.776367	563.510742
2707.941064	17401.226333	1447.707031	772.894348
2707.941064	17401.226333	1446.636719	823.968323
2707.941064	17401.226333	1445.566406	1077.722046
2707.941064	17401.226333	1444.496094	786.135742
2707.941064	17401.226333	1443.425781	846.552673
2707.941064	17401.226333	1442.354492	853.673645
2707.941064	17401.226333	1441.283203	933.188232
2707.941064	17401.226333	1440.211914	832.717224
2707.941064	17401.226333	1439.140625	763.963379
2707.941064	17401.226333	1438.069336	763.019958
2707.941064	17401.226333	1436.997070	812.695984
2707.941064	17401.226333	1435.924805	930.932007
2707.941064	17401.226333	1434.852539	719.926819
2707.941064	17401.226333	1433.780273	901.324524
2707.941064	17401.226333	1432.707031	552.598755
2707.941064	17401.226333	1431.633789	633.575989
2707.941064	17401.226333	1430.560547	467.220673
2707.941064	17401.226333	1429.487305	397.950165
2707.941064	17401.226333	1428.413086	368.912689
2707.941064	17401.226333	1427.339844	723.339722
2707.941064	17401.226333	1426.265625	372.510742
2707.941064	17401.226333	1425.191406	504.253021
2707.941064	17401.226333	1424.116211	504.090424
2707.941064	17401.226333	1423.041992	381.711853
2707.941064	17401.226333	1421.966797	680.552551
2707.941064	17401.226333	1420.891602	566.351074
2707.941064	17401.226333	1419.816406	836.927063
2707.941064	17401.226333	1418.740234	634.816956
2707.941064	17401.226333	1417.665039	666.135559
2707.941064	17401.226333	1416.588867	837.657654
2707.941064	17401.226333	1415.512695	1009.683350
2707.941064	17401.226333	1414.435547	1093.573975
2707.941064	17401.226333	1413.359375	1205.284546
2707.941064	17401.226333	1412.282227	915.648010
2707.941064	17401.226333	1411.205078	1021.203857
2707.941064	17401.226333	1410.127930	987.824341
2707.941064	17401.226333	1409.049805	856.756470
2707.941064	17401.226333	1407.972656	787.550964
2707.941064	17401.226333	1406.894531	556.460449
2707.941064	17401.226333	1405.816406	530.037170
2707.941064	17401.226333	1404.737305	538.263062
2707.941064	17401.226333	1403.659180	307.359467
2707.941064	17401.226333	1402.580078	631.838013
2707.941064	17401.226333	1401.500977	332.750244
2707.941064	17401.226333	1400.421875	654.876526
2707.941064	17401.226333	1399.341797	469.890961
2707.941064	17401.226333	1398.262695	436.056030
2707.941064	17401.226333	1397.182617	584.146851
2707.941064	17401.226333	1396.102539	393.493317
2707.941064	17401.226333	1395.021484	582.234985
2707.941064	17401.226333	1393.941406	891.539185
2707.941064	17401.226333	1392.860352	985.508545
2707.941064	17401.226333	1391.779297	960.272888
2707.941064	17401.226333	1390.698242	1347.794189
2707.941064	17401.226333	1389.616211	1321.763672
2707.941064	17401.226333	1388.535156	1446.741333
2707.941064	17401.226333	1387.453125	1351.159546
2707.941064	17401.226333	1386.371094	1666.010620
2707.941064	17401.226333	1385.288086	1454.525391
2707.941064	17401.226333	1384.206055	1560.963745
2707.941064	17401.226333	1383.123047	1343.450806
2707.941064	17401.226333	1382.040039	1671.993774
2707.941064	17401.226333	1380.957031	1487.345459
2707.941064	17401.226333	1379.873047	1398.053711
2707.941064	17401.226333	1378.789063	1442.674316
2707.941064	17401.226333	1377.705078	1337.866211
2707.941064	17401.226333	1376.621094	1350.024780
2707.941064	17401.226333	1375.537109	1407.840332
2707.941064	17401.226333	1374.452148	1434.449341
2707.941064	17401.226333	1373.367188	1059.660645
2707.941064	17401.226333	1372.282227	1342.668213
2707.941064	17401.226333	1371.197266	1667.090210
2707.941064	17401.226333	1370.112305	1844.337524
2707.941064	17401.226333	1369.026367	1820.812866
2707.941064	17401.226333	1367.940430	1638.088013
2707.941064	17401.226333	1366.854492	1733.048340
2707.941064	17401.226333	1365.767578	1695.720215
2707.941064	17401.226333	1364.681641	1940.178467
2707.941064	17401.226333	1363.594727	1646.822632
2707.941064	17401.226333	1362.507813	1693.575195
2707.941064	17401.226333	1361.419922	1606.650513
2707.941064	17401.226333	1360.333008	1399.930664
2707.941064	17401.226333	1359.245117	1320.416138
2707.941064	17401.226333	1358.157227	1566.528564
2707.941064	17401.226333	1357.069336	1391.600952
2707.941064	17401.226333	1355.981445	1295.694214
2707.941064	17401.226333	1354.892578	1357.875122
2707.941064	17401.226333	1353.803711	1231.893188
2707.941064	17401.226333	1352.714844	1181.594604
2707.941064	17401.226333	1351.625000	1431.614868
2707.941064	17401.226333	1350.536133	1687.198975
2707.941064	17401.226333	1349.446289	1737.845459
2707.941064	17401.226333	1348.356445	1845.498535
2707.941064	17401.226333	1347.266602	1663.430420
2707.941064	17401.226333	1346.175781	2162.093262
2707.941064	17401.226333	1345.085938	2111.033447
2707.941064	17401.226333	1343.995117	1839.259033
2707.941064	17401.226333	1342.903320	2223.212158
2707.941064	17401.226333	1341.812500	2187.643799
2707.941064	17401.226333	1340.720703	1860.447021
2707.941064	17401.226333	1339.629883	1807.837036
2707.941064	17401.226333	1338.538086	1775.557129
2707.941064	17401.226333	1337.445313	1911.283936
2707.941064	17401.226333	1336.353516	1830.573853
2707.941064	17401.226333	1335.260742	1882.617920
2707.941064	17401.226333	1334.167969	1929.952515
2707.941064	17401.226333	1333.075195	1654.908203
2707.941064	17401.226333	1331.981445	1908.417114
2707.941064	17401.226333	1330.888672	1879.040527
2707.941064	17401.226333	1329.794922	1928.515503
2707.941064	17401.226333	1328.701172	1911.389404
2707.941064	17401.226333	1327.606445	1894.985474
2707.941064	17401.226333	1326.512695	1972.524170
2707.941064	17401.226333	1325.417969	2162.399658
2707.941064	17401.226333	1324.323242	1961.074829
2707.941064	17401.226333	1323.227539	2096.877441
2707.941064	17401.226333	1322.132813	2067.315918
2707.941064	17401.226333	1321.037109	2196.420166
2707.941064	17401.226333	1319.941406	1982.449585
2707.941064	17401.226333	1318.845703	2081.881104
2707.941064	17401.226333	1317.750000	1863.711670
2707.941064	17401.226333	1316.653320	1811.196777
2707.941064	17401.226333	1315.556641	1526.470703
2707.941064	17401.226333	1314.459961	1543.934326
2707.941064	17401.226333	1313.363281	1346.259033
2707.941064	17401.226333	1312.265625	1231.057373
2707.941064	17401.226333	1311.167969	1440.355835
2707.941064	17401.226333	1310.070313	1142.478027
2707.941064	17401.226333	1308.972656	979.851379
2707.941064	17401.226333	1307.874023	1150.671631
2707.941064	17401.226333	1306.776367	1124.655151
2707.941064	17401.226333	1305.677734	1078.089844
2707.941064	17401.226333	1304.579102	1097.542358
2707.941064	17401.226333	1303.479492	1066.082153
2707.941064	17401.226333	1302.380859	1059.176758
2707.941064	17401.226333	1301.281250	900.591248
2707.941064	17401.226333	1300.181641	980.358948
2707.941064	17401.226333	1299.081055	992.268066
2707.941064	17401.226333	1297.981445	637.401001
2707.941064	17401.226333	1296.880859	885.172668
2707.941064	17401.226333	1295.780273	794.609314
2707.941064	17401.226333	1294.679688	795.209534
2707.941064	17401.226333	1293.578125	685.016785
2707.941064	17401.226333	1292.476563	877.572754
2707.941064	17401.226333	1291.375000	684.460999
2707.941064	17401.226333	1290.273438	738.641052
2707.941064	17401.226333	1289.171875	589.002991
2707.941064	17401.226333	1288.069336	787.661987
2707.941064	17401.226333	1286.966797	613.675964
2707.941064	17401.226333	1285.864258	501.152954
2707.941064	17401.226333	1284.761719	560.351257
2707.941064	17401.226333	1283.658203	672.940857
2707.941064	17401.226333	1282.554688	555.446289
2707.941064	17401.226333	1281.451172	674.077148
2707.941064	17401.226333	1280.347656	689.062439
2707.941064	17401.226333	1279.244141	845.837341
2707.941064	17401.226333	1278.139648	1071.697021
2707.941064	17401.226333	1277.035156	1056.883667
2707.941064	17401.226333	1275.930664	1153.490601
2707.941064	17401.226333	1274.825195	881.839355
2707.941064	17401.226333	1273.720703	1106.335327
2707.941064	17401.226333	1272.615234	1162.342163
2707.941064	17401.226333	1271.508789	1119.847656
2707.941064	17401.226333	1270.403320	1140.941406
2707.941064	17401.226333	1269.297852	1018.984314
2707.941064	17401.226333	1268.191406	1065.056152
2707.941064	17401.226333	1267.084961	1063.168213
2707.941064	17401.226333	1265.977539	1077.187500
2707.941064	17401.226333	1264.871094	953.214905
2707.941064	17401.226333	1263.763672	978.122437
2707.941064	17401.226333	1262.656250	956.072632
2707.941064	17401.226333	1261.548828	865.241882
2707.941064	17401.226333	1260.440430	865.452454
2707.941064	17401.226333	1259.333008	875.688721
2707.941064	17401.226333	1258.224609	843.031006
2707.941064	17401.226333	1257.115234	873.304199
2707.941064	17401.226333	1256.006836	747.480042
2707.941064	17401.226333	1254.897461	987.894714
2707.941064	17401.226333	1253.788086	933.135559
2707.941064	17401.226333	1252.678711	890.554626
2707.941064	17401.226333	1251.569336	1065.058960
2707.941064	17401.226333	1250.458984	1140.015869
2707.941064	17401.226333	1249.349609	1065.917236
2707.941064	17401.226333	1248.239258	951.147461
2707.941064	17401.226333	1247.127930	959.449524
2707.941064	17401.226333	1246.017578	1093.798584
2707.941064	17401.226333	1244.906250	806.601807
2707.941064	17401.226333	1243.794922	756.834839
2707.941064	17401.226333	1242.683594	640.914368
2707.941064	17401.226333	1241.571289	658.809509
2707.941064	17401.226333	1240.459961	664.152588
2707.941064	17401.226333	1239.347656	589.174072
2707.941064	17401.226333	1238.234375	513.366699
2707.941064	17401.226333	1237.122070	660.175598
2707.941064	17401.226333	1236.008789	445.241119
2707.941064	17401.226333	1234.896484	413.507385
2707.941064	17401.226333	1233.782227	414.925873
2707.941064	17401.226333	1232.668945	394.220398
2707.941064	17401.226333	1231.555664	520.205688
2707.941064	17401.226333	1230.441406	518.659485
2707.941064	17401.226333	1229.327148	306.791870
2707.941064	17401.226333	1228.211914	402.356171
2707.941064	17401.226333	1227.097656	549.541626
2707.941064	17401.226333	1225.982422	390.597046
2707.941064	17401.226333	1224.867188	277.143860
2707.941064	17401.226333	1223.751953	355.649689
2707.941064	17401.226333	1222.635742	259.880402
2707.941064	17401.226333	1221.520508	121.403313
2707.941064	17401.226333	1220.404297	333.318787
2707.941064	17401.226333	1219.287109	235.537766
2707.941064	17401.226333	1218.170898	78.376701
2707.941064	17401.226333	1217.053711	250.331345
2707.941064	17401.226333	1215.936523	81.814293
2707.941064	17401.226333	1214.819336	90.719955
2707.941064	17401.226333	1213.702148	39.746479
2707.941064	17401.226333	1212.583984	86.197777
2707.941064	17401.226333	1211.465820	17.646677
2707.941064	17401.226333	1210.347656	18.748381
2707.941064	17401.226333	1209.229492	149.988174
2707.941064	17401.226333	1208.110352	295.351532
2707.941064	17401.226333	1206.992188	196.669067
2707.941064	17401.226333	1205.873047	243.116867
2707.941064	17401.226333	1204.752930	159.659668
2707.941064	17401.226333	1203.633789	250.764954
2707.941064	17401.226333	1202.513672	66.866501
2707.941064	17401.226333	1201.393555	-5.128585
2707.941064	17401.226333	1200.273438	68.711334
2707.941064	17401.226333	1199.152344	85.091316
2707.941064	17401.226333	1198.032227	-149.511063
2707.941064	17401.226333	1196.911133	6.704924
2707.941064	17401.226333	1195.790039	-94.926689
2707.941064	17401.226333	1194.667969	-102.671661
2707.941064	17401.226333	1193.545898	-128.514206
2707.941064	17401.226333	1192.424805	-148.763596
2707.941064	17401.226333	1191.301758	80.482819
2707.941064	17401.226333	1190.179688	19.904560
2707.941064	17401.226333	1189.056641	42.588024
2707.941064	17401.226333	1187.933594	81.060928
2707.941064	17401.226333	1186.810547	31.027477
2707.941064	17401.226333	1185.687500	67.665512
2707.941064	17401.226333	1184.563477	241.383804
2707.941064	17401.226333	1183.440430	179.331940
2707.941064	17401.226333	1182.316406	391.643707
2707.941064	17401.226333	1181.191406	158.539841
2707.941064	17401.226333	1180.067383	401.178009
2707.941064	17401.226333	1178.942383	442.553101
2707.941064	17401.226333	1177.817383	265.337830
2707.941064	17401.226333	1176.692383	324.427856
2707.941064	17401.226333	1175.566406	447.308868
2707.941064	17401.226333	1174.440430	502.582367
2707.941064	17401.226333	1173.314453	530.550415
2707.941064	17401.226333	1172.188477	544.334229
2707.941064	17401.226333	1171.062500	742.632263
2707.941064	17401.226333	1169.935547	725.320679
2707.941064	17401.226333	1168.808594	684.264954
2707.941064	17401.226333	1167.681641	444.304169
2707.941064	17401.226333	1166.553711	493.425629
2707.941064	17401.226333	1165.426758	241.315689
2707.941064	17401.226333	1164.298828	64.222015
2707.941064	17401.226333	1163.170898	59.896183
2707.941064	17401.226333	1162.041992	79.830132
2707.941064	17401.226333	1160.914063	178.469543
2707.941064	17401.226333	1159.785156	31.739349
2707.941064	17401.226333	1158.656250	-71.520699
2707.941064	17401.226333	1157.526367	-64.771004
2707.941064	17401.226333	1156.397461	61.612331
2707.941064	17401.226333	1155.267578	-242.685425
2707.941064	17401.226333	1154.137695	-264.838898
2707.941064	17401.226333	1153.006836	-177.051910
2707.941064	17401.226333	1151.876953	-127.583786
2707.941064	17401.226333	1150.746094	-202.743866
2707.941064	17401.226333	1149.615234	-170.003387
2707.941064	17401.226333	1148.484375	-85.387352
2707.941064	17401.226333	1147.352539	-69.242355
2707.941064	17401.226333	1146.220703	-140.698624
2707.941064	17401.226333	1145.088867	-114.682480
2707.941064	17401.226333	1143.957031	-115.237434
2707.941064	17401.226333	1142.825195	-78.451904
2707.941064	17401.226333	1141.692383	-101.830971
2707.941064	17401.226333	1140.559570	52.164440
2707.941064	17401.226333	1139.426758	-80.889015
2707.941064	17401.226333	1138.292969	-87.763199
2707.941064	17401.226333	1137.159180	69.904434
2707.941064	17401.226333	1136.025391	172.461060
2707.941064	17401.226333	1134.891602	158.906219
2707.941064	17401.226333	1133.757813	38.014843
2707.941064	17401.226333	1132.623047	77.909309
2707.941064	17401.226333	1131.488281	64.431061
2707.941064	17401.226333	1130.353516	300.959534
2707.941064	17401.226333	1129.217773	125.120850
2707.941064	17401.226333	1128.083008	81.382164
2707.941064	17401.226333	1126.947266	97.167931
2707.941064	17401.226333	1125.811523	155.004532
2707.941064	17401.226333	1124.674805	18.086212
2707.941064	17401.226333	1123.539063	256.458832
2707.941064	17401.226333	1122.402344	-42.233952
2707.941064	17401.226333	1121.265625	118.882225
2707.941064	17401.226333	1120.127930	190.589218
2707.941064	17401.226333	1118.990234	-83.968925
2707.941064	17401.226333	1117.853516	151.037704
2707.941064	17401.226333	1116.714844	66.245003
2707.941064	17401.226333	1115.577148	-67.457214
2707.941064	17401.226333	1114.439453	-47.453217
2707.941064	17401.226333	1113.300781	177.787476
2707.941064	17401.226333	1112.162109	18.349844
2707.941064	17401.226333	1111.022461	0.985912
2707.941064	17401.226333	1109.883789	233.284424
2707.941064	17401.226333	1108.744141	35.782894
2707.941064	17401.226333	1107.604492	38.505081
2707.941064	17401.226333	1106.463867	-65.291389
2707.941064	17401.226333	1105.324219	-18.039593
2707.941064	17401.226333	1104.183594	170.181168
2707.941064	17401.226333	1103.042969	84.253426
2707.941064	17401.226333	1101.902344	38.230644
2707.941064	17401.226333	1100.760742	299.765625
2707.941064	17401.226333	1099.619141	168.866089
2707.941064	17401.226333	1098.477539	222.559204
2707.941064	17401.226333	1097.335938	166.215866
2707.941064	17401.226333	1096.193359	220.270798
2707.941064	17401.226333	1095.051758	280.494507
2707.941064	17401.226333	1093.909180	269.687256
2707.941064	17401.226333	1092.765625	159.122101
2707.941064	17401.226333	1091.623047	247.672546
2707.941064	17401.226333	1090.479492	313.364990
2707.941064	17401.226333	1089.335938	187.032150
2707.941064	17401.226333	1088.192383	226.624100
2707.941064	17401.226333	1087.047852	291.983185
2707.941064	17401.226333	1085.903320	128.338913
2707.941064	17401.226333	1084.758789	344.346405
2707.941064	17401.226333	1083.614258	77.827835
2707.941064	17401.226333	1082.469727	84.084839
2707.941064	17401.226333	1081.324219	128.531693
2707.941064	17401.226333	1080.178711	52.585785
2707.941064	17401.226333	1079.033203	-21.737329
2707.941064	17401.226333	1077.886719	208.490067
2707.941064	17401.226333	1076.740234	280.790131
2707.941064	17401.226333	1075.593750	276.932312
2707.941064	17401.226333	1074.447266	118.555244
2707.941064	17401.226333	1073.300781	330.316071
2707.941064	17401.226333	1072.153320	78.086502
2707.941064	17401.226333	1071.005859	332.829529
2707.941064	17401.226333	1069.858398	53.778538
2707.941064	17401.226333	1068.709961	150.943649
2707.941064	17401.226333	1067.561523	156.588928
2707.941064	17401.226333	1066.413086	-16.172384
2707.941064	17401.226333	1065.264648	193.292526
2707.941064	17401.226333	1064.116211	89.184814
2707.941064	17401.226333	1062.966797	31.281832
2707.941064	17401.226333	1061.817383	-64.193939
2707.941064	17401.226333	1060.667969	-77.579407
2707.941064	17401.226333	1059.517578	-16.518333
2707.941064	17401.226333	1058.368164	-72.778893
2707.941064	17401.226333	1057.217773	3.915754
2707.941064	17401.226333	1056.067383	-71.504456
2707.941064	17401.226333	1054.916016	-87.775391
2707.941064	17401.226333	1053.764648	-52.480606
2707.941064	17401.226333	1052.613281	-60.705021
2707.941064	17401.226333	1051.461914	21.424458
2707.941064	17401.226333	1050.310547	62.462574
2707.941064	17401.226333	1049.158203	-9.030049
2707.941064	17401.226333	1048.005859	119.187683
2707.941064	17401.226333	1046.853516	164.832626
2707.941064	17401.226333	1045.700195	133.232758
2707.941064	17401.226333	1044.547852	105.819191
2707.941064	17401.226333	1043.394531	269.169586
2707.941064	17401.226333	1042.240234	95.234016
2707.941064	17401.226333	1041.086914	295.132507
2707.941064	17401.226333	1039.932617	159.218704
2707.941064	17401.226333	1038.778320	217.580017
2707.941064	17401.226333	1037.624023	446.788849
2707.941064	17401.226333	1036.469727	586.743713
2707.941064	17401.226333	1035.314453	532.900879
2707.941064	17401.226333	1034.159180	876.212280
2707.941064	17401.226333	1033.003906	734.982849
2707.941064	17401.226333	1031.847656	677.068970
2707.941064	17401.226333	1030.692383	834.113525
2707.941064	17401.226333	1029.536133	812.194336
2707.941064	17401.226333	1028.378906	576.405151
2707.941064	17401.226333	1027.222656	600.291687
2707.941064	17401.226333	1026.065430	384.033905
2707.941064	17401.226333	1024.908203	414.138153
2707.941064	17401.226333	1023.750977	275.621246
2707.941064	17401.226333	1022.593750	323.723511
2707.941064	17401.226333	1021.435547	511.527222
2707.941064	17401.226333	1020.277344	399.833099
2707.941064	17401.226333	1019.119141	132.912796
2707.941064	17401.226333	1017.959961	250.116852
2707.941064	17401.226333	1016.800781	243.776520
2707.941064	17401.226333	1015.641602	227.133179
2707.941064	17401.226333	1014.482422	78.170372
2707.941064	17401.226333	1013.323242	252.969345
2707.941064	17401.226333	1012.163086	362.817810
2707.941064	17401.226333	1011.002930	191.693878
2707.941064	17401.226333	1009.842773	339.182678
2707.941064	17401.226333	1008.681641	438.397858
2707.941064	17401.226333	1007.520508	213.016052
2707.941064	17401.226333	1006.359375	739.788391
2707.941064	17401.226333	1005.198242	735.563660
2707.941064	17401.226333	1004.037109	777.880188
2707.941064	17401.226333	1002.875000	1185.922607
2707.941064	17401.226333	1001.712891	1126.100220
2707.941064	17401.226333	1000.550781	1174.721802
2707.941064	17401.226333	999.387695	900.159302
2707.941064	17401.226333	998.224609	788.239319
2707.941064	17401.226333	997.061523	862.855591
2707.941064	17401.226333	995.898438	905.197754
2707.941064	17401.226333	994.734375	698.298584
2707.941064	17401.226333	993.571289	589.850952
2707.941064	17401.226333	992.407227	479.670044
2707.941064	17401.226333	991.242188	505.859314
2707.941064	17401.226333	990.078125	464.999908
2707.941064	17401.226333	988.913086	278.636963
2707.941064	17401.226333	987.748047	467.380005
2707.941064	17401.226333	986.583008	258.077881
2707.941064	17401.226333	985.416992	156.278366
2707.941064	17401.226333	984.250977	326.656616
2707.941064	17401.226333	983.084961	344.527344
2707.941064	17401.226333	981.918945	392.895630
2707.941064	17401.226333	980.751953	340.764038
2707.941064	17401.226333	979.584961	387.717194
2707.941064	17401.226333	978.417969	412.484833
2707.941064	17401.226333	977.250977	352.432434
2707.941064	17401.226333	976.083008	445.241913
2707.941064	17401.226333	974.915039	442.321472
2707.941064	17401.226333	973.747070	581.643066
2707.941064	17401.226333	972.579102	340.105316
2707.941064	17401.226333	971.410156	396.168182
2707.941064	17401.226333	970.242188	424.620361
2707.941064	17401.226333	969.072266	426.640930
2707.941064	17401.226333	967.903320	431.405762
2707.941064	17401.226333	966.733398	227.470917
2707.941064	17401.226333	965.563477	363.634857
2707.941064	17401.226333	964.393555	433.520874
2707.941064	17401.226333	963.223633	489.163361
2707.941064	17401.226333	962.052734	400.683807
2707.941064	17401.226333	960.881836	488.811676
2707.941064	17401.226333	959.710938	677.275635
2707.941064	17401.226333	958.540039	604.655090
2707.941064	17401.226333	957.368164	567.026306
2707.941064	17401.226333	956.196289	517.479309
2707.941064	17401.226333	955.024414	697.277039
2707.941064	17401.226333	953.851563	614.767090
2707.941064	17401.226333	952.679688	493.590820
2707.941064	17401.226333	951.506836	463.106262
2707.941064	17401.226333	950.333984	339.900787
2707.941064	17401.226333	949.160156	483.936005
2707.941064	17401.226333	947.986328	315.192047
2707.941064	17401.226333	946.812500	382.921143
2707.941064	17401.226333	945.638672	244.905731
2707.941064	17401.226333	944.464844	136.458511
2707.941064	17401.226333	943.290039	291.893311
2707.941064	17401.226333	942.115234	264.436676
2707.941064	17401.226333	940.940430	344.040039
2707.941064	17401.226333	939.764648	318.811890
2707.941064	17401.226333	938.588867	395.118652
2707.941064	17401.226333	937.413086	335.810181
2707.941064	17401.226333	936.237305	384.990204
2707.941064	17401.226333	935.060547	421.657593
2707.941064	17401.226333	933.883789	490.368500
2707.941064	17401.226333	932.707031	625.638794
2707.941064	17401.226333	931.530273	612.697205
2707.941064	17401.226333	930.352539	666.363586
2707.941064	17401.226333	929.175781	438.701019
2707.941064	17401.226333	927.998047	549.021729
2707.941064	17401.226333	926.819336	592.583618
2707.941064	17401.226333	925.641602	734.682495
2707.941064	17401.226333	924.462891	664.667358
2707.941064	17401.226333	923.284180	481.220032
2707.941064	17401.226333	922.104492	603.367859
2707.941064	17401.226333	920.924805	419.866028
2707.941064	17401.226333	919.746094	423.124146
2707.941064	17401.226333	919.551758	441.365509
2707.941064	17401.226333	918.386719	265.168671
2707.941064	17401.226333	917.220703	298.280396
2707.941064	17401.226333	916.054688	346.076141
2707.941064	17401.226333	914.887695	428.241211
2707.941064	17401.226333	913.721680	586.586304
2707.941064	17401.226333	912.554688	533.196533
2707.941064	17401.226333	911.387695	578.152649
2707.941064	17401.226333	910.220703	686.963684
2707.941064	17401.226333	909.052734	633.367249
2707.941064	17401.226333	907.885742	589.550781
2707.941064	17401.226333	906.717773	550.597717
2707.941064	17401.226333	905.548828	956.389893
2707.941064	17401.226333	904.380859	873.006592
2707.941064	17401.226333	903.211914	686.415710
2707.941064	17401.226333	902.042969	836.294312
2707.941064	17401.226333	900.874023	671.741089
2707.941064	17401.226333	899.704102	477.725800
2707.941064	17401.226333	898.535156	416.255035
2707.941064	17401.226333	897.365234	308.115387
2707.941064	17401.226333	896.194336	244.110596
2707.941064	17401.226333	895.024414	300.254547
2707.941064	17401.226333	893.853516	265.564911
2707.941064	17401.226333	892.682617	164.614700
2707.941064	17401.226333	891.511719	279.363068
2707.941064	17401.226333	890.340820	26.350269
2707.941064	17401.226333	889.168945	123.786583
2707.941064	17401.226333	887.997070	248.061646
2707.941064	17401.226333	886.825195	75.830933
2707.941064	17401.226333	885.653320	-42.521557
2707.941064	17401.226333	884.480469	-82.545555
2707.941064	17401.226333	883.307617	16.911505
2707.941064	17401.226333	882.134766	-50.169704
2707.941064	17401.226333	880.961914	-200.490143
2707.941064	17401.226333	879.788086	106.669754
2707.941064	17401.226333	878.614258	-9.515721
2707.941064	17401.226333	877.440430	187.295425
2707.941064	17401.226333	876.266602	51.443253
2707.941064	17401.226333	875.091797	-67.310905
2707.941064	17401.226333	873.916992	-171.421448
2707.941064	17401.226333	872.742188	61.638214
2707.941064	17401.226333	871.567383	-225.814346
2707.941064	17401.226333	870.391602	-127.309982
2707.941064	17401.226333	869.215820	137.138519
2707.941064	17401.226333	868.040039	54.724743
2707.941064	17401.226333	866.864258	-242.527664
2707.941064	17401.226333	865.687500	-15.028711
2707.941064	17401.226333	864.510742	24.433680
2707.941064	17401.226333	863.333984	32.098980
2707.941064	17401.226333	862.157227	71.401001
2707.941064	17401.226333	860.979492	-140.541199
2707.941064	17401.226333	859.802734	-137.923172
2707.941064	17401.226333	858.625000	-167.060745
2707.941064	17401.226333	857.446289	-135.328873
2707.941064	17401.226333	856.268555	13.273497
2707.941064	17401.226333	855.089844	-288.903778
2707.941064	17401.226333	853.911133	-16.255524
2707.941064	17401.226333	852.731445	54.113312
2707.941064	17401.226333	851.552734	-160.443237
2707.941064	17401.226333	850.373047	77.736771
2707.941064	17401.226333	849.193359	-168.503006
2707.941064	17401.226333	848.013672	3.761474
2707.941064	17401.226333	846.833008	-8.977311
2707.941064	17401.226333	845.652344	104.685005
2707.941064	17401.226333	844.471680	57.760380
2707.941064	17401.226333	843.291016	373.002930
2707.941064	17401.226333	842.110352	218.973480
2707.941064	17401.226333	840.928711	259.338043
2707.941064	17401.226333	839.747070	197.586197
2707.941064	17401.226333	838.564453	126.077293
2707.941064	17401.226333	837.382813	338.665619
2707.941064	17401.226333	836.200195	339.869354
2707.941064	17401.226333	835.017578	493.938995
2707.941064	17401.226333	833.834961	439.164856
2707.941064	17401.226333	832.651367	643.978271
2707.941064	17401.226333	831.467773	656.995178
2707.941064	17401.226333	830.284180	463.780273
2707.941064	17401.226333	829.100586	459.729370
2707.941064	17401.226333	827.916992	475.012604
2707.941064	17401.226333	826.732422	545.978027
2707.941064	17401.226333	825.547852	628.970459
2707.941064	17401.226333	824.363281	593.141479
2707.941064	17401.226333	823.177734	554.841980
2707.941064	17401.226333	821.992188	409.930511
2707.941064	17401.226333	820.806641	562.858521
2707.941064	17401.226333	819.621094	371.886047
2707.941064	17401.226333	818.434570	338.260254
2707.941064	17401.226333	817.249023	307.010101
2707.941064	17401.226333	816.062500	374.909851
2707.941064	17401.226333	814.875000	285.485992
2707.941064	17401.226333	813.688477	220.227768
2707.941064	17401.226333	812.500977	14.692356
2707.941064	17401.226333	811.313477	19.502464
2707.941064	17401.226333	810.125977	89.510941
2707.941064	17401.226333	808.937500	91.768311
2707.941064	17401.226333	807.749023	-5.087928
2707.941064	17401.226333	806.560547	103.352707
2707.941064	17401.226333	805.372070	59.548538
2707.941064	17401.226333	804.182617	208.859497
2707.941064	17401.226333	802.994141	218.045181
2707.941064	17401.226333	801.803711	314.049835
2707.941064	17401.226333	800.614258	238.639832
2707.941064	17401.226333	799.424805	252.467072
2707.941064	17401.226333	798.234375	290.349304
2707.941064	17401.226333	797.043945	74.955696
2707.941064	17401.226333	795.852539	199.540466
2707.941064	17401.226333	794.662109	316.790588
2707.941064	17401.226333	793.470703	414.655426
2707.941064	17401.226333	792.279297	211.240952
2707.941064	17401.226333	791.087891	241.526993
2707.941064	17401.226333	789.895508	317.505829
2707.941064	17401.226333	788.703125	128.521805
2707.941064	17401.226333	787.510742	264.573364
2707.941064	17401.226333	786.318359	443.840546
2707.941064	17401.226333	785.125000	497.841919
2707.941064	17401.226333	783.931641	149.970764
2707.941064	17401.226333	782.738281	319.371094
2707.941064	17401.226333	781.544922	262.581360
2707.941064	17401.226333	780.350586	224.996948
2707.941064	17401.226333	779.156250	-28.980850
2707.941064	17401.226333	777.961914	53.585915
2707.941064	17401.226333	776.767578	75.993576
2707.941064	17401.226333	775.572266	-74.640022
2707.941064	17401.226333	774.376953	94.204803
2707.941064	17401.226333	773.181641	25.184757
2707.941064	17401.226333	771.986328	42.580574
2707.941064	17401.226333	770.790039	45.514854
2707.941064	17401.226333	769.593750	-42.798203
2707.941064	17401.226333	768.397461	-59.136440
2707.941064	17401.226333	767.201172	63.627571
2707.941064	17401.226333	766.003906	-10.384650
2707.941064	17401.226333	764.806641	102.632080
2707.941064	17401.226333	763.609375	220.351105
2707.941064	17401.226333	762.412109	57.529778
2707.941064	17401.226333	761.213867	-16.602102
2707.941064	17401.226333	760.015625	-126.686455
2707.941064	17401.226333	758.817383	12.365134
2707.941064	17401.226333	757.618164	220.766769
2707.941064	17401.226333	756.419922	326.081085
2707.941064	17401.226333	755.220703	211.057007
2707.941064	17401.226333	754.021484	249.225677
2707.941064	17401.226333	752.821289	268.188782
2707.941064	17401.226333	751.621094	35.891613
2707.941064	17401.226333	750.420898	296.406006
2707.941064	17401.226333	749.220703	210.004028
2707.941064	17401.226333	748.020508	183.374771
2707.941064	17401.226333	746.819336	194.964508
2707.941064	17401.226333	745.618164	316.452118
2707.941064	17401.226333	744.416992	117.657539
2707.941064	17401.226333	743.214844	439.712555
2707.941064	17401.226333	742.012695	386.599884
2707.941064	17401.226333	740.810547	460.039825
2707.941064	17401.226333	739.608398	399.714661
2707.941064	17401.226333	738.406250	730.852600
2707.941064	17401.226333	737.203125	1116.705444
2707.941064	17401.226333	736.000000	1538.155518
2707.941064	17401.226333	734.795898	1971.321655
2707.941064	17401.226333	733.592773	2368.504150
2707.941064	17401.226333	732.388672	2786.947021
2707.941064	17401.226333	731.184570	3059.760254
2707.941064	17401.226333	729.979492	2879.552002
2707.941064	17401.226333	728.775391	2754.206787
2707.941064	17401.226333	727.570313	2381.096924
2707.941064	17401.226333	726.365234	1631.754028
2707.941064	17401.226333	725.160156	1123.234131
2707.941064	17401.226333	723.954102	917.289978
2707.941064	17401.226333	722.748047	763.778687
2707.941064	17401.226333	721.541992	698.369995
2707.941064	17401.226333	720.334961	649.617310
2707.941064	17401.226333	719.128906	610.383789
2707.941064	17401.226333	717.921875	385.613403
2707.941064	17401.226333	716.714844	220.367599
2707.941064	17401.226333	715.506836	178.798355
2707.941064	17401.226333	714.298828	68.293297
2707.941064	17401.226333	713.090820	309.546570
2707.941064	17401.226333	711.882813	149.126373
2707.941064	17401.226333	710.674805	231.064743
2707.941064	17401.226333	709.465820	58.814484
2707.941064	17401.226333	708.256836	164.446884
2707.941064	17401.226333	707.047852	329.370972
2707.941064	17401.226333	705.837891	254.477051
2707.941064	17401.226333	704.627930	281.644073
2707.941064	17401.226333	703.417969	275.572083
2707.941064	17401.226333	702.208008	108.189713
2707.941064	17401.226333	700.998047	223.084717
2707.941064	17401.226333	699.787109	122.149338
2707.941064	17401.226333	698.576172	-92.541100
2707.941064	17401.226333	697.364258	-112.806267
2707.941064	17401.226333	696.153320	-194.674088
2707.941064	17401.226333	694.941406	-70.406860
2707.941064	17401.226333	693.729492	25.379396
2707.941064	17401.226333	692.516602	-120.429909
2707.941064	17401.226333	691.304688	-119.384132
2707.941064	17401.226333	690.091797	115.996635
2707.941064	17401.226333	688.878906	251.880569
2707.941064	17401.226333	687.665039	9.123816
2707.941064	17401.226333	686.451172	104.751991
2707.941064	17401.226333	685.237305	39.514072
2707.941064	17401.226333	684.023438	165.839737
2707.941064	17401.226333	682.809570	282.659607
2707.941064	17401.226333	681.594727	321.430511
2707.941064	17401.226333	680.379883	220.764923
2707.941064	17401.226333	679.165039	266.631622
2707.941064	17401.226333	677.949219	220.358551
2707.941064	17401.226333	676.733398	195.367783
2707.941064	17401.226333	675.517578	219.980591
2707.941064	17401.226333	674.301758	369.706787
2707.941064	17401.226333	673.084961	226.719070
2707.941064	17401.226333	671.869141	371.684753
2707.941064	17401.226333	670.651367	259.446259
2707.941064	17401.226333	669.434570	505.789154
2707.941064	17401.226333	668.216797	471.418335
2707.941064	17401.226333	667.000000	554.965820
2707.941064	17401.226333	665.781250	647.914917
2707.941064	17401.226333	664.563477	691.357605
2707.941064	17401.226333	663.344727	685.317261
2707.941064	17401.226333	662.125977	891.309692
2707.941064	17401.226333	660.907227	739.251892
2707.941064	17401.226333	659.688477	723.851868
2707.941064	17401.226333	658.468750	630.788513
2707.941064	17401.226333	657.249023	874.365601
2707.941064	17401.226333	656.029297	710.764771
2707.941064	17401.226333	654.808594	662.536987
2707.941064	17401.226333	653.587891	776.658752
2707.941064	17401.226333	652.367188	737.900757
2707.941064	17401.226333	651.146484	616.897705
2707.941064	17401.226333	649.924805	895.589417
2707.941064	17401.226333	648.704102	988.535034
2707.941064	17401.226333	647.482422	966.334778
2707.941064	17401.226333	646.259766	643.476013
2707.941064	17401.226333	645.037109	839.852173
2707.941064	17401.226333	643.815430	937.561523
2707.941064	17401.226333	642.591797	819.269348
2707.941064	17401.226333	641.369141	654.124878
2707.941064	17401.226333	640.145508	611.115479
2707.941064	17401.226333	638.921875	762.900818
2707.941064	17401.226333	637.698242	548.731018
2707.941064	17401.226333	636.474609	625.502563
2707.941064	17401.226333	635.250000	383.397766
2707.941064	17401.226333	634.025391	481.353638
2707.941064	17401.226333	632.800781	342.596741
2707.941064	17401.226333	631.575195	501.534149
2707.941064	17401.226333	630.349609	608.910278
2707.941064	17401.226333	629.124023	877.905823
2707.941064	17401.226333	627.898438	676.145813
2707.941064	17401.226333	626.671875	652.452454
2707.941064	17401.226333	625.445313	624.140320
2707.941064	17401.226333	624.218750	586.532654
2707.941064	17401.226333	622.992188	439.025970
2707.941064	17401.226333	621.764648	722.057800
2707.941064	17401.226333	620.537109	565.337158
2707.941064	17401.226333	619.309570	593.464478
2707.941064	17401.226333	618.081055	577.215454
2707.941064	17401.226333	616.852539	509.612335
2707.941064	17401.226333	615.624023	444.435242
2707.941064	17401.226333	614.395508	341.965424
2707.941064	17401.226333	613.166992	274.638306
2707.941064	17401.226333	611.937500	482.964081
2707.941064	17401.226333	610.708008	294.349487
2707.941064	17401.226333	609.477539	402.333069
2707.941064	17401.226333	608.248047	302.630310
2707.941064	17401.226333	607.017578	497.030487
2707.941064	17401.226333	605.787109	374.152863
2707.941064	17401.226333	604.555664	491.621246
2707.941064	17401.226333	603.325195	627.766724
2707.941064	17401.226333	602.093750	614.715942
2707.941064	17401.226333	600.861328	576.099670
2707.941064	17401.226333	599.629883	502.618774
2707.941064	17401.226333	598.397461	368.661896
2707.941064	17401.226333	597.165039	321.021637
2707.941064	17401.226333	595.932617	289.777832
2707.941064	17401.226333	594.699219	181.783066
2707.941064	17401.226333	593.465820	213.581680
2707.941064	17401.226333	592.232422	359.483887
2707.941064	17401.226333	590.999023	214.541107
2707.941064	17401.226333	589.764648	279.109009
2707.941064	17401.226333	588.530273	176.263870
2707.941064	17401.226333	587.295898	92.144897
2707.941064	17401.226333	586.061523	126.710640
2707.941064	17401.226333	584.826172	214.799393
2707.941064	17401.226333	583.590820	33.359119
2707.941064	17401.226333	582.355469	-122.365562
2707.941064	17401.226333	581.119141	-173.414169
2707.941064	17401.226333	579.882813	-96.625130
2707.941064	17401.226333	578.646484	10.397455
2707.941064	17401.226333	577.410156	-96.112663
2707.941064	17401.226333	576.172852	-33.068874
2707.941064	17401.226333	574.935547	-162.564850
2707.941064	17401.226333	573.698242	-97.045616
2707.941064	17401.226333	572.460938	1.000771
2707.941064	17401.226333	571.222656	4.012641
2707.941064	17401.226333	569.984375	-69.401917
2707.941064	17401.226333	568.746094	-15.212474
2707.941064	17401.226333	567.506836	27.451038
2707.941064	17401.226333	566.267578	118.838013
2707.941064	17401.226333	565.028320	228.802979
2707.941064	17401.226333	563.789063	197.531509
2707.941064	17401.226333	562.548828	411.799072
2707.941064	17401.226333	561.309570	443.177704
2707.941064	17401.226333	560.068359	581.093689
2707.941064	17401.226333	558.828125	455.240570
2707.941064	17401.226333	557.586914	625.653992
2707.941064	17401.226333	556.345703	393.616638
2707.941064	17401.226333	555.104492	286.639008
2707.941064	17401.226333	553.863281	360.129974
2707.941064	17401.226333	552.621094	512.264648
2707.941064	17401.226333	551.378906	169.858582
2707.941064	17401.226333	550.136719	118.809723
2707.941064	17401.226333	548.893555	296.560852
2707.941064	17401.226333	547.650391	222.577545
2707.941064	17401.226333	546.407227	437.340637
2707.941064	17401.226333	545.164063	384.300720
2707.941064	17401.226333	543.919922	146.719955
2707.941064	17401.226333	542.675781	458.523376
2707.941064	17401.226333	541.431641	281.172180
2707.941064	17401.226333	540.186523	373.847504
2707.941064	17401.226333	538.941406	323.583435
2707.941064	17401.226333	537.696289	261.891724
2707.941064	17401.226333	536.451172	218.743103
2707.941064	17401.226333	535.205078	191.821671
2707.941064	17401.226333	533.959961	204.155533
2707.941064	17401.226333	532.712891	126.718124
2707.941064	17401.226333	531.466797	106.964325
2707.941064	17401.226333	530.219727	-18.631065
2707.941064	17401.226333	528.972656	10.141854
2707.941064	17401.226333	527.725586	165.561005
2707.941064	17401.226333	526.478516	261.151306
2707.941064	17401.226333	525.230469	342.963043
2707.941064	17401.226333	523.982422	240.791626
2707.941064	17401.226333	522.734375	9.944946
2707.941064	17401.226333	521.485352	248.291641
2707.941064	17401.226333	520.236328	240.636475
2707.941064	17401.226333	518.987305	-56.529228
2707.941064	17401.226333	517.737305	207.126953
2707.941064	17401.226333	516.488281	-20.878044
2707.941064	17401.226333	515.238281	8.498381
2707.941064	17401.226333	513.988281	152.723511
2707.941064	17401.226333	512.737305	-31.351833
2707.941064	17401.226333	511.486328	110.619293
2707.941064	17401.226333	510.235352	-153.595932
2707.941064	17401.226333	508.984375	-119.405182
2707.941064	17401.226333	507.732422	121.248238
2707.941064	17401.226333	506.480469	-218.359497
2707.941064	17401.226333	505.228516	26.866598
2707.941064	17401.226333	503.976563	49.667950
2707.941064	17401.226333	502.723633	42.694778
2707.941064	17401.226333	501.470703	24.293129
2707.941064	17401.226333	500.217773	111.297913
2707.941064	17401.226333	498.963867	131.866959
2707.941064	17401.226333	497.709961	184.500275
2707.941064	17401.226333	496.456055	243.990540
2707.941064	17401.226333	495.202148	310.331482
2707.941064	17401.226333	493.947266	399.534088
2707.941064	17401.226333	492.692383	182.131226
2707.941064	17401.226333	491.437500	397.127075
2707.941064	17401.226333	490.181641	419.932770
2707.941064	17401.226333	488.926758	353.548798
2707.941064	17401.226333	487.670898	497.482605
2707.941064	17401.226333	486.414063	451.652985
2707.941064	17401.226333	485.158203	344.128571
2707.941064	17401.226333	483.901367	366.836334
2707.941064	17401.226333	482.644531	553.945984
2707.941064	17401.226333	481.386719	571.971436
2707.941064	17401.226333	480.128906	457.540283
2707.941064	17401.226333	478.871094	644.395935
2707.941064	17401.226333	477.613281	468.295380
2707.941064	17401.226333	476.355469	616.183044
2707.941064	17401.226333	475.096680	620.250793
2707.941064	17401.226333	473.837891	546.718567
2707.941064	17401.226333	472.578125	381.952637
2707.941064	17401.226333	471.319336	540.867981
2707.941064	17401.226333	470.059570	330.443237
2707.941064	17401.226333	468.799805	605.341492
2707.941064	17401.226333	467.539063	415.322845
2707.941064	17401.226333	466.278320	389.269073
2707.941064	17401.226333	465.017578	447.375488
2707.941064	17401.226333	463.756836	505.348053
2707.941064	17401.226333	462.495117	442.553497
2707.941064	17401.226333	461.233398	570.810913
2707.941064	17401.226333	459.971680	328.053375
2707.941064	17401.226333	458.709961	333.194366
2707.941064	17401.226333	457.447266	495.103668
2707.941064	17401.226333	456.184570	443.080627
2707.941064	17401.226333	454.921875	329.553986
2707.941064	17401.226333	453.658203	211.370270
2707.941064	17401.226333	452.394531	483.868866
2707.941064	17401.226333	451.130859	258.594299
2707.941064	17401.226333	449.867188	8.252125
2707.941064	17401.226333	448.602539	384.517822
2707.941064	17401.226333	447.337891	397.202484
2707.941064	17401.226333	446.073242	457.337402
2707.941064	17401.226333	444.807617	208.627426
2707.941064	17401.226333	443.542969	374.966980
2707.941064	17401.226333	442.276367	438.933929
2707.941064	17401.226333	441.010742	575.201477
2707.941064	17401.226333	439.744141	332.540283
2707.941064	17401.226333	438.478516	547.601501
2707.941064	17401.226333	437.210938	547.010010
2707.941064	17401.226333	435.944336	439.657410
2707.941064	17401.226333	434.676758	232.395294
2707.941064	17401.226333	433.409180	405.404205
2707.941064	17401.226333	432.141602	335.760712
2707.941064	17401.226333	430.873047	632.559448
2707.941064	17401.226333	429.604492	519.255493
2707.941064	17401.226333	428.335938	570.850830
2707.941064	17401.226333	427.067383	640.179260
2707.941064	17401.226333	425.797852	623.170654
2707.941064	17401.226333	424.528320	397.766815
2707.941064	17401.226333	423.258789	667.202515
2707.941064	17401.226333	421.988281	680.714722
2707.941064	17401.226333	420.717773	671.226257
2707.941064	17401.226333	419.447266	735.891174
2707.941064	17401.226333	418.175781	698.454895
2707.941064	17401.226333	416.905273	667.385193
2707.941064	17401.226333	415.633789	604.269226
2707.941064	17401.226333	414.362305	714.545044
2707.941064	17401.226333	413.089844	799.472595
2707.941064	17401.226333	411.817383	640.192444
2707.941064	17401.226333	410.544922	602.309753
2707.941064	17401.226333	409.272461	710.540894
2707.941064	17401.226333	407.999023	619.766602
2707.941064	17401.226333	406.725586	600.642883
2707.941064	17401.226333	405.452148	641.841614
2707.941064	17401.226333	404.177734	450.349304
2707.941064	17401.226333	402.903320	490.426086
2707.941064	17401.226333	401.628906	601.980591
2707.941064	17401.226333	400.354492	584.526794
2707.941064	17401.226333	399.079102	591.222534
2707.941064	17401.226333	397.803711	595.039001
2707.941064	17401.226333	396.528320	701.737549
2707.941064	17401.226333	395.251953	564.717224
2707.941064	17401.226333	393.976563	595.815857
2707.941064	17401.226333	392.700195	806.127747
2707.941064	17401.226333	391.422852	815.510803
2707.941064	17401.226333	390.145508	871.382324
2707.941064	17401.226333	388.869141	659.050293
2707.941064	17401.226333	387.590820	724.673096
2707.941064	17401.226333	386.313477	1002.949585
2707.941064	17401.226333	385.035156	855.789673
2707.941064	17401.226333	383.756836	1098.639893
2707.941064	17401.226333	382.478516	810.715820
2707.941064	17401.226333	381.199219	1038.342773
2707.941064	17401.226333	379.919922	1076.512329
2707.941064	17401.226333	378.640625	981.424988
2707.941064	17401.226333	377.360352	820.424866
2707.941064	17401.226333	376.080078	804.371338
2707.941064	17401.226333	374.799805	1011.632141
2707.941064	17401.226333	373.519531	897.300354
2707.941064	17401.226333	372.238281	811.178711
2707.941064	17401.226333	370.957031	665.863708
2707.941064	17401.226333	369.675781	497.220520
2707.941064	17401.226333	368.394531	367.958649
2707.941064	17401.226333	367.112305	282.486420
2707.941064	17401.226333	365.830078	330.334229
2707.941064	17401.226333	364.546875	126.375114
2707.941064	17401.226333	363.264648	261.599518
2707.941064	17401.226333	361.981445	140.573578
2707.941064	17401.226333	360.698242	-41.919907
2707.941064	17401.226333	359.414063	71.926514
2707.941064	17401.226333	358.129883	-61.389236
2707.941064	17401.226333	356.845703	-68.415070
2707.941064	17401.226333	355.561523	46.275543
2707.941064	17401.226333	354.276367	168.591187
2707.941064	17401.226333	352.991211	193.545258
2707.941064	17401.226333	351.706055	-133.433350
2707.941064	17401.226333	350.420898	-224.867081
2707.941064	17401.226333	349.134766	-205.988617
2707.941064	17401.226333	347.848633	-141.582352
2707.941064	17401.226333	346.561523	-38.436146
2707.941064	17401.226333	345.275391	20.937019
2707.941064	17401.226333	343.988281	-3.689822
2707.941064	17401.226333	342.700195	-7.476161
2707.941064	17401.226333	341.413086	-66.174370
2707.941064	17401.226333	340.125000	43.045158
2707.941064	17401.226333	338.836914	-54.307968
2707.941064	17401.226333	337.548828	80.814308
2707.941064	17401.226333	336.259766	-15.158461
2707.941064	17401.226333	334.970703	118.964828
2707.941064	17401.226333	333.681641	173.507111
2707.941064	17401.226333	332.391602	-18.519224
2707.941064	17401.226333	331.101563	66.106239
2707.941064	17401.226333	329.811523	26.646370
2707.941064	17401.226333	328.521484	78.952744
2707.941064	17401.226333	327.230469	53.841660
2707.941064	17401.226333	325.939453	40.344410
2707.941064	17401.226333	324.648438	65.107018
2707.941064	17401.226333	323.356445	-49.804752
2707.941064	17401.226333	322.064453	251.304901
2707.941064	17401.226333	320.772461	150.519028
2707.941064	17401.226333	319.480469	52.353172
2707.941064	17401.226333	318.187500	132.155045
2707.941064	17401.226333	316.894531	227.762955
2707.941064	17401.226333	315.601563	57.222260
2707.941064	17401.226333	314.307617	66.696220
2707.941064	17401.226333	313.013672	-16.809004
2707.941064	17401.226333	311.719727	-31.316824
2707.941064	17401.226333	310.425781	74.112122
2707.941064	17401.226333	309.130859	8.810278
2707.941064	17401.226333	307.835938	72.226707
2707.941064	17401.226333	306.541016	-50.488678
2707.941064	17401.226333	305.245117	-49.087669
2707.941064	17401.226333	303.949219	-21.080799
2707.941064	17401.226333	302.653320	111.012535
2707.941064	17401.226333	301.356445	-188.905563
2707.941064	17401.226333	300.060547	-191.987610
2707.941064	17401.226333	298.763672	68.160446
