#X		#Y		#Wave		#Intensity
2707.459043	17403.674667	2000.043945	-29.163454
2707.459043	17403.674667	1999.080078	-5.904765
2707.459043	17403.674667	1998.116211	-82.192398
2707.459043	17403.674667	1997.151367	-379.086914
2707.459043	17403.674667	1996.186523	-93.694664
2707.459043	17403.674667	1995.222656	65.172203
2707.459043	17403.674667	1994.256836	5.954108
2707.459043	17403.674667	1993.291992	149.738846
2707.459043	17403.674667	1992.327148	45.812088
2707.459043	17403.674667	1991.361328	129.988449
2707.459043	17403.674667	1990.395508	-50.751385
2707.459043	17403.674667	1989.429688	-6.312510
2707.459043	17403.674667	1988.463867	211.229034
2707.459043	17403.674667	1987.497070	94.699081
2707.459043	17403.674667	1986.531250	37.506569
2707.459043	17403.674667	1985.564453	264.634033
2707.459043	17403.674667	1984.597656	83.710655
2707.459043	17403.674667	1983.630859	268.617157
2707.459043	17403.674667	1982.664063	40.700996
2707.459043	17403.674667	1981.696289	114.260040
2707.459043	17403.674667	1980.728516	-14.826497
2707.459043	17403.674667	1979.761719	24.039492
2707.459043	17403.674667	1978.792969	114.706764
2707.459043	17403.674667	1977.825195	-19.382299
2707.459043	17403.674667	1976.857422	71.170418
2707.459043	17403.674667	1975.888672	104.884880
2707.459043	17403.674667	1974.919922	34.907860
2707.459043	17403.674667	1973.951172	-259.592316
2707.459043	17403.674667	1972.982422	-31.083176
2707.459043	17403.674667	1972.013672	103.587914
2707.459043	17403.674667	1971.043945	63.106483
2707.459043	17403.674667	1970.075195	-36.564075
2707.459043	17403.674667	1969.105469	-133.763901
2707.459043	17403.674667	1968.135742	64.768959
2707.459043	17403.674667	1967.165039	78.402397
2707.459043	17403.674667	1966.195313	106.779556
2707.459043	17403.674667	1965.224609	-145.665710
2707.459043	17403.674667	1964.253906	-193.652908
2707.459043	17403.674667	1963.283203	-69.301331
2707.459043	17403.674667	1962.312500	94.362465
2707.459043	17403.674667	1961.341797	100.423218
2707.459043	17403.674667	1960.370117	25.254190
2707.459043	17403.674667	1959.399414	-158.165436
2707.459043	17403.674667	1958.427734	39.732319
2707.459043	17403.674667	1957.455078	70.297577
2707.459043	17403.674667	1956.483398	169.676559
2707.459043	17403.674667	1955.511719	-97.312401
2707.459043	17403.674667	1954.539063	41.345192
2707.459043	17403.674667	1953.566406	111.119133
2707.459043	17403.674667	1952.593750	-55.033123
2707.459043	17403.674667	1951.621094	-24.615103
2707.459043	17403.674667	1950.647461	231.739029
2707.459043	17403.674667	1949.674805	-3.164299
2707.459043	17403.674667	1948.701172	-26.847755
2707.459043	17403.674667	1947.727539	-57.907047
2707.459043	17403.674667	1946.753906	254.633621
2707.459043	17403.674667	1945.780273	2.645552
2707.459043	17403.674667	1944.805664	138.375107
2707.459043	17403.674667	1943.831055	-0.697289
2707.459043	17403.674667	1942.856445	127.585686
2707.459043	17403.674667	1941.881836	93.967262
2707.459043	17403.674667	1940.907227	104.470917
2707.459043	17403.674667	1939.932617	-198.793976
2707.459043	17403.674667	1938.957031	91.101288
2707.459043	17403.674667	1937.981445	138.297241
2707.459043	17403.674667	1937.005859	-233.454239
2707.459043	17403.674667	1936.030273	-27.048775
2707.459043	17403.674667	1935.054688	-254.186676
2707.459043	17403.674667	1934.078125	52.492161
2707.459043	17403.674667	1933.101563	128.930969
2707.459043	17403.674667	1932.125000	-7.610694
2707.459043	17403.674667	1931.148438	-190.615479
2707.459043	17403.674667	1930.171875	-9.031895
2707.459043	17403.674667	1929.194336	-28.118181
2707.459043	17403.674667	1928.217773	-132.817688
2707.459043	17403.674667	1927.240234	121.947037
2707.459043	17403.674667	1926.262695	80.779335
2707.459043	17403.674667	1925.284180	37.161976
2707.459043	17403.674667	1924.306641	-238.627594
2707.459043	17403.674667	1923.328125	313.971222
2707.459043	17403.674667	1922.350586	211.634354
2707.459043	17403.674667	1921.372070	177.702530
2707.459043	17403.674667	1920.392578	7.006253
2707.459043	17403.674667	1919.414063	129.334839
2707.459043	17403.674667	1918.434570	85.598129
2707.459043	17403.674667	1917.456055	-187.569763
2707.459043	17403.674667	1916.476563	90.822891
2707.459043	17403.674667	1915.497070	161.705658
2707.459043	17403.674667	1914.516602	76.421204
2707.459043	17403.674667	1913.537109	-18.615013
2707.459043	17403.674667	1912.556641	5.835558
2707.459043	17403.674667	1911.576172	-30.700806
2707.459043	17403.674667	1910.595703	-74.565559
2707.459043	17403.674667	1909.615234	322.653717
2707.459043	17403.674667	1908.633789	110.554329
2707.459043	17403.674667	1907.653320	-91.753677
2707.459043	17403.674667	1906.671875	98.120140
2707.459043	17403.674667	1905.690430	39.499039
2707.459043	17403.674667	1904.708984	-97.044464
2707.459043	17403.674667	1903.727539	-136.202499
2707.459043	17403.674667	1902.745117	-39.087055
2707.459043	17403.674667	1901.762695	174.757019
2707.459043	17403.674667	1900.780273	-251.372223
2707.459043	17403.674667	1899.797852	-81.428658
2707.459043	17403.674667	1898.815430	-191.268555
2707.459043	17403.674667	1897.832031	102.530052
2707.459043	17403.674667	1896.849609	104.446991
2707.459043	17403.674667	1895.866211	-224.245361
2707.459043	17403.674667	1894.882813	-66.821159
2707.459043	17403.674667	1893.898438	129.376694
2707.459043	17403.674667	1892.915039	-31.646271
2707.459043	17403.674667	1891.930664	-15.350473
2707.459043	17403.674667	1890.947266	-130.238037
2707.459043	17403.674667	1889.962891	97.205040
2707.459043	17403.674667	1888.977539	-49.313286
2707.459043	17403.674667	1887.993164	143.955139
2707.459043	17403.674667	1887.007813	135.697830
2707.459043	17403.674667	1886.023438	-13.320302
2707.459043	17403.674667	1885.038086	65.675957
2707.459043	17403.674667	1884.051758	149.439453
2707.459043	17403.674667	1883.066406	196.749084
2707.459043	17403.674667	1882.081055	-97.838188
2707.459043	17403.674667	1881.094727	34.222721
2707.459043	17403.674667	1880.108398	-5.881784
2707.459043	17403.674667	1879.122070	198.687225
2707.459043	17403.674667	1878.135742	20.371229
2707.459043	17403.674667	1877.148438	202.941589
2707.459043	17403.674667	1876.162109	36.680874
2707.459043	17403.674667	1875.174805	-88.421997
2707.459043	17403.674667	1874.187500	190.709351
2707.459043	17403.674667	1873.199219	-60.351196
2707.459043	17403.674667	1872.211914	242.740891
2707.459043	17403.674667	1871.223633	-44.653862
2707.459043	17403.674667	1870.236328	200.138428
2707.459043	17403.674667	1869.248047	77.177223
2707.459043	17403.674667	1868.258789	12.222161
2707.459043	17403.674667	1867.270508	-89.037834
2707.459043	17403.674667	1866.282227	174.641754
2707.459043	17403.674667	1865.292969	102.245384
2707.459043	17403.674667	1864.303711	206.182114
2707.459043	17403.674667	1863.314453	177.144394
2707.459043	17403.674667	1862.324219	-25.852287
2707.459043	17403.674667	1861.334961	174.417984
2707.459043	17403.674667	1860.344727	128.277145
2707.459043	17403.674667	1859.354492	82.076958
2707.459043	17403.674667	1858.364258	166.139771
2707.459043	17403.674667	1857.374023	-116.674973
2707.459043	17403.674667	1856.383789	121.634750
2707.459043	17403.674667	1855.392578	-98.514679
2707.459043	17403.674667	1854.401367	-77.505455
2707.459043	17403.674667	1853.410156	138.716202
2707.459043	17403.674667	1852.418945	43.794937
2707.459043	17403.674667	1851.426758	360.971039
2707.459043	17403.674667	1850.435547	22.487720
2707.459043	17403.674667	1849.443359	83.989510
2707.459043	17403.674667	1848.451172	241.735321
2707.459043	17403.674667	1847.458984	-164.234680
2707.459043	17403.674667	1846.466797	294.316895
2707.459043	17403.674667	1845.473633	263.877991
2707.459043	17403.674667	1844.480469	211.697067
2707.459043	17403.674667	1843.487305	96.871971
2707.459043	17403.674667	1842.494141	-30.032709
2707.459043	17403.674667	1841.500977	256.795685
2707.459043	17403.674667	1840.506836	254.789902
2707.459043	17403.674667	1839.513672	108.405151
2707.459043	17403.674667	1838.519531	252.901245
2707.459043	17403.674667	1837.525391	58.296925
2707.459043	17403.674667	1836.530273	10.274625
2707.459043	17403.674667	1835.536133	79.921158
2707.459043	17403.674667	1834.541016	147.034698
2707.459043	17403.674667	1833.545898	221.229111
2707.459043	17403.674667	1832.550781	81.549568
2707.459043	17403.674667	1831.555664	-74.987099
2707.459043	17403.674667	1830.560547	224.568558
2707.459043	17403.674667	1829.564453	3.045826
2707.459043	17403.674667	1828.568359	35.882347
2707.459043	17403.674667	1827.572266	291.740509
2707.459043	17403.674667	1826.576172	19.638166
2707.459043	17403.674667	1825.580078	54.532646
2707.459043	17403.674667	1824.583008	-35.393719
2707.459043	17403.674667	1823.585938	-3.120701
2707.459043	17403.674667	1822.588867	213.608856
2707.459043	17403.674667	1821.591797	173.705460
2707.459043	17403.674667	1820.594727	49.839363
2707.459043	17403.674667	1819.596680	28.919966
2707.459043	17403.674667	1818.599609	-114.256287
2707.459043	17403.674667	1817.601563	331.632874
2707.459043	17403.674667	1816.603516	15.825249
2707.459043	17403.674667	1815.604492	99.804100
2707.459043	17403.674667	1814.606445	186.036697
2707.459043	17403.674667	1813.607422	1.702860
2707.459043	17403.674667	1812.608398	123.573143
2707.459043	17403.674667	1811.609375	209.397995
2707.459043	17403.674667	1810.610352	173.099747
2707.459043	17403.674667	1809.610352	79.299728
2707.459043	17403.674667	1808.611328	-2.621304
2707.459043	17403.674667	1807.611328	49.221298
2707.459043	17403.674667	1806.611328	-166.741028
2707.459043	17403.674667	1805.610352	-110.355156
2707.459043	17403.674667	1804.610352	17.565336
2707.459043	17403.674667	1803.609375	-38.605526
2707.459043	17403.674667	1802.608398	62.735088
2707.459043	17403.674667	1801.607422	42.146355
2707.459043	17403.674667	1800.606445	-59.718792
2707.459043	17403.674667	1799.605469	186.790649
2707.459043	17403.674667	1798.603516	-25.085989
2707.459043	17403.674667	1797.601563	18.275290
2707.459043	17403.674667	1796.599609	11.404424
2707.459043	17403.674667	1795.597656	-243.618820
2707.459043	17403.674667	1794.595703	-19.396311
2707.459043	17403.674667	1793.592773	83.023674
2707.459043	17403.674667	1792.589844	37.500145
2707.459043	17403.674667	1791.587891	-141.577118
2707.459043	17403.674667	1790.583984	-80.083549
2707.459043	17403.674667	1789.581055	-252.185196
2707.459043	17403.674667	1788.577148	6.735717
2707.459043	17403.674667	1787.574219	51.125687
2707.459043	17403.674667	1786.570313	7.271002
2707.459043	17403.674667	1785.566406	-108.106079
2707.459043	17403.674667	1784.561523	40.594620
2707.459043	17403.674667	1783.557617	93.941689
2707.459043	17403.674667	1782.552734	-133.595871
2707.459043	17403.674667	1781.547852	-37.688847
2707.459043	17403.674667	1780.542969	-91.768951
2707.459043	17403.674667	1779.538086	110.831688
2707.459043	17403.674667	1778.532227	-36.237568
2707.459043	17403.674667	1777.527344	-12.240579
2707.459043	17403.674667	1776.521484	6.853768
2707.459043	17403.674667	1775.515625	-19.330536
2707.459043	17403.674667	1774.508789	-128.785172
2707.459043	17403.674667	1773.502930	49.055126
2707.459043	17403.674667	1772.496094	117.457893
2707.459043	17403.674667	1771.489258	5.276178
2707.459043	17403.674667	1770.482422	-76.136452
2707.459043	17403.674667	1769.475586	-41.361954
2707.459043	17403.674667	1768.467773	-137.243240
2707.459043	17403.674667	1767.460938	-45.796474
2707.459043	17403.674667	1766.453125	78.679054
2707.459043	17403.674667	1765.445313	-34.159058
2707.459043	17403.674667	1764.437500	286.792847
2707.459043	17403.674667	1763.428711	145.241135
2707.459043	17403.674667	1762.420898	34.434582
2707.459043	17403.674667	1761.412109	77.550346
2707.459043	17403.674667	1760.403320	66.030853
2707.459043	17403.674667	1759.393555	220.178757
2707.459043	17403.674667	1758.384766	-94.753242
2707.459043	17403.674667	1757.375000	153.819321
2707.459043	17403.674667	1756.366211	-120.993874
2707.459043	17403.674667	1755.356445	-36.081482
2707.459043	17403.674667	1754.345703	79.418762
2707.459043	17403.674667	1753.335938	71.731537
2707.459043	17403.674667	1752.325195	127.773201
2707.459043	17403.674667	1751.315430	-152.157806
2707.459043	17403.674667	1750.304688	57.349541
2707.459043	17403.674667	1749.292969	23.128296
2707.459043	17403.674667	1748.282227	-37.194248
2707.459043	17403.674667	1747.270508	41.798161
2707.459043	17403.674667	1746.259766	-103.818443
2707.459043	17403.674667	1745.248047	-43.995434
2707.459043	17403.674667	1744.235352	79.437233
2707.459043	17403.674667	1743.223633	9.071946
2707.459043	17403.674667	1742.211914	212.485367
2707.459043	17403.674667	1741.199219	71.041801
2707.459043	17403.674667	1740.186523	-127.114441
2707.459043	17403.674667	1739.173828	-214.415451
2707.459043	17403.674667	1738.160156	-9.280415
2707.459043	17403.674667	1737.147461	-33.129154
2707.459043	17403.674667	1736.133789	181.081146
2707.459043	17403.674667	1735.120117	-57.618813
2707.459043	17403.674667	1734.106445	-105.399323
2707.459043	17403.674667	1733.091797	-113.229866
2707.459043	17403.674667	1732.078125	-137.656021
2707.459043	17403.674667	1731.063477	158.213593
2707.459043	17403.674667	1730.048828	-52.602371
2707.459043	17403.674667	1729.034180	141.629166
2707.459043	17403.674667	1728.019531	95.489983
2707.459043	17403.674667	1727.003906	-16.684299
2707.459043	17403.674667	1725.988281	73.494576
2707.459043	17403.674667	1724.972656	1.142597
2707.459043	17403.674667	1723.957031	-83.060776
2707.459043	17403.674667	1722.941406	58.487770
2707.459043	17403.674667	1721.924805	185.739655
2707.459043	17403.674667	1720.909180	-6.962525
2707.459043	17403.674667	1719.892578	-2.228508
2707.459043	17403.674667	1718.875977	4.741908
2707.459043	17403.674667	1717.858398	105.591194
2707.459043	17403.674667	1716.841797	215.707748
2707.459043	17403.674667	1715.824219	356.195923
2707.459043	17403.674667	1714.806641	108.960876
2707.459043	17403.674667	1713.789063	127.083572
2707.459043	17403.674667	1712.770508	199.078156
2707.459043	17403.674667	1711.752930	33.858467
2707.459043	17403.674667	1710.734375	126.754532
2707.459043	17403.674667	1709.715820	339.187683
2707.459043	17403.674667	1708.697266	274.590485
2707.459043	17403.674667	1707.678711	-17.616096
2707.459043	17403.674667	1706.659180	206.124542
2707.459043	17403.674667	1705.640625	331.215698
2707.459043	17403.674667	1704.621094	214.671936
2707.459043	17403.674667	1703.600586	376.978424
2707.459043	17403.674667	1702.581055	283.710876
2707.459043	17403.674667	1701.561523	199.751984
2707.459043	17403.674667	1700.541016	289.060333
2707.459043	17403.674667	1699.520508	385.267212
2707.459043	17403.674667	1698.500000	212.051453
2707.459043	17403.674667	1697.478516	427.431976
2707.459043	17403.674667	1696.458008	420.284393
2707.459043	17403.674667	1695.436523	431.754669
2707.459043	17403.674667	1694.415039	623.296936
2707.459043	17403.674667	1693.393555	547.986511
2707.459043	17403.674667	1692.372070	538.109680
2707.459043	17403.674667	1691.349609	486.036621
2707.459043	17403.674667	1690.327148	454.942383
2707.459043	17403.674667	1689.304688	828.179749
2707.459043	17403.674667	1688.282227	572.497925
2707.459043	17403.674667	1687.259766	487.411896
2707.459043	17403.674667	1686.236328	670.928101
2707.459043	17403.674667	1685.213867	630.076294
2707.459043	17403.674667	1684.190430	869.385681
2707.459043	17403.674667	1683.166016	816.642578
2707.459043	17403.674667	1682.142578	1018.320496
2707.459043	17403.674667	1681.119141	1047.128906
2707.459043	17403.674667	1680.094727	886.814209
2707.459043	17403.674667	1679.070313	1195.447021
2707.459043	17403.674667	1678.045898	1135.327393
2707.459043	17403.674667	1677.020508	1236.064941
2707.459043	17403.674667	1675.996094	1518.593018
2707.459043	17403.674667	1674.970703	1288.037354
2707.459043	17403.674667	1673.945313	1346.531372
2707.459043	17403.674667	1672.919922	1397.947754
2707.459043	17403.674667	1671.893555	1633.327148
2707.459043	17403.674667	1670.868164	1733.463013
2707.459043	17403.674667	1669.841797	1493.437744
2707.459043	17403.674667	1668.815430	1635.338257
2707.459043	17403.674667	1667.789063	1595.529053
2707.459043	17403.674667	1666.761719	1692.994507
2707.459043	17403.674667	1665.735352	1546.024170
2707.459043	17403.674667	1664.708008	1713.157471
2707.459043	17403.674667	1663.680664	1691.739136
2707.459043	17403.674667	1662.653320	1993.581055
2707.459043	17403.674667	1661.625000	2025.481934
2707.459043	17403.674667	1660.597656	2171.269043
2707.459043	17403.674667	1659.569336	1810.178223
2707.459043	17403.674667	1658.541016	2185.926025
2707.459043	17403.674667	1657.512695	2278.000000
2707.459043	17403.674667	1656.483398	2149.266846
2707.459043	17403.674667	1655.455078	2287.685547
2707.459043	17403.674667	1654.425781	2333.094727
2707.459043	17403.674667	1653.396484	2332.014160
2707.459043	17403.674667	1652.366211	2460.874512
2707.459043	17403.674667	1651.336914	2622.167969
2707.459043	17403.674667	1650.306641	2574.495361
2707.459043	17403.674667	1649.276367	2837.702148
2707.459043	17403.674667	1648.246094	2873.451904
2707.459043	17403.674667	1647.215820	3071.504150
2707.459043	17403.674667	1646.185547	3362.199951
2707.459043	17403.674667	1645.154297	3451.046875
2707.459043	17403.674667	1644.123047	3674.271240
2707.459043	17403.674667	1643.091797	3718.946533
2707.459043	17403.674667	1642.060547	3791.387451
2707.459043	17403.674667	1641.028320	4005.065430
2707.459043	17403.674667	1639.997070	4355.311035
2707.459043	17403.674667	1638.964844	4177.429688
2707.459043	17403.674667	1637.931641	4499.652344
2707.459043	17403.674667	1636.899414	4659.728027
2707.459043	17403.674667	1635.867188	4778.077148
2707.459043	17403.674667	1634.833984	5104.588867
2707.459043	17403.674667	1633.800781	5345.372559
2707.459043	17403.674667	1632.767578	5035.586426
2707.459043	17403.674667	1631.734375	5063.535156
2707.459043	17403.674667	1630.700195	5005.903320
2707.459043	17403.674667	1629.666016	5144.774414
2707.459043	17403.674667	1628.631836	5017.814941
2707.459043	17403.674667	1627.597656	4770.752441
2707.459043	17403.674667	1626.563477	4858.769043
2707.459043	17403.674667	1625.528320	4946.736328
2707.459043	17403.674667	1624.493164	4725.227051
2707.459043	17403.674667	1623.458008	4769.332520
2707.459043	17403.674667	1622.422852	5090.438965
2707.459043	17403.674667	1621.387695	4857.523438
2707.459043	17403.674667	1620.351563	4855.440430
2707.459043	17403.674667	1619.315430	5095.615234
2707.459043	17403.674667	1618.279297	5139.651367
2707.459043	17403.674667	1617.243164	5017.645020
2707.459043	17403.674667	1616.207031	4542.932617
2707.459043	17403.674667	1615.169922	4626.277832
2707.459043	17403.674667	1614.132813	4529.841309
2707.459043	17403.674667	1613.095703	4627.031738
2707.459043	17403.674667	1612.058594	4634.359863
2707.459043	17403.674667	1611.020508	4563.373047
2707.459043	17403.674667	1609.983398	4628.345215
2707.459043	17403.674667	1608.945313	4610.411133
2707.459043	17403.674667	1607.907227	4562.587402
2707.459043	17403.674667	1606.868164	4576.944824
2707.459043	17403.674667	1605.830078	4883.608887
2707.459043	17403.674667	1604.791016	4433.215332
2707.459043	17403.674667	1603.751953	4650.132324
2707.459043	17403.674667	1602.712891	4425.432129
2707.459043	17403.674667	1601.673828	4750.424805
2707.459043	17403.674667	1600.633789	4314.354492
2707.459043	17403.674667	1599.594727	4517.513672
2707.459043	17403.674667	1598.554688	4401.187500
2707.459043	17403.674667	1597.513672	4588.226074
2707.459043	17403.674667	1596.473633	4520.275391
2707.459043	17403.674667	1595.433594	4362.834473
2707.459043	17403.674667	1594.392578	4320.302734
2707.459043	17403.674667	1593.351563	4215.857910
2707.459043	17403.674667	1592.310547	4159.716309
2707.459043	17403.674667	1591.268555	4158.715820
2707.459043	17403.674667	1590.227539	4320.708496
2707.459043	17403.674667	1589.185547	4150.044434
2707.459043	17403.674667	1588.143555	3807.491455
2707.459043	17403.674667	1587.100586	3834.318604
2707.459043	17403.674667	1586.058594	3975.860107
2707.459043	17403.674667	1585.015625	3732.298584
2707.459043	17403.674667	1583.972656	3695.167480
2707.459043	17403.674667	1582.929688	3999.536865
2707.459043	17403.674667	1581.886719	3829.646240
2707.459043	17403.674667	1580.843750	3875.200439
2707.459043	17403.674667	1579.799805	4003.240479
2707.459043	17403.674667	1578.755859	3920.668213
2707.459043	17403.674667	1577.711914	3705.444336
2707.459043	17403.674667	1576.666992	3678.039551
2707.459043	17403.674667	1575.623047	3891.015137
2707.459043	17403.674667	1574.578125	3731.067139
2707.459043	17403.674667	1573.533203	3697.075439
2707.459043	17403.674667	1572.488281	4127.422852
2707.459043	17403.674667	1571.443359	3963.223389
2707.459043	17403.674667	1570.397461	3604.855469
2707.459043	17403.674667	1569.351563	3397.567383
2707.459043	17403.674667	1568.305664	3601.775146
2707.459043	17403.674667	1567.259766	3385.628174
2707.459043	17403.674667	1566.213867	3281.591553
2707.459043	17403.674667	1565.166992	3314.704834
2707.459043	17403.674667	1564.120117	2941.482422
2707.459043	17403.674667	1563.073242	2936.050537
2707.459043	17403.674667	1562.026367	2996.918457
2707.459043	17403.674667	1560.978516	2749.788818
2707.459043	17403.674667	1559.930664	3166.782715
2707.459043	17403.674667	1558.883789	3312.297852
2707.459043	17403.674667	1557.834961	2887.683838
2707.459043	17403.674667	1556.787109	2743.826416
2707.459043	17403.674667	1555.739258	2980.854248
2707.459043	17403.674667	1554.690430	3037.829834
2707.459043	17403.674667	1553.641602	3138.197754
2707.459043	17403.674667	1552.592773	3006.256104
2707.459043	17403.674667	1551.542969	2974.698975
2707.459043	17403.674667	1550.494141	3002.510010
2707.459043	17403.674667	1549.444336	2964.386475
2707.459043	17403.674667	1548.394531	2935.511963
2707.459043	17403.674667	1547.344727	2843.044434
2707.459043	17403.674667	1546.293945	2839.480957
2707.459043	17403.674667	1545.244141	2469.753418
2707.459043	17403.674667	1544.193359	2361.889893
2707.459043	17403.674667	1543.142578	2572.608887
2707.459043	17403.674667	1542.090820	2335.409912
2707.459043	17403.674667	1541.040039	2182.575684
2707.459043	17403.674667	1539.988281	2223.129150
2707.459043	17403.674667	1538.936523	2245.626221
2707.459043	17403.674667	1537.884766	2404.582031
2707.459043	17403.674667	1536.833008	2254.675537
2707.459043	17403.674667	1535.780273	2082.247070
2707.459043	17403.674667	1534.727539	1664.792847
2707.459043	17403.674667	1533.674805	1844.738525
2707.459043	17403.674667	1532.622070	2140.522461
2707.459043	17403.674667	1531.569336	1787.294556
2707.459043	17403.674667	1530.515625	1656.700317
2707.459043	17403.674667	1529.461914	1469.596924
2707.459043	17403.674667	1528.408203	1516.331421
2707.459043	17403.674667	1527.354492	1622.162598
2707.459043	17403.674667	1526.299805	1632.873535
2707.459043	17403.674667	1525.246094	1385.349487
2707.459043	17403.674667	1524.191406	1512.000610
2707.459043	17403.674667	1523.136719	1405.384521
2707.459043	17403.674667	1522.081055	1706.725952
2707.459043	17403.674667	1521.026367	1532.491089
2707.459043	17403.674667	1519.970703	1433.206421
2707.459043	17403.674667	1518.915039	1583.169189
2707.459043	17403.674667	1517.859375	1726.448853
2707.459043	17403.674667	1516.802734	1380.993408
2707.459043	17403.674667	1515.747070	1511.019409
2707.459043	17403.674667	1514.690430	1347.062988
2707.459043	17403.674667	1513.633789	1382.380981
2707.459043	17403.674667	1512.577148	1232.427856
2707.459043	17403.674667	1511.519531	1213.830078
2707.459043	17403.674667	1510.461914	1247.404907
2707.459043	17403.674667	1509.405273	1324.093628
2707.459043	17403.674667	1508.346680	1256.298828
2707.459043	17403.674667	1507.289063	1064.469482
2707.459043	17403.674667	1506.231445	1017.449402
2707.459043	17403.674667	1505.172852	979.653442
2707.459043	17403.674667	1504.114258	964.631897
2707.459043	17403.674667	1503.055664	841.450134
2707.459043	17403.674667	1501.996094	917.093811
2707.459043	17403.674667	1500.937500	1148.594604
2707.459043	17403.674667	1499.877930	784.608459
2707.459043	17403.674667	1498.818359	847.247314
2707.459043	17403.674667	1497.757813	668.749329
2707.459043	17403.674667	1496.698242	713.726807
2707.459043	17403.674667	1495.637695	749.850830
2707.459043	17403.674667	1494.577148	824.466797
2707.459043	17403.674667	1493.516602	610.827515
2707.459043	17403.674667	1492.456055	667.804871
2707.459043	17403.674667	1491.394531	697.917358
2707.459043	17403.674667	1490.333008	703.443298
2707.459043	17403.674667	1489.271484	490.768219
2707.459043	17403.674667	1488.209961	640.793274
2707.459043	17403.674667	1487.148438	883.230042
2707.459043	17403.674667	1486.085938	335.963135
2707.459043	17403.674667	1485.023438	353.787537
2707.459043	17403.674667	1483.960938	360.557343
2707.459043	17403.674667	1482.898438	428.249878
2707.459043	17403.674667	1481.834961	388.199524
2707.459043	17403.674667	1480.772461	231.491455
2707.459043	17403.674667	1479.708984	77.313644
2707.459043	17403.674667	1478.644531	172.796188
2707.459043	17403.674667	1477.581055	50.552284
2707.459043	17403.674667	1476.517578	139.707748
2707.459043	17403.674667	1475.453125	29.176228
2707.459043	17403.674667	1474.388672	-98.932961
2707.459043	17403.674667	1473.323242	76.024673
2707.459043	17403.674667	1472.258789	259.996246
2707.459043	17403.674667	1471.193359	81.092705
2707.459043	17403.674667	1470.127930	-21.688864
2707.459043	17403.674667	1469.062500	-114.951500
2707.459043	17403.674667	1467.997070	235.494705
2707.459043	17403.674667	1466.930664	-68.038666
2707.459043	17403.674667	1465.865234	188.982925
2707.459043	17403.674667	1464.798828	183.838669
2707.459043	17403.674667	1463.731445	581.795166
2707.459043	17403.674667	1462.665039	711.186462
2707.459043	17403.674667	1461.597656	507.064423
2707.459043	17403.674667	1460.530273	502.766022
2707.459043	17403.674667	1459.462891	447.607971
2707.459043	17403.674667	1458.395508	467.928528
2707.459043	17403.674667	1457.327148	386.587769
2707.459043	17403.674667	1456.259766	829.323547
2707.459043	17403.674667	1455.191406	437.639191
2707.459043	17403.674667	1454.123047	401.512970
2707.459043	17403.674667	1453.053711	921.630005
2707.459043	17403.674667	1451.985352	647.296814
2707.459043	17403.674667	1450.916016	507.539673
2707.459043	17403.674667	1449.846680	686.048950
2707.459043	17403.674667	1448.776367	650.447937
2707.459043	17403.674667	1447.707031	932.969177
2707.459043	17403.674667	1446.636719	834.781250
2707.459043	17403.674667	1445.566406	665.942688
2707.459043	17403.674667	1444.496094	516.330566
2707.459043	17403.674667	1443.425781	628.163757
2707.459043	17403.674667	1442.354492	299.103760
2707.459043	17403.674667	1441.283203	531.481750
2707.459043	17403.674667	1440.211914	344.018433
2707.459043	17403.674667	1439.140625	430.311493
2707.459043	17403.674667	1438.069336	285.466431
2707.459043	17403.674667	1436.997070	453.272675
2707.459043	17403.674667	1435.924805	225.316101
2707.459043	17403.674667	1434.852539	71.252968
2707.459043	17403.674667	1433.780273	148.370285
2707.459043	17403.674667	1432.707031	-23.643297
2707.459043	17403.674667	1431.633789	18.234739
2707.459043	17403.674667	1430.560547	-93.765244
2707.459043	17403.674667	1429.487305	123.032394
2707.459043	17403.674667	1428.413086	-346.366547
2707.459043	17403.674667	1427.339844	-395.143799
2707.459043	17403.674667	1426.265625	71.024979
2707.459043	17403.674667	1425.191406	-110.385826
2707.459043	17403.674667	1424.116211	76.128349
2707.459043	17403.674667	1423.041992	-71.977264
2707.459043	17403.674667	1421.966797	-37.384514
2707.459043	17403.674667	1420.891602	-75.826981
2707.459043	17403.674667	1419.816406	19.015371
2707.459043	17403.674667	1418.740234	268.226196
2707.459043	17403.674667	1417.665039	208.616013
2707.459043	17403.674667	1416.588867	391.247131
2707.459043	17403.674667	1415.512695	243.701263
2707.459043	17403.674667	1414.435547	443.230774
2707.459043	17403.674667	1413.359375	253.378906
2707.459043	17403.674667	1412.282227	196.045410
2707.459043	17403.674667	1411.205078	428.266235
2707.459043	17403.674667	1410.127930	369.523407
2707.459043	17403.674667	1409.049805	617.245972
2707.459043	17403.674667	1407.972656	611.736816
2707.459043	17403.674667	1406.894531	475.549896
2707.459043	17403.674667	1405.816406	339.731903
2707.459043	17403.674667	1404.737305	478.390259
2707.459043	17403.674667	1403.659180	559.009888
2707.459043	17403.674667	1402.580078	586.923584
2707.459043	17403.674667	1401.500977	562.169312
2707.459043	17403.674667	1400.421875	488.111786
2707.459043	17403.674667	1399.341797	647.984375
2707.459043	17403.674667	1398.262695	546.205383
2707.459043	17403.674667	1397.182617	922.965088
2707.459043	17403.674667	1396.102539	936.933167
2707.459043	17403.674667	1395.021484	811.375000
2707.459043	17403.674667	1393.941406	900.892883
2707.459043	17403.674667	1392.860352	865.795715
2707.459043	17403.674667	1391.779297	686.957336
2707.459043	17403.674667	1390.698242	1113.033447
2707.459043	17403.674667	1389.616211	1153.096802
2707.459043	17403.674667	1388.535156	1127.937134
2707.459043	17403.674667	1387.453125	1373.265747
2707.459043	17403.674667	1386.371094	1503.824463
2707.459043	17403.674667	1385.288086	1168.720215
2707.459043	17403.674667	1384.206055	1150.106445
2707.459043	17403.674667	1383.123047	1318.873291
2707.459043	17403.674667	1382.040039	1536.020020
2707.459043	17403.674667	1380.957031	1523.928345
2707.459043	17403.674667	1379.873047	1532.512695
2707.459043	17403.674667	1378.789063	1546.517700
2707.459043	17403.674667	1377.705078	1737.157104
2707.459043	17403.674667	1376.621094	1963.564941
2707.459043	17403.674667	1375.537109	1729.720825
2707.459043	17403.674667	1374.452148	1690.367798
2707.459043	17403.674667	1373.367188	1707.478149
2707.459043	17403.674667	1372.282227	1637.484375
2707.459043	17403.674667	1371.197266	1535.840698
2707.459043	17403.674667	1370.112305	1431.483643
2707.459043	17403.674667	1369.026367	1394.479370
2707.459043	17403.674667	1367.940430	1239.320679
2707.459043	17403.674667	1366.854492	1140.213623
2707.459043	17403.674667	1365.767578	1367.380981
2707.459043	17403.674667	1364.681641	1141.514526
2707.459043	17403.674667	1363.594727	1421.169067
2707.459043	17403.674667	1362.507813	1300.621216
2707.459043	17403.674667	1361.419922	1506.311523
2707.459043	17403.674667	1360.333008	1219.035645
2707.459043	17403.674667	1359.245117	1275.828247
2707.459043	17403.674667	1358.157227	1471.511963
2707.459043	17403.674667	1357.069336	1689.250000
2707.459043	17403.674667	1355.981445	1412.568481
2707.459043	17403.674667	1354.892578	1590.053345
2707.459043	17403.674667	1353.803711	1422.202637
2707.459043	17403.674667	1352.714844	1346.901733
2707.459043	17403.674667	1351.625000	1626.413086
2707.459043	17403.674667	1350.536133	1705.642212
2707.459043	17403.674667	1349.446289	1699.814209
2707.459043	17403.674667	1348.356445	2084.922363
2707.459043	17403.674667	1347.266602	2049.707275
2707.459043	17403.674667	1346.175781	2112.236816
2707.459043	17403.674667	1345.085938	2118.907471
2707.459043	17403.674667	1343.995117	2768.623047
2707.459043	17403.674667	1342.903320	2602.336182
2707.459043	17403.674667	1341.812500	2863.857910
2707.459043	17403.674667	1340.720703	2835.818359
2707.459043	17403.674667	1339.629883	2886.836426
2707.459043	17403.674667	1338.538086	2791.577881
2707.459043	17403.674667	1337.445313	2783.955566
2707.459043	17403.674667	1336.353516	2652.078613
2707.459043	17403.674667	1335.260742	2580.087402
2707.459043	17403.674667	1334.167969	2448.330566
2707.459043	17403.674667	1333.075195	2479.539307
2707.459043	17403.674667	1331.981445	2511.415771
2707.459043	17403.674667	1330.888672	2590.480957
2707.459043	17403.674667	1329.794922	2278.650879
2707.459043	17403.674667	1328.701172	2169.812256
2707.459043	17403.674667	1327.606445	2130.132324
2707.459043	17403.674667	1326.512695	2277.836914
2707.459043	17403.674667	1325.417969	2352.226807
2707.459043	17403.674667	1324.323242	2408.622314
2707.459043	17403.674667	1323.227539	2180.376465
2707.459043	17403.674667	1322.132813	2046.587158
2707.459043	17403.674667	1321.037109	2038.028931
2707.459043	17403.674667	1319.941406	2209.664063
2707.459043	17403.674667	1318.845703	1990.844116
2707.459043	17403.674667	1317.750000	1983.063843
2707.459043	17403.674667	1316.653320	2012.447266
2707.459043	17403.674667	1315.556641	1763.568726
2707.459043	17403.674667	1314.459961	1746.184570
2707.459043	17403.674667	1313.363281	1712.181885
2707.459043	17403.674667	1312.265625	1702.524780
2707.459043	17403.674667	1311.167969	1424.949463
2707.459043	17403.674667	1310.070313	1459.704346
2707.459043	17403.674667	1308.972656	1419.110107
2707.459043	17403.674667	1307.874023	1423.017944
2707.459043	17403.674667	1306.776367	1207.636841
2707.459043	17403.674667	1305.677734	1227.145508
2707.459043	17403.674667	1304.579102	871.894714
2707.459043	17403.674667	1303.479492	1184.638306
2707.459043	17403.674667	1302.380859	1090.869507
2707.459043	17403.674667	1301.281250	1181.892822
2707.459043	17403.674667	1300.181641	1061.117188
2707.459043	17403.674667	1299.081055	1183.552856
2707.459043	17403.674667	1297.981445	970.014221
2707.459043	17403.674667	1296.880859	1124.316650
2707.459043	17403.674667	1295.780273	1085.893677
2707.459043	17403.674667	1294.679688	1079.525024
2707.459043	17403.674667	1293.578125	1016.281921
2707.459043	17403.674667	1292.476563	783.771606
2707.459043	17403.674667	1291.375000	705.250244
2707.459043	17403.674667	1290.273438	780.276672
2707.459043	17403.674667	1289.171875	717.495728
2707.459043	17403.674667	1288.069336	503.428253
2707.459043	17403.674667	1286.966797	629.247498
2707.459043	17403.674667	1285.864258	564.990723
2707.459043	17403.674667	1284.761719	277.310638
2707.459043	17403.674667	1283.658203	140.523300
2707.459043	17403.674667	1282.554688	510.254669
2707.459043	17403.674667	1281.451172	365.960052
2707.459043	17403.674667	1280.347656	274.680725
2707.459043	17403.674667	1279.244141	260.207977
2707.459043	17403.674667	1278.139648	182.897247
2707.459043	17403.674667	1277.035156	220.786240
2707.459043	17403.674667	1275.930664	240.629120
2707.459043	17403.674667	1274.825195	107.857719
2707.459043	17403.674667	1273.720703	-90.715164
2707.459043	17403.674667	1272.615234	97.252556
2707.459043	17403.674667	1271.508789	290.091370
2707.459043	17403.674667	1270.403320	261.250397
2707.459043	17403.674667	1269.297852	198.429153
2707.459043	17403.674667	1268.191406	60.011082
2707.459043	17403.674667	1267.084961	209.404327
2707.459043	17403.674667	1265.977539	151.810760
2707.459043	17403.674667	1264.871094	93.006989
2707.459043	17403.674667	1263.763672	143.498169
2707.459043	17403.674667	1262.656250	194.313324
2707.459043	17403.674667	1261.548828	169.380356
2707.459043	17403.674667	1260.440430	268.297913
2707.459043	17403.674667	1259.333008	288.144775
2707.459043	17403.674667	1258.224609	366.227417
2707.459043	17403.674667	1257.115234	274.606720
2707.459043	17403.674667	1256.006836	448.349457
2707.459043	17403.674667	1254.897461	326.164764
2707.459043	17403.674667	1253.788086	361.551849
2707.459043	17403.674667	1252.678711	395.343048
2707.459043	17403.674667	1251.569336	350.544342
2707.459043	17403.674667	1250.458984	626.658997
2707.459043	17403.674667	1249.349609	395.556213
2707.459043	17403.674667	1248.239258	642.656311
2707.459043	17403.674667	1247.127930	618.793640
2707.459043	17403.674667	1246.017578	506.464020
2707.459043	17403.674667	1244.906250	700.549011
2707.459043	17403.674667	1243.794922	589.625793
2707.459043	17403.674667	1242.683594	511.575378
2707.459043	17403.674667	1241.571289	679.684448
2707.459043	17403.674667	1240.459961	661.296387
2707.459043	17403.674667	1239.347656	593.548706
2707.459043	17403.674667	1238.234375	516.652771
2707.459043	17403.674667	1237.122070	637.826599
2707.459043	17403.674667	1236.008789	707.188599
2707.459043	17403.674667	1234.896484	461.310242
2707.459043	17403.674667	1233.782227	604.975403
2707.459043	17403.674667	1232.668945	613.096069
2707.459043	17403.674667	1231.555664	262.220734
2707.459043	17403.674667	1230.441406	402.554260
2707.459043	17403.674667	1229.327148	410.407928
2707.459043	17403.674667	1228.211914	291.242432
2707.459043	17403.674667	1227.097656	148.629303
2707.459043	17403.674667	1225.982422	114.144012
2707.459043	17403.674667	1224.867188	397.590027
2707.459043	17403.674667	1223.751953	206.549637
2707.459043	17403.674667	1222.635742	156.090988
2707.459043	17403.674667	1221.520508	43.027824
2707.459043	17403.674667	1220.404297	249.212936
2707.459043	17403.674667	1219.287109	152.773560
2707.459043	17403.674667	1218.170898	75.500031
2707.459043	17403.674667	1217.053711	14.299829
2707.459043	17403.674667	1215.936523	114.138596
2707.459043	17403.674667	1214.819336	134.243195
2707.459043	17403.674667	1213.702148	58.301426
2707.459043	17403.674667	1212.583984	56.990757
2707.459043	17403.674667	1211.465820	192.804245
2707.459043	17403.674667	1210.347656	101.519562
2707.459043	17403.674667	1209.229492	23.984688
2707.459043	17403.674667	1208.110352	122.689522
2707.459043	17403.674667	1206.992188	-67.653320
2707.459043	17403.674667	1205.873047	115.626030
2707.459043	17403.674667	1204.752930	105.371605
2707.459043	17403.674667	1203.633789	236.468048
2707.459043	17403.674667	1202.513672	170.219879
2707.459043	17403.674667	1201.393555	118.033478
2707.459043	17403.674667	1200.273438	144.702225
2707.459043	17403.674667	1199.152344	176.821274
2707.459043	17403.674667	1198.032227	34.685810
2707.459043	17403.674667	1196.911133	4.492612
2707.459043	17403.674667	1195.790039	-135.918121
2707.459043	17403.674667	1194.667969	-136.094879
2707.459043	17403.674667	1193.545898	-44.425903
2707.459043	17403.674667	1192.424805	-8.149839
2707.459043	17403.674667	1191.301758	-27.504042
2707.459043	17403.674667	1190.179688	-63.508072
2707.459043	17403.674667	1189.056641	-110.268364
2707.459043	17403.674667	1187.933594	-111.937561
2707.459043	17403.674667	1186.810547	-85.541550
2707.459043	17403.674667	1185.687500	-45.506592
2707.459043	17403.674667	1184.563477	-113.836586
2707.459043	17403.674667	1183.440430	36.925968
2707.459043	17403.674667	1182.316406	-38.452847
2707.459043	17403.674667	1181.191406	27.566404
2707.459043	17403.674667	1180.067383	157.273590
2707.459043	17403.674667	1178.942383	243.036072
2707.459043	17403.674667	1177.817383	150.675369
2707.459043	17403.674667	1176.692383	32.833652
2707.459043	17403.674667	1175.566406	-42.279484
2707.459043	17403.674667	1174.440430	166.967255
2707.459043	17403.674667	1173.314453	191.573486
2707.459043	17403.674667	1172.188477	83.014435
2707.459043	17403.674667	1171.062500	-14.617485
2707.459043	17403.674667	1169.935547	63.239597
2707.459043	17403.674667	1168.808594	67.953667
2707.459043	17403.674667	1167.681641	59.508774
2707.459043	17403.674667	1166.553711	-173.566589
2707.459043	17403.674667	1165.426758	-9.121426
2707.459043	17403.674667	1164.298828	-67.252777
2707.459043	17403.674667	1163.170898	-148.266098
2707.459043	17403.674667	1162.041992	-86.596024
2707.459043	17403.674667	1160.914063	-81.006950
2707.459043	17403.674667	1159.785156	-276.042755
2707.459043	17403.674667	1158.656250	-238.929459
2707.459043	17403.674667	1157.526367	-66.766022
2707.459043	17403.674667	1156.397461	-37.365971
2707.459043	17403.674667	1155.267578	-135.384125
2707.459043	17403.674667	1154.137695	3.117938
2707.459043	17403.674667	1153.006836	-180.026428
2707.459043	17403.674667	1151.876953	-157.003082
2707.459043	17403.674667	1150.746094	-110.435234
2707.459043	17403.674667	1149.615234	94.909859
2707.459043	17403.674667	1148.484375	88.386559
2707.459043	17403.674667	1147.352539	73.694084
2707.459043	17403.674667	1146.220703	149.523468
2707.459043	17403.674667	1145.088867	39.436142
2707.459043	17403.674667	1143.957031	63.930088
2707.459043	17403.674667	1142.825195	-220.030884
2707.459043	17403.674667	1141.692383	-33.325111
2707.459043	17403.674667	1140.559570	-259.726868
2707.459043	17403.674667	1139.426758	-351.383606
2707.459043	17403.674667	1138.292969	-160.264740
2707.459043	17403.674667	1137.159180	-274.797546
2707.459043	17403.674667	1136.025391	-207.450775
2707.459043	17403.674667	1134.891602	-270.729248
2707.459043	17403.674667	1133.757813	-172.887787
2707.459043	17403.674667	1132.623047	-265.697998
2707.459043	17403.674667	1131.488281	-106.823875
2707.459043	17403.674667	1130.353516	-59.223370
2707.459043	17403.674667	1129.217773	28.435221
2707.459043	17403.674667	1128.083008	250.135223
2707.459043	17403.674667	1126.947266	126.118942
2707.459043	17403.674667	1125.811523	256.486572
2707.459043	17403.674667	1124.674805	357.914185
2707.459043	17403.674667	1123.539063	213.761002
2707.459043	17403.674667	1122.402344	118.460899
2707.459043	17403.674667	1121.265625	205.760086
2707.459043	17403.674667	1120.127930	-3.397210
2707.459043	17403.674667	1118.990234	221.537201
2707.459043	17403.674667	1117.853516	245.324814
2707.459043	17403.674667	1116.714844	330.556152
2707.459043	17403.674667	1115.577148	317.727142
2707.459043	17403.674667	1114.439453	394.606171
2707.459043	17403.674667	1113.300781	235.919098
2707.459043	17403.674667	1112.162109	10.605475
2707.459043	17403.674667	1111.022461	53.298244
2707.459043	17403.674667	1109.883789	68.958992
2707.459043	17403.674667	1108.744141	105.742828
2707.459043	17403.674667	1107.604492	85.571236
2707.459043	17403.674667	1106.463867	337.224213
2707.459043	17403.674667	1105.324219	90.030540
2707.459043	17403.674667	1104.183594	229.137619
2707.459043	17403.674667	1103.042969	110.524117
2707.459043	17403.674667	1101.902344	106.895538
2707.459043	17403.674667	1100.760742	20.586082
2707.459043	17403.674667	1099.619141	-66.531670
2707.459043	17403.674667	1098.477539	-84.308784
2707.459043	17403.674667	1097.335938	126.466194
2707.459043	17403.674667	1096.193359	174.354584
2707.459043	17403.674667	1095.051758	235.169785
2707.459043	17403.674667	1093.909180	-26.123392
2707.459043	17403.674667	1092.765625	65.401047
2707.459043	17403.674667	1091.623047	226.256485
2707.459043	17403.674667	1090.479492	125.776184
2707.459043	17403.674667	1089.335938	123.098579
2707.459043	17403.674667	1088.192383	298.778992
2707.459043	17403.674667	1087.047852	160.083954
2707.459043	17403.674667	1085.903320	94.781197
2707.459043	17403.674667	1084.758789	90.543282
2707.459043	17403.674667	1083.614258	-55.995312
2707.459043	17403.674667	1082.469727	27.086044
2707.459043	17403.674667	1081.324219	92.140274
2707.459043	17403.674667	1080.178711	28.472895
2707.459043	17403.674667	1079.033203	8.133494
2707.459043	17403.674667	1077.886719	75.188538
2707.459043	17403.674667	1076.740234	151.459579
2707.459043	17403.674667	1075.593750	34.909336
2707.459043	17403.674667	1074.447266	62.788624
2707.459043	17403.674667	1073.300781	-98.469116
2707.459043	17403.674667	1072.153320	-120.482529
2707.459043	17403.674667	1071.005859	-1.733081
2707.459043	17403.674667	1069.858398	-16.406414
2707.459043	17403.674667	1068.709961	-161.662521
2707.459043	17403.674667	1067.561523	33.776340
2707.459043	17403.674667	1066.413086	-115.616257
2707.459043	17403.674667	1065.264648	-16.340355
2707.459043	17403.674667	1064.116211	-7.993639
2707.459043	17403.674667	1062.966797	224.477219
2707.459043	17403.674667	1061.817383	94.440498
2707.459043	17403.674667	1060.667969	77.768288
2707.459043	17403.674667	1059.517578	44.724529
2707.459043	17403.674667	1058.368164	23.131899
2707.459043	17403.674667	1057.217773	216.941010
2707.459043	17403.674667	1056.067383	81.476883
2707.459043	17403.674667	1054.916016	96.196381
2707.459043	17403.674667	1053.764648	115.237312
2707.459043	17403.674667	1052.613281	96.557800
2707.459043	17403.674667	1051.461914	-53.331280
2707.459043	17403.674667	1050.310547	-83.895615
2707.459043	17403.674667	1049.158203	-85.120293
2707.459043	17403.674667	1048.005859	-66.276001
2707.459043	17403.674667	1046.853516	-60.324471
2707.459043	17403.674667	1045.700195	-45.968887
2707.459043	17403.674667	1044.547852	-126.002571
2707.459043	17403.674667	1043.394531	31.225401
2707.459043	17403.674667	1042.240234	199.301819
2707.459043	17403.674667	1041.086914	108.107986
2707.459043	17403.674667	1039.932617	137.542175
2707.459043	17403.674667	1038.778320	282.588684
2707.459043	17403.674667	1037.624023	137.208801
2707.459043	17403.674667	1036.469727	365.169373
2707.459043	17403.674667	1035.314453	620.987915
2707.459043	17403.674667	1034.159180	739.330994
2707.459043	17403.674667	1033.003906	726.754517
2707.459043	17403.674667	1031.847656	1012.452515
2707.459043	17403.674667	1030.692383	669.789978
2707.459043	17403.674667	1029.536133	978.364319
2707.459043	17403.674667	1028.378906	575.457764
2707.459043	17403.674667	1027.222656	730.693970
2707.459043	17403.674667	1026.065430	452.051514
2707.459043	17403.674667	1024.908203	511.006470
2707.459043	17403.674667	1023.750977	411.382568
2707.459043	17403.674667	1022.593750	272.242767
2707.459043	17403.674667	1021.435547	329.807404
2707.459043	17403.674667	1020.277344	392.195709
2707.459043	17403.674667	1019.119141	482.187531
2707.459043	17403.674667	1017.959961	413.191284
2707.459043	17403.674667	1016.800781	312.868683
2707.459043	17403.674667	1015.641602	234.104004
2707.459043	17403.674667	1014.482422	317.925140
2707.459043	17403.674667	1013.323242	232.286758
2707.459043	17403.674667	1012.163086	387.886871
2707.459043	17403.674667	1011.002930	287.901398
2707.459043	17403.674667	1009.842773	273.364136
2707.459043	17403.674667	1008.681641	353.515808
2707.459043	17403.674667	1007.520508	248.277786
2707.459043	17403.674667	1006.359375	261.412445
2707.459043	17403.674667	1005.198242	264.336426
2707.459043	17403.674667	1004.037109	353.803314
2707.459043	17403.674667	1002.875000	429.177246
2707.459043	17403.674667	1001.712891	417.458466
2707.459043	17403.674667	1000.550781	423.964996
2707.459043	17403.674667	999.387695	538.462097
2707.459043	17403.674667	998.224609	534.094849
2707.459043	17403.674667	997.061523	364.332672
2707.459043	17403.674667	995.898438	294.384338
2707.459043	17403.674667	994.734375	85.029312
2707.459043	17403.674667	993.571289	239.150101
2707.459043	17403.674667	992.407227	21.307846
2707.459043	17403.674667	991.242188	-47.084911
2707.459043	17403.674667	990.078125	-28.583502
2707.459043	17403.674667	988.913086	-328.980896
2707.459043	17403.674667	987.748047	-77.484497
2707.459043	17403.674667	986.583008	-146.636475
2707.459043	17403.674667	985.416992	-88.041893
2707.459043	17403.674667	984.250977	-96.732986
2707.459043	17403.674667	983.084961	-59.605446
2707.459043	17403.674667	981.918945	81.679428
2707.459043	17403.674667	980.751953	-47.793327
2707.459043	17403.674667	979.584961	159.017700
2707.459043	17403.674667	978.417969	-78.740181
2707.459043	17403.674667	977.250977	-143.029007
2707.459043	17403.674667	976.083008	-262.203583
2707.459043	17403.674667	974.915039	-165.939804
2707.459043	17403.674667	973.747070	-113.119667
2707.459043	17403.674667	972.579102	122.129784
2707.459043	17403.674667	971.410156	84.149704
2707.459043	17403.674667	970.242188	-71.366638
2707.459043	17403.674667	969.072266	63.900051
2707.459043	17403.674667	967.903320	-50.090401
2707.459043	17403.674667	966.733398	40.428936
2707.459043	17403.674667	965.563477	263.909882
2707.459043	17403.674667	964.393555	292.878754
2707.459043	17403.674667	963.223633	561.597168
2707.459043	17403.674667	962.052734	580.843140
2707.459043	17403.674667	960.881836	444.812958
2707.459043	17403.674667	959.710938	647.538879
2707.459043	17403.674667	958.540039	575.860657
2707.459043	17403.674667	957.368164	383.325409
2707.459043	17403.674667	956.196289	627.947327
2707.459043	17403.674667	955.024414	396.461700
2707.459043	17403.674667	953.851563	341.656677
2707.459043	17403.674667	952.679688	135.683319
2707.459043	17403.674667	951.506836	126.720413
2707.459043	17403.674667	950.333984	99.303017
2707.459043	17403.674667	949.160156	230.838104
2707.459043	17403.674667	947.986328	72.880424
2707.459043	17403.674667	946.812500	19.470003
2707.459043	17403.674667	945.638672	86.628304
2707.459043	17403.674667	944.464844	-163.440567
2707.459043	17403.674667	943.290039	-57.311443
2707.459043	17403.674667	942.115234	29.588390
2707.459043	17403.674667	940.940430	-119.020363
2707.459043	17403.674667	939.764648	83.986481
2707.459043	17403.674667	938.588867	25.649626
2707.459043	17403.674667	937.413086	-23.876617
2707.459043	17403.674667	936.237305	-64.769005
2707.459043	17403.674667	935.060547	70.796555
2707.459043	17403.674667	933.883789	-175.063721
2707.459043	17403.674667	932.707031	-37.387936
2707.459043	17403.674667	931.530273	123.917686
2707.459043	17403.674667	930.352539	112.722870
2707.459043	17403.674667	929.175781	71.299828
2707.459043	17403.674667	927.998047	-30.491945
2707.459043	17403.674667	926.819336	104.628624
2707.459043	17403.674667	925.641602	58.744675
2707.459043	17403.674667	924.462891	189.334473
2707.459043	17403.674667	923.284180	-9.482261
2707.459043	17403.674667	922.104492	136.019241
2707.459043	17403.674667	920.924805	152.315262
2707.459043	17403.674667	919.746094	155.911652
2707.459043	17403.674667	919.551758	229.360901
2707.459043	17403.674667	918.386719	105.652115
2707.459043	17403.674667	917.220703	74.391953
2707.459043	17403.674667	916.054688	103.274712
2707.459043	17403.674667	914.887695	-76.412773
2707.459043	17403.674667	913.721680	29.722406
2707.459043	17403.674667	912.554688	-27.537071
2707.459043	17403.674667	911.387695	93.457390
2707.459043	17403.674667	910.220703	141.319016
2707.459043	17403.674667	909.052734	-38.506439
2707.459043	17403.674667	907.885742	62.911552
2707.459043	17403.674667	906.717773	3.252591
2707.459043	17403.674667	905.548828	-45.708149
2707.459043	17403.674667	904.380859	-43.218567
2707.459043	17403.674667	903.211914	137.257080
2707.459043	17403.674667	902.042969	36.655857
2707.459043	17403.674667	900.874023	-40.372906
2707.459043	17403.674667	899.704102	21.920828
2707.459043	17403.674667	898.535156	84.133354
2707.459043	17403.674667	897.365234	-143.019409
2707.459043	17403.674667	896.194336	-87.325768
2707.459043	17403.674667	895.024414	49.687771
2707.459043	17403.674667	893.853516	58.102085
2707.459043	17403.674667	892.682617	184.226639
2707.459043	17403.674667	891.511719	-102.904495
2707.459043	17403.674667	890.340820	74.471230
2707.459043	17403.674667	889.168945	93.381760
2707.459043	17403.674667	887.997070	-1.149446
2707.459043	17403.674667	886.825195	17.677279
2707.459043	17403.674667	885.653320	-207.339386
2707.459043	17403.674667	884.480469	20.966974
2707.459043	17403.674667	883.307617	26.821148
2707.459043	17403.674667	882.134766	128.804993
2707.459043	17403.674667	880.961914	53.353867
2707.459043	17403.674667	879.788086	129.574478
2707.459043	17403.674667	878.614258	167.276657
2707.459043	17403.674667	877.440430	53.306904
2707.459043	17403.674667	876.266602	105.875938
2707.459043	17403.674667	875.091797	40.985802
2707.459043	17403.674667	873.916992	142.548019
2707.459043	17403.674667	872.742188	397.660004
2707.459043	17403.674667	871.567383	270.775635
2707.459043	17403.674667	870.391602	143.908508
2707.459043	17403.674667	869.215820	174.856964
2707.459043	17403.674667	868.040039	448.803345
2707.459043	17403.674667	866.864258	200.380203
2707.459043	17403.674667	865.687500	222.675217
2707.459043	17403.674667	864.510742	-23.531765
2707.459043	17403.674667	863.333984	62.643734
2707.459043	17403.674667	862.157227	216.907455
2707.459043	17403.674667	860.979492	232.672150
2707.459043	17403.674667	859.802734	374.004883
2707.459043	17403.674667	858.625000	417.343750
2707.459043	17403.674667	857.446289	290.393372
2707.459043	17403.674667	856.268555	78.363564
2707.459043	17403.674667	855.089844	91.873848
2707.459043	17403.674667	853.911133	-139.220581
2707.459043	17403.674667	852.731445	131.560181
2707.459043	17403.674667	851.552734	-18.716545
2707.459043	17403.674667	850.373047	-41.429466
2707.459043	17403.674667	849.193359	-79.031944
2707.459043	17403.674667	848.013672	-59.279293
2707.459043	17403.674667	846.833008	-11.943694
2707.459043	17403.674667	845.652344	-47.472630
2707.459043	17403.674667	844.471680	-129.720078
2707.459043	17403.674667	843.291016	-12.412082
2707.459043	17403.674667	842.110352	-37.371391
2707.459043	17403.674667	840.928711	1.317166
2707.459043	17403.674667	839.747070	120.587006
2707.459043	17403.674667	838.564453	95.556374
2707.459043	17403.674667	837.382813	76.879791
2707.459043	17403.674667	836.200195	-5.413772
2707.459043	17403.674667	835.017578	5.577856
2707.459043	17403.674667	833.834961	25.024044
2707.459043	17403.674667	832.651367	-78.449280
2707.459043	17403.674667	831.467773	8.762232
2707.459043	17403.674667	830.284180	-33.276588
2707.459043	17403.674667	829.100586	-124.018486
2707.459043	17403.674667	827.916992	-49.602753
2707.459043	17403.674667	826.732422	134.834702
2707.459043	17403.674667	825.547852	-300.881073
2707.459043	17403.674667	824.363281	6.220003
2707.459043	17403.674667	823.177734	-173.357452
2707.459043	17403.674667	821.992188	-211.174133
2707.459043	17403.674667	820.806641	2.636477
2707.459043	17403.674667	819.621094	-22.543507
2707.459043	17403.674667	818.434570	172.090271
2707.459043	17403.674667	817.249023	5.274601
2707.459043	17403.674667	816.062500	-81.201439
2707.459043	17403.674667	814.875000	-81.047600
2707.459043	17403.674667	813.688477	208.421158
2707.459043	17403.674667	812.500977	94.471375
2707.459043	17403.674667	811.313477	-101.774071
2707.459043	17403.674667	810.125977	-46.790573
2707.459043	17403.674667	808.937500	198.071747
2707.459043	17403.674667	807.749023	158.010010
2707.459043	17403.674667	806.560547	25.145435
2707.459043	17403.674667	805.372070	-33.866558
2707.459043	17403.674667	804.182617	-126.599800
2707.459043	17403.674667	802.994141	29.433554
2707.459043	17403.674667	801.803711	147.457047
2707.459043	17403.674667	800.614258	-6.396249
2707.459043	17403.674667	799.424805	185.295898
2707.459043	17403.674667	798.234375	132.576736
2707.459043	17403.674667	797.043945	-35.950417
2707.459043	17403.674667	795.852539	67.171722
2707.459043	17403.674667	794.662109	300.744507
2707.459043	17403.674667	793.470703	96.478333
2707.459043	17403.674667	792.279297	300.470642
2707.459043	17403.674667	791.087891	264.555389
2707.459043	17403.674667	789.895508	192.890961
2707.459043	17403.674667	788.703125	224.279846
2707.459043	17403.674667	787.510742	266.155609
2707.459043	17403.674667	786.318359	118.834572
2707.459043	17403.674667	785.125000	227.938904
2707.459043	17403.674667	783.931641	248.743744
2707.459043	17403.674667	782.738281	21.664043
2707.459043	17403.674667	781.544922	52.980953
2707.459043	17403.674667	780.350586	147.264771
2707.459043	17403.674667	779.156250	98.748642
2707.459043	17403.674667	777.961914	-113.466972
2707.459043	17403.674667	776.767578	96.166603
2707.459043	17403.674667	775.572266	-107.591934
2707.459043	17403.674667	774.376953	-198.014328
2707.459043	17403.674667	773.181641	-99.674965
2707.459043	17403.674667	771.986328	-343.140442
2707.459043	17403.674667	770.790039	-190.335770
2707.459043	17403.674667	769.593750	-110.960396
2707.459043	17403.674667	768.397461	-176.208878
2707.459043	17403.674667	767.201172	-107.370529
2707.459043	17403.674667	766.003906	-178.903595
2707.459043	17403.674667	764.806641	-154.095459
2707.459043	17403.674667	763.609375	-112.563560
2707.459043	17403.674667	762.412109	-112.927315
2707.459043	17403.674667	761.213867	-102.842339
2707.459043	17403.674667	760.015625	72.513374
2707.459043	17403.674667	758.817383	32.320198
2707.459043	17403.674667	757.618164	-114.533607
2707.459043	17403.674667	756.419922	-29.245441
2707.459043	17403.674667	755.220703	118.707596
2707.459043	17403.674667	754.021484	22.039135
2707.459043	17403.674667	752.821289	126.001610
2707.459043	17403.674667	751.621094	171.405350
2707.459043	17403.674667	750.420898	350.454071
2707.459043	17403.674667	749.220703	128.445282
2707.459043	17403.674667	748.020508	186.291672
2707.459043	17403.674667	746.819336	323.418427
2707.459043	17403.674667	745.618164	381.160309
2707.459043	17403.674667	744.416992	284.449554
2707.459043	17403.674667	743.214844	229.480774
2707.459043	17403.674667	742.012695	280.887573
2707.459043	17403.674667	740.810547	309.313110
2707.459043	17403.674667	739.608398	473.220856
2707.459043	17403.674667	738.406250	662.051697
2707.459043	17403.674667	737.203125	886.209229
2707.459043	17403.674667	736.000000	1499.875977
2707.459043	17403.674667	734.795898	1790.377075
2707.459043	17403.674667	733.592773	2274.424072
2707.459043	17403.674667	732.388672	2691.611084
2707.459043	17403.674667	731.184570	2798.406006
2707.459043	17403.674667	729.979492	2811.468018
2707.459043	17403.674667	728.775391	2572.701904
2707.459043	17403.674667	727.570313	1892.938110
2707.459043	17403.674667	726.365234	1631.529419
2707.459043	17403.674667	725.160156	1191.352051
2707.459043	17403.674667	723.954102	957.171753
2707.459043	17403.674667	722.748047	868.576294
2707.459043	17403.674667	721.541992	759.204895
2707.459043	17403.674667	720.334961	602.056458
2707.459043	17403.674667	719.128906	436.635559
2707.459043	17403.674667	717.921875	385.489258
2707.459043	17403.674667	716.714844	465.158752
2707.459043	17403.674667	715.506836	399.430847
2707.459043	17403.674667	714.298828	605.619202
2707.459043	17403.674667	713.090820	504.544617
2707.459043	17403.674667	711.882813	511.371643
2707.459043	17403.674667	710.674805	555.501099
2707.459043	17403.674667	709.465820	587.133789
2707.459043	17403.674667	708.256836	432.097137
2707.459043	17403.674667	707.047852	517.572327
2707.459043	17403.674667	705.837891	449.595917
2707.459043	17403.674667	704.627930	460.356873
2707.459043	17403.674667	703.417969	439.999176
2707.459043	17403.674667	702.208008	448.612152
2707.459043	17403.674667	700.998047	558.660217
2707.459043	17403.674667	699.787109	550.601624
2707.459043	17403.674667	698.576172	385.182129
2707.459043	17403.674667	697.364258	366.735016
2707.459043	17403.674667	696.153320	329.634186
2707.459043	17403.674667	694.941406	306.989075
2707.459043	17403.674667	693.729492	296.722260
2707.459043	17403.674667	692.516602	261.600525
2707.459043	17403.674667	691.304688	387.716766
2707.459043	17403.674667	690.091797	424.853088
2707.459043	17403.674667	688.878906	476.397003
2707.459043	17403.674667	687.665039	321.255859
2707.459043	17403.674667	686.451172	354.119019
2707.459043	17403.674667	685.237305	572.799500
2707.459043	17403.674667	684.023438	308.165100
2707.459043	17403.674667	682.809570	493.642090
2707.459043	17403.674667	681.594727	394.162048
2707.459043	17403.674667	680.379883	624.847229
2707.459043	17403.674667	679.165039	444.825134
2707.459043	17403.674667	677.949219	757.814392
2707.459043	17403.674667	676.733398	878.833801
2707.459043	17403.674667	675.517578	706.974792
2707.459043	17403.674667	674.301758	559.875671
2707.459043	17403.674667	673.084961	792.003906
2707.459043	17403.674667	671.869141	548.006470
2707.459043	17403.674667	670.651367	761.397827
2707.459043	17403.674667	669.434570	828.414795
2707.459043	17403.674667	668.216797	749.146851
2707.459043	17403.674667	667.000000	661.627991
2707.459043	17403.674667	665.781250	800.509949
2707.459043	17403.674667	664.563477	906.357300
2707.459043	17403.674667	663.344727	997.703491
2707.459043	17403.674667	662.125977	1463.342407
2707.459043	17403.674667	660.907227	1184.236816
2707.459043	17403.674667	659.688477	1452.140259
2707.459043	17403.674667	658.468750	1238.831543
2707.459043	17403.674667	657.249023	994.728699
2707.459043	17403.674667	656.029297	1081.512207
2707.459043	17403.674667	654.808594	1020.282959
2707.459043	17403.674667	653.587891	983.673096
2707.459043	17403.674667	652.367188	1041.489990
2707.459043	17403.674667	651.146484	817.947632
2707.459043	17403.674667	649.924805	902.348755
2707.459043	17403.674667	648.704102	964.088196
2707.459043	17403.674667	647.482422	851.337402
2707.459043	17403.674667	646.259766	800.118591
2707.459043	17403.674667	645.037109	943.710815
2707.459043	17403.674667	643.815430	744.748657
2707.459043	17403.674667	642.591797	570.412231
2707.459043	17403.674667	641.369141	576.468750
2707.459043	17403.674667	640.145508	451.313873
2707.459043	17403.674667	638.921875	709.284546
2707.459043	17403.674667	637.698242	620.914978
2707.459043	17403.674667	636.474609	587.823486
2707.459043	17403.674667	635.250000	460.503113
2707.459043	17403.674667	634.025391	511.277435
2707.459043	17403.674667	632.800781	381.872162
2707.459043	17403.674667	631.575195	440.714874
2707.459043	17403.674667	630.349609	456.516998
2707.459043	17403.674667	629.124023	419.080536
2707.459043	17403.674667	627.898438	332.527771
2707.459043	17403.674667	626.671875	509.692474
2707.459043	17403.674667	625.445313	468.016815
2707.459043	17403.674667	624.218750	557.095764
2707.459043	17403.674667	622.992188	621.567444
2707.459043	17403.674667	621.764648	610.374878
2707.459043	17403.674667	620.537109	358.143036
2707.459043	17403.674667	619.309570	310.153625
2707.459043	17403.674667	618.081055	466.273529
2707.459043	17403.674667	616.852539	467.160095
2707.459043	17403.674667	615.624023	388.413422
2707.459043	17403.674667	614.395508	234.165894
2707.459043	17403.674667	613.166992	67.697327
2707.459043	17403.674667	611.937500	227.528824
2707.459043	17403.674667	610.708008	142.584686
2707.459043	17403.674667	609.477539	234.966080
2707.459043	17403.674667	608.248047	-9.000140
2707.459043	17403.674667	607.017578	54.754929
2707.459043	17403.674667	605.787109	53.250572
2707.459043	17403.674667	604.555664	90.393585
2707.459043	17403.674667	603.325195	155.988708
2707.459043	17403.674667	602.093750	66.786354
2707.459043	17403.674667	600.861328	65.096786
2707.459043	17403.674667	599.629883	106.102951
2707.459043	17403.674667	598.397461	79.908653
2707.459043	17403.674667	597.165039	57.752327
2707.459043	17403.674667	595.932617	35.565533
2707.459043	17403.674667	594.699219	-47.650242
2707.459043	17403.674667	593.465820	-80.048973
2707.459043	17403.674667	592.232422	-86.050575
2707.459043	17403.674667	590.999023	-209.936295
2707.459043	17403.674667	589.764648	35.920368
2707.459043	17403.674667	588.530273	125.248459
2707.459043	17403.674667	587.295898	121.097885
2707.459043	17403.674667	586.061523	129.097672
2707.459043	17403.674667	584.826172	41.661438
2707.459043	17403.674667	583.590820	92.226433
2707.459043	17403.674667	582.355469	-82.464958
2707.459043	17403.674667	581.119141	14.699142
2707.459043	17403.674667	579.882813	69.206902
2707.459043	17403.674667	578.646484	44.591808
2707.459043	17403.674667	577.410156	90.913719
2707.459043	17403.674667	576.172852	23.692749
2707.459043	17403.674667	574.935547	155.055908
2707.459043	17403.674667	573.698242	148.584625
2707.459043	17403.674667	572.460938	391.226563
2707.459043	17403.674667	571.222656	368.468658
2707.459043	17403.674667	569.984375	361.900970
2707.459043	17403.674667	568.746094	314.840363
2707.459043	17403.674667	567.506836	344.683014
2707.459043	17403.674667	566.267578	129.687027
2707.459043	17403.674667	565.028320	286.974030
2707.459043	17403.674667	563.789063	181.273087
2707.459043	17403.674667	562.548828	316.221649
2707.459043	17403.674667	561.309570	283.323853
2707.459043	17403.674667	560.068359	408.073944
2707.459043	17403.674667	558.828125	128.639084
2707.459043	17403.674667	557.586914	25.079767
2707.459043	17403.674667	556.345703	167.982452
2707.459043	17403.674667	555.104492	88.696411
2707.459043	17403.674667	553.863281	193.171570
2707.459043	17403.674667	552.621094	-166.652725
2707.459043	17403.674667	551.378906	-41.976112
2707.459043	17403.674667	550.136719	-100.948273
2707.459043	17403.674667	548.893555	237.502075
2707.459043	17403.674667	547.650391	360.025879
2707.459043	17403.674667	546.407227	242.566238
2707.459043	17403.674667	545.164063	113.078064
2707.459043	17403.674667	543.919922	148.929596
2707.459043	17403.674667	542.675781	271.432892
2707.459043	17403.674667	541.431641	311.306519
2707.459043	17403.674667	540.186523	359.240082
2707.459043	17403.674667	538.941406	523.976318
2707.459043	17403.674667	537.696289	422.910461
2707.459043	17403.674667	536.451172	442.689880
2707.459043	17403.674667	535.205078	361.865631
2707.459043	17403.674667	533.959961	353.546021
2707.459043	17403.674667	532.712891	210.478439
2707.459043	17403.674667	531.466797	242.485458
2707.459043	17403.674667	530.219727	340.867767
2707.459043	17403.674667	528.972656	167.855148
2707.459043	17403.674667	527.725586	342.669067
2707.459043	17403.674667	526.478516	356.695099
2707.459043	17403.674667	525.230469	105.565567
2707.459043	17403.674667	523.982422	143.828430
2707.459043	17403.674667	522.734375	-44.796829
2707.459043	17403.674667	521.485352	342.921844
2707.459043	17403.674667	520.236328	-48.303703
2707.459043	17403.674667	518.987305	-214.538223
2707.459043	17403.674667	517.737305	42.709225
2707.459043	17403.674667	516.488281	-101.294128
2707.459043	17403.674667	515.238281	-207.072952
2707.459043	17403.674667	513.988281	-230.535873
2707.459043	17403.674667	512.737305	-29.401810
2707.459043	17403.674667	511.486328	-154.987747
2707.459043	17403.674667	510.235352	-212.322464
2707.459043	17403.674667	508.984375	-297.614502
2707.459043	17403.674667	507.732422	-222.564148
2707.459043	17403.674667	506.480469	-203.549271
2707.459043	17403.674667	505.228516	-182.467972
2707.459043	17403.674667	503.976563	-247.396133
2707.459043	17403.674667	502.723633	-102.092567
2707.459043	17403.674667	501.470703	-122.845726
2707.459043	17403.674667	500.217773	-103.505066
2707.459043	17403.674667	498.963867	263.896210
2707.459043	17403.674667	497.709961	47.352493
2707.459043	17403.674667	496.456055	8.902844
2707.459043	17403.674667	495.202148	-17.457706
2707.459043	17403.674667	493.947266	-59.714520
2707.459043	17403.674667	492.692383	227.770844
2707.459043	17403.674667	491.437500	171.663132
2707.459043	17403.674667	490.181641	57.749439
2707.459043	17403.674667	488.926758	129.649780
2707.459043	17403.674667	487.670898	-63.880745
2707.459043	17403.674667	486.414063	185.795166
2707.459043	17403.674667	485.158203	72.316399
2707.459043	17403.674667	483.901367	94.618874
2707.459043	17403.674667	482.644531	7.305638
2707.459043	17403.674667	481.386719	-51.970154
2707.459043	17403.674667	480.128906	70.277016
2707.459043	17403.674667	478.871094	-66.544868
2707.459043	17403.674667	477.613281	-27.867786
2707.459043	17403.674667	476.355469	-40.919735
2707.459043	17403.674667	475.096680	-163.431564
2707.459043	17403.674667	473.837891	-116.540749
2707.459043	17403.674667	472.578125	39.914333
2707.459043	17403.674667	471.319336	228.234863
2707.459043	17403.674667	470.059570	50.377514
2707.459043	17403.674667	468.799805	159.188370
2707.459043	17403.674667	467.539063	144.698853
2707.459043	17403.674667	466.278320	120.348381
2707.459043	17403.674667	465.017578	261.118683
2707.459043	17403.674667	463.756836	320.398529
2707.459043	17403.674667	462.495117	159.109573
2707.459043	17403.674667	461.233398	349.672760
2707.459043	17403.674667	459.971680	216.399231
2707.459043	17403.674667	458.709961	41.537392
2707.459043	17403.674667	457.447266	105.108017
2707.459043	17403.674667	456.184570	228.271347
2707.459043	17403.674667	454.921875	101.337715
2707.459043	17403.674667	453.658203	280.125305
2707.459043	17403.674667	452.394531	258.493744
2707.459043	17403.674667	451.130859	437.266479
2707.459043	17403.674667	449.867188	477.178772
2707.459043	17403.674667	448.602539	295.040222
2707.459043	17403.674667	447.337891	214.113800
2707.459043	17403.674667	446.073242	115.414307
2707.459043	17403.674667	444.807617	244.655014
2707.459043	17403.674667	443.542969	118.300735
2707.459043	17403.674667	442.276367	-25.811964
2707.459043	17403.674667	441.010742	14.307137
2707.459043	17403.674667	439.744141	141.521042
2707.459043	17403.674667	438.478516	401.294373
2707.459043	17403.674667	437.210938	225.577881
2707.459043	17403.674667	435.944336	374.395752
2707.459043	17403.674667	434.676758	552.795349
2707.459043	17403.674667	433.409180	262.383118
2707.459043	17403.674667	432.141602	628.494080
2707.459043	17403.674667	430.873047	555.550049
2707.459043	17403.674667	429.604492	454.912415
2707.459043	17403.674667	428.335938	642.740417
2707.459043	17403.674667	427.067383	419.507416
2707.459043	17403.674667	425.797852	429.345520
2707.459043	17403.674667	424.528320	539.792603
2707.459043	17403.674667	423.258789	355.929291
2707.459043	17403.674667	421.988281	359.539673
2707.459043	17403.674667	420.717773	378.810120
2707.459043	17403.674667	419.447266	350.584625
2707.459043	17403.674667	418.175781	412.956390
2707.459043	17403.674667	416.905273	248.351654
2707.459043	17403.674667	415.633789	336.014313
2707.459043	17403.674667	414.362305	317.006073
2707.459043	17403.674667	413.089844	309.626709
2707.459043	17403.674667	411.817383	485.279999
2707.459043	17403.674667	410.544922	518.790283
2707.459043	17403.674667	409.272461	532.346802
2707.459043	17403.674667	407.999023	368.415558
2707.459043	17403.674667	406.725586	487.765289
2707.459043	17403.674667	405.452148	366.645081
2707.459043	17403.674667	404.177734	644.727844
2707.459043	17403.674667	402.903320	495.439453
2707.459043	17403.674667	401.628906	473.719818
2707.459043	17403.674667	400.354492	408.380371
2707.459043	17403.674667	399.079102	368.239075
2707.459043	17403.674667	397.803711	429.923706
2707.459043	17403.674667	396.528320	280.872803
2707.459043	17403.674667	395.251953	481.172089
2707.459043	17403.674667	393.976563	498.230713
2707.459043	17403.674667	392.700195	446.045105
2707.459043	17403.674667	391.422852	579.895813
2707.459043	17403.674667	390.145508	375.491852
2707.459043	17403.674667	388.869141	590.634888
2707.459043	17403.674667	387.590820	422.437225
2707.459043	17403.674667	386.313477	414.574860
2707.459043	17403.674667	385.035156	484.520355
2707.459043	17403.674667	383.756836	332.173615
2707.459043	17403.674667	382.478516	592.870117
2707.459043	17403.674667	381.199219	519.493408
2707.459043	17403.674667	379.919922	508.098938
2707.459043	17403.674667	378.640625	425.386902
2707.459043	17403.674667	377.360352	332.083374
2707.459043	17403.674667	376.080078	380.930542
2707.459043	17403.674667	374.799805	280.060730
2707.459043	17403.674667	373.519531	423.010773
2707.459043	17403.674667	372.238281	333.984955
2707.459043	17403.674667	370.957031	93.336876
2707.459043	17403.674667	369.675781	82.606514
2707.459043	17403.674667	368.394531	201.856445
2707.459043	17403.674667	367.112305	202.603394
2707.459043	17403.674667	365.830078	37.983471
2707.459043	17403.674667	364.546875	50.094593
2707.459043	17403.674667	363.264648	6.274456
2707.459043	17403.674667	361.981445	-60.310482
2707.459043	17403.674667	360.698242	-12.936778
2707.459043	17403.674667	359.414063	25.218882
2707.459043	17403.674667	358.129883	-25.912289
2707.459043	17403.674667	356.845703	-137.036636
2707.459043	17403.674667	355.561523	47.028061
2707.459043	17403.674667	354.276367	-28.125452
2707.459043	17403.674667	352.991211	-114.604263
2707.459043	17403.674667	351.706055	7.933491
2707.459043	17403.674667	350.420898	19.514061
2707.459043	17403.674667	349.134766	25.394184
2707.459043	17403.674667	347.848633	-97.238243
2707.459043	17403.674667	346.561523	-124.298836
2707.459043	17403.674667	345.275391	49.366367
2707.459043	17403.674667	343.988281	-40.079937
2707.459043	17403.674667	342.700195	92.359726
2707.459043	17403.674667	341.413086	45.492760
2707.459043	17403.674667	340.125000	95.691208
2707.459043	17403.674667	338.836914	22.961149
2707.459043	17403.674667	337.548828	6.316710
2707.459043	17403.674667	336.259766	302.375031
2707.459043	17403.674667	334.970703	169.935776
2707.459043	17403.674667	333.681641	369.461853
2707.459043	17403.674667	332.391602	426.282745
2707.459043	17403.674667	331.101563	565.919800
2707.459043	17403.674667	329.811523	448.196442
2707.459043	17403.674667	328.521484	255.818359
2707.459043	17403.674667	327.230469	213.992966
2707.459043	17403.674667	325.939453	361.438477
2707.459043	17403.674667	324.648438	183.471832
2707.459043	17403.674667	323.356445	70.292358
2707.459043	17403.674667	322.064453	120.805267
2707.459043	17403.674667	320.772461	266.910217
2707.459043	17403.674667	319.480469	-246.095428
2707.459043	17403.674667	318.187500	36.521141
2707.459043	17403.674667	316.894531	-14.205370
2707.459043	17403.674667	315.601563	55.446526
2707.459043	17403.674667	314.307617	206.450500
2707.459043	17403.674667	313.013672	-53.413322
2707.459043	17403.674667	311.719727	76.078506
2707.459043	17403.674667	310.425781	-73.614197
2707.459043	17403.674667	309.130859	-167.530060
2707.459043	17403.674667	307.835938	131.131271
2707.459043	17403.674667	306.541016	-134.128784
2707.459043	17403.674667	305.245117	-266.539948
2707.459043	17403.674667	303.949219	12.387754
2707.459043	17403.674667	302.653320	-133.311691
2707.459043	17403.674667	301.356445	42.841156
2707.459043	17403.674667	300.060547	283.618683
2707.459043	17403.674667	298.763672	437.836945
