#X		#Y		#Wave		#Intensity
2853.937447	17455.964000	2000.043945	31.444981
2853.937447	17455.964000	1999.080078	82.060196
2853.937447	17455.964000	1998.116211	21.863556
2853.937447	17455.964000	1997.151367	8.922055
2853.937447	17455.964000	1996.186523	95.241859
2853.937447	17455.964000	1995.222656	-318.725098
2853.937447	17455.964000	1994.256836	-197.419907
2853.937447	17455.964000	1993.291992	20.558464
2853.937447	17455.964000	1992.327148	104.894798
2853.937447	17455.964000	1991.361328	199.229584
2853.937447	17455.964000	1990.395508	90.712997
2853.937447	17455.964000	1989.429688	91.239334
2853.937447	17455.964000	1988.463867	-83.768723
2853.937447	17455.964000	1987.497070	6.078090
2853.937447	17455.964000	1986.531250	-64.742073
2853.937447	17455.964000	1985.564453	7.989091
2853.937447	17455.964000	1984.597656	-18.083569
2853.937447	17455.964000	1983.630859	54.831062
2853.937447	17455.964000	1982.664063	-69.877220
2853.937447	17455.964000	1981.696289	57.584152
2853.937447	17455.964000	1980.728516	-158.279877
2853.937447	17455.964000	1979.761719	43.447418
2853.937447	17455.964000	1978.792969	94.556168
2853.937447	17455.964000	1977.825195	-73.998909
2853.937447	17455.964000	1976.857422	4.450174
2853.937447	17455.964000	1975.888672	-45.381287
2853.937447	17455.964000	1974.919922	80.090431
2853.937447	17455.964000	1973.951172	-87.991547
2853.937447	17455.964000	1972.982422	239.873383
2853.937447	17455.964000	1972.013672	145.971008
2853.937447	17455.964000	1971.043945	42.315071
2853.937447	17455.964000	1970.075195	71.900734
2853.937447	17455.964000	1969.105469	-31.556553
2853.937447	17455.964000	1968.135742	57.318611
2853.937447	17455.964000	1967.165039	87.093140
2853.937447	17455.964000	1966.195313	-1.323201
2853.937447	17455.964000	1965.224609	100.009361
2853.937447	17455.964000	1964.253906	90.551056
2853.937447	17455.964000	1963.283203	19.603622
2853.937447	17455.964000	1962.312500	116.131912
2853.937447	17455.964000	1961.341797	146.229736
2853.937447	17455.964000	1960.370117	41.030067
2853.937447	17455.964000	1959.399414	51.555344
2853.937447	17455.964000	1958.427734	-48.564167
2853.937447	17455.964000	1957.455078	89.960930
2853.937447	17455.964000	1956.483398	-91.175323
2853.937447	17455.964000	1955.511719	40.023613
2853.937447	17455.964000	1954.539063	-32.795135
2853.937447	17455.964000	1953.566406	41.908440
2853.937447	17455.964000	1952.593750	-178.224747
2853.937447	17455.964000	1951.621094	-39.569355
2853.937447	17455.964000	1950.647461	-13.911603
2853.937447	17455.964000	1949.674805	-17.696518
2853.937447	17455.964000	1948.701172	49.757126
2853.937447	17455.964000	1947.727539	60.758762
2853.937447	17455.964000	1946.753906	22.701414
2853.937447	17455.964000	1945.780273	87.751556
2853.937447	17455.964000	1944.805664	-200.486069
2853.937447	17455.964000	1943.831055	-47.056545
2853.937447	17455.964000	1942.856445	79.364845
2853.937447	17455.964000	1941.881836	-17.372719
2853.937447	17455.964000	1940.907227	-138.567490
2853.937447	17455.964000	1939.932617	46.697121
2853.937447	17455.964000	1938.957031	158.393311
2853.937447	17455.964000	1937.981445	98.551125
2853.937447	17455.964000	1937.005859	-73.940140
2853.937447	17455.964000	1936.030273	-62.653057
2853.937447	17455.964000	1935.054688	71.088806
2853.937447	17455.964000	1934.078125	141.136719
2853.937447	17455.964000	1933.101563	83.878151
2853.937447	17455.964000	1932.125000	175.949539
2853.937447	17455.964000	1931.148438	108.939499
2853.937447	17455.964000	1930.171875	-87.704918
2853.937447	17455.964000	1929.194336	33.728012
2853.937447	17455.964000	1928.217773	-89.445572
2853.937447	17455.964000	1927.240234	-109.867386
2853.937447	17455.964000	1926.262695	-237.846237
2853.937447	17455.964000	1925.284180	-74.901772
2853.937447	17455.964000	1924.306641	61.100521
2853.937447	17455.964000	1923.328125	116.422318
2853.937447	17455.964000	1922.350586	125.307526
2853.937447	17455.964000	1921.372070	36.489525
2853.937447	17455.964000	1920.392578	23.405716
2853.937447	17455.964000	1919.414063	32.296116
2853.937447	17455.964000	1918.434570	-110.168358
2853.937447	17455.964000	1917.456055	-76.858971
2853.937447	17455.964000	1916.476563	19.876631
2853.937447	17455.964000	1915.497070	-5.417706
2853.937447	17455.964000	1914.516602	57.103687
2853.937447	17455.964000	1913.537109	14.720997
2853.937447	17455.964000	1912.556641	-110.559921
2853.937447	17455.964000	1911.576172	-118.785988
2853.937447	17455.964000	1910.595703	-41.710148
2853.937447	17455.964000	1909.615234	108.433220
2853.937447	17455.964000	1908.633789	78.201668
2853.937447	17455.964000	1907.653320	130.792572
2853.937447	17455.964000	1906.671875	-69.959213
2853.937447	17455.964000	1905.690430	55.662201
2853.937447	17455.964000	1904.708984	-125.558975
2853.937447	17455.964000	1903.727539	4.855811
2853.937447	17455.964000	1902.745117	84.091980
2853.937447	17455.964000	1901.762695	-111.694046
2853.937447	17455.964000	1900.780273	-251.470963
2853.937447	17455.964000	1899.797852	-9.323659
2853.937447	17455.964000	1898.815430	77.060417
2853.937447	17455.964000	1897.832031	212.018951
2853.937447	17455.964000	1896.849609	123.239075
2853.937447	17455.964000	1895.866211	-62.759197
2853.937447	17455.964000	1894.882813	33.186604
2853.937447	17455.964000	1893.898438	85.332039
2853.937447	17455.964000	1892.915039	64.550034
2853.937447	17455.964000	1891.930664	21.885775
2853.937447	17455.964000	1890.947266	86.053131
2853.937447	17455.964000	1889.962891	70.044449
2853.937447	17455.964000	1888.977539	-149.898071
2853.937447	17455.964000	1887.993164	-63.990040
2853.937447	17455.964000	1887.007813	165.017532
2853.937447	17455.964000	1886.023438	8.154305
2853.937447	17455.964000	1885.038086	16.256042
2853.937447	17455.964000	1884.051758	337.167511
2853.937447	17455.964000	1883.066406	66.283798
2853.937447	17455.964000	1882.081055	54.861221
2853.937447	17455.964000	1881.094727	94.303368
2853.937447	17455.964000	1880.108398	160.345535
2853.937447	17455.964000	1879.122070	134.250580
2853.937447	17455.964000	1878.135742	91.166100
2853.937447	17455.964000	1877.148438	86.805130
2853.937447	17455.964000	1876.162109	-2.352644
2853.937447	17455.964000	1875.174805	-33.415573
2853.937447	17455.964000	1874.187500	51.678074
2853.937447	17455.964000	1873.199219	-146.471161
2853.937447	17455.964000	1872.211914	74.023041
2853.937447	17455.964000	1871.223633	6.489473
2853.937447	17455.964000	1870.236328	113.088074
2853.937447	17455.964000	1869.248047	-51.262688
2853.937447	17455.964000	1868.258789	217.205780
2853.937447	17455.964000	1867.270508	-138.186127
2853.937447	17455.964000	1866.282227	-39.097786
2853.937447	17455.964000	1865.292969	-46.430019
2853.937447	17455.964000	1864.303711	-7.906711
2853.937447	17455.964000	1863.314453	23.298512
2853.937447	17455.964000	1862.324219	-8.358867
2853.937447	17455.964000	1861.334961	-40.061699
2853.937447	17455.964000	1860.344727	46.490372
2853.937447	17455.964000	1859.354492	-16.706539
2853.937447	17455.964000	1858.364258	200.013809
2853.937447	17455.964000	1857.374023	129.453384
2853.937447	17455.964000	1856.383789	99.870239
2853.937447	17455.964000	1855.392578	-6.949471
2853.937447	17455.964000	1854.401367	30.903749
2853.937447	17455.964000	1853.410156	42.156700
2853.937447	17455.964000	1852.418945	-100.941353
2853.937447	17455.964000	1851.426758	-17.491209
2853.937447	17455.964000	1850.435547	114.058029
2853.937447	17455.964000	1849.443359	74.430244
2853.937447	17455.964000	1848.451172	58.837078
2853.937447	17455.964000	1847.458984	19.099104
2853.937447	17455.964000	1846.466797	34.690212
2853.937447	17455.964000	1845.473633	129.651810
2853.937447	17455.964000	1844.480469	5.465344
2853.937447	17455.964000	1843.487305	150.794174
2853.937447	17455.964000	1842.494141	117.941292
2853.937447	17455.964000	1841.500977	3.235110
2853.937447	17455.964000	1840.506836	261.309479
2853.937447	17455.964000	1839.513672	33.447273
2853.937447	17455.964000	1838.519531	137.391434
2853.937447	17455.964000	1837.525391	123.431534
2853.937447	17455.964000	1836.530273	145.450165
2853.937447	17455.964000	1835.536133	241.878265
2853.937447	17455.964000	1834.541016	59.496296
2853.937447	17455.964000	1833.545898	-5.193960
2853.937447	17455.964000	1832.550781	66.954292
2853.937447	17455.964000	1831.555664	138.994110
2853.937447	17455.964000	1830.560547	-72.357399
2853.937447	17455.964000	1829.564453	-38.886112
2853.937447	17455.964000	1828.568359	126.479500
2853.937447	17455.964000	1827.572266	-156.979965
2853.937447	17455.964000	1826.576172	-109.366692
2853.937447	17455.964000	1825.580078	175.592102
2853.937447	17455.964000	1824.583008	182.186340
2853.937447	17455.964000	1823.585938	-84.627266
2853.937447	17455.964000	1822.588867	101.624283
2853.937447	17455.964000	1821.591797	223.008743
2853.937447	17455.964000	1820.594727	51.924911
2853.937447	17455.964000	1819.596680	113.201363
2853.937447	17455.964000	1818.599609	18.675135
2853.937447	17455.964000	1817.601563	-135.780258
2853.937447	17455.964000	1816.603516	-79.561012
2853.937447	17455.964000	1815.604492	53.148449
2853.937447	17455.964000	1814.606445	94.766907
2853.937447	17455.964000	1813.607422	239.174042
2853.937447	17455.964000	1812.608398	-28.089439
2853.937447	17455.964000	1811.609375	104.139954
2853.937447	17455.964000	1810.610352	85.550148
2853.937447	17455.964000	1809.610352	-9.652197
2853.937447	17455.964000	1808.611328	62.445969
2853.937447	17455.964000	1807.611328	72.267235
2853.937447	17455.964000	1806.611328	41.360695
2853.937447	17455.964000	1805.610352	-37.424763
2853.937447	17455.964000	1804.610352	29.453579
2853.937447	17455.964000	1803.609375	-75.769897
2853.937447	17455.964000	1802.608398	-121.350410
2853.937447	17455.964000	1801.607422	200.678345
2853.937447	17455.964000	1800.606445	-62.367741
2853.937447	17455.964000	1799.605469	-10.370981
2853.937447	17455.964000	1798.603516	36.727840
2853.937447	17455.964000	1797.601563	-152.488098
2853.937447	17455.964000	1796.599609	-174.759491
2853.937447	17455.964000	1795.597656	12.746204
2853.937447	17455.964000	1794.595703	104.699425
2853.937447	17455.964000	1793.592773	103.531006
2853.937447	17455.964000	1792.589844	90.342232
2853.937447	17455.964000	1791.587891	29.396891
2853.937447	17455.964000	1790.583984	20.774931
2853.937447	17455.964000	1789.581055	-135.638626
2853.937447	17455.964000	1788.577148	-15.824095
2853.937447	17455.964000	1787.574219	51.456039
2853.937447	17455.964000	1786.570313	182.879257
2853.937447	17455.964000	1785.566406	-114.324463
2853.937447	17455.964000	1784.561523	-99.759323
2853.937447	17455.964000	1783.557617	19.396074
2853.937447	17455.964000	1782.552734	19.437563
2853.937447	17455.964000	1781.547852	64.563316
2853.937447	17455.964000	1780.542969	-66.420372
2853.937447	17455.964000	1779.538086	37.925617
2853.937447	17455.964000	1778.532227	104.077583
2853.937447	17455.964000	1777.527344	113.059372
2853.937447	17455.964000	1776.521484	-113.339256
2853.937447	17455.964000	1775.515625	99.772934
2853.937447	17455.964000	1774.508789	8.629674
2853.937447	17455.964000	1773.502930	-32.709167
2853.937447	17455.964000	1772.496094	65.943810
2853.937447	17455.964000	1771.489258	-101.451347
2853.937447	17455.964000	1770.482422	37.300400
2853.937447	17455.964000	1769.475586	-82.790436
2853.937447	17455.964000	1768.467773	-91.439941
2853.937447	17455.964000	1767.460938	-0.558584
2853.937447	17455.964000	1766.453125	78.306412
2853.937447	17455.964000	1765.445313	-42.169369
2853.937447	17455.964000	1764.437500	-84.475388
2853.937447	17455.964000	1763.428711	8.226474
2853.937447	17455.964000	1762.420898	105.526878
2853.937447	17455.964000	1761.412109	-17.706421
2853.937447	17455.964000	1760.403320	-126.794319
2853.937447	17455.964000	1759.393555	-105.691086
2853.937447	17455.964000	1758.384766	-51.548317
2853.937447	17455.964000	1757.375000	172.924744
2853.937447	17455.964000	1756.366211	37.373825
2853.937447	17455.964000	1755.356445	79.261147
2853.937447	17455.964000	1754.345703	0.316746
2853.937447	17455.964000	1753.335938	41.958527
2853.937447	17455.964000	1752.325195	62.166634
2853.937447	17455.964000	1751.315430	79.892632
2853.937447	17455.964000	1750.304688	-34.934528
2853.937447	17455.964000	1749.292969	-22.183401
2853.937447	17455.964000	1748.282227	-14.272809
2853.937447	17455.964000	1747.270508	19.500948
2853.937447	17455.964000	1746.259766	-145.322495
2853.937447	17455.964000	1745.248047	-118.862099
2853.937447	17455.964000	1744.235352	202.694290
2853.937447	17455.964000	1743.223633	-47.450882
2853.937447	17455.964000	1742.211914	-111.101860
2853.937447	17455.964000	1741.199219	47.033340
2853.937447	17455.964000	1740.186523	115.303230
2853.937447	17455.964000	1739.173828	4.095563
2853.937447	17455.964000	1738.160156	57.941296
2853.937447	17455.964000	1737.147461	-62.888355
2853.937447	17455.964000	1736.133789	-61.171482
2853.937447	17455.964000	1735.120117	22.948835
2853.937447	17455.964000	1734.106445	144.636780
2853.937447	17455.964000	1733.091797	-49.685577
2853.937447	17455.964000	1732.078125	-126.215591
2853.937447	17455.964000	1731.063477	228.307632
2853.937447	17455.964000	1730.048828	3.100044
2853.937447	17455.964000	1729.034180	124.065125
2853.937447	17455.964000	1728.019531	-150.724670
2853.937447	17455.964000	1727.003906	17.057423
2853.937447	17455.964000	1725.988281	15.182494
2853.937447	17455.964000	1724.972656	-5.637313
2853.937447	17455.964000	1723.957031	-61.860748
2853.937447	17455.964000	1722.941406	-49.961189
2853.937447	17455.964000	1721.924805	326.362244
2853.937447	17455.964000	1720.909180	199.205719
2853.937447	17455.964000	1719.892578	71.966591
2853.937447	17455.964000	1718.875977	26.930447
2853.937447	17455.964000	1717.858398	129.842133
2853.937447	17455.964000	1716.841797	37.581944
2853.937447	17455.964000	1715.824219	69.738777
2853.937447	17455.964000	1714.806641	327.255951
2853.937447	17455.964000	1713.789063	72.607437
2853.937447	17455.964000	1712.770508	99.679230
2853.937447	17455.964000	1711.752930	93.773636
2853.937447	17455.964000	1710.734375	456.226593
2853.937447	17455.964000	1709.715820	140.258408
2853.937447	17455.964000	1708.697266	119.911438
2853.937447	17455.964000	1707.678711	-85.852905
2853.937447	17455.964000	1706.659180	200.834183
2853.937447	17455.964000	1705.640625	285.660126
2853.937447	17455.964000	1704.621094	46.804413
2853.937447	17455.964000	1703.600586	84.491852
2853.937447	17455.964000	1702.581055	220.491562
2853.937447	17455.964000	1701.561523	332.897797
2853.937447	17455.964000	1700.541016	194.480225
2853.937447	17455.964000	1699.520508	196.529602
2853.937447	17455.964000	1698.500000	245.300369
2853.937447	17455.964000	1697.478516	467.174225
2853.937447	17455.964000	1696.458008	239.445038
2853.937447	17455.964000	1695.436523	407.188995
2853.937447	17455.964000	1694.415039	286.956268
2853.937447	17455.964000	1693.393555	297.669281
2853.937447	17455.964000	1692.372070	268.506409
2853.937447	17455.964000	1691.349609	342.125214
2853.937447	17455.964000	1690.327148	555.892639
2853.937447	17455.964000	1689.304688	502.983154
2853.937447	17455.964000	1688.282227	454.663055
2853.937447	17455.964000	1687.259766	761.435974
2853.937447	17455.964000	1686.236328	696.503906
2853.937447	17455.964000	1685.213867	603.481384
2853.937447	17455.964000	1684.190430	725.225830
2853.937447	17455.964000	1683.166016	650.671326
2853.937447	17455.964000	1682.142578	765.151611
2853.937447	17455.964000	1681.119141	662.424255
2853.937447	17455.964000	1680.094727	923.652893
2853.937447	17455.964000	1679.070313	1033.028809
2853.937447	17455.964000	1678.045898	1072.283325
2853.937447	17455.964000	1677.020508	866.523865
2853.937447	17455.964000	1675.996094	805.333618
2853.937447	17455.964000	1674.970703	1135.710938
2853.937447	17455.964000	1673.945313	1193.154541
2853.937447	17455.964000	1672.919922	1059.385864
2853.937447	17455.964000	1671.893555	1046.714355
2853.937447	17455.964000	1670.868164	1213.343872
2853.937447	17455.964000	1669.841797	1235.396240
2853.937447	17455.964000	1668.815430	1075.714355
2853.937447	17455.964000	1667.789063	1071.990479
2853.937447	17455.964000	1666.761719	1117.040283
2853.937447	17455.964000	1665.735352	1087.529785
2853.937447	17455.964000	1664.708008	1244.067383
2853.937447	17455.964000	1663.680664	1337.644531
2853.937447	17455.964000	1662.653320	1393.883301
2853.937447	17455.964000	1661.625000	1496.503662
2853.937447	17455.964000	1660.597656	1254.915283
2853.937447	17455.964000	1659.569336	1380.598999
2853.937447	17455.964000	1658.541016	1450.371948
2853.937447	17455.964000	1657.512695	1406.174683
2853.937447	17455.964000	1656.483398	1354.923950
2853.937447	17455.964000	1655.455078	1503.389648
2853.937447	17455.964000	1654.425781	1482.169189
2853.937447	17455.964000	1653.396484	1467.843750
2853.937447	17455.964000	1652.366211	1518.426636
2853.937447	17455.964000	1651.336914	1838.165894
2853.937447	17455.964000	1650.306641	1684.298096
2853.937447	17455.964000	1649.276367	1922.508057
2853.937447	17455.964000	1648.246094	2023.693726
2853.937447	17455.964000	1647.215820	2089.979980
2853.937447	17455.964000	1646.185547	1982.264526
2853.937447	17455.964000	1645.154297	2192.105225
2853.937447	17455.964000	1644.123047	2114.383057
2853.937447	17455.964000	1643.091797	2113.095947
2853.937447	17455.964000	1642.060547	2102.474609
2853.937447	17455.964000	1641.028320	2154.316162
2853.937447	17455.964000	1639.997070	2011.545532
2853.937447	17455.964000	1638.964844	2417.541016
2853.937447	17455.964000	1637.931641	2267.662598
2853.937447	17455.964000	1636.899414	2201.128906
2853.937447	17455.964000	1635.867188	2250.273926
2853.937447	17455.964000	1634.833984	2167.432617
2853.937447	17455.964000	1633.800781	1941.138550
2853.937447	17455.964000	1632.767578	2205.209473
2853.937447	17455.964000	1631.734375	2221.691650
2853.937447	17455.964000	1630.700195	2214.970459
2853.937447	17455.964000	1629.666016	2342.269287
2853.937447	17455.964000	1628.631836	2279.956543
2853.937447	17455.964000	1627.597656	2058.182129
2853.937447	17455.964000	1626.563477	2333.138672
2853.937447	17455.964000	1625.528320	2356.156006
2853.937447	17455.964000	1624.493164	2455.323486
2853.937447	17455.964000	1623.458008	2351.228027
2853.937447	17455.964000	1622.422852	2487.203369
2853.937447	17455.964000	1621.387695	2223.805908
2853.937447	17455.964000	1620.351563	2472.715820
2853.937447	17455.964000	1619.315430	2527.693848
2853.937447	17455.964000	1618.279297	2319.659668
2853.937447	17455.964000	1617.243164	2409.161865
2853.937447	17455.964000	1616.207031	2505.511230
2853.937447	17455.964000	1615.169922	2564.882080
2853.937447	17455.964000	1614.132813	2354.533203
2853.937447	17455.964000	1613.095703	2697.281494
2853.937447	17455.964000	1612.058594	2556.042969
2853.937447	17455.964000	1611.020508	2458.573975
2853.937447	17455.964000	1609.983398	2642.105713
2853.937447	17455.964000	1608.945313	2689.664551
2853.937447	17455.964000	1607.907227	2711.857666
2853.937447	17455.964000	1606.868164	3005.593506
2853.937447	17455.964000	1605.830078	2845.872070
2853.937447	17455.964000	1604.791016	2748.291748
2853.937447	17455.964000	1603.751953	2912.967773
2853.937447	17455.964000	1602.712891	2783.175781
2853.937447	17455.964000	1601.673828	2867.265869
2853.937447	17455.964000	1600.633789	2728.284424
2853.937447	17455.964000	1599.594727	2724.978271
2853.937447	17455.964000	1598.554688	2684.870850
2853.937447	17455.964000	1597.513672	2950.331055
2853.937447	17455.964000	1596.473633	2894.093994
2853.937447	17455.964000	1595.433594	3028.501953
2853.937447	17455.964000	1594.392578	2749.494385
2853.937447	17455.964000	1593.351563	2904.506104
2853.937447	17455.964000	1592.310547	3213.246094
2853.937447	17455.964000	1591.268555	2755.330322
2853.937447	17455.964000	1590.227539	2889.592529
2853.937447	17455.964000	1589.185547	2776.026123
2853.937447	17455.964000	1588.143555	2850.582031
2853.937447	17455.964000	1587.100586	2780.623047
2853.937447	17455.964000	1586.058594	2758.865479
2853.937447	17455.964000	1585.015625	2849.422363
2853.937447	17455.964000	1583.972656	2701.605713
2853.937447	17455.964000	1582.929688	2734.872070
2853.937447	17455.964000	1581.886719	2972.031738
2853.937447	17455.964000	1580.843750	2625.041260
2853.937447	17455.964000	1579.799805	2781.984131
2853.937447	17455.964000	1578.755859	2666.424561
2853.937447	17455.964000	1577.711914	2592.131592
2853.937447	17455.964000	1576.666992	2863.454590
2853.937447	17455.964000	1575.623047	2885.299072
2853.937447	17455.964000	1574.578125	2966.618408
2853.937447	17455.964000	1573.533203	2622.487793
2853.937447	17455.964000	1572.488281	3021.752930
2853.937447	17455.964000	1571.443359	2654.934570
2853.937447	17455.964000	1570.397461	2884.909912
2853.937447	17455.964000	1569.351563	2586.867432
2853.937447	17455.964000	1568.305664	2469.496338
2853.937447	17455.964000	1567.259766	2459.583496
2853.937447	17455.964000	1566.213867	2177.892090
2853.937447	17455.964000	1565.166992	2387.330322
2853.937447	17455.964000	1564.120117	2436.893799
2853.937447	17455.964000	1563.073242	2205.691162
2853.937447	17455.964000	1562.026367	2360.343262
2853.937447	17455.964000	1560.978516	2455.627930
2853.937447	17455.964000	1559.930664	2092.340576
2853.937447	17455.964000	1558.883789	2044.046997
2853.937447	17455.964000	1557.834961	2187.348389
2853.937447	17455.964000	1556.787109	2109.492188
2853.937447	17455.964000	1555.739258	2020.318481
2853.937447	17455.964000	1554.690430	1938.050781
2853.937447	17455.964000	1553.641602	1985.761841
2853.937447	17455.964000	1552.592773	1555.054810
2853.937447	17455.964000	1551.542969	1766.925659
2853.937447	17455.964000	1550.494141	1489.139282
2853.937447	17455.964000	1549.444336	1628.196533
2853.937447	17455.964000	1548.394531	1637.497559
2853.937447	17455.964000	1547.344727	1341.860962
2853.937447	17455.964000	1546.293945	1665.367065
2853.937447	17455.964000	1545.244141	1581.570190
2853.937447	17455.964000	1544.193359	1263.554077
2853.937447	17455.964000	1543.142578	1214.103882
2853.937447	17455.964000	1542.090820	1162.452393
2853.937447	17455.964000	1541.040039	1406.460938
2853.937447	17455.964000	1539.988281	1114.006836
2853.937447	17455.964000	1538.936523	1067.177734
2853.937447	17455.964000	1537.884766	1124.962402
2853.937447	17455.964000	1536.833008	1144.186646
2853.937447	17455.964000	1535.780273	1013.567993
2853.937447	17455.964000	1534.727539	951.207581
2853.937447	17455.964000	1533.674805	723.225037
2853.937447	17455.964000	1532.622070	901.721436
2853.937447	17455.964000	1531.569336	653.588928
2853.937447	17455.964000	1530.515625	664.286865
2853.937447	17455.964000	1529.461914	715.904053
2853.937447	17455.964000	1528.408203	797.079590
2853.937447	17455.964000	1527.354492	565.388245
2853.937447	17455.964000	1526.299805	698.878601
2853.937447	17455.964000	1525.246094	474.292053
2853.937447	17455.964000	1524.191406	580.749695
2853.937447	17455.964000	1523.136719	598.899292
2853.937447	17455.964000	1522.081055	281.852325
2853.937447	17455.964000	1521.026367	452.010437
2853.937447	17455.964000	1519.970703	275.725098
2853.937447	17455.964000	1518.915039	206.025406
2853.937447	17455.964000	1517.859375	530.323975
2853.937447	17455.964000	1516.802734	519.643860
2853.937447	17455.964000	1515.747070	325.820251
2853.937447	17455.964000	1514.690430	338.032776
2853.937447	17455.964000	1513.633789	402.375397
2853.937447	17455.964000	1512.577148	77.860321
2853.937447	17455.964000	1511.519531	325.578522
2853.937447	17455.964000	1510.461914	306.585602
2853.937447	17455.964000	1509.405273	30.098696
2853.937447	17455.964000	1508.346680	113.078247
2853.937447	17455.964000	1507.289063	26.732603
2853.937447	17455.964000	1506.231445	137.048477
2853.937447	17455.964000	1505.172852	109.681076
2853.937447	17455.964000	1504.114258	44.069931
2853.937447	17455.964000	1503.055664	116.310143
2853.937447	17455.964000	1501.996094	256.342407
2853.937447	17455.964000	1500.937500	-0.659778
2853.937447	17455.964000	1499.877930	26.808756
2853.937447	17455.964000	1498.818359	-20.030872
2853.937447	17455.964000	1497.757813	-66.730637
2853.937447	17455.964000	1496.698242	-99.730438
2853.937447	17455.964000	1495.637695	11.673198
2853.937447	17455.964000	1494.577148	-223.898788
2853.937447	17455.964000	1493.516602	-94.204910
2853.937447	17455.964000	1492.456055	-81.567154
2853.937447	17455.964000	1491.394531	196.976944
2853.937447	17455.964000	1490.333008	-123.456169
2853.937447	17455.964000	1489.271484	168.788055
2853.937447	17455.964000	1488.209961	-22.906376
2853.937447	17455.964000	1487.148438	222.238113
2853.937447	17455.964000	1486.085938	298.662201
2853.937447	17455.964000	1485.023438	210.981567
2853.937447	17455.964000	1483.960938	168.475693
2853.937447	17455.964000	1482.898438	148.632095
2853.937447	17455.964000	1481.834961	68.238655
2853.937447	17455.964000	1480.772461	226.335434
2853.937447	17455.964000	1479.708984	215.948425
2853.937447	17455.964000	1478.644531	68.675865
2853.937447	17455.964000	1477.581055	191.203354
2853.937447	17455.964000	1476.517578	-20.755171
2853.937447	17455.964000	1475.453125	146.990433
2853.937447	17455.964000	1474.388672	175.655792
2853.937447	17455.964000	1473.323242	260.667694
2853.937447	17455.964000	1472.258789	258.235474
2853.937447	17455.964000	1471.193359	341.050598
2853.937447	17455.964000	1470.127930	307.517487
2853.937447	17455.964000	1469.062500	447.003387
2853.937447	17455.964000	1467.997070	171.802231
2853.937447	17455.964000	1466.930664	428.007690
2853.937447	17455.964000	1465.865234	612.115234
2853.937447	17455.964000	1464.798828	644.612122
2853.937447	17455.964000	1463.731445	728.925537
2853.937447	17455.964000	1462.665039	718.616394
2853.937447	17455.964000	1461.597656	901.504883
2853.937447	17455.964000	1460.530273	715.293701
2853.937447	17455.964000	1459.462891	779.680908
2853.937447	17455.964000	1458.395508	879.862793
2853.937447	17455.964000	1457.327148	1138.522339
2853.937447	17455.964000	1456.259766	1060.503296
2853.937447	17455.964000	1455.191406	1000.202209
2853.937447	17455.964000	1454.123047	911.601807
2853.937447	17455.964000	1453.053711	1142.469727
2853.937447	17455.964000	1451.985352	853.453064
2853.937447	17455.964000	1450.916016	848.748413
2853.937447	17455.964000	1449.846680	967.628845
2853.937447	17455.964000	1448.776367	975.571594
2853.937447	17455.964000	1447.707031	885.857056
2853.937447	17455.964000	1446.636719	789.187134
2853.937447	17455.964000	1445.566406	873.654358
2853.937447	17455.964000	1444.496094	805.212646
2853.937447	17455.964000	1443.425781	608.802063
2853.937447	17455.964000	1442.354492	432.768066
2853.937447	17455.964000	1441.283203	391.616516
2853.937447	17455.964000	1440.211914	282.357819
2853.937447	17455.964000	1439.140625	337.830475
2853.937447	17455.964000	1438.069336	191.677689
2853.937447	17455.964000	1436.997070	241.509399
2853.937447	17455.964000	1435.924805	179.316803
2853.937447	17455.964000	1434.852539	161.702026
2853.937447	17455.964000	1433.780273	316.665619
2853.937447	17455.964000	1432.707031	175.111176
2853.937447	17455.964000	1431.633789	385.277161
2853.937447	17455.964000	1430.560547	30.977524
2853.937447	17455.964000	1429.487305	333.485229
2853.937447	17455.964000	1428.413086	215.889145
2853.937447	17455.964000	1427.339844	341.672302
2853.937447	17455.964000	1426.265625	372.445679
2853.937447	17455.964000	1425.191406	451.085236
2853.937447	17455.964000	1424.116211	280.534973
2853.937447	17455.964000	1423.041992	325.279266
2853.937447	17455.964000	1421.966797	418.963837
2853.937447	17455.964000	1420.891602	344.905121
2853.937447	17455.964000	1419.816406	539.800720
2853.937447	17455.964000	1418.740234	422.042877
2853.937447	17455.964000	1417.665039	497.328766
2853.937447	17455.964000	1416.588867	461.382080
2853.937447	17455.964000	1415.512695	454.686279
2853.937447	17455.964000	1414.435547	649.321716
2853.937447	17455.964000	1413.359375	255.239868
2853.937447	17455.964000	1412.282227	438.079987
2853.937447	17455.964000	1411.205078	294.242584
2853.937447	17455.964000	1410.127930	334.770844
2853.937447	17455.964000	1409.049805	372.324188
2853.937447	17455.964000	1407.972656	293.396942
2853.937447	17455.964000	1406.894531	644.032593
2853.937447	17455.964000	1405.816406	602.197021
2853.937447	17455.964000	1404.737305	574.216370
2853.937447	17455.964000	1403.659180	678.815735
2853.937447	17455.964000	1402.580078	687.264771
2853.937447	17455.964000	1401.500977	587.805847
2853.937447	17455.964000	1400.421875	659.183044
2853.937447	17455.964000	1399.341797	760.789917
2853.937447	17455.964000	1398.262695	818.542847
2853.937447	17455.964000	1397.182617	890.949707
2853.937447	17455.964000	1396.102539	796.532959
2853.937447	17455.964000	1395.021484	810.889954
2853.937447	17455.964000	1393.941406	827.410095
2853.937447	17455.964000	1392.860352	684.022583
2853.937447	17455.964000	1391.779297	710.426880
2853.937447	17455.964000	1390.698242	874.675598
2853.937447	17455.964000	1389.616211	552.411804
2853.937447	17455.964000	1388.535156	881.644043
2853.937447	17455.964000	1387.453125	998.426453
2853.937447	17455.964000	1386.371094	873.461243
2853.937447	17455.964000	1385.288086	938.655945
2853.937447	17455.964000	1384.206055	896.351379
2853.937447	17455.964000	1383.123047	963.802429
2853.937447	17455.964000	1382.040039	986.835449
2853.937447	17455.964000	1380.957031	859.422852
2853.937447	17455.964000	1379.873047	1118.922241
2853.937447	17455.964000	1378.789063	982.811829
2853.937447	17455.964000	1377.705078	1070.515015
2853.937447	17455.964000	1376.621094	913.551147
2853.937447	17455.964000	1375.537109	1163.318115
2853.937447	17455.964000	1374.452148	1066.596558
2853.937447	17455.964000	1373.367188	718.119202
2853.937447	17455.964000	1372.282227	780.704041
2853.937447	17455.964000	1371.197266	683.071411
2853.937447	17455.964000	1370.112305	926.662292
2853.937447	17455.964000	1369.026367	823.421936
2853.937447	17455.964000	1367.940430	849.857727
2853.937447	17455.964000	1366.854492	830.271851
2853.937447	17455.964000	1365.767578	951.766357
2853.937447	17455.964000	1364.681641	909.710083
2853.937447	17455.964000	1363.594727	879.397583
2853.937447	17455.964000	1362.507813	851.311707
2853.937447	17455.964000	1361.419922	855.869690
2853.937447	17455.964000	1360.333008	1100.200439
2853.937447	17455.964000	1359.245117	809.963196
2853.937447	17455.964000	1358.157227	768.917480
2853.937447	17455.964000	1357.069336	859.746094
2853.937447	17455.964000	1355.981445	878.755127
2853.937447	17455.964000	1354.892578	971.394043
2853.937447	17455.964000	1353.803711	1119.626465
2853.937447	17455.964000	1352.714844	1145.666504
2853.937447	17455.964000	1351.625000	1330.315796
2853.937447	17455.964000	1350.536133	1195.510010
2853.937447	17455.964000	1349.446289	1158.552734
2853.937447	17455.964000	1348.356445	1317.560547
2853.937447	17455.964000	1347.266602	1325.938965
2853.937447	17455.964000	1346.175781	1376.303101
2853.937447	17455.964000	1345.085938	1310.817139
2853.937447	17455.964000	1343.995117	1445.485474
2853.937447	17455.964000	1342.903320	1212.096680
2853.937447	17455.964000	1341.812500	1483.072144
2853.937447	17455.964000	1340.720703	1492.803589
2853.937447	17455.964000	1339.629883	1371.352051
2853.937447	17455.964000	1338.538086	1254.467651
2853.937447	17455.964000	1337.445313	1209.650024
2853.937447	17455.964000	1336.353516	1122.878906
2853.937447	17455.964000	1335.260742	1195.456177
2853.937447	17455.964000	1334.167969	1218.966797
2853.937447	17455.964000	1333.075195	1054.898193
2853.937447	17455.964000	1331.981445	1102.638794
2853.937447	17455.964000	1330.888672	1251.686035
2853.937447	17455.964000	1329.794922	1338.804565
2853.937447	17455.964000	1328.701172	971.795105
2853.937447	17455.964000	1327.606445	988.843689
2853.937447	17455.964000	1326.512695	1178.940552
2853.937447	17455.964000	1325.417969	979.212708
2853.937447	17455.964000	1324.323242	811.653809
2853.937447	17455.964000	1323.227539	741.139709
2853.937447	17455.964000	1322.132813	977.831299
2853.937447	17455.964000	1321.037109	1083.975952
2853.937447	17455.964000	1319.941406	793.484436
2853.937447	17455.964000	1318.845703	807.859497
2853.937447	17455.964000	1317.750000	783.111694
2853.937447	17455.964000	1316.653320	597.535889
2853.937447	17455.964000	1315.556641	416.270599
2853.937447	17455.964000	1314.459961	444.277588
2853.937447	17455.964000	1313.363281	511.878754
2853.937447	17455.964000	1312.265625	509.282715
2853.937447	17455.964000	1311.167969	477.341156
2853.937447	17455.964000	1310.070313	388.792084
2853.937447	17455.964000	1308.972656	374.150818
2853.937447	17455.964000	1307.874023	414.191864
2853.937447	17455.964000	1306.776367	498.786224
2853.937447	17455.964000	1305.677734	463.296875
2853.937447	17455.964000	1304.579102	430.014984
2853.937447	17455.964000	1303.479492	366.223389
2853.937447	17455.964000	1302.380859	300.080048
2853.937447	17455.964000	1301.281250	185.109131
2853.937447	17455.964000	1300.181641	274.970367
2853.937447	17455.964000	1299.081055	75.981239
2853.937447	17455.964000	1297.981445	225.946976
2853.937447	17455.964000	1296.880859	45.687744
2853.937447	17455.964000	1295.780273	131.494476
2853.937447	17455.964000	1294.679688	212.924332
2853.937447	17455.964000	1293.578125	47.527870
2853.937447	17455.964000	1292.476563	-89.994247
2853.937447	17455.964000	1291.375000	93.710976
2853.937447	17455.964000	1290.273438	-102.468300
2853.937447	17455.964000	1289.171875	-86.237694
2853.937447	17455.964000	1288.069336	58.970562
2853.937447	17455.964000	1286.966797	200.630829
2853.937447	17455.964000	1285.864258	-156.704742
2853.937447	17455.964000	1284.761719	-24.623604
2853.937447	17455.964000	1283.658203	213.588913
2853.937447	17455.964000	1282.554688	-184.227173
2853.937447	17455.964000	1281.451172	-43.753101
2853.937447	17455.964000	1280.347656	-56.599854
2853.937447	17455.964000	1279.244141	16.847179
2853.937447	17455.964000	1278.139648	6.609866
2853.937447	17455.964000	1277.035156	-26.938225
2853.937447	17455.964000	1275.930664	19.983505
2853.937447	17455.964000	1274.825195	170.854248
2853.937447	17455.964000	1273.720703	-184.483521
2853.937447	17455.964000	1272.615234	1.418572
2853.937447	17455.964000	1271.508789	289.099243
2853.937447	17455.964000	1270.403320	86.569214
2853.937447	17455.964000	1269.297852	97.920158
2853.937447	17455.964000	1268.191406	38.361340
2853.937447	17455.964000	1267.084961	-23.091166
2853.937447	17455.964000	1265.977539	82.219345
2853.937447	17455.964000	1264.871094	211.580872
2853.937447	17455.964000	1263.763672	135.373077
2853.937447	17455.964000	1262.656250	140.752228
2853.937447	17455.964000	1261.548828	214.519302
2853.937447	17455.964000	1260.440430	134.142990
2853.937447	17455.964000	1259.333008	199.251114
2853.937447	17455.964000	1258.224609	157.995728
2853.937447	17455.964000	1257.115234	164.855774
2853.937447	17455.964000	1256.006836	301.775970
2853.937447	17455.964000	1254.897461	173.651962
2853.937447	17455.964000	1253.788086	241.461517
2853.937447	17455.964000	1252.678711	30.180412
2853.937447	17455.964000	1251.569336	63.026554
2853.937447	17455.964000	1250.458984	70.116760
2853.937447	17455.964000	1249.349609	42.650570
2853.937447	17455.964000	1248.239258	97.910339
2853.937447	17455.964000	1247.127930	213.371033
2853.937447	17455.964000	1246.017578	235.252243
2853.937447	17455.964000	1244.906250	65.573074
2853.937447	17455.964000	1243.794922	-90.424835
2853.937447	17455.964000	1242.683594	89.946136
2853.937447	17455.964000	1241.571289	208.055283
2853.937447	17455.964000	1240.459961	141.549210
2853.937447	17455.964000	1239.347656	138.299240
2853.937447	17455.964000	1238.234375	164.403305
2853.937447	17455.964000	1237.122070	200.076981
2853.937447	17455.964000	1236.008789	129.181183
2853.937447	17455.964000	1234.896484	61.700802
2853.937447	17455.964000	1233.782227	174.469040
2853.937447	17455.964000	1232.668945	80.738815
2853.937447	17455.964000	1231.555664	-79.886894
2853.937447	17455.964000	1230.441406	-7.542186
2853.937447	17455.964000	1229.327148	35.624111
2853.937447	17455.964000	1228.211914	18.612736
2853.937447	17455.964000	1227.097656	115.919571
2853.937447	17455.964000	1225.982422	61.599766
2853.937447	17455.964000	1224.867188	-14.938088
2853.937447	17455.964000	1223.751953	52.222107
2853.937447	17455.964000	1222.635742	29.228735
2853.937447	17455.964000	1221.520508	-68.731316
2853.937447	17455.964000	1220.404297	30.184591
2853.937447	17455.964000	1219.287109	-20.776314
2853.937447	17455.964000	1218.170898	-99.508392
2853.937447	17455.964000	1217.053711	9.750108
2853.937447	17455.964000	1215.936523	4.967069
2853.937447	17455.964000	1214.819336	163.076157
2853.937447	17455.964000	1213.702148	200.406540
2853.937447	17455.964000	1212.583984	347.456482
2853.937447	17455.964000	1211.465820	321.704468
2853.937447	17455.964000	1210.347656	559.560730
2853.937447	17455.964000	1209.229492	404.109375
2853.937447	17455.964000	1208.110352	423.845734
2853.937447	17455.964000	1206.992188	514.655273
2853.937447	17455.964000	1205.873047	440.453552
2853.937447	17455.964000	1204.752930	463.439880
2853.937447	17455.964000	1203.633789	351.424438
2853.937447	17455.964000	1202.513672	290.739838
2853.937447	17455.964000	1201.393555	371.930817
2853.937447	17455.964000	1200.273438	248.513123
2853.937447	17455.964000	1199.152344	242.593552
2853.937447	17455.964000	1198.032227	41.182438
2853.937447	17455.964000	1196.911133	73.042107
2853.937447	17455.964000	1195.790039	47.167526
2853.937447	17455.964000	1194.667969	-45.903835
2853.937447	17455.964000	1193.545898	-147.193604
2853.937447	17455.964000	1192.424805	56.577412
2853.937447	17455.964000	1191.301758	-177.937653
2853.937447	17455.964000	1190.179688	-10.128019
2853.937447	17455.964000	1189.056641	-66.285126
2853.937447	17455.964000	1187.933594	106.765755
2853.937447	17455.964000	1186.810547	-115.180328
2853.937447	17455.964000	1185.687500	4.671698
2853.937447	17455.964000	1184.563477	21.393402
2853.937447	17455.964000	1183.440430	46.949516
2853.937447	17455.964000	1182.316406	30.883398
2853.937447	17455.964000	1181.191406	65.708824
2853.937447	17455.964000	1180.067383	-92.169884
2853.937447	17455.964000	1178.942383	34.465328
2853.937447	17455.964000	1177.817383	-4.779950
2853.937447	17455.964000	1176.692383	-97.988533
2853.937447	17455.964000	1175.566406	22.592628
2853.937447	17455.964000	1174.440430	-113.063583
2853.937447	17455.964000	1173.314453	-74.963799
2853.937447	17455.964000	1172.188477	117.344360
2853.937447	17455.964000	1171.062500	74.159943
2853.937447	17455.964000	1169.935547	138.878433
2853.937447	17455.964000	1168.808594	86.278587
2853.937447	17455.964000	1167.681641	131.649719
2853.937447	17455.964000	1166.553711	105.021957
2853.937447	17455.964000	1165.426758	-67.030441
2853.937447	17455.964000	1164.298828	129.012482
2853.937447	17455.964000	1163.170898	0.617230
2853.937447	17455.964000	1162.041992	183.255188
2853.937447	17455.964000	1160.914063	61.050812
2853.937447	17455.964000	1159.785156	167.784470
2853.937447	17455.964000	1158.656250	123.857430
2853.937447	17455.964000	1157.526367	50.235073
2853.937447	17455.964000	1156.397461	110.724922
2853.937447	17455.964000	1155.267578	78.109871
2853.937447	17455.964000	1154.137695	129.935013
2853.937447	17455.964000	1153.006836	-26.120623
2853.937447	17455.964000	1151.876953	-102.798798
2853.937447	17455.964000	1150.746094	-110.048500
2853.937447	17455.964000	1149.615234	-126.580223
2853.937447	17455.964000	1148.484375	-28.414059
2853.937447	17455.964000	1147.352539	-131.201324
2853.937447	17455.964000	1146.220703	-77.457932
2853.937447	17455.964000	1145.088867	55.501106
2853.937447	17455.964000	1143.957031	47.280758
2853.937447	17455.964000	1142.825195	-29.397810
2853.937447	17455.964000	1141.692383	150.076492
2853.937447	17455.964000	1140.559570	197.565079
2853.937447	17455.964000	1139.426758	175.713974
2853.937447	17455.964000	1138.292969	261.098907
2853.937447	17455.964000	1137.159180	381.099121
2853.937447	17455.964000	1136.025391	559.934937
2853.937447	17455.964000	1134.891602	631.990601
2853.937447	17455.964000	1133.757813	507.432800
2853.937447	17455.964000	1132.623047	647.859314
2853.937447	17455.964000	1131.488281	298.597198
2853.937447	17455.964000	1130.353516	453.720215
2853.937447	17455.964000	1129.217773	503.235229
2853.937447	17455.964000	1128.083008	491.231964
2853.937447	17455.964000	1126.947266	457.773163
2853.937447	17455.964000	1125.811523	300.730255
2853.937447	17455.964000	1124.674805	227.522797
2853.937447	17455.964000	1123.539063	230.785263
2853.937447	17455.964000	1122.402344	404.566071
2853.937447	17455.964000	1121.265625	629.815125
2853.937447	17455.964000	1120.127930	561.663696
2853.937447	17455.964000	1118.990234	597.019897
2853.937447	17455.964000	1117.853516	887.222046
2853.937447	17455.964000	1116.714844	857.074768
2853.937447	17455.964000	1115.577148	1061.041626
2853.937447	17455.964000	1114.439453	1346.047485
2853.937447	17455.964000	1113.300781	1332.685181
2853.937447	17455.964000	1112.162109	1606.797974
2853.937447	17455.964000	1111.022461	1505.083740
2853.937447	17455.964000	1109.883789	1846.124756
2853.937447	17455.964000	1108.744141	1814.128540
2853.937447	17455.964000	1107.604492	1947.404663
2853.937447	17455.964000	1106.463867	1954.907471
2853.937447	17455.964000	1105.324219	1853.856934
2853.937447	17455.964000	1104.183594	1861.024048
2853.937447	17455.964000	1103.042969	1824.377319
2853.937447	17455.964000	1101.902344	1732.322754
2853.937447	17455.964000	1100.760742	1482.443359
2853.937447	17455.964000	1099.619141	1573.167847
2853.937447	17455.964000	1098.477539	1558.971802
2853.937447	17455.964000	1097.335938	1729.369019
2853.937447	17455.964000	1096.193359	1581.575684
2853.937447	17455.964000	1095.051758	1575.196655
2853.937447	17455.964000	1093.909180	1508.277466
2853.937447	17455.964000	1092.765625	1471.761108
2853.937447	17455.964000	1091.623047	1321.421387
2853.937447	17455.964000	1090.479492	1487.137085
2853.937447	17455.964000	1089.335938	1424.206177
2853.937447	17455.964000	1088.192383	1452.670044
2853.937447	17455.964000	1087.047852	1354.756714
2853.937447	17455.964000	1085.903320	1183.104492
2853.937447	17455.964000	1084.758789	1046.807373
2853.937447	17455.964000	1083.614258	1097.154785
2853.937447	17455.964000	1082.469727	1129.873413
2853.937447	17455.964000	1081.324219	1182.624634
2853.937447	17455.964000	1080.178711	1173.083496
2853.937447	17455.964000	1079.033203	1094.264038
2853.937447	17455.964000	1077.886719	1050.172729
2853.937447	17455.964000	1076.740234	904.328979
2853.937447	17455.964000	1075.593750	1065.677490
2853.937447	17455.964000	1074.447266	1107.929688
2853.937447	17455.964000	1073.300781	1070.675781
2853.937447	17455.964000	1072.153320	1049.036133
2853.937447	17455.964000	1071.005859	872.902710
2853.937447	17455.964000	1069.858398	1017.175476
2853.937447	17455.964000	1068.709961	969.959717
2853.937447	17455.964000	1067.561523	976.121704
2853.937447	17455.964000	1066.413086	984.530029
2853.937447	17455.964000	1065.264648	963.931458
2853.937447	17455.964000	1064.116211	954.695618
2853.937447	17455.964000	1062.966797	1027.073730
2853.937447	17455.964000	1061.817383	875.389832
2853.937447	17455.964000	1060.667969	821.292969
2853.937447	17455.964000	1059.517578	746.530029
2853.937447	17455.964000	1058.368164	858.732056
2853.937447	17455.964000	1057.217773	949.244751
2853.937447	17455.964000	1056.067383	787.926025
2853.937447	17455.964000	1054.916016	891.543884
2853.937447	17455.964000	1053.764648	847.927246
2853.937447	17455.964000	1052.613281	687.432312
2853.937447	17455.964000	1051.461914	627.901733
2853.937447	17455.964000	1050.310547	696.641907
2853.937447	17455.964000	1049.158203	774.386108
2853.937447	17455.964000	1048.005859	792.710083
2853.937447	17455.964000	1046.853516	739.477051
2853.937447	17455.964000	1045.700195	817.189392
2853.937447	17455.964000	1044.547852	766.618225
2853.937447	17455.964000	1043.394531	777.493958
2853.937447	17455.964000	1042.240234	928.496826
2853.937447	17455.964000	1041.086914	949.076599
2853.937447	17455.964000	1039.932617	903.176697
2853.937447	17455.964000	1038.778320	1071.309814
2853.937447	17455.964000	1037.624023	1166.543213
2853.937447	17455.964000	1036.469727	1194.952271
2853.937447	17455.964000	1035.314453	1154.380981
2853.937447	17455.964000	1034.159180	1399.511597
2853.937447	17455.964000	1033.003906	1423.646973
2853.937447	17455.964000	1031.847656	1653.490112
2853.937447	17455.964000	1030.692383	1556.844971
2853.937447	17455.964000	1029.536133	1563.290649
2853.937447	17455.964000	1028.378906	1337.121582
2853.937447	17455.964000	1027.222656	1363.907471
2853.937447	17455.964000	1026.065430	1383.545654
2853.937447	17455.964000	1024.908203	1212.208740
2853.937447	17455.964000	1023.750977	1292.715332
2853.937447	17455.964000	1022.593750	1366.557007
2853.937447	17455.964000	1021.435547	1323.219971
2853.937447	17455.964000	1020.277344	1212.826660
2853.937447	17455.964000	1019.119141	1278.295410
2853.937447	17455.964000	1017.959961	1225.343506
2853.937447	17455.964000	1016.800781	1219.349854
2853.937447	17455.964000	1015.641602	1162.237671
2853.937447	17455.964000	1014.482422	1099.304077
2853.937447	17455.964000	1013.323242	1187.258545
2853.937447	17455.964000	1012.163086	1065.376465
2853.937447	17455.964000	1011.002930	886.389832
2853.937447	17455.964000	1009.842773	1172.835449
2853.937447	17455.964000	1008.681641	1076.082764
2853.937447	17455.964000	1007.520508	987.271851
2853.937447	17455.964000	1006.359375	897.394165
2853.937447	17455.964000	1005.198242	1019.833191
2853.937447	17455.964000	1004.037109	1207.314087
2853.937447	17455.964000	1002.875000	968.057495
2853.937447	17455.964000	1001.712891	1127.865112
2853.937447	17455.964000	1000.550781	1002.695557
2853.937447	17455.964000	999.387695	976.256592
2853.937447	17455.964000	998.224609	1027.459473
2853.937447	17455.964000	997.061523	817.604858
2853.937447	17455.964000	995.898438	842.312378
2853.937447	17455.964000	994.734375	745.751282
2853.937447	17455.964000	993.571289	781.269714
2853.937447	17455.964000	992.407227	806.400574
2853.937447	17455.964000	991.242188	671.443054
2853.937447	17455.964000	990.078125	676.833862
2853.937447	17455.964000	988.913086	629.441284
2853.937447	17455.964000	987.748047	635.732666
2853.937447	17455.964000	986.583008	581.642395
2853.937447	17455.964000	985.416992	465.874908
2853.937447	17455.964000	984.250977	701.349182
2853.937447	17455.964000	983.084961	495.982056
2853.937447	17455.964000	981.918945	582.252869
2853.937447	17455.964000	980.751953	525.562073
2853.937447	17455.964000	979.584961	444.621063
2853.937447	17455.964000	978.417969	572.999084
2853.937447	17455.964000	977.250977	602.880676
2853.937447	17455.964000	976.083008	670.459656
2853.937447	17455.964000	974.915039	576.477417
2853.937447	17455.964000	973.747070	687.398743
2853.937447	17455.964000	972.579102	568.062378
2853.937447	17455.964000	971.410156	740.166870
2853.937447	17455.964000	970.242188	704.807312
2853.937447	17455.964000	969.072266	802.179382
2853.937447	17455.964000	967.903320	847.009338
2853.937447	17455.964000	966.733398	734.281494
2853.937447	17455.964000	965.563477	644.833740
2853.937447	17455.964000	964.393555	901.070557
2853.937447	17455.964000	963.223633	985.702820
2853.937447	17455.964000	962.052734	870.654785
2853.937447	17455.964000	960.881836	870.929016
2853.937447	17455.964000	959.710938	941.441650
2853.937447	17455.964000	958.540039	946.742493
2853.937447	17455.964000	957.368164	779.408813
2853.937447	17455.964000	956.196289	731.974854
2853.937447	17455.964000	955.024414	765.627197
2853.937447	17455.964000	953.851563	899.208435
2853.937447	17455.964000	952.679688	771.302429
2853.937447	17455.964000	951.506836	687.104797
2853.937447	17455.964000	950.333984	811.445129
2853.937447	17455.964000	949.160156	589.057373
2853.937447	17455.964000	947.986328	903.173645
2853.937447	17455.964000	946.812500	753.120361
2853.937447	17455.964000	945.638672	795.369446
2853.937447	17455.964000	944.464844	1052.163330
2853.937447	17455.964000	943.290039	842.643555
2853.937447	17455.964000	942.115234	882.349609
2853.937447	17455.964000	940.940430	948.566772
2853.937447	17455.964000	939.764648	1178.342773
2853.937447	17455.964000	938.588867	1206.491699
2853.937447	17455.964000	937.413086	1158.455078
2853.937447	17455.964000	936.237305	1068.419922
2853.937447	17455.964000	935.060547	1390.516479
2853.937447	17455.964000	933.883789	1528.317993
2853.937447	17455.964000	932.707031	1379.194824
2853.937447	17455.964000	931.530273	1395.145386
2853.937447	17455.964000	930.352539	1358.022461
2853.937447	17455.964000	929.175781	1320.626221
2853.937447	17455.964000	927.998047	1311.729248
2853.937447	17455.964000	926.819336	1198.310059
2853.937447	17455.964000	925.641602	1137.955688
2853.937447	17455.964000	924.462891	1035.793579
2853.937447	17455.964000	923.284180	1277.044189
2853.937447	17455.964000	922.104492	1017.269714
2853.937447	17455.964000	920.924805	899.774719
2853.937447	17455.964000	919.746094	900.010620
2853.937447	17455.964000	919.551758	869.513855
2853.937447	17455.964000	918.386719	820.179688
2853.937447	17455.964000	917.220703	621.030701
2853.937447	17455.964000	916.054688	575.401978
2853.937447	17455.964000	914.887695	480.449066
2853.937447	17455.964000	913.721680	601.433105
2853.937447	17455.964000	912.554688	585.918701
2853.937447	17455.964000	911.387695	583.593750
2853.937447	17455.964000	910.220703	740.239807
2853.937447	17455.964000	909.052734	771.817810
2853.937447	17455.964000	907.885742	735.181396
2853.937447	17455.964000	906.717773	668.217712
2853.937447	17455.964000	905.548828	697.696411
2853.937447	17455.964000	904.380859	706.293823
2853.937447	17455.964000	903.211914	535.176086
2853.937447	17455.964000	902.042969	626.865479
2853.937447	17455.964000	900.874023	567.236511
2853.937447	17455.964000	899.704102	577.496643
2853.937447	17455.964000	898.535156	627.374451
2853.937447	17455.964000	897.365234	476.928009
2853.937447	17455.964000	896.194336	330.265076
2853.937447	17455.964000	895.024414	363.000122
2853.937447	17455.964000	893.853516	371.123718
2853.937447	17455.964000	892.682617	335.778748
2853.937447	17455.964000	891.511719	375.884521
2853.937447	17455.964000	890.340820	534.792908
2853.937447	17455.964000	889.168945	329.509888
2853.937447	17455.964000	887.997070	201.591583
2853.937447	17455.964000	886.825195	333.897705
2853.937447	17455.964000	885.653320	500.040863
2853.937447	17455.964000	884.480469	349.412659
2853.937447	17455.964000	883.307617	411.751923
2853.937447	17455.964000	882.134766	351.558014
2853.937447	17455.964000	880.961914	223.536331
2853.937447	17455.964000	879.788086	180.277481
2853.937447	17455.964000	878.614258	191.604477
2853.937447	17455.964000	877.440430	191.596695
2853.937447	17455.964000	876.266602	185.907745
2853.937447	17455.964000	875.091797	232.876190
2853.937447	17455.964000	873.916992	228.996979
2853.937447	17455.964000	872.742188	189.348511
2853.937447	17455.964000	871.567383	168.493561
2853.937447	17455.964000	870.391602	155.137726
2853.937447	17455.964000	869.215820	115.443062
2853.937447	17455.964000	868.040039	4.318004
2853.937447	17455.964000	866.864258	105.552826
2853.937447	17455.964000	865.687500	385.197784
2853.937447	17455.964000	864.510742	119.991112
2853.937447	17455.964000	863.333984	25.766054
2853.937447	17455.964000	862.157227	141.845078
2853.937447	17455.964000	860.979492	197.787125
2853.937447	17455.964000	859.802734	242.428986
2853.937447	17455.964000	858.625000	29.968378
2853.937447	17455.964000	857.446289	-116.762512
2853.937447	17455.964000	856.268555	-4.607512
2853.937447	17455.964000	855.089844	17.474762
2853.937447	17455.964000	853.911133	165.151337
2853.937447	17455.964000	852.731445	243.398972
2853.937447	17455.964000	851.552734	76.101440
2853.937447	17455.964000	850.373047	154.316620
2853.937447	17455.964000	849.193359	15.188072
2853.937447	17455.964000	848.013672	-62.083897
2853.937447	17455.964000	846.833008	-13.869268
2853.937447	17455.964000	845.652344	60.530205
2853.937447	17455.964000	844.471680	24.461267
2853.937447	17455.964000	843.291016	-28.437363
2853.937447	17455.964000	842.110352	-270.288696
2853.937447	17455.964000	840.928711	-124.822151
2853.937447	17455.964000	839.747070	7.494468
2853.937447	17455.964000	838.564453	-60.320229
2853.937447	17455.964000	837.382813	-146.795670
2853.937447	17455.964000	836.200195	24.700089
2853.937447	17455.964000	835.017578	-31.852591
2853.937447	17455.964000	833.834961	89.113625
2853.937447	17455.964000	832.651367	6.430797
2853.937447	17455.964000	831.467773	-74.343620
2853.937447	17455.964000	830.284180	68.982674
2853.937447	17455.964000	829.100586	137.588287
2853.937447	17455.964000	827.916992	40.066833
2853.937447	17455.964000	826.732422	114.266960
2853.937447	17455.964000	825.547852	130.614182
2853.937447	17455.964000	824.363281	-45.153385
2853.937447	17455.964000	823.177734	64.485741
2853.937447	17455.964000	821.992188	153.585907
2853.937447	17455.964000	820.806641	175.556091
2853.937447	17455.964000	819.621094	74.528862
2853.937447	17455.964000	818.434570	-2.219400
2853.937447	17455.964000	817.249023	8.640676
2853.937447	17455.964000	816.062500	54.901287
2853.937447	17455.964000	814.875000	17.362001
2853.937447	17455.964000	813.688477	-66.686028
2853.937447	17455.964000	812.500977	-98.560913
2853.937447	17455.964000	811.313477	14.756278
2853.937447	17455.964000	810.125977	10.828662
2853.937447	17455.964000	808.937500	70.170891
2853.937447	17455.964000	807.749023	49.537132
2853.937447	17455.964000	806.560547	84.718979
2853.937447	17455.964000	805.372070	201.710159
2853.937447	17455.964000	804.182617	290.794861
2853.937447	17455.964000	802.994141	537.826233
2853.937447	17455.964000	801.803711	1080.189941
2853.937447	17455.964000	800.614258	1988.294434
2853.937447	17455.964000	799.424805	3027.907959
2853.937447	17455.964000	798.234375	3745.893066
2853.937447	17455.964000	797.043945	3748.893066
2853.937447	17455.964000	795.852539	2879.590820
2853.937447	17455.964000	794.662109	1919.752075
2853.937447	17455.964000	793.470703	1409.307983
2853.937447	17455.964000	792.279297	797.085632
2853.937447	17455.964000	791.087891	539.351868
2853.937447	17455.964000	789.895508	380.020874
2853.937447	17455.964000	788.703125	241.175293
2853.937447	17455.964000	787.510742	397.096619
2853.937447	17455.964000	786.318359	213.896500
2853.937447	17455.964000	785.125000	117.870926
2853.937447	17455.964000	783.931641	97.855286
2853.937447	17455.964000	782.738281	301.946472
2853.937447	17455.964000	781.544922	135.703262
2853.937447	17455.964000	780.350586	287.935394
2853.937447	17455.964000	779.156250	136.631393
2853.937447	17455.964000	777.961914	59.432976
2853.937447	17455.964000	776.767578	254.228943
2853.937447	17455.964000	775.572266	149.359329
2853.937447	17455.964000	774.376953	14.979460
2853.937447	17455.964000	773.181641	-121.159637
2853.937447	17455.964000	771.986328	-53.893841
2853.937447	17455.964000	770.790039	-106.740524
2853.937447	17455.964000	769.593750	-100.410751
2853.937447	17455.964000	768.397461	-119.911377
2853.937447	17455.964000	767.201172	-45.184818
2853.937447	17455.964000	766.003906	-86.780617
2853.937447	17455.964000	764.806641	10.125110
2853.937447	17455.964000	763.609375	92.257866
2853.937447	17455.964000	762.412109	-85.792610
2853.937447	17455.964000	761.213867	-31.282883
2853.937447	17455.964000	760.015625	-24.720285
2853.937447	17455.964000	758.817383	-23.659676
2853.937447	17455.964000	757.618164	54.867027
2853.937447	17455.964000	756.419922	87.309830
2853.937447	17455.964000	755.220703	158.473236
2853.937447	17455.964000	754.021484	218.582092
2853.937447	17455.964000	752.821289	275.012726
2853.937447	17455.964000	751.621094	285.405884
2853.937447	17455.964000	750.420898	236.898972
2853.937447	17455.964000	749.220703	245.516113
2853.937447	17455.964000	748.020508	373.800873
2853.937447	17455.964000	746.819336	441.332764
2853.937447	17455.964000	745.618164	488.627319
2853.937447	17455.964000	744.416992	609.511292
2853.937447	17455.964000	743.214844	583.243896
2853.937447	17455.964000	742.012695	409.916687
2853.937447	17455.964000	740.810547	538.178650
2853.937447	17455.964000	739.608398	570.839905
2853.937447	17455.964000	738.406250	790.948730
2853.937447	17455.964000	737.203125	838.294617
2853.937447	17455.964000	736.000000	988.508057
2853.937447	17455.964000	734.795898	1219.486938
2853.937447	17455.964000	733.592773	1235.576416
2853.937447	17455.964000	732.388672	1380.180298
2853.937447	17455.964000	731.184570	1374.254883
2853.937447	17455.964000	729.979492	1144.497070
2853.937447	17455.964000	728.775391	925.865173
2853.937447	17455.964000	727.570313	850.409241
2853.937447	17455.964000	726.365234	578.794800
2853.937447	17455.964000	725.160156	360.481964
2853.937447	17455.964000	723.954102	189.938095
2853.937447	17455.964000	722.748047	250.392792
2853.937447	17455.964000	721.541992	250.376617
2853.937447	17455.964000	720.334961	208.247421
2853.937447	17455.964000	719.128906	257.723846
2853.937447	17455.964000	717.921875	58.173668
2853.937447	17455.964000	716.714844	43.620361
2853.937447	17455.964000	715.506836	30.917871
2853.937447	17455.964000	714.298828	29.215576
2853.937447	17455.964000	713.090820	49.481411
2853.937447	17455.964000	711.882813	-21.706345
2853.937447	17455.964000	710.674805	-5.071185
2853.937447	17455.964000	709.465820	75.560165
2853.937447	17455.964000	708.256836	90.361366
2853.937447	17455.964000	707.047852	4.645999
2853.937447	17455.964000	705.837891	-112.087479
2853.937447	17455.964000	704.627930	-120.979927
2853.937447	17455.964000	703.417969	-73.243195
2853.937447	17455.964000	702.208008	-63.867451
2853.937447	17455.964000	700.998047	-198.720825
2853.937447	17455.964000	699.787109	5.993938
2853.937447	17455.964000	698.576172	-121.511566
2853.937447	17455.964000	697.364258	-53.735020
2853.937447	17455.964000	696.153320	132.584610
2853.937447	17455.964000	694.941406	54.377686
2853.937447	17455.964000	693.729492	58.256161
2853.937447	17455.964000	692.516602	49.369762
2853.937447	17455.964000	691.304688	0.385742
2853.937447	17455.964000	690.091797	153.687561
2853.937447	17455.964000	688.878906	170.279694
2853.937447	17455.964000	687.665039	72.106758
2853.937447	17455.964000	686.451172	207.066788
2853.937447	17455.964000	685.237305	189.023010
2853.937447	17455.964000	684.023438	54.476295
2853.937447	17455.964000	682.809570	254.845535
2853.937447	17455.964000	681.594727	213.117249
2853.937447	17455.964000	680.379883	295.098663
2853.937447	17455.964000	679.165039	342.474243
2853.937447	17455.964000	677.949219	277.073242
2853.937447	17455.964000	676.733398	306.222412
2853.937447	17455.964000	675.517578	413.500793
2853.937447	17455.964000	674.301758	324.451202
2853.937447	17455.964000	673.084961	453.446777
2853.937447	17455.964000	671.869141	331.690125
2853.937447	17455.964000	670.651367	384.310547
2853.937447	17455.964000	669.434570	518.594543
2853.937447	17455.964000	668.216797	451.294220
2853.937447	17455.964000	667.000000	469.300781
2853.937447	17455.964000	665.781250	683.249207
2853.937447	17455.964000	664.563477	839.025818
2853.937447	17455.964000	663.344727	742.588562
2853.937447	17455.964000	662.125977	776.729248
2853.937447	17455.964000	660.907227	888.786682
2853.937447	17455.964000	659.688477	1125.839722
2853.937447	17455.964000	658.468750	1277.582764
2853.937447	17455.964000	657.249023	1104.897339
2853.937447	17455.964000	656.029297	1310.857544
2853.937447	17455.964000	654.808594	1150.844238
2853.937447	17455.964000	653.587891	969.132507
2853.937447	17455.964000	652.367188	1031.859131
2853.937447	17455.964000	651.146484	900.852112
2853.937447	17455.964000	649.924805	764.430420
2853.937447	17455.964000	648.704102	628.025208
2853.937447	17455.964000	647.482422	791.903381
2853.937447	17455.964000	646.259766	796.523743
2853.937447	17455.964000	645.037109	873.420715
2853.937447	17455.964000	643.815430	1053.278320
2853.937447	17455.964000	642.591797	855.283691
2853.937447	17455.964000	641.369141	803.687073
2853.937447	17455.964000	640.145508	827.937683
2853.937447	17455.964000	638.921875	651.643433
2853.937447	17455.964000	637.698242	598.166565
2853.937447	17455.964000	636.474609	582.573608
2853.937447	17455.964000	635.250000	473.073761
2853.937447	17455.964000	634.025391	370.783905
2853.937447	17455.964000	632.800781	371.325165
2853.937447	17455.964000	631.575195	267.186096
2853.937447	17455.964000	630.349609	310.919220
2853.937447	17455.964000	629.124023	399.655487
2853.937447	17455.964000	627.898438	180.027832
2853.937447	17455.964000	626.671875	374.972870
2853.937447	17455.964000	625.445313	396.786530
2853.937447	17455.964000	624.218750	368.085236
2853.937447	17455.964000	622.992188	308.713867
2853.937447	17455.964000	621.764648	530.230957
2853.937447	17455.964000	620.537109	423.911224
2853.937447	17455.964000	619.309570	515.577209
2853.937447	17455.964000	618.081055	319.190613
2853.937447	17455.964000	616.852539	342.335052
2853.937447	17455.964000	615.624023	482.331085
2853.937447	17455.964000	614.395508	251.703415
2853.937447	17455.964000	613.166992	215.305893
2853.937447	17455.964000	611.937500	171.661621
2853.937447	17455.964000	610.708008	205.253937
2853.937447	17455.964000	609.477539	206.413513
2853.937447	17455.964000	608.248047	-29.649799
2853.937447	17455.964000	607.017578	28.895880
2853.937447	17455.964000	605.787109	33.468739
2853.937447	17455.964000	604.555664	39.760651
2853.937447	17455.964000	603.325195	103.422447
2853.937447	17455.964000	602.093750	-23.259285
2853.937447	17455.964000	600.861328	-10.004883
2853.937447	17455.964000	599.629883	-48.853523
2853.937447	17455.964000	598.397461	100.560204
2853.937447	17455.964000	597.165039	14.929484
2853.937447	17455.964000	595.932617	151.564514
2853.937447	17455.964000	594.699219	-4.099914
2853.937447	17455.964000	593.465820	78.565155
2853.937447	17455.964000	592.232422	10.619045
2853.937447	17455.964000	590.999023	55.474613
2853.937447	17455.964000	589.764648	-3.641505
2853.937447	17455.964000	588.530273	207.557236
2853.937447	17455.964000	587.295898	53.401749
2853.937447	17455.964000	586.061523	332.352844
2853.937447	17455.964000	584.826172	255.019882
2853.937447	17455.964000	583.590820	229.520767
2853.937447	17455.964000	582.355469	366.717804
2853.937447	17455.964000	581.119141	426.881348
2853.937447	17455.964000	579.882813	549.514404
2853.937447	17455.964000	578.646484	443.220490
2853.937447	17455.964000	577.410156	512.028076
2853.937447	17455.964000	576.172852	680.779724
2853.937447	17455.964000	574.935547	599.295044
2853.937447	17455.964000	573.698242	633.853638
2853.937447	17455.964000	572.460938	814.733948
2853.937447	17455.964000	571.222656	1029.374146
2853.937447	17455.964000	569.984375	1010.036743
2853.937447	17455.964000	568.746094	731.889954
2853.937447	17455.964000	567.506836	739.225281
2853.937447	17455.964000	566.267578	849.932556
2853.937447	17455.964000	565.028320	787.538513
2853.937447	17455.964000	563.789063	821.370667
2853.937447	17455.964000	562.548828	785.590637
2853.937447	17455.964000	561.309570	737.279053
2853.937447	17455.964000	560.068359	683.560059
2853.937447	17455.964000	558.828125	471.251953
2853.937447	17455.964000	557.586914	613.371521
2853.937447	17455.964000	556.345703	413.482147
2853.937447	17455.964000	555.104492	398.747467
2853.937447	17455.964000	553.863281	312.753143
2853.937447	17455.964000	552.621094	182.233780
2853.937447	17455.964000	551.378906	316.781311
2853.937447	17455.964000	550.136719	390.725647
2853.937447	17455.964000	548.893555	466.342285
2853.937447	17455.964000	547.650391	554.303528
2853.937447	17455.964000	546.407227	471.513519
2853.937447	17455.964000	545.164063	785.002502
2853.937447	17455.964000	543.919922	746.480469
2853.937447	17455.964000	542.675781	873.116089
2853.937447	17455.964000	541.431641	1067.123291
2853.937447	17455.964000	540.186523	969.770508
2853.937447	17455.964000	538.941406	982.464111
2853.937447	17455.964000	537.696289	1103.358398
2853.937447	17455.964000	536.451172	824.875366
2853.937447	17455.964000	535.205078	549.995361
2853.937447	17455.964000	533.959961	342.582245
2853.937447	17455.964000	532.712891	466.812134
2853.937447	17455.964000	531.466797	358.674316
2853.937447	17455.964000	530.219727	539.459351
2853.937447	17455.964000	528.972656	365.666840
2853.937447	17455.964000	527.725586	275.171997
2853.937447	17455.964000	526.478516	306.897003
2853.937447	17455.964000	525.230469	102.997879
2853.937447	17455.964000	523.982422	93.914825
2853.937447	17455.964000	522.734375	-24.971937
2853.937447	17455.964000	521.485352	-7.573819
2853.937447	17455.964000	520.236328	75.245842
2853.937447	17455.964000	518.987305	-18.932505
2853.937447	17455.964000	517.737305	-61.823055
2853.937447	17455.964000	516.488281	61.501770
2853.937447	17455.964000	515.238281	-13.293066
2853.937447	17455.964000	513.988281	-6.781631
2853.937447	17455.964000	512.737305	-143.466278
2853.937447	17455.964000	511.486328	-158.211044
2853.937447	17455.964000	510.235352	-10.462771
2853.937447	17455.964000	508.984375	-210.743469
2853.937447	17455.964000	507.732422	-124.918869
2853.937447	17455.964000	506.480469	-72.704453
2853.937447	17455.964000	505.228516	16.523254
2853.937447	17455.964000	503.976563	-17.837860
2853.937447	17455.964000	502.723633	90.688194
2853.937447	17455.964000	501.470703	-31.925526
2853.937447	17455.964000	500.217773	311.054779
2853.937447	17455.964000	498.963867	197.211456
2853.937447	17455.964000	497.709961	210.313492
2853.937447	17455.964000	496.456055	304.459869
2853.937447	17455.964000	495.202148	361.545471
2853.937447	17455.964000	493.947266	228.331238
2853.937447	17455.964000	492.692383	281.847839
2853.937447	17455.964000	491.437500	275.459808
2853.937447	17455.964000	490.181641	395.807922
2853.937447	17455.964000	488.926758	299.608398
2853.937447	17455.964000	487.670898	423.397369
2853.937447	17455.964000	486.414063	174.139755
2853.937447	17455.964000	485.158203	357.688507
2853.937447	17455.964000	483.901367	351.219177
2853.937447	17455.964000	482.644531	158.377487
2853.937447	17455.964000	481.386719	369.904419
2853.937447	17455.964000	480.128906	242.151657
2853.937447	17455.964000	478.871094	358.680573
2853.937447	17455.964000	477.613281	360.972473
2853.937447	17455.964000	476.355469	189.388382
2853.937447	17455.964000	475.096680	284.769714
2853.937447	17455.964000	473.837891	264.244141
2853.937447	17455.964000	472.578125	326.212463
2853.937447	17455.964000	471.319336	509.240845
2853.937447	17455.964000	470.059570	353.585297
2853.937447	17455.964000	468.799805	517.229614
2853.937447	17455.964000	467.539063	377.418091
2853.937447	17455.964000	466.278320	434.033783
2853.937447	17455.964000	465.017578	294.303253
2853.937447	17455.964000	463.756836	333.390533
2853.937447	17455.964000	462.495117	435.531708
2853.937447	17455.964000	461.233398	187.279312
2853.937447	17455.964000	459.971680	257.884979
2853.937447	17455.964000	458.709961	135.851089
2853.937447	17455.964000	457.447266	320.219940
2853.937447	17455.964000	456.184570	26.694019
2853.937447	17455.964000	454.921875	197.004868
2853.937447	17455.964000	453.658203	108.309608
2853.937447	17455.964000	452.394531	206.802505
2853.937447	17455.964000	451.130859	84.907059
2853.937447	17455.964000	449.867188	-134.849838
2853.937447	17455.964000	448.602539	148.889496
2853.937447	17455.964000	447.337891	82.975929
2853.937447	17455.964000	446.073242	169.087234
2853.937447	17455.964000	444.807617	180.026855
2853.937447	17455.964000	443.542969	267.793732
2853.937447	17455.964000	442.276367	317.079315
2853.937447	17455.964000	441.010742	629.927246
2853.937447	17455.964000	439.744141	595.290466
2853.937447	17455.964000	438.478516	735.140808
2853.937447	17455.964000	437.210938	948.159058
2853.937447	17455.964000	435.944336	1105.242554
2853.937447	17455.964000	434.676758	1148.864868
2853.937447	17455.964000	433.409180	1330.157837
2853.937447	17455.964000	432.141602	1579.304932
2853.937447	17455.964000	430.873047	1528.545288
2853.937447	17455.964000	429.604492	1655.466431
2853.937447	17455.964000	428.335938	1538.402344
2853.937447	17455.964000	427.067383	2030.864258
2853.937447	17455.964000	425.797852	2065.106934
2853.937447	17455.964000	424.528320	2313.375000
2853.937447	17455.964000	423.258789	2547.527588
2853.937447	17455.964000	421.988281	2529.176758
2853.937447	17455.964000	420.717773	2615.115479
2853.937447	17455.964000	419.447266	2526.984619
2853.937447	17455.964000	418.175781	2177.937500
2853.937447	17455.964000	416.905273	2155.773926
2853.937447	17455.964000	415.633789	1898.833008
2853.937447	17455.964000	414.362305	1695.739502
2853.937447	17455.964000	413.089844	1459.571167
2853.937447	17455.964000	411.817383	1386.631470
2853.937447	17455.964000	410.544922	1145.105103
2853.937447	17455.964000	409.272461	1002.477539
2853.937447	17455.964000	407.999023	1017.685547
2853.937447	17455.964000	406.725586	761.950562
2853.937447	17455.964000	405.452148	696.987000
2853.937447	17455.964000	404.177734	631.823792
2853.937447	17455.964000	402.903320	592.474365
2853.937447	17455.964000	401.628906	539.026794
2853.937447	17455.964000	400.354492	450.673096
2853.937447	17455.964000	399.079102	497.273651
2853.937447	17455.964000	397.803711	378.945129
2853.937447	17455.964000	396.528320	348.725739
2853.937447	17455.964000	395.251953	280.089813
2853.937447	17455.964000	393.976563	361.825134
2853.937447	17455.964000	392.700195	238.866608
2853.937447	17455.964000	391.422852	271.377472
2853.937447	17455.964000	390.145508	277.533020
2853.937447	17455.964000	388.869141	112.002304
2853.937447	17455.964000	387.590820	195.205231
2853.937447	17455.964000	386.313477	54.841656
2853.937447	17455.964000	385.035156	102.542503
2853.937447	17455.964000	383.756836	167.032272
2853.937447	17455.964000	382.478516	71.985306
2853.937447	17455.964000	381.199219	147.515121
2853.937447	17455.964000	379.919922	-19.398911
2853.937447	17455.964000	378.640625	25.643021
2853.937447	17455.964000	377.360352	-12.832005
2853.937447	17455.964000	376.080078	89.664192
2853.937447	17455.964000	374.799805	53.383671
2853.937447	17455.964000	373.519531	-62.933968
2853.937447	17455.964000	372.238281	118.572174
2853.937447	17455.964000	370.957031	-33.648083
2853.937447	17455.964000	369.675781	-126.195457
2853.937447	17455.964000	368.394531	73.633209
2853.937447	17455.964000	367.112305	-115.326393
2853.937447	17455.964000	365.830078	-193.025055
2853.937447	17455.964000	364.546875	-57.924129
2853.937447	17455.964000	363.264648	-21.970663
2853.937447	17455.964000	361.981445	-121.345131
2853.937447	17455.964000	360.698242	-30.519974
2853.937447	17455.964000	359.414063	-44.072632
2853.937447	17455.964000	358.129883	190.900833
2853.937447	17455.964000	356.845703	56.411575
2853.937447	17455.964000	355.561523	-27.539083
2853.937447	17455.964000	354.276367	-30.090746
2853.937447	17455.964000	352.991211	151.871460
2853.937447	17455.964000	351.706055	138.205994
2853.937447	17455.964000	350.420898	145.588593
2853.937447	17455.964000	349.134766	29.565643
2853.937447	17455.964000	347.848633	92.611534
2853.937447	17455.964000	346.561523	76.848198
2853.937447	17455.964000	345.275391	155.809814
2853.937447	17455.964000	343.988281	355.075165
2853.937447	17455.964000	342.700195	183.522156
2853.937447	17455.964000	341.413086	360.569946
2853.937447	17455.964000	340.125000	371.064606
2853.937447	17455.964000	338.836914	245.978439
2853.937447	17455.964000	337.548828	493.053864
2853.937447	17455.964000	336.259766	417.425415
2853.937447	17455.964000	334.970703	175.305420
2853.937447	17455.964000	333.681641	208.981781
2853.937447	17455.964000	332.391602	259.389832
2853.937447	17455.964000	331.101563	150.022903
2853.937447	17455.964000	329.811523	298.889099
2853.937447	17455.964000	328.521484	306.711761
2853.937447	17455.964000	327.230469	348.110565
2853.937447	17455.964000	325.939453	255.279251
2853.937447	17455.964000	324.648438	226.768387
2853.937447	17455.964000	323.356445	204.223251
2853.937447	17455.964000	322.064453	138.007797
2853.937447	17455.964000	320.772461	185.430130
2853.937447	17455.964000	319.480469	303.584778
2853.937447	17455.964000	318.187500	170.866470
2853.937447	17455.964000	316.894531	74.575462
2853.937447	17455.964000	315.601563	250.429672
2853.937447	17455.964000	314.307617	28.352442
2853.937447	17455.964000	313.013672	8.141846
2853.937447	17455.964000	311.719727	170.790314
2853.937447	17455.964000	310.425781	32.893829
2853.937447	17455.964000	309.130859	-43.643200
2853.937447	17455.964000	307.835938	-58.878555
2853.937447	17455.964000	306.541016	-36.837692
2853.937447	17455.964000	305.245117	-93.743134
2853.937447	17455.964000	303.949219	-142.575027
2853.937447	17455.964000	302.653320	189.982285
2853.937447	17455.964000	301.356445	306.796112
2853.937447	17455.964000	300.060547	286.502472
2853.937447	17455.964000	298.763672	224.294937
