#X		#Y		#Wave		#Intensity
2803.084202	17463.798667	2000.043945	-41.016285
2803.084202	17463.798667	1999.080078	-116.519005
2803.084202	17463.798667	1998.116211	59.759060
2803.084202	17463.798667	1997.151367	-26.912161
2803.084202	17463.798667	1996.186523	86.945839
2803.084202	17463.798667	1995.222656	59.364975
2803.084202	17463.798667	1994.256836	91.058357
2803.084202	17463.798667	1993.291992	13.599568
2803.084202	17463.798667	1992.327148	-24.389917
2803.084202	17463.798667	1991.361328	24.108013
2803.084202	17463.798667	1990.395508	126.873596
2803.084202	17463.798667	1989.429688	-40.274803
2803.084202	17463.798667	1988.463867	20.096306
2803.084202	17463.798667	1987.497070	18.460514
2803.084202	17463.798667	1986.531250	-74.823631
2803.084202	17463.798667	1985.564453	106.254402
2803.084202	17463.798667	1984.597656	-49.084911
2803.084202	17463.798667	1983.630859	121.773514
2803.084202	17463.798667	1982.664063	74.972984
2803.084202	17463.798667	1981.696289	55.250816
2803.084202	17463.798667	1980.728516	-11.516130
2803.084202	17463.798667	1979.761719	126.631889
2803.084202	17463.798667	1978.792969	44.843624
2803.084202	17463.798667	1977.825195	27.175959
2803.084202	17463.798667	1976.857422	-64.638885
2803.084202	17463.798667	1975.888672	147.057571
2803.084202	17463.798667	1974.919922	20.522667
2803.084202	17463.798667	1973.951172	-24.636324
2803.084202	17463.798667	1972.982422	-62.461620
2803.084202	17463.798667	1972.013672	195.593811
2803.084202	17463.798667	1971.043945	194.571396
2803.084202	17463.798667	1970.075195	205.802917
2803.084202	17463.798667	1969.105469	162.733185
2803.084202	17463.798667	1968.135742	151.649796
2803.084202	17463.798667	1967.165039	71.516922
2803.084202	17463.798667	1966.195313	13.524453
2803.084202	17463.798667	1965.224609	73.720375
2803.084202	17463.798667	1964.253906	32.874165
2803.084202	17463.798667	1963.283203	48.619514
2803.084202	17463.798667	1962.312500	37.232147
2803.084202	17463.798667	1961.341797	-8.654392
2803.084202	17463.798667	1960.370117	70.928520
2803.084202	17463.798667	1959.399414	0.364833
2803.084202	17463.798667	1958.427734	133.952286
2803.084202	17463.798667	1957.455078	132.187302
2803.084202	17463.798667	1956.483398	17.280516
2803.084202	17463.798667	1955.511719	162.979416
2803.084202	17463.798667	1954.539063	151.281784
2803.084202	17463.798667	1953.566406	-39.839096
2803.084202	17463.798667	1952.593750	159.760422
2803.084202	17463.798667	1951.621094	167.645325
2803.084202	17463.798667	1950.647461	123.925339
2803.084202	17463.798667	1949.674805	-42.583015
2803.084202	17463.798667	1948.701172	31.565683
2803.084202	17463.798667	1947.727539	14.843015
2803.084202	17463.798667	1946.753906	123.282890
2803.084202	17463.798667	1945.780273	150.690643
2803.084202	17463.798667	1944.805664	-104.067612
2803.084202	17463.798667	1943.831055	-76.650330
2803.084202	17463.798667	1942.856445	9.607992
2803.084202	17463.798667	1941.881836	152.224380
2803.084202	17463.798667	1940.907227	-6.764647
2803.084202	17463.798667	1939.932617	72.061134
2803.084202	17463.798667	1938.957031	109.191010
2803.084202	17463.798667	1937.981445	4.192322
2803.084202	17463.798667	1937.005859	-2.778033
2803.084202	17463.798667	1936.030273	-2.398165
2803.084202	17463.798667	1935.054688	-55.892132
2803.084202	17463.798667	1934.078125	123.233017
2803.084202	17463.798667	1933.101563	52.603466
2803.084202	17463.798667	1932.125000	45.639050
2803.084202	17463.798667	1931.148438	-46.964058
2803.084202	17463.798667	1930.171875	-0.072731
2803.084202	17463.798667	1929.194336	19.899055
2803.084202	17463.798667	1928.217773	-70.183327
2803.084202	17463.798667	1927.240234	6.048101
2803.084202	17463.798667	1926.262695	26.030695
2803.084202	17463.798667	1925.284180	-5.316650
2803.084202	17463.798667	1924.306641	136.870728
2803.084202	17463.798667	1923.328125	71.326424
2803.084202	17463.798667	1922.350586	169.494095
2803.084202	17463.798667	1921.372070	-27.903917
2803.084202	17463.798667	1920.392578	145.968277
2803.084202	17463.798667	1919.414063	60.983341
2803.084202	17463.798667	1918.434570	124.948059
2803.084202	17463.798667	1917.456055	71.751572
2803.084202	17463.798667	1916.476563	-52.179241
2803.084202	17463.798667	1915.497070	114.278015
2803.084202	17463.798667	1914.516602	36.756809
2803.084202	17463.798667	1913.537109	-104.130318
2803.084202	17463.798667	1912.556641	52.528854
2803.084202	17463.798667	1911.576172	-27.334879
2803.084202	17463.798667	1910.595703	24.468018
2803.084202	17463.798667	1909.615234	-35.837307
2803.084202	17463.798667	1908.633789	-91.234169
2803.084202	17463.798667	1907.653320	-54.023457
2803.084202	17463.798667	1906.671875	124.453140
2803.084202	17463.798667	1905.690430	-145.198059
2803.084202	17463.798667	1904.708984	84.386154
2803.084202	17463.798667	1903.727539	99.681244
2803.084202	17463.798667	1902.745117	7.894763
2803.084202	17463.798667	1901.762695	-27.876410
2803.084202	17463.798667	1900.780273	111.548218
2803.084202	17463.798667	1899.797852	109.851540
2803.084202	17463.798667	1898.815430	-1.272318
2803.084202	17463.798667	1897.832031	11.666351
2803.084202	17463.798667	1896.849609	63.510616
2803.084202	17463.798667	1895.866211	-3.754989
2803.084202	17463.798667	1894.882813	57.816277
2803.084202	17463.798667	1893.898438	141.242905
2803.084202	17463.798667	1892.915039	91.039665
2803.084202	17463.798667	1891.930664	-22.284475
2803.084202	17463.798667	1890.947266	24.716805
2803.084202	17463.798667	1889.962891	20.723867
2803.084202	17463.798667	1888.977539	67.717773
2803.084202	17463.798667	1887.993164	32.185760
2803.084202	17463.798667	1887.007813	-100.387123
2803.084202	17463.798667	1886.023438	26.690399
2803.084202	17463.798667	1885.038086	5.763737
2803.084202	17463.798667	1884.051758	62.457428
2803.084202	17463.798667	1883.066406	29.421627
2803.084202	17463.798667	1882.081055	3.677660
2803.084202	17463.798667	1881.094727	-55.985565
2803.084202	17463.798667	1880.108398	44.321190
2803.084202	17463.798667	1879.122070	13.758015
2803.084202	17463.798667	1878.135742	-48.282097
2803.084202	17463.798667	1877.148438	-61.855965
2803.084202	17463.798667	1876.162109	-5.196398
2803.084202	17463.798667	1875.174805	162.814957
2803.084202	17463.798667	1874.187500	20.921751
2803.084202	17463.798667	1873.199219	-55.572529
2803.084202	17463.798667	1872.211914	-27.988642
2803.084202	17463.798667	1871.223633	38.293224
2803.084202	17463.798667	1870.236328	27.147112
2803.084202	17463.798667	1869.248047	40.187443
2803.084202	17463.798667	1868.258789	-16.900400
2803.084202	17463.798667	1867.270508	5.807907
2803.084202	17463.798667	1866.282227	57.508877
2803.084202	17463.798667	1865.292969	14.939054
2803.084202	17463.798667	1864.303711	-172.586227
2803.084202	17463.798667	1863.314453	48.200409
2803.084202	17463.798667	1862.324219	56.358723
2803.084202	17463.798667	1861.334961	-22.423275
2803.084202	17463.798667	1860.344727	0.217254
2803.084202	17463.798667	1859.354492	-8.539606
2803.084202	17463.798667	1858.364258	134.741974
2803.084202	17463.798667	1857.374023	157.313232
2803.084202	17463.798667	1856.383789	1.340945
2803.084202	17463.798667	1855.392578	-87.046852
2803.084202	17463.798667	1854.401367	-127.182259
2803.084202	17463.798667	1853.410156	23.164482
2803.084202	17463.798667	1852.418945	-29.055197
2803.084202	17463.798667	1851.426758	89.855522
2803.084202	17463.798667	1850.435547	-15.400516
2803.084202	17463.798667	1849.443359	125.116920
2803.084202	17463.798667	1848.451172	94.535759
2803.084202	17463.798667	1847.458984	-56.470894
2803.084202	17463.798667	1846.466797	-7.578059
2803.084202	17463.798667	1845.473633	19.609709
2803.084202	17463.798667	1844.480469	53.989445
2803.084202	17463.798667	1843.487305	23.358288
2803.084202	17463.798667	1842.494141	137.087112
2803.084202	17463.798667	1841.500977	82.352936
2803.084202	17463.798667	1840.506836	42.048199
2803.084202	17463.798667	1839.513672	-12.691732
2803.084202	17463.798667	1838.519531	-72.244400
2803.084202	17463.798667	1837.525391	-33.238995
2803.084202	17463.798667	1836.530273	20.146034
2803.084202	17463.798667	1835.536133	25.427113
2803.084202	17463.798667	1834.541016	25.873489
2803.084202	17463.798667	1833.545898	-89.006218
2803.084202	17463.798667	1832.550781	31.487997
2803.084202	17463.798667	1831.555664	-8.969256
2803.084202	17463.798667	1830.560547	152.219498
2803.084202	17463.798667	1829.564453	73.290184
2803.084202	17463.798667	1828.568359	37.557251
2803.084202	17463.798667	1827.572266	-67.775383
2803.084202	17463.798667	1826.576172	-5.176143
2803.084202	17463.798667	1825.580078	2.202466
2803.084202	17463.798667	1824.583008	122.250061
2803.084202	17463.798667	1823.585938	-122.208984
2803.084202	17463.798667	1822.588867	-26.222677
2803.084202	17463.798667	1821.591797	122.418816
2803.084202	17463.798667	1820.594727	-33.348114
2803.084202	17463.798667	1819.596680	-45.349819
2803.084202	17463.798667	1818.599609	62.381912
2803.084202	17463.798667	1817.601563	74.240387
2803.084202	17463.798667	1816.603516	54.929157
2803.084202	17463.798667	1815.604492	-17.081362
2803.084202	17463.798667	1814.606445	123.916603
2803.084202	17463.798667	1813.607422	20.730656
2803.084202	17463.798667	1812.608398	75.453186
2803.084202	17463.798667	1811.609375	-97.138039
2803.084202	17463.798667	1810.610352	93.828506
2803.084202	17463.798667	1809.610352	119.684357
2803.084202	17463.798667	1808.611328	97.673454
2803.084202	17463.798667	1807.611328	-108.428772
2803.084202	17463.798667	1806.611328	3.355133
2803.084202	17463.798667	1805.610352	60.092899
2803.084202	17463.798667	1804.610352	59.431667
2803.084202	17463.798667	1803.609375	75.441963
2803.084202	17463.798667	1802.608398	67.519905
2803.084202	17463.798667	1801.607422	50.002895
2803.084202	17463.798667	1800.606445	137.480804
2803.084202	17463.798667	1799.605469	177.143616
2803.084202	17463.798667	1798.603516	66.406448
2803.084202	17463.798667	1797.601563	-1.392904
2803.084202	17463.798667	1796.599609	28.583994
2803.084202	17463.798667	1795.597656	-39.281448
2803.084202	17463.798667	1794.595703	2.513291
2803.084202	17463.798667	1793.592773	32.319195
2803.084202	17463.798667	1792.589844	59.679405
2803.084202	17463.798667	1791.587891	-39.323193
2803.084202	17463.798667	1790.583984	169.014816
2803.084202	17463.798667	1789.581055	105.655289
2803.084202	17463.798667	1788.577148	149.441925
2803.084202	17463.798667	1787.574219	64.572899
2803.084202	17463.798667	1786.570313	27.296030
2803.084202	17463.798667	1785.566406	-79.051689
2803.084202	17463.798667	1784.561523	69.237305
2803.084202	17463.798667	1783.557617	48.474934
2803.084202	17463.798667	1782.552734	46.694759
2803.084202	17463.798667	1781.547852	173.303864
2803.084202	17463.798667	1780.542969	-56.909966
2803.084202	17463.798667	1779.538086	2.984180
2803.084202	17463.798667	1778.532227	39.024162
2803.084202	17463.798667	1777.527344	-50.971550
2803.084202	17463.798667	1776.521484	37.231701
2803.084202	17463.798667	1775.515625	82.577980
2803.084202	17463.798667	1774.508789	32.830093
2803.084202	17463.798667	1773.502930	-66.827316
2803.084202	17463.798667	1772.496094	23.453806
2803.084202	17463.798667	1771.489258	-64.412987
2803.084202	17463.798667	1770.482422	-5.139782
2803.084202	17463.798667	1769.475586	-52.739922
2803.084202	17463.798667	1768.467773	15.878712
2803.084202	17463.798667	1767.460938	36.971317
2803.084202	17463.798667	1766.453125	141.006927
2803.084202	17463.798667	1765.445313	67.091377
2803.084202	17463.798667	1764.437500	0.257287
2803.084202	17463.798667	1763.428711	92.206894
2803.084202	17463.798667	1762.420898	60.824913
2803.084202	17463.798667	1761.412109	15.174102
2803.084202	17463.798667	1760.403320	123.473434
2803.084202	17463.798667	1759.393555	-45.466621
2803.084202	17463.798667	1758.384766	-110.195930
2803.084202	17463.798667	1757.375000	40.500702
2803.084202	17463.798667	1756.366211	6.434983
2803.084202	17463.798667	1755.356445	76.458618
2803.084202	17463.798667	1754.345703	70.666168
2803.084202	17463.798667	1753.335938	81.382401
2803.084202	17463.798667	1752.325195	-38.073509
2803.084202	17463.798667	1751.315430	15.109788
2803.084202	17463.798667	1750.304688	30.373821
2803.084202	17463.798667	1749.292969	29.017784
2803.084202	17463.798667	1748.282227	15.788940
2803.084202	17463.798667	1747.270508	-11.680081
2803.084202	17463.798667	1746.259766	-17.928394
2803.084202	17463.798667	1745.248047	-43.138027
2803.084202	17463.798667	1744.235352	70.948761
2803.084202	17463.798667	1743.223633	118.816177
2803.084202	17463.798667	1742.211914	-26.995955
2803.084202	17463.798667	1741.199219	32.549557
2803.084202	17463.798667	1740.186523	63.691559
2803.084202	17463.798667	1739.173828	59.367699
2803.084202	17463.798667	1738.160156	26.669704
2803.084202	17463.798667	1737.147461	-53.245129
2803.084202	17463.798667	1736.133789	60.186840
2803.084202	17463.798667	1735.120117	24.971392
2803.084202	17463.798667	1734.106445	-19.718916
2803.084202	17463.798667	1733.091797	32.178131
2803.084202	17463.798667	1732.078125	-17.327539
2803.084202	17463.798667	1731.063477	-33.893475
2803.084202	17463.798667	1730.048828	-41.088772
2803.084202	17463.798667	1729.034180	-5.947370
2803.084202	17463.798667	1728.019531	-53.291283
2803.084202	17463.798667	1727.003906	-67.721642
2803.084202	17463.798667	1725.988281	-61.019707
2803.084202	17463.798667	1724.972656	-52.024540
2803.084202	17463.798667	1723.957031	-87.794456
2803.084202	17463.798667	1722.941406	3.424756
2803.084202	17463.798667	1721.924805	85.138191
2803.084202	17463.798667	1720.909180	16.271587
2803.084202	17463.798667	1719.892578	-31.471346
2803.084202	17463.798667	1718.875977	31.229151
2803.084202	17463.798667	1717.858398	-30.717207
2803.084202	17463.798667	1716.841797	31.848675
2803.084202	17463.798667	1715.824219	-119.456787
2803.084202	17463.798667	1714.806641	142.638565
2803.084202	17463.798667	1713.789063	71.107269
2803.084202	17463.798667	1712.770508	34.761665
2803.084202	17463.798667	1711.752930	82.893227
2803.084202	17463.798667	1710.734375	-16.917231
2803.084202	17463.798667	1709.715820	-6.451477
2803.084202	17463.798667	1708.697266	-183.734482
2803.084202	17463.798667	1707.678711	-72.480171
2803.084202	17463.798667	1706.659180	36.327663
2803.084202	17463.798667	1705.640625	-19.085794
2803.084202	17463.798667	1704.621094	16.893452
2803.084202	17463.798667	1703.600586	174.684662
2803.084202	17463.798667	1702.581055	83.966454
2803.084202	17463.798667	1701.561523	183.017197
2803.084202	17463.798667	1700.541016	108.625320
2803.084202	17463.798667	1699.520508	-61.813137
2803.084202	17463.798667	1698.500000	-77.684891
2803.084202	17463.798667	1697.478516	25.795473
2803.084202	17463.798667	1696.458008	61.314453
2803.084202	17463.798667	1695.436523	190.378387
2803.084202	17463.798667	1694.415039	61.962646
2803.084202	17463.798667	1693.393555	24.787003
2803.084202	17463.798667	1692.372070	13.309507
2803.084202	17463.798667	1691.349609	223.941849
2803.084202	17463.798667	1690.327148	193.629303
2803.084202	17463.798667	1689.304688	151.597519
2803.084202	17463.798667	1688.282227	181.990158
2803.084202	17463.798667	1687.259766	240.368790
2803.084202	17463.798667	1686.236328	55.705009
2803.084202	17463.798667	1685.213867	177.069550
2803.084202	17463.798667	1684.190430	200.253128
2803.084202	17463.798667	1683.166016	136.988144
2803.084202	17463.798667	1682.142578	267.475952
2803.084202	17463.798667	1681.119141	295.177856
2803.084202	17463.798667	1680.094727	418.498322
2803.084202	17463.798667	1679.070313	371.416351
2803.084202	17463.798667	1678.045898	303.321228
2803.084202	17463.798667	1677.020508	249.200409
2803.084202	17463.798667	1675.996094	390.940704
2803.084202	17463.798667	1674.970703	374.052979
2803.084202	17463.798667	1673.945313	406.085236
2803.084202	17463.798667	1672.919922	412.436066
2803.084202	17463.798667	1671.893555	313.894043
2803.084202	17463.798667	1670.868164	296.898621
2803.084202	17463.798667	1669.841797	184.376846
2803.084202	17463.798667	1668.815430	365.271912
2803.084202	17463.798667	1667.789063	399.392151
2803.084202	17463.798667	1666.761719	345.006470
2803.084202	17463.798667	1665.735352	311.566254
2803.084202	17463.798667	1664.708008	287.408081
2803.084202	17463.798667	1663.680664	356.285828
2803.084202	17463.798667	1662.653320	397.197754
2803.084202	17463.798667	1661.625000	354.341370
2803.084202	17463.798667	1660.597656	397.509216
2803.084202	17463.798667	1659.569336	440.625946
2803.084202	17463.798667	1658.541016	325.660980
2803.084202	17463.798667	1657.512695	415.198425
2803.084202	17463.798667	1656.483398	428.002747
2803.084202	17463.798667	1655.455078	336.263092
2803.084202	17463.798667	1654.425781	511.594910
2803.084202	17463.798667	1653.396484	431.431030
2803.084202	17463.798667	1652.366211	530.018188
2803.084202	17463.798667	1651.336914	408.062866
2803.084202	17463.798667	1650.306641	450.883453
2803.084202	17463.798667	1649.276367	567.911926
2803.084202	17463.798667	1648.246094	473.790131
2803.084202	17463.798667	1647.215820	523.476807
2803.084202	17463.798667	1646.185547	575.446289
2803.084202	17463.798667	1645.154297	629.688965
2803.084202	17463.798667	1644.123047	602.771118
2803.084202	17463.798667	1643.091797	631.466919
2803.084202	17463.798667	1642.060547	604.531067
2803.084202	17463.798667	1641.028320	605.381531
2803.084202	17463.798667	1639.997070	749.822754
2803.084202	17463.798667	1638.964844	720.518555
2803.084202	17463.798667	1637.931641	762.974609
2803.084202	17463.798667	1636.899414	886.427979
2803.084202	17463.798667	1635.867188	889.483582
2803.084202	17463.798667	1634.833984	927.227051
2803.084202	17463.798667	1633.800781	728.987366
2803.084202	17463.798667	1632.767578	766.732666
2803.084202	17463.798667	1631.734375	973.265442
2803.084202	17463.798667	1630.700195	902.264404
2803.084202	17463.798667	1629.666016	951.485901
2803.084202	17463.798667	1628.631836	1074.640259
2803.084202	17463.798667	1627.597656	901.979675
2803.084202	17463.798667	1626.563477	983.506409
2803.084202	17463.798667	1625.528320	1060.370728
2803.084202	17463.798667	1624.493164	1139.513794
2803.084202	17463.798667	1623.458008	1006.211182
2803.084202	17463.798667	1622.422852	930.670654
2803.084202	17463.798667	1621.387695	804.386230
2803.084202	17463.798667	1620.351563	844.285095
2803.084202	17463.798667	1619.315430	874.942566
2803.084202	17463.798667	1618.279297	1037.068848
2803.084202	17463.798667	1617.243164	933.927307
2803.084202	17463.798667	1616.207031	1006.065735
2803.084202	17463.798667	1615.169922	1036.678467
2803.084202	17463.798667	1614.132813	1055.761719
2803.084202	17463.798667	1613.095703	1114.019165
2803.084202	17463.798667	1612.058594	1089.321289
2803.084202	17463.798667	1611.020508	1025.473877
2803.084202	17463.798667	1609.983398	791.246643
2803.084202	17463.798667	1608.945313	909.406067
2803.084202	17463.798667	1607.907227	965.373474
2803.084202	17463.798667	1606.868164	998.305298
2803.084202	17463.798667	1605.830078	1045.053589
2803.084202	17463.798667	1604.791016	1031.968018
2803.084202	17463.798667	1603.751953	850.977722
2803.084202	17463.798667	1602.712891	1088.652222
2803.084202	17463.798667	1601.673828	953.740845
2803.084202	17463.798667	1600.633789	926.943054
2803.084202	17463.798667	1599.594727	1024.302612
2803.084202	17463.798667	1598.554688	1082.565796
2803.084202	17463.798667	1597.513672	1083.375610
2803.084202	17463.798667	1596.473633	1139.346313
2803.084202	17463.798667	1595.433594	1023.059814
2803.084202	17463.798667	1594.392578	1049.201660
2803.084202	17463.798667	1593.351563	1020.254272
2803.084202	17463.798667	1592.310547	1039.544556
2803.084202	17463.798667	1591.268555	898.196167
2803.084202	17463.798667	1590.227539	1057.514893
2803.084202	17463.798667	1589.185547	1152.554321
2803.084202	17463.798667	1588.143555	1100.791382
2803.084202	17463.798667	1587.100586	1122.447876
2803.084202	17463.798667	1586.058594	1125.789551
2803.084202	17463.798667	1585.015625	1115.395874
2803.084202	17463.798667	1583.972656	1134.828735
2803.084202	17463.798667	1582.929688	1257.394043
2803.084202	17463.798667	1581.886719	1059.213989
2803.084202	17463.798667	1580.843750	1264.263550
2803.084202	17463.798667	1579.799805	1155.523804
2803.084202	17463.798667	1578.755859	1207.128906
2803.084202	17463.798667	1577.711914	974.895813
2803.084202	17463.798667	1576.666992	1003.687256
2803.084202	17463.798667	1575.623047	1103.444946
2803.084202	17463.798667	1574.578125	1164.298340
2803.084202	17463.798667	1573.533203	1051.326660
2803.084202	17463.798667	1572.488281	856.108582
2803.084202	17463.798667	1571.443359	1095.425049
2803.084202	17463.798667	1570.397461	936.916931
2803.084202	17463.798667	1569.351563	1011.633728
2803.084202	17463.798667	1568.305664	873.848083
2803.084202	17463.798667	1567.259766	797.840881
2803.084202	17463.798667	1566.213867	1002.858887
2803.084202	17463.798667	1565.166992	972.605042
2803.084202	17463.798667	1564.120117	768.874878
2803.084202	17463.798667	1563.073242	839.207947
2803.084202	17463.798667	1562.026367	827.390625
2803.084202	17463.798667	1560.978516	886.354065
2803.084202	17463.798667	1559.930664	865.487183
2803.084202	17463.798667	1558.883789	803.621338
2803.084202	17463.798667	1557.834961	671.112854
2803.084202	17463.798667	1556.787109	727.962036
2803.084202	17463.798667	1555.739258	880.583923
2803.084202	17463.798667	1554.690430	839.448975
2803.084202	17463.798667	1553.641602	973.846863
2803.084202	17463.798667	1552.592773	841.672668
2803.084202	17463.798667	1551.542969	853.101501
2803.084202	17463.798667	1550.494141	805.368835
2803.084202	17463.798667	1549.444336	955.798584
2803.084202	17463.798667	1548.394531	892.223022
2803.084202	17463.798667	1547.344727	928.874207
2803.084202	17463.798667	1546.293945	790.329346
2803.084202	17463.798667	1545.244141	854.394104
2803.084202	17463.798667	1544.193359	768.345093
2803.084202	17463.798667	1543.142578	682.384399
2803.084202	17463.798667	1542.090820	751.129089
2803.084202	17463.798667	1541.040039	663.041992
2803.084202	17463.798667	1539.988281	722.783020
2803.084202	17463.798667	1538.936523	593.936279
2803.084202	17463.798667	1537.884766	576.529724
2803.084202	17463.798667	1536.833008	709.115601
2803.084202	17463.798667	1535.780273	639.565002
2803.084202	17463.798667	1534.727539	438.398010
2803.084202	17463.798667	1533.674805	487.100952
2803.084202	17463.798667	1532.622070	497.257324
2803.084202	17463.798667	1531.569336	475.698151
2803.084202	17463.798667	1530.515625	504.119049
2803.084202	17463.798667	1529.461914	575.691650
2803.084202	17463.798667	1528.408203	502.141968
2803.084202	17463.798667	1527.354492	449.092041
2803.084202	17463.798667	1526.299805	382.516998
2803.084202	17463.798667	1525.246094	429.372681
2803.084202	17463.798667	1524.191406	544.255005
2803.084202	17463.798667	1523.136719	366.866913
2803.084202	17463.798667	1522.081055	366.305908
2803.084202	17463.798667	1521.026367	483.591156
2803.084202	17463.798667	1519.970703	505.782501
2803.084202	17463.798667	1518.915039	482.750580
2803.084202	17463.798667	1517.859375	360.196442
2803.084202	17463.798667	1516.802734	278.489319
2803.084202	17463.798667	1515.747070	400.527161
2803.084202	17463.798667	1514.690430	337.076447
2803.084202	17463.798667	1513.633789	359.666656
2803.084202	17463.798667	1512.577148	386.838623
2803.084202	17463.798667	1511.519531	289.715302
2803.084202	17463.798667	1510.461914	23.167250
2803.084202	17463.798667	1509.405273	0.877205
2803.084202	17463.798667	1508.346680	161.680054
2803.084202	17463.798667	1507.289063	22.034512
2803.084202	17463.798667	1506.231445	101.603195
2803.084202	17463.798667	1505.172852	86.362938
2803.084202	17463.798667	1504.114258	-32.656502
2803.084202	17463.798667	1503.055664	114.804436
2803.084202	17463.798667	1501.996094	124.607056
2803.084202	17463.798667	1500.937500	44.225945
2803.084202	17463.798667	1499.877930	56.439632
2803.084202	17463.798667	1498.818359	100.298492
2803.084202	17463.798667	1497.757813	4.395518
2803.084202	17463.798667	1496.698242	75.449837
2803.084202	17463.798667	1495.637695	-198.341522
2803.084202	17463.798667	1494.577148	181.628647
2803.084202	17463.798667	1493.516602	151.426941
2803.084202	17463.798667	1492.456055	31.199121
2803.084202	17463.798667	1491.394531	-12.328641
2803.084202	17463.798667	1490.333008	-58.015762
2803.084202	17463.798667	1489.271484	-76.591049
2803.084202	17463.798667	1488.209961	251.575562
2803.084202	17463.798667	1487.148438	30.545301
2803.084202	17463.798667	1486.085938	122.445061
2803.084202	17463.798667	1485.023438	104.150391
2803.084202	17463.798667	1483.960938	130.924133
2803.084202	17463.798667	1482.898438	238.723480
2803.084202	17463.798667	1481.834961	135.213684
2803.084202	17463.798667	1480.772461	258.861145
2803.084202	17463.798667	1479.708984	198.252594
2803.084202	17463.798667	1478.644531	250.082245
2803.084202	17463.798667	1477.581055	111.023544
2803.084202	17463.798667	1476.517578	165.294601
2803.084202	17463.798667	1475.453125	237.538086
2803.084202	17463.798667	1474.388672	193.147324
2803.084202	17463.798667	1473.323242	155.492661
2803.084202	17463.798667	1472.258789	340.090546
2803.084202	17463.798667	1471.193359	307.167999
2803.084202	17463.798667	1470.127930	301.223969
2803.084202	17463.798667	1469.062500	315.504089
2803.084202	17463.798667	1467.997070	341.109039
2803.084202	17463.798667	1466.930664	447.427155
2803.084202	17463.798667	1465.865234	390.117493
2803.084202	17463.798667	1464.798828	274.876678
2803.084202	17463.798667	1463.731445	329.772858
2803.084202	17463.798667	1462.665039	478.806366
2803.084202	17463.798667	1461.597656	399.620117
2803.084202	17463.798667	1460.530273	457.066284
2803.084202	17463.798667	1459.462891	530.067200
2803.084202	17463.798667	1458.395508	323.892944
2803.084202	17463.798667	1457.327148	481.934387
2803.084202	17463.798667	1456.259766	483.909241
2803.084202	17463.798667	1455.191406	416.341125
2803.084202	17463.798667	1454.123047	469.129059
2803.084202	17463.798667	1453.053711	364.320038
2803.084202	17463.798667	1451.985352	362.379181
2803.084202	17463.798667	1450.916016	308.380463
2803.084202	17463.798667	1449.846680	497.864685
2803.084202	17463.798667	1448.776367	593.228210
2803.084202	17463.798667	1447.707031	384.617218
2803.084202	17463.798667	1446.636719	360.088623
2803.084202	17463.798667	1445.566406	508.833344
2803.084202	17463.798667	1444.496094	243.209213
2803.084202	17463.798667	1443.425781	227.244415
2803.084202	17463.798667	1442.354492	421.427490
2803.084202	17463.798667	1441.283203	299.923645
2803.084202	17463.798667	1440.211914	285.762024
2803.084202	17463.798667	1439.140625	156.883453
2803.084202	17463.798667	1438.069336	162.839508
2803.084202	17463.798667	1436.997070	161.280228
2803.084202	17463.798667	1435.924805	184.114014
2803.084202	17463.798667	1434.852539	128.915939
2803.084202	17463.798667	1433.780273	72.242966
2803.084202	17463.798667	1432.707031	51.085663
2803.084202	17463.798667	1431.633789	95.493286
2803.084202	17463.798667	1430.560547	34.717609
2803.084202	17463.798667	1429.487305	109.607063
2803.084202	17463.798667	1428.413086	288.594421
2803.084202	17463.798667	1427.339844	131.698868
2803.084202	17463.798667	1426.265625	173.290604
2803.084202	17463.798667	1425.191406	220.295807
2803.084202	17463.798667	1424.116211	166.603058
2803.084202	17463.798667	1423.041992	3.908253
2803.084202	17463.798667	1421.966797	-7.295857
2803.084202	17463.798667	1420.891602	163.134415
2803.084202	17463.798667	1419.816406	227.132401
2803.084202	17463.798667	1418.740234	133.846756
2803.084202	17463.798667	1417.665039	218.946793
2803.084202	17463.798667	1416.588867	184.520615
2803.084202	17463.798667	1415.512695	224.156876
2803.084202	17463.798667	1414.435547	162.486893
2803.084202	17463.798667	1413.359375	194.698395
2803.084202	17463.798667	1412.282227	394.362976
2803.084202	17463.798667	1411.205078	224.658813
2803.084202	17463.798667	1410.127930	300.424957
2803.084202	17463.798667	1409.049805	376.203186
2803.084202	17463.798667	1407.972656	284.119019
2803.084202	17463.798667	1406.894531	327.669983
2803.084202	17463.798667	1405.816406	231.069534
2803.084202	17463.798667	1404.737305	296.435883
2803.084202	17463.798667	1403.659180	361.668365
2803.084202	17463.798667	1402.580078	432.335358
2803.084202	17463.798667	1401.500977	420.158325
2803.084202	17463.798667	1400.421875	296.792175
2803.084202	17463.798667	1399.341797	472.463318
2803.084202	17463.798667	1398.262695	369.655914
2803.084202	17463.798667	1397.182617	431.377869
2803.084202	17463.798667	1396.102539	422.822968
2803.084202	17463.798667	1395.021484	380.775513
2803.084202	17463.798667	1393.941406	329.607697
2803.084202	17463.798667	1392.860352	460.853424
2803.084202	17463.798667	1391.779297	353.600159
2803.084202	17463.798667	1390.698242	237.702499
2803.084202	17463.798667	1389.616211	359.508026
2803.084202	17463.798667	1388.535156	353.587036
2803.084202	17463.798667	1387.453125	360.082428
2803.084202	17463.798667	1386.371094	493.702881
2803.084202	17463.798667	1385.288086	370.731812
2803.084202	17463.798667	1384.206055	330.787781
2803.084202	17463.798667	1383.123047	311.955109
2803.084202	17463.798667	1382.040039	309.191742
2803.084202	17463.798667	1380.957031	380.745270
2803.084202	17463.798667	1379.873047	448.424744
2803.084202	17463.798667	1378.789063	416.333954
2803.084202	17463.798667	1377.705078	226.240021
2803.084202	17463.798667	1376.621094	267.382721
2803.084202	17463.798667	1375.537109	297.486664
2803.084202	17463.798667	1374.452148	484.710785
2803.084202	17463.798667	1373.367188	500.598999
2803.084202	17463.798667	1372.282227	585.661011
2803.084202	17463.798667	1371.197266	530.751892
2803.084202	17463.798667	1370.112305	500.186584
2803.084202	17463.798667	1369.026367	653.463562
2803.084202	17463.798667	1367.940430	615.947693
2803.084202	17463.798667	1366.854492	583.942749
2803.084202	17463.798667	1365.767578	542.084595
2803.084202	17463.798667	1364.681641	357.650818
2803.084202	17463.798667	1363.594727	494.984467
2803.084202	17463.798667	1362.507813	485.352020
2803.084202	17463.798667	1361.419922	319.628815
2803.084202	17463.798667	1360.333008	353.421112
2803.084202	17463.798667	1359.245117	498.115356
2803.084202	17463.798667	1358.157227	533.208740
2803.084202	17463.798667	1357.069336	374.372650
2803.084202	17463.798667	1355.981445	421.247131
2803.084202	17463.798667	1354.892578	440.905548
2803.084202	17463.798667	1353.803711	396.117371
2803.084202	17463.798667	1352.714844	497.319550
2803.084202	17463.798667	1351.625000	475.764740
2803.084202	17463.798667	1350.536133	570.243408
2803.084202	17463.798667	1349.446289	587.014404
2803.084202	17463.798667	1348.356445	485.633057
2803.084202	17463.798667	1347.266602	578.902527
2803.084202	17463.798667	1346.175781	576.552734
2803.084202	17463.798667	1345.085938	617.331238
2803.084202	17463.798667	1343.995117	608.871277
2803.084202	17463.798667	1342.903320	749.190063
2803.084202	17463.798667	1341.812500	692.233521
2803.084202	17463.798667	1340.720703	668.511658
2803.084202	17463.798667	1339.629883	736.120239
2803.084202	17463.798667	1338.538086	759.744690
2803.084202	17463.798667	1337.445313	626.601929
2803.084202	17463.798667	1336.353516	889.147156
2803.084202	17463.798667	1335.260742	709.629089
2803.084202	17463.798667	1334.167969	792.029297
2803.084202	17463.798667	1333.075195	606.171875
2803.084202	17463.798667	1331.981445	814.142700
2803.084202	17463.798667	1330.888672	610.833679
2803.084202	17463.798667	1329.794922	695.613098
2803.084202	17463.798667	1328.701172	706.171753
2803.084202	17463.798667	1327.606445	684.424683
2803.084202	17463.798667	1326.512695	689.161438
2803.084202	17463.798667	1325.417969	756.138367
2803.084202	17463.798667	1324.323242	604.234375
2803.084202	17463.798667	1323.227539	676.458191
2803.084202	17463.798667	1322.132813	779.799194
2803.084202	17463.798667	1321.037109	589.412231
2803.084202	17463.798667	1319.941406	597.919556
2803.084202	17463.798667	1318.845703	533.686646
2803.084202	17463.798667	1317.750000	534.154846
2803.084202	17463.798667	1316.653320	595.305603
2803.084202	17463.798667	1315.556641	548.229614
2803.084202	17463.798667	1314.459961	451.564850
2803.084202	17463.798667	1313.363281	353.074463
2803.084202	17463.798667	1312.265625	501.016846
2803.084202	17463.798667	1311.167969	464.913177
2803.084202	17463.798667	1310.070313	317.039276
2803.084202	17463.798667	1308.972656	361.501923
2803.084202	17463.798667	1307.874023	322.384308
2803.084202	17463.798667	1306.776367	351.252655
2803.084202	17463.798667	1305.677734	442.680237
2803.084202	17463.798667	1304.579102	271.908325
2803.084202	17463.798667	1303.479492	275.733582
2803.084202	17463.798667	1302.380859	469.998352
2803.084202	17463.798667	1301.281250	318.045685
2803.084202	17463.798667	1300.181641	369.945801
2803.084202	17463.798667	1299.081055	244.795349
2803.084202	17463.798667	1297.981445	242.104385
2803.084202	17463.798667	1296.880859	155.346512
2803.084202	17463.798667	1295.780273	346.268677
2803.084202	17463.798667	1294.679688	419.019653
2803.084202	17463.798667	1293.578125	279.636078
2803.084202	17463.798667	1292.476563	162.673462
2803.084202	17463.798667	1291.375000	320.041290
2803.084202	17463.798667	1290.273438	294.540771
2803.084202	17463.798667	1289.171875	227.572617
2803.084202	17463.798667	1288.069336	422.141357
2803.084202	17463.798667	1286.966797	358.679321
2803.084202	17463.798667	1285.864258	331.391449
2803.084202	17463.798667	1284.761719	468.556946
2803.084202	17463.798667	1283.658203	327.053925
2803.084202	17463.798667	1282.554688	392.213501
2803.084202	17463.798667	1281.451172	339.689941
2803.084202	17463.798667	1280.347656	395.251160
2803.084202	17463.798667	1279.244141	289.441498
2803.084202	17463.798667	1278.139648	266.001892
2803.084202	17463.798667	1277.035156	328.231750
2803.084202	17463.798667	1275.930664	277.075317
2803.084202	17463.798667	1274.825195	302.900024
2803.084202	17463.798667	1273.720703	287.157684
2803.084202	17463.798667	1272.615234	263.323059
2803.084202	17463.798667	1271.508789	174.487442
2803.084202	17463.798667	1270.403320	242.896942
2803.084202	17463.798667	1269.297852	109.232048
2803.084202	17463.798667	1268.191406	118.371544
2803.084202	17463.798667	1267.084961	212.857880
2803.084202	17463.798667	1265.977539	166.009293
2803.084202	17463.798667	1264.871094	123.742264
2803.084202	17463.798667	1263.763672	120.082527
2803.084202	17463.798667	1262.656250	158.821533
2803.084202	17463.798667	1261.548828	266.818115
2803.084202	17463.798667	1260.440430	230.958359
2803.084202	17463.798667	1259.333008	285.523499
2803.084202	17463.798667	1258.224609	220.680435
2803.084202	17463.798667	1257.115234	276.509674
2803.084202	17463.798667	1256.006836	219.641983
2803.084202	17463.798667	1254.897461	205.605621
2803.084202	17463.798667	1253.788086	182.403473
2803.084202	17463.798667	1252.678711	177.074997
2803.084202	17463.798667	1251.569336	206.044449
2803.084202	17463.798667	1250.458984	142.260544
2803.084202	17463.798667	1249.349609	161.041519
2803.084202	17463.798667	1248.239258	123.230133
2803.084202	17463.798667	1247.127930	244.386902
2803.084202	17463.798667	1246.017578	110.609856
2803.084202	17463.798667	1244.906250	179.031815
2803.084202	17463.798667	1243.794922	178.858261
2803.084202	17463.798667	1242.683594	173.458817
2803.084202	17463.798667	1241.571289	139.184982
2803.084202	17463.798667	1240.459961	22.189547
2803.084202	17463.798667	1239.347656	142.726883
2803.084202	17463.798667	1238.234375	102.530838
2803.084202	17463.798667	1237.122070	134.558426
2803.084202	17463.798667	1236.008789	58.047871
2803.084202	17463.798667	1234.896484	43.037289
2803.084202	17463.798667	1233.782227	-4.095980
2803.084202	17463.798667	1232.668945	102.053398
2803.084202	17463.798667	1231.555664	100.903854
2803.084202	17463.798667	1230.441406	69.532951
2803.084202	17463.798667	1229.327148	133.074524
2803.084202	17463.798667	1228.211914	66.461601
2803.084202	17463.798667	1227.097656	-3.044450
2803.084202	17463.798667	1225.982422	121.093338
2803.084202	17463.798667	1224.867188	75.210976
2803.084202	17463.798667	1223.751953	94.777725
2803.084202	17463.798667	1222.635742	73.146988
2803.084202	17463.798667	1221.520508	-21.798647
2803.084202	17463.798667	1220.404297	-35.179535
2803.084202	17463.798667	1219.287109	-51.555256
2803.084202	17463.798667	1218.170898	-31.170095
2803.084202	17463.798667	1217.053711	-6.765075
2803.084202	17463.798667	1215.936523	-47.116364
2803.084202	17463.798667	1214.819336	22.244835
2803.084202	17463.798667	1213.702148	138.234100
2803.084202	17463.798667	1212.583984	-57.404636
2803.084202	17463.798667	1211.465820	-2.208687
2803.084202	17463.798667	1210.347656	20.189680
2803.084202	17463.798667	1209.229492	-59.954105
2803.084202	17463.798667	1208.110352	-21.241348
2803.084202	17463.798667	1206.992188	-53.454102
2803.084202	17463.798667	1205.873047	-11.535301
2803.084202	17463.798667	1204.752930	-61.182178
2803.084202	17463.798667	1203.633789	-87.692299
2803.084202	17463.798667	1202.513672	-14.251362
2803.084202	17463.798667	1201.393555	-24.402864
2803.084202	17463.798667	1200.273438	11.136983
2803.084202	17463.798667	1199.152344	129.455231
2803.084202	17463.798667	1198.032227	73.162735
2803.084202	17463.798667	1196.911133	11.949108
2803.084202	17463.798667	1195.790039	11.672339
2803.084202	17463.798667	1194.667969	-44.417976
2803.084202	17463.798667	1193.545898	-40.460400
2803.084202	17463.798667	1192.424805	-48.331673
2803.084202	17463.798667	1191.301758	56.885586
2803.084202	17463.798667	1190.179688	9.374841
2803.084202	17463.798667	1189.056641	34.166782
2803.084202	17463.798667	1187.933594	-1.971745
2803.084202	17463.798667	1186.810547	57.007748
2803.084202	17463.798667	1185.687500	28.345156
2803.084202	17463.798667	1184.563477	102.061897
2803.084202	17463.798667	1183.440430	197.810425
2803.084202	17463.798667	1182.316406	205.899521
2803.084202	17463.798667	1181.191406	194.805832
2803.084202	17463.798667	1180.067383	165.530594
2803.084202	17463.798667	1178.942383	106.825340
2803.084202	17463.798667	1177.817383	49.468380
2803.084202	17463.798667	1176.692383	16.858829
2803.084202	17463.798667	1175.566406	58.143433
2803.084202	17463.798667	1174.440430	-17.578114
2803.084202	17463.798667	1173.314453	-10.537048
2803.084202	17463.798667	1172.188477	33.780022
2803.084202	17463.798667	1171.062500	-52.211647
2803.084202	17463.798667	1169.935547	65.003723
2803.084202	17463.798667	1168.808594	64.916603
2803.084202	17463.798667	1167.681641	30.848520
2803.084202	17463.798667	1166.553711	156.898193
2803.084202	17463.798667	1165.426758	130.529495
2803.084202	17463.798667	1164.298828	143.019699
2803.084202	17463.798667	1163.170898	149.219299
2803.084202	17463.798667	1162.041992	74.539436
2803.084202	17463.798667	1160.914063	65.832405
2803.084202	17463.798667	1159.785156	69.620392
2803.084202	17463.798667	1158.656250	28.941517
2803.084202	17463.798667	1157.526367	-88.449425
2803.084202	17463.798667	1156.397461	-11.965517
2803.084202	17463.798667	1155.267578	-63.729797
2803.084202	17463.798667	1154.137695	38.836033
2803.084202	17463.798667	1153.006836	15.528161
2803.084202	17463.798667	1151.876953	-4.037913
2803.084202	17463.798667	1150.746094	-48.944431
2803.084202	17463.798667	1149.615234	-46.816570
2803.084202	17463.798667	1148.484375	-11.393284
2803.084202	17463.798667	1147.352539	-84.895096
2803.084202	17463.798667	1146.220703	-31.286938
2803.084202	17463.798667	1145.088867	22.245003
2803.084202	17463.798667	1143.957031	-61.184689
2803.084202	17463.798667	1142.825195	-69.607903
2803.084202	17463.798667	1141.692383	-120.251640
2803.084202	17463.798667	1140.559570	-84.021080
2803.084202	17463.798667	1139.426758	-86.259621
2803.084202	17463.798667	1138.292969	-79.491714
2803.084202	17463.798667	1137.159180	-160.899780
2803.084202	17463.798667	1136.025391	-82.874054
2803.084202	17463.798667	1134.891602	-89.223755
2803.084202	17463.798667	1133.757813	14.802473
2803.084202	17463.798667	1132.623047	-29.048462
2803.084202	17463.798667	1131.488281	-13.695125
2803.084202	17463.798667	1130.353516	2.477135
2803.084202	17463.798667	1129.217773	-115.454292
2803.084202	17463.798667	1128.083008	49.509804
2803.084202	17463.798667	1126.947266	12.847027
2803.084202	17463.798667	1125.811523	-55.491371
2803.084202	17463.798667	1124.674805	30.178331
2803.084202	17463.798667	1123.539063	-16.981285
2803.084202	17463.798667	1122.402344	-122.966003
2803.084202	17463.798667	1121.265625	-38.770233
2803.084202	17463.798667	1120.127930	18.019630
2803.084202	17463.798667	1118.990234	-27.711842
2803.084202	17463.798667	1117.853516	62.204735
2803.084202	17463.798667	1116.714844	48.473927
2803.084202	17463.798667	1115.577148	69.966782
2803.084202	17463.798667	1114.439453	32.048008
2803.084202	17463.798667	1113.300781	34.381042
2803.084202	17463.798667	1112.162109	-7.466214
2803.084202	17463.798667	1111.022461	-0.659492
2803.084202	17463.798667	1109.883789	-43.551975
2803.084202	17463.798667	1108.744141	31.942835
2803.084202	17463.798667	1107.604492	31.886642
2803.084202	17463.798667	1106.463867	-33.491375
2803.084202	17463.798667	1105.324219	-76.213554
2803.084202	17463.798667	1104.183594	-18.208786
2803.084202	17463.798667	1103.042969	38.906574
2803.084202	17463.798667	1101.902344	26.616425
2803.084202	17463.798667	1100.760742	10.823628
2803.084202	17463.798667	1099.619141	70.276680
2803.084202	17463.798667	1098.477539	42.130882
2803.084202	17463.798667	1097.335938	13.751017
2803.084202	17463.798667	1096.193359	54.193153
2803.084202	17463.798667	1095.051758	171.423859
2803.084202	17463.798667	1093.909180	67.768593
2803.084202	17463.798667	1092.765625	66.895760
2803.084202	17463.798667	1091.623047	109.578293
2803.084202	17463.798667	1090.479492	41.744488
2803.084202	17463.798667	1089.335938	24.570902
2803.084202	17463.798667	1088.192383	44.416492
2803.084202	17463.798667	1087.047852	121.735535
2803.084202	17463.798667	1085.903320	67.639755
2803.084202	17463.798667	1084.758789	108.931000
2803.084202	17463.798667	1083.614258	72.872536
2803.084202	17463.798667	1082.469727	39.414154
2803.084202	17463.798667	1081.324219	244.468002
2803.084202	17463.798667	1080.178711	157.587891
2803.084202	17463.798667	1079.033203	90.055161
2803.084202	17463.798667	1077.886719	291.296509
2803.084202	17463.798667	1076.740234	102.167641
2803.084202	17463.798667	1075.593750	139.143250
2803.084202	17463.798667	1074.447266	370.980286
2803.084202	17463.798667	1073.300781	284.296570
2803.084202	17463.798667	1072.153320	175.260330
2803.084202	17463.798667	1071.005859	153.002335
2803.084202	17463.798667	1069.858398	217.369415
2803.084202	17463.798667	1068.709961	43.754822
2803.084202	17463.798667	1067.561523	104.580437
2803.084202	17463.798667	1066.413086	128.195511
2803.084202	17463.798667	1065.264648	53.509388
2803.084202	17463.798667	1064.116211	110.372299
2803.084202	17463.798667	1062.966797	0.649554
2803.084202	17463.798667	1061.817383	146.908707
2803.084202	17463.798667	1060.667969	38.191418
2803.084202	17463.798667	1059.517578	89.847778
2803.084202	17463.798667	1058.368164	21.427565
2803.084202	17463.798667	1057.217773	100.755295
2803.084202	17463.798667	1056.067383	36.351322
2803.084202	17463.798667	1054.916016	-104.784470
2803.084202	17463.798667	1053.764648	-20.120909
2803.084202	17463.798667	1052.613281	32.612190
2803.084202	17463.798667	1051.461914	-2.602080
2803.084202	17463.798667	1050.310547	58.250626
2803.084202	17463.798667	1049.158203	35.103176
2803.084202	17463.798667	1048.005859	55.333561
2803.084202	17463.798667	1046.853516	126.641685
2803.084202	17463.798667	1045.700195	-15.257433
2803.084202	17463.798667	1044.547852	-19.152653
2803.084202	17463.798667	1043.394531	61.162212
2803.084202	17463.798667	1042.240234	35.608181
2803.084202	17463.798667	1041.086914	33.428310
2803.084202	17463.798667	1039.932617	78.992203
2803.084202	17463.798667	1038.778320	106.460320
2803.084202	17463.798667	1037.624023	161.243530
2803.084202	17463.798667	1036.469727	172.738998
2803.084202	17463.798667	1035.314453	183.282623
2803.084202	17463.798667	1034.159180	179.419769
2803.084202	17463.798667	1033.003906	281.466553
2803.084202	17463.798667	1031.847656	210.089844
2803.084202	17463.798667	1030.692383	403.386230
2803.084202	17463.798667	1029.536133	324.898224
2803.084202	17463.798667	1028.378906	216.876892
2803.084202	17463.798667	1027.222656	114.621666
2803.084202	17463.798667	1026.065430	220.046936
2803.084202	17463.798667	1024.908203	246.036652
2803.084202	17463.798667	1023.750977	150.136444
2803.084202	17463.798667	1022.593750	1.941794
2803.084202	17463.798667	1021.435547	130.383499
2803.084202	17463.798667	1020.277344	38.781647
2803.084202	17463.798667	1019.119141	71.265404
2803.084202	17463.798667	1017.959961	76.152710
2803.084202	17463.798667	1016.800781	-25.201099
2803.084202	17463.798667	1015.641602	49.806274
2803.084202	17463.798667	1014.482422	52.827415
2803.084202	17463.798667	1013.323242	-82.236061
2803.084202	17463.798667	1012.163086	-63.779205
2803.084202	17463.798667	1011.002930	35.090549
2803.084202	17463.798667	1009.842773	17.328043
2803.084202	17463.798667	1008.681641	-15.898849
2803.084202	17463.798667	1007.520508	-65.102760
2803.084202	17463.798667	1006.359375	19.432861
2803.084202	17463.798667	1005.198242	97.020775
2803.084202	17463.798667	1004.037109	36.620220
2803.084202	17463.798667	1002.875000	42.787632
2803.084202	17463.798667	1001.712891	100.091545
2803.084202	17463.798667	1000.550781	33.661125
2803.084202	17463.798667	999.387695	52.436054
2803.084202	17463.798667	998.224609	103.080627
2803.084202	17463.798667	997.061523	82.450089
2803.084202	17463.798667	995.898438	-14.507071
2803.084202	17463.798667	994.734375	5.394362
2803.084202	17463.798667	993.571289	32.536671
2803.084202	17463.798667	992.407227	13.327595
2803.084202	17463.798667	991.242188	-133.903564
2803.084202	17463.798667	990.078125	35.153324
2803.084202	17463.798667	988.913086	6.074351
2803.084202	17463.798667	987.748047	-77.248466
2803.084202	17463.798667	986.583008	-32.953552
2803.084202	17463.798667	985.416992	-58.842651
2803.084202	17463.798667	984.250977	34.948475
2803.084202	17463.798667	983.084961	-17.118488
2803.084202	17463.798667	981.918945	15.154465
2803.084202	17463.798667	980.751953	-11.218088
2803.084202	17463.798667	979.584961	-73.910408
2803.084202	17463.798667	978.417969	59.651009
2803.084202	17463.798667	977.250977	-40.891991
2803.084202	17463.798667	976.083008	-124.153313
2803.084202	17463.798667	974.915039	-104.379906
2803.084202	17463.798667	973.747070	-85.548080
2803.084202	17463.798667	972.579102	-18.827997
2803.084202	17463.798667	971.410156	-52.220840
2803.084202	17463.798667	970.242188	-89.290894
2803.084202	17463.798667	969.072266	-146.198013
2803.084202	17463.798667	967.903320	-5.469831
2803.084202	17463.798667	966.733398	-94.330734
2803.084202	17463.798667	965.563477	31.126757
2803.084202	17463.798667	964.393555	-81.717239
2803.084202	17463.798667	963.223633	-14.242358
2803.084202	17463.798667	962.052734	6.783488
2803.084202	17463.798667	960.881836	31.635496
2803.084202	17463.798667	959.710938	129.536560
2803.084202	17463.798667	958.540039	100.893661
2803.084202	17463.798667	957.368164	212.292831
2803.084202	17463.798667	956.196289	133.997101
2803.084202	17463.798667	955.024414	5.962765
2803.084202	17463.798667	953.851563	94.599548
2803.084202	17463.798667	952.679688	17.849907
2803.084202	17463.798667	951.506836	174.739594
2803.084202	17463.798667	950.333984	72.844673
2803.084202	17463.798667	949.160156	79.571404
2803.084202	17463.798667	947.986328	25.955376
2803.084202	17463.798667	946.812500	159.033905
2803.084202	17463.798667	945.638672	233.873123
2803.084202	17463.798667	944.464844	222.554321
2803.084202	17463.798667	943.290039	156.022232
2803.084202	17463.798667	942.115234	184.533188
2803.084202	17463.798667	940.940430	114.557144
2803.084202	17463.798667	939.764648	115.099350
2803.084202	17463.798667	938.588867	65.898094
2803.084202	17463.798667	937.413086	-19.813019
2803.084202	17463.798667	936.237305	-16.363867
2803.084202	17463.798667	935.060547	85.943634
2803.084202	17463.798667	933.883789	86.299477
2803.084202	17463.798667	932.707031	74.991920
2803.084202	17463.798667	931.530273	44.779469
2803.084202	17463.798667	930.352539	-10.255073
2803.084202	17463.798667	929.175781	70.215904
2803.084202	17463.798667	927.998047	16.594149
2803.084202	17463.798667	926.819336	34.358807
2803.084202	17463.798667	925.641602	59.430805
2803.084202	17463.798667	924.462891	71.360741
2803.084202	17463.798667	923.284180	78.907028
2803.084202	17463.798667	922.104492	134.495636
2803.084202	17463.798667	920.924805	201.696518
2803.084202	17463.798667	919.746094	202.905807
2803.084202	17463.798667	919.551758	168.639420
2803.084202	17463.798667	918.386719	135.373169
2803.084202	17463.798667	917.220703	187.943054
2803.084202	17463.798667	916.054688	250.663666
2803.084202	17463.798667	914.887695	292.993164
2803.084202	17463.798667	913.721680	250.971237
2803.084202	17463.798667	912.554688	150.815277
2803.084202	17463.798667	911.387695	191.660690
2803.084202	17463.798667	910.220703	42.139450
2803.084202	17463.798667	909.052734	-34.693188
2803.084202	17463.798667	907.885742	103.451561
2803.084202	17463.798667	906.717773	-21.297363
2803.084202	17463.798667	905.548828	2.081614
2803.084202	17463.798667	904.380859	-44.229622
2803.084202	17463.798667	903.211914	-33.931286
2803.084202	17463.798667	902.042969	105.487534
2803.084202	17463.798667	900.874023	44.655861
2803.084202	17463.798667	899.704102	83.915489
2803.084202	17463.798667	898.535156	-7.351448
2803.084202	17463.798667	897.365234	33.338341
2803.084202	17463.798667	896.194336	21.825758
2803.084202	17463.798667	895.024414	21.903589
2803.084202	17463.798667	893.853516	-15.694905
2803.084202	17463.798667	892.682617	55.356640
2803.084202	17463.798667	891.511719	33.684772
2803.084202	17463.798667	890.340820	64.141617
2803.084202	17463.798667	889.168945	0.481992
2803.084202	17463.798667	887.997070	77.236855
2803.084202	17463.798667	886.825195	52.659214
2803.084202	17463.798667	885.653320	35.318947
2803.084202	17463.798667	884.480469	15.087530
2803.084202	17463.798667	883.307617	-38.404449
2803.084202	17463.798667	882.134766	85.964645
2803.084202	17463.798667	880.961914	-36.920380
2803.084202	17463.798667	879.788086	-29.683680
2803.084202	17463.798667	878.614258	-45.575527
2803.084202	17463.798667	877.440430	-12.346373
2803.084202	17463.798667	876.266602	48.306553
2803.084202	17463.798667	875.091797	-2.267314
2803.084202	17463.798667	873.916992	-15.286988
2803.084202	17463.798667	872.742188	53.974117
2803.084202	17463.798667	871.567383	13.515043
2803.084202	17463.798667	870.391602	-86.092636
2803.084202	17463.798667	869.215820	71.124931
2803.084202	17463.798667	868.040039	39.324509
2803.084202	17463.798667	866.864258	99.822990
2803.084202	17463.798667	865.687500	140.106949
2803.084202	17463.798667	864.510742	59.285980
2803.084202	17463.798667	863.333984	-25.831305
2803.084202	17463.798667	862.157227	174.373245
2803.084202	17463.798667	860.979492	-15.905835
2803.084202	17463.798667	859.802734	-27.518610
2803.084202	17463.798667	858.625000	-40.572083
2803.084202	17463.798667	857.446289	64.429802
2803.084202	17463.798667	856.268555	-73.876198
2803.084202	17463.798667	855.089844	-23.608345
2803.084202	17463.798667	853.911133	26.632523
2803.084202	17463.798667	852.731445	-141.805786
2803.084202	17463.798667	851.552734	-85.820168
2803.084202	17463.798667	850.373047	82.294289
2803.084202	17463.798667	849.193359	16.001207
2803.084202	17463.798667	848.013672	-21.524651
2803.084202	17463.798667	846.833008	-57.603489
2803.084202	17463.798667	845.652344	-73.559761
2803.084202	17463.798667	844.471680	5.289575
2803.084202	17463.798667	843.291016	62.557251
2803.084202	17463.798667	842.110352	46.566929
2803.084202	17463.798667	840.928711	98.048164
2803.084202	17463.798667	839.747070	70.561768
2803.084202	17463.798667	838.564453	20.121460
2803.084202	17463.798667	837.382813	-30.305811
2803.084202	17463.798667	836.200195	105.749840
2803.084202	17463.798667	835.017578	-2.050671
2803.084202	17463.798667	833.834961	12.057216
2803.084202	17463.798667	832.651367	94.960220
2803.084202	17463.798667	831.467773	41.668388
2803.084202	17463.798667	830.284180	-24.505394
2803.084202	17463.798667	829.100586	-10.433789
2803.084202	17463.798667	827.916992	5.056924
2803.084202	17463.798667	826.732422	-19.562597
2803.084202	17463.798667	825.547852	54.608822
2803.084202	17463.798667	824.363281	207.469498
2803.084202	17463.798667	823.177734	250.062820
2803.084202	17463.798667	821.992188	286.906677
2803.084202	17463.798667	820.806641	249.338821
2803.084202	17463.798667	819.621094	111.661385
2803.084202	17463.798667	818.434570	46.959194
2803.084202	17463.798667	817.249023	-17.724941
2803.084202	17463.798667	816.062500	69.120094
2803.084202	17463.798667	814.875000	47.312496
2803.084202	17463.798667	813.688477	42.649002
2803.084202	17463.798667	812.500977	47.977592
2803.084202	17463.798667	811.313477	103.280548
2803.084202	17463.798667	810.125977	0.056254
2803.084202	17463.798667	808.937500	56.754219
2803.084202	17463.798667	807.749023	-106.383987
2803.084202	17463.798667	806.560547	37.339241
2803.084202	17463.798667	805.372070	-141.441498
2803.084202	17463.798667	804.182617	-110.477425
2803.084202	17463.798667	802.994141	11.733893
2803.084202	17463.798667	801.803711	-77.136101
2803.084202	17463.798667	800.614258	-97.556061
2803.084202	17463.798667	799.424805	-39.591183
2803.084202	17463.798667	798.234375	-22.984936
2803.084202	17463.798667	797.043945	-76.204185
2803.084202	17463.798667	795.852539	-68.166229
2803.084202	17463.798667	794.662109	-14.574603
2803.084202	17463.798667	793.470703	50.372963
2803.084202	17463.798667	792.279297	-29.911459
2803.084202	17463.798667	791.087891	81.951828
2803.084202	17463.798667	789.895508	-13.982384
2803.084202	17463.798667	788.703125	3.915294
2803.084202	17463.798667	787.510742	30.326309
2803.084202	17463.798667	786.318359	82.309067
2803.084202	17463.798667	785.125000	60.328476
2803.084202	17463.798667	783.931641	92.356232
2803.084202	17463.798667	782.738281	6.405822
2803.084202	17463.798667	781.544922	45.507317
2803.084202	17463.798667	780.350586	30.598721
2803.084202	17463.798667	779.156250	-45.387291
2803.084202	17463.798667	777.961914	20.635029
2803.084202	17463.798667	776.767578	45.446239
2803.084202	17463.798667	775.572266	-16.347256
2803.084202	17463.798667	774.376953	11.268323
2803.084202	17463.798667	773.181641	16.157034
2803.084202	17463.798667	771.986328	26.701490
2803.084202	17463.798667	770.790039	-81.899185
2803.084202	17463.798667	769.593750	30.714537
2803.084202	17463.798667	768.397461	-12.667017
2803.084202	17463.798667	767.201172	-19.198345
2803.084202	17463.798667	766.003906	23.849894
2803.084202	17463.798667	764.806641	-6.803831
2803.084202	17463.798667	763.609375	34.772896
2803.084202	17463.798667	762.412109	8.343059
2803.084202	17463.798667	761.213867	-15.262498
2803.084202	17463.798667	760.015625	82.856392
2803.084202	17463.798667	758.817383	36.565254
2803.084202	17463.798667	757.618164	-117.257744
2803.084202	17463.798667	756.419922	-9.331964
2803.084202	17463.798667	755.220703	-30.173336
2803.084202	17463.798667	754.021484	6.949922
2803.084202	17463.798667	752.821289	-37.958103
2803.084202	17463.798667	751.621094	42.928642
2803.084202	17463.798667	750.420898	58.757423
2803.084202	17463.798667	749.220703	13.807344
2803.084202	17463.798667	748.020508	64.908775
2803.084202	17463.798667	746.819336	21.347469
2803.084202	17463.798667	745.618164	-73.046532
2803.084202	17463.798667	744.416992	79.619164
2803.084202	17463.798667	743.214844	89.651253
2803.084202	17463.798667	742.012695	125.057579
2803.084202	17463.798667	740.810547	177.356979
2803.084202	17463.798667	739.608398	128.057602
2803.084202	17463.798667	738.406250	242.339417
2803.084202	17463.798667	737.203125	443.964630
2803.084202	17463.798667	736.000000	538.353760
2803.084202	17463.798667	734.795898	655.229858
2803.084202	17463.798667	733.592773	632.541809
2803.084202	17463.798667	732.388672	823.965393
2803.084202	17463.798667	731.184570	798.388489
2803.084202	17463.798667	729.979492	696.759705
2803.084202	17463.798667	728.775391	675.396667
2803.084202	17463.798667	727.570313	465.407684
2803.084202	17463.798667	726.365234	427.167542
2803.084202	17463.798667	725.160156	483.185394
2803.084202	17463.798667	723.954102	384.421967
2803.084202	17463.798667	722.748047	350.369293
2803.084202	17463.798667	721.541992	292.402710
2803.084202	17463.798667	720.334961	383.447784
2803.084202	17463.798667	719.128906	487.079773
2803.084202	17463.798667	717.921875	579.401306
2803.084202	17463.798667	716.714844	696.947510
2803.084202	17463.798667	715.506836	572.827026
2803.084202	17463.798667	714.298828	349.027588
2803.084202	17463.798667	713.090820	253.061844
2803.084202	17463.798667	711.882813	89.731888
2803.084202	17463.798667	710.674805	69.593758
2803.084202	17463.798667	709.465820	62.066036
2803.084202	17463.798667	708.256836	98.003342
2803.084202	17463.798667	707.047852	-44.223328
2803.084202	17463.798667	705.837891	47.757668
2803.084202	17463.798667	704.627930	-20.148672
2803.084202	17463.798667	703.417969	-19.371630
2803.084202	17463.798667	702.208008	-62.063625
2803.084202	17463.798667	700.998047	-43.117310
2803.084202	17463.798667	699.787109	-98.447746
2803.084202	17463.798667	698.576172	-75.354401
2803.084202	17463.798667	697.364258	-73.301674
2803.084202	17463.798667	696.153320	-109.072853
2803.084202	17463.798667	694.941406	34.291965
2803.084202	17463.798667	693.729492	16.649668
2803.084202	17463.798667	692.516602	38.158340
2803.084202	17463.798667	691.304688	10.676988
2803.084202	17463.798667	690.091797	106.240067
2803.084202	17463.798667	688.878906	56.330555
2803.084202	17463.798667	687.665039	9.209018
2803.084202	17463.798667	686.451172	17.982016
2803.084202	17463.798667	685.237305	-31.960798
2803.084202	17463.798667	684.023438	27.052456
2803.084202	17463.798667	682.809570	45.510563
2803.084202	17463.798667	681.594727	-65.929497
2803.084202	17463.798667	680.379883	11.119239
2803.084202	17463.798667	679.165039	69.963455
2803.084202	17463.798667	677.949219	33.861153
2803.084202	17463.798667	676.733398	8.908379
2803.084202	17463.798667	675.517578	-9.086224
2803.084202	17463.798667	674.301758	3.580046
2803.084202	17463.798667	673.084961	41.310642
2803.084202	17463.798667	671.869141	16.268572
2803.084202	17463.798667	670.651367	98.523392
2803.084202	17463.798667	669.434570	99.899757
2803.084202	17463.798667	668.216797	32.983242
2803.084202	17463.798667	667.000000	186.138229
2803.084202	17463.798667	665.781250	85.755821
2803.084202	17463.798667	664.563477	208.150696
2803.084202	17463.798667	663.344727	100.793091
2803.084202	17463.798667	662.125977	142.361877
2803.084202	17463.798667	660.907227	259.021271
2803.084202	17463.798667	659.688477	146.077560
2803.084202	17463.798667	658.468750	145.806625
2803.084202	17463.798667	657.249023	209.472916
2803.084202	17463.798667	656.029297	167.431580
2803.084202	17463.798667	654.808594	126.770966
2803.084202	17463.798667	653.587891	168.088608
2803.084202	17463.798667	652.367188	184.355896
2803.084202	17463.798667	651.146484	164.476852
2803.084202	17463.798667	649.924805	93.196480
2803.084202	17463.798667	648.704102	152.436020
2803.084202	17463.798667	647.482422	214.400650
2803.084202	17463.798667	646.259766	155.570496
2803.084202	17463.798667	645.037109	153.630737
2803.084202	17463.798667	643.815430	116.988258
2803.084202	17463.798667	642.591797	130.264694
2803.084202	17463.798667	641.369141	121.327705
2803.084202	17463.798667	640.145508	130.392075
2803.084202	17463.798667	638.921875	178.240723
2803.084202	17463.798667	637.698242	113.796791
2803.084202	17463.798667	636.474609	92.309135
2803.084202	17463.798667	635.250000	124.829300
2803.084202	17463.798667	634.025391	114.382019
2803.084202	17463.798667	632.800781	121.917816
2803.084202	17463.798667	631.575195	193.106384
2803.084202	17463.798667	630.349609	105.079956
2803.084202	17463.798667	629.124023	155.445328
2803.084202	17463.798667	627.898438	117.228264
2803.084202	17463.798667	626.671875	99.753212
2803.084202	17463.798667	625.445313	205.340973
2803.084202	17463.798667	624.218750	164.312729
2803.084202	17463.798667	622.992188	197.926208
2803.084202	17463.798667	621.764648	290.930664
2803.084202	17463.798667	620.537109	110.303688
2803.084202	17463.798667	619.309570	154.903152
2803.084202	17463.798667	618.081055	124.885506
2803.084202	17463.798667	616.852539	82.436928
2803.084202	17463.798667	615.624023	95.210709
2803.084202	17463.798667	614.395508	88.640388
2803.084202	17463.798667	613.166992	-20.056753
2803.084202	17463.798667	611.937500	82.359200
2803.084202	17463.798667	610.708008	64.715172
2803.084202	17463.798667	609.477539	40.167091
2803.084202	17463.798667	608.248047	45.951412
2803.084202	17463.798667	607.017578	32.419579
2803.084202	17463.798667	605.787109	57.469860
2803.084202	17463.798667	604.555664	103.163956
2803.084202	17463.798667	603.325195	81.327766
2803.084202	17463.798667	602.093750	89.788284
2803.084202	17463.798667	600.861328	65.185181
2803.084202	17463.798667	599.629883	21.310732
2803.084202	17463.798667	598.397461	10.477750
2803.084202	17463.798667	597.165039	69.822891
2803.084202	17463.798667	595.932617	14.940956
2803.084202	17463.798667	594.699219	-0.036522
2803.084202	17463.798667	593.465820	-21.890820
2803.084202	17463.798667	592.232422	-16.243425
2803.084202	17463.798667	590.999023	-39.471684
2803.084202	17463.798667	589.764648	-18.717974
2803.084202	17463.798667	588.530273	-80.421738
2803.084202	17463.798667	587.295898	15.881491
2803.084202	17463.798667	586.061523	0.888127
2803.084202	17463.798667	584.826172	-22.343515
2803.084202	17463.798667	583.590820	60.146080
2803.084202	17463.798667	582.355469	34.163200
2803.084202	17463.798667	581.119141	20.539120
2803.084202	17463.798667	579.882813	142.750961
2803.084202	17463.798667	578.646484	207.298355
2803.084202	17463.798667	577.410156	164.847015
2803.084202	17463.798667	576.172852	162.175964
2803.084202	17463.798667	574.935547	129.350235
2803.084202	17463.798667	573.698242	182.886581
2803.084202	17463.798667	572.460938	240.514648
2803.084202	17463.798667	571.222656	181.672226
2803.084202	17463.798667	569.984375	244.761703
2803.084202	17463.798667	568.746094	374.929749
2803.084202	17463.798667	567.506836	338.016022
2803.084202	17463.798667	566.267578	432.530792
2803.084202	17463.798667	565.028320	369.633942
2803.084202	17463.798667	563.789063	189.104431
2803.084202	17463.798667	562.548828	119.461647
2803.084202	17463.798667	561.309570	82.683449
2803.084202	17463.798667	560.068359	148.477570
2803.084202	17463.798667	558.828125	43.375401
2803.084202	17463.798667	557.586914	66.803261
2803.084202	17463.798667	556.345703	102.531151
2803.084202	17463.798667	555.104492	89.074379
2803.084202	17463.798667	553.863281	120.711418
2803.084202	17463.798667	552.621094	-40.201363
2803.084202	17463.798667	551.378906	-52.212864
2803.084202	17463.798667	550.136719	9.506657
2803.084202	17463.798667	548.893555	4.342886
2803.084202	17463.798667	547.650391	-51.285351
2803.084202	17463.798667	546.407227	-63.220200
2803.084202	17463.798667	545.164063	118.533577
2803.084202	17463.798667	543.919922	46.606350
2803.084202	17463.798667	542.675781	12.900253
2803.084202	17463.798667	541.431641	6.488148
2803.084202	17463.798667	540.186523	2.822690
2803.084202	17463.798667	538.941406	11.441200
2803.084202	17463.798667	537.696289	-16.698227
2803.084202	17463.798667	536.451172	2.859558
2803.084202	17463.798667	535.205078	33.322132
2803.084202	17463.798667	533.959961	-60.073112
2803.084202	17463.798667	532.712891	18.067457
2803.084202	17463.798667	531.466797	-56.188778
2803.084202	17463.798667	530.219727	85.903397
2803.084202	17463.798667	528.972656	66.114456
2803.084202	17463.798667	527.725586	122.506905
2803.084202	17463.798667	526.478516	56.550442
2803.084202	17463.798667	525.230469	91.225647
2803.084202	17463.798667	523.982422	10.409313
2803.084202	17463.798667	522.734375	64.155563
2803.084202	17463.798667	521.485352	-88.555489
2803.084202	17463.798667	520.236328	-57.841309
2803.084202	17463.798667	518.987305	17.693478
2803.084202	17463.798667	517.737305	-102.244919
2803.084202	17463.798667	516.488281	-70.102066
2803.084202	17463.798667	515.238281	-93.574303
2803.084202	17463.798667	513.988281	-103.440460
2803.084202	17463.798667	512.737305	-44.104187
2803.084202	17463.798667	511.486328	-101.375160
2803.084202	17463.798667	510.235352	19.003170
2803.084202	17463.798667	508.984375	-9.730734
2803.084202	17463.798667	507.732422	-20.805708
2803.084202	17463.798667	506.480469	-80.616608
2803.084202	17463.798667	505.228516	-33.364010
2803.084202	17463.798667	503.976563	36.922359
2803.084202	17463.798667	502.723633	20.558098
2803.084202	17463.798667	501.470703	21.830250
2803.084202	17463.798667	500.217773	-28.292456
2803.084202	17463.798667	498.963867	31.234068
2803.084202	17463.798667	497.709961	56.948158
2803.084202	17463.798667	496.456055	52.929276
2803.084202	17463.798667	495.202148	-13.256330
2803.084202	17463.798667	493.947266	97.714195
2803.084202	17463.798667	492.692383	165.417496
2803.084202	17463.798667	491.437500	60.156055
2803.084202	17463.798667	490.181641	192.747772
2803.084202	17463.798667	488.926758	36.259949
2803.084202	17463.798667	487.670898	125.647522
2803.084202	17463.798667	486.414063	28.705536
2803.084202	17463.798667	485.158203	119.465332
2803.084202	17463.798667	483.901367	110.346245
2803.084202	17463.798667	482.644531	225.392151
2803.084202	17463.798667	481.386719	117.833900
2803.084202	17463.798667	480.128906	30.579504
2803.084202	17463.798667	478.871094	196.887482
2803.084202	17463.798667	477.613281	249.907928
2803.084202	17463.798667	476.355469	196.453476
2803.084202	17463.798667	475.096680	226.591705
2803.084202	17463.798667	473.837891	210.933365
2803.084202	17463.798667	472.578125	206.078720
2803.084202	17463.798667	471.319336	111.022385
2803.084202	17463.798667	470.059570	207.208939
2803.084202	17463.798667	468.799805	223.954361
2803.084202	17463.798667	467.539063	145.158508
2803.084202	17463.798667	466.278320	316.673798
2803.084202	17463.798667	465.017578	278.278656
2803.084202	17463.798667	463.756836	281.605347
2803.084202	17463.798667	462.495117	365.618469
2803.084202	17463.798667	461.233398	324.582672
2803.084202	17463.798667	459.971680	302.388885
2803.084202	17463.798667	458.709961	288.274078
2803.084202	17463.798667	457.447266	236.552643
2803.084202	17463.798667	456.184570	340.663239
2803.084202	17463.798667	454.921875	142.582901
2803.084202	17463.798667	453.658203	175.510468
2803.084202	17463.798667	452.394531	143.989853
2803.084202	17463.798667	451.130859	292.305908
2803.084202	17463.798667	449.867188	266.126160
2803.084202	17463.798667	448.602539	273.482635
2803.084202	17463.798667	447.337891	280.822205
2803.084202	17463.798667	446.073242	341.776520
2803.084202	17463.798667	444.807617	308.845978
2803.084202	17463.798667	443.542969	250.444260
2803.084202	17463.798667	442.276367	356.858643
2803.084202	17463.798667	441.010742	227.415497
2803.084202	17463.798667	439.744141	306.942627
2803.084202	17463.798667	438.478516	224.370483
2803.084202	17463.798667	437.210938	228.817749
2803.084202	17463.798667	435.944336	195.744354
2803.084202	17463.798667	434.676758	107.772415
2803.084202	17463.798667	433.409180	344.910797
2803.084202	17463.798667	432.141602	267.545288
2803.084202	17463.798667	430.873047	232.952194
2803.084202	17463.798667	429.604492	271.852509
2803.084202	17463.798667	428.335938	223.780594
2803.084202	17463.798667	427.067383	239.812714
2803.084202	17463.798667	425.797852	262.443634
2803.084202	17463.798667	424.528320	358.462860
2803.084202	17463.798667	423.258789	352.849579
2803.084202	17463.798667	421.988281	340.472961
2803.084202	17463.798667	420.717773	227.879593
2803.084202	17463.798667	419.447266	252.717667
2803.084202	17463.798667	418.175781	168.012909
2803.084202	17463.798667	416.905273	311.382813
2803.084202	17463.798667	415.633789	250.488693
2803.084202	17463.798667	414.362305	393.541870
2803.084202	17463.798667	413.089844	283.074371
2803.084202	17463.798667	411.817383	284.496094
2803.084202	17463.798667	410.544922	240.465302
2803.084202	17463.798667	409.272461	178.985901
2803.084202	17463.798667	407.999023	198.640610
2803.084202	17463.798667	406.725586	280.724762
2803.084202	17463.798667	405.452148	237.439438
2803.084202	17463.798667	404.177734	276.535889
2803.084202	17463.798667	402.903320	119.777557
2803.084202	17463.798667	401.628906	199.765335
2803.084202	17463.798667	400.354492	154.462296
2803.084202	17463.798667	399.079102	91.679901
2803.084202	17463.798667	397.803711	205.581223
2803.084202	17463.798667	396.528320	212.847504
2803.084202	17463.798667	395.251953	241.145996
2803.084202	17463.798667	393.976563	162.879196
2803.084202	17463.798667	392.700195	237.194183
2803.084202	17463.798667	391.422852	45.535397
2803.084202	17463.798667	390.145508	225.565231
2803.084202	17463.798667	388.869141	123.746956
2803.084202	17463.798667	387.590820	192.928940
2803.084202	17463.798667	386.313477	251.171860
2803.084202	17463.798667	385.035156	208.229340
2803.084202	17463.798667	383.756836	198.154770
2803.084202	17463.798667	382.478516	258.054230
2803.084202	17463.798667	381.199219	93.473366
2803.084202	17463.798667	379.919922	156.651154
2803.084202	17463.798667	378.640625	150.512222
2803.084202	17463.798667	377.360352	105.563110
2803.084202	17463.798667	376.080078	145.043228
2803.084202	17463.798667	374.799805	168.210938
2803.084202	17463.798667	373.519531	145.928833
2803.084202	17463.798667	372.238281	86.149391
2803.084202	17463.798667	370.957031	94.794746
2803.084202	17463.798667	369.675781	200.923447
2803.084202	17463.798667	368.394531	105.412613
2803.084202	17463.798667	367.112305	151.006638
2803.084202	17463.798667	365.830078	67.791420
2803.084202	17463.798667	364.546875	66.077850
2803.084202	17463.798667	363.264648	13.612912
2803.084202	17463.798667	361.981445	2.917501
2803.084202	17463.798667	360.698242	-59.866531
2803.084202	17463.798667	359.414063	-6.941927
2803.084202	17463.798667	358.129883	11.028148
2803.084202	17463.798667	356.845703	0.651946
2803.084202	17463.798667	355.561523	-16.942583
2803.084202	17463.798667	354.276367	51.940510
2803.084202	17463.798667	352.991211	0.037919
2803.084202	17463.798667	351.706055	-5.016096
2803.084202	17463.798667	350.420898	-51.655975
2803.084202	17463.798667	349.134766	31.566622
2803.084202	17463.798667	347.848633	13.806943
2803.084202	17463.798667	346.561523	127.117912
2803.084202	17463.798667	345.275391	-9.482681
2803.084202	17463.798667	343.988281	70.594032
2803.084202	17463.798667	342.700195	108.962334
2803.084202	17463.798667	341.413086	104.349937
2803.084202	17463.798667	340.125000	227.917572
2803.084202	17463.798667	338.836914	233.376968
2803.084202	17463.798667	337.548828	122.098999
2803.084202	17463.798667	336.259766	204.694763
2803.084202	17463.798667	334.970703	74.474884
2803.084202	17463.798667	333.681641	174.859741
2803.084202	17463.798667	332.391602	168.969666
2803.084202	17463.798667	331.101563	143.653198
2803.084202	17463.798667	329.811523	134.393387
2803.084202	17463.798667	328.521484	99.095695
2803.084202	17463.798667	327.230469	27.212437
2803.084202	17463.798667	325.939453	1.530895
2803.084202	17463.798667	324.648438	-9.527741
2803.084202	17463.798667	323.356445	-92.699257
2803.084202	17463.798667	322.064453	-20.809544
2803.084202	17463.798667	320.772461	-88.005753
2803.084202	17463.798667	319.480469	-2.897909
2803.084202	17463.798667	318.187500	-31.984802
2803.084202	17463.798667	316.894531	-63.694221
2803.084202	17463.798667	315.601563	-77.071785
2803.084202	17463.798667	314.307617	5.160374
2803.084202	17463.798667	313.013672	-53.011581
2803.084202	17463.798667	311.719727	-64.115799
2803.084202	17463.798667	310.425781	-140.899704
2803.084202	17463.798667	309.130859	71.613129
2803.084202	17463.798667	307.835938	17.922638
2803.084202	17463.798667	306.541016	70.044876
2803.084202	17463.798667	305.245117	70.734215
2803.084202	17463.798667	303.949219	81.546982
2803.084202	17463.798667	302.653320	120.761169
2803.084202	17463.798667	301.356445	39.128525
2803.084202	17463.798667	300.060547	63.070190
2803.084202	17463.798667	298.763672	45.916618
