#X		#Y		#Wave		#Intensity
2831.041436	17456.698500	2000.043945	124.917297
2831.041436	17456.698500	1999.080078	-138.853897
2831.041436	17456.698500	1998.116211	-57.071648
2831.041436	17456.698500	1997.151367	-25.143850
2831.041436	17456.698500	1996.186523	18.904837
2831.041436	17456.698500	1995.222656	176.640915
2831.041436	17456.698500	1994.256836	-22.570791
2831.041436	17456.698500	1993.291992	8.356512
2831.041436	17456.698500	1992.327148	-20.370287
2831.041436	17456.698500	1991.361328	-34.445778
2831.041436	17456.698500	1990.395508	65.124817
2831.041436	17456.698500	1989.429688	-80.514053
2831.041436	17456.698500	1988.463867	8.741333
2831.041436	17456.698500	1987.497070	-70.421280
2831.041436	17456.698500	1986.531250	-38.443012
2831.041436	17456.698500	1985.564453	3.244913
2831.041436	17456.698500	1984.597656	-41.773178
2831.041436	17456.698500	1983.630859	-72.100426
2831.041436	17456.698500	1982.664063	-35.843079
2831.041436	17456.698500	1981.696289	7.670034
2831.041436	17456.698500	1980.728516	78.202469
2831.041436	17456.698500	1979.761719	57.190567
2831.041436	17456.698500	1978.792969	-13.328640
2831.041436	17456.698500	1977.825195	101.231369
2831.041436	17456.698500	1976.857422	-6.532493
2831.041436	17456.698500	1975.888672	1.632313
2831.041436	17456.698500	1974.919922	118.264664
2831.041436	17456.698500	1973.951172	-68.703941
2831.041436	17456.698500	1972.982422	227.773087
2831.041436	17456.698500	1972.013672	35.737839
2831.041436	17456.698500	1971.043945	-70.009483
2831.041436	17456.698500	1970.075195	201.396591
2831.041436	17456.698500	1969.105469	60.995193
2831.041436	17456.698500	1968.135742	68.438728
2831.041436	17456.698500	1967.165039	46.244411
2831.041436	17456.698500	1966.195313	51.095142
2831.041436	17456.698500	1965.224609	233.222412
2831.041436	17456.698500	1964.253906	87.706116
2831.041436	17456.698500	1963.283203	188.403625
2831.041436	17456.698500	1962.312500	87.161903
2831.041436	17456.698500	1961.341797	140.969421
2831.041436	17456.698500	1960.370117	39.688915
2831.041436	17456.698500	1959.399414	56.504642
2831.041436	17456.698500	1958.427734	24.082178
2831.041436	17456.698500	1957.455078	11.315221
2831.041436	17456.698500	1956.483398	119.013405
2831.041436	17456.698500	1955.511719	52.097462
2831.041436	17456.698500	1954.539063	135.120728
2831.041436	17456.698500	1953.566406	168.944138
2831.041436	17456.698500	1952.593750	79.884796
2831.041436	17456.698500	1951.621094	-53.374077
2831.041436	17456.698500	1950.647461	90.949921
2831.041436	17456.698500	1949.674805	21.566879
2831.041436	17456.698500	1948.701172	180.539902
2831.041436	17456.698500	1947.727539	113.608849
2831.041436	17456.698500	1946.753906	95.787048
2831.041436	17456.698500	1945.780273	183.488144
2831.041436	17456.698500	1944.805664	109.231277
2831.041436	17456.698500	1943.831055	-31.224476
2831.041436	17456.698500	1942.856445	44.198322
2831.041436	17456.698500	1941.881836	-96.180275
2831.041436	17456.698500	1940.907227	-77.143814
2831.041436	17456.698500	1939.932617	-16.435396
2831.041436	17456.698500	1938.957031	-53.766743
2831.041436	17456.698500	1937.981445	109.847733
2831.041436	17456.698500	1937.005859	114.180817
2831.041436	17456.698500	1936.030273	-25.981573
2831.041436	17456.698500	1935.054688	81.259674
2831.041436	17456.698500	1934.078125	78.298996
2831.041436	17456.698500	1933.101563	45.983387
2831.041436	17456.698500	1932.125000	8.805010
2831.041436	17456.698500	1931.148438	32.837524
2831.041436	17456.698500	1930.171875	118.046608
2831.041436	17456.698500	1929.194336	-56.043133
2831.041436	17456.698500	1928.217773	-17.270620
2831.041436	17456.698500	1927.240234	-51.846298
2831.041436	17456.698500	1926.262695	-127.945259
2831.041436	17456.698500	1925.284180	-6.003976
2831.041436	17456.698500	1924.306641	-40.487282
2831.041436	17456.698500	1923.328125	-26.064631
2831.041436	17456.698500	1922.350586	95.868744
2831.041436	17456.698500	1921.372070	132.295746
2831.041436	17456.698500	1920.392578	-82.792564
2831.041436	17456.698500	1919.414063	-21.875713
2831.041436	17456.698500	1918.434570	161.100510
2831.041436	17456.698500	1917.456055	-63.551670
2831.041436	17456.698500	1916.476563	9.610169
2831.041436	17456.698500	1915.497070	48.616615
2831.041436	17456.698500	1914.516602	55.924515
2831.041436	17456.698500	1913.537109	70.575195
2831.041436	17456.698500	1912.556641	114.507217
2831.041436	17456.698500	1911.576172	48.744530
2831.041436	17456.698500	1910.595703	-12.091458
2831.041436	17456.698500	1909.615234	-11.952141
2831.041436	17456.698500	1908.633789	49.127068
2831.041436	17456.698500	1907.653320	-165.067963
2831.041436	17456.698500	1906.671875	151.812561
2831.041436	17456.698500	1905.690430	-169.418243
2831.041436	17456.698500	1904.708984	-54.686062
2831.041436	17456.698500	1903.727539	-64.119270
2831.041436	17456.698500	1902.745117	79.805756
2831.041436	17456.698500	1901.762695	38.765171
2831.041436	17456.698500	1900.780273	78.049957
2831.041436	17456.698500	1899.797852	20.045309
2831.041436	17456.698500	1898.815430	42.341454
2831.041436	17456.698500	1897.832031	-163.915466
2831.041436	17456.698500	1896.849609	-19.994654
2831.041436	17456.698500	1895.866211	-75.420151
2831.041436	17456.698500	1894.882813	17.436478
2831.041436	17456.698500	1893.898438	-35.506660
2831.041436	17456.698500	1892.915039	-180.722672
2831.041436	17456.698500	1891.930664	50.600903
2831.041436	17456.698500	1890.947266	-109.112175
2831.041436	17456.698500	1889.962891	-35.669041
2831.041436	17456.698500	1888.977539	42.616062
2831.041436	17456.698500	1887.993164	62.639862
2831.041436	17456.698500	1887.007813	77.815971
2831.041436	17456.698500	1886.023438	5.661141
2831.041436	17456.698500	1885.038086	159.129532
2831.041436	17456.698500	1884.051758	-5.147879
2831.041436	17456.698500	1883.066406	-118.433777
2831.041436	17456.698500	1882.081055	199.854401
2831.041436	17456.698500	1881.094727	13.875419
2831.041436	17456.698500	1880.108398	118.778671
2831.041436	17456.698500	1879.122070	32.238964
2831.041436	17456.698500	1878.135742	6.298754
2831.041436	17456.698500	1877.148438	-9.939373
2831.041436	17456.698500	1876.162109	-64.912613
2831.041436	17456.698500	1875.174805	-54.492924
2831.041436	17456.698500	1874.187500	130.211639
2831.041436	17456.698500	1873.199219	2.641535
2831.041436	17456.698500	1872.211914	131.611938
2831.041436	17456.698500	1871.223633	214.565323
2831.041436	17456.698500	1870.236328	4.806595
2831.041436	17456.698500	1869.248047	-54.938091
2831.041436	17456.698500	1868.258789	-22.784096
2831.041436	17456.698500	1867.270508	-53.502174
2831.041436	17456.698500	1866.282227	210.661530
2831.041436	17456.698500	1865.292969	8.319279
2831.041436	17456.698500	1864.303711	50.071934
2831.041436	17456.698500	1863.314453	28.991159
2831.041436	17456.698500	1862.324219	29.643250
2831.041436	17456.698500	1861.334961	-66.306938
2831.041436	17456.698500	1860.344727	47.808952
2831.041436	17456.698500	1859.354492	195.661179
2831.041436	17456.698500	1858.364258	15.220292
2831.041436	17456.698500	1857.374023	230.552582
2831.041436	17456.698500	1856.383789	228.662308
2831.041436	17456.698500	1855.392578	-16.862871
2831.041436	17456.698500	1854.401367	17.427168
2831.041436	17456.698500	1853.410156	70.972229
2831.041436	17456.698500	1852.418945	83.492897
2831.041436	17456.698500	1851.426758	69.471764
2831.041436	17456.698500	1850.435547	-9.631480
2831.041436	17456.698500	1849.443359	-6.815387
2831.041436	17456.698500	1848.451172	75.465515
2831.041436	17456.698500	1847.458984	-107.238106
2831.041436	17456.698500	1846.466797	68.883698
2831.041436	17456.698500	1845.473633	-29.547932
2831.041436	17456.698500	1844.480469	-26.877541
2831.041436	17456.698500	1843.487305	187.539795
2831.041436	17456.698500	1842.494141	202.132706
2831.041436	17456.698500	1841.500977	-50.346466
2831.041436	17456.698500	1840.506836	-74.269867
2831.041436	17456.698500	1839.513672	113.401497
2831.041436	17456.698500	1838.519531	-4.387198
2831.041436	17456.698500	1837.525391	36.485596
2831.041436	17456.698500	1836.530273	84.511856
2831.041436	17456.698500	1835.536133	-98.206116
2831.041436	17456.698500	1834.541016	-95.903580
2831.041436	17456.698500	1833.545898	-55.212227
2831.041436	17456.698500	1832.550781	-2.572013
2831.041436	17456.698500	1831.555664	-91.666046
2831.041436	17456.698500	1830.560547	49.696117
2831.041436	17456.698500	1829.564453	-17.866348
2831.041436	17456.698500	1828.568359	-78.252449
2831.041436	17456.698500	1827.572266	-117.070549
2831.041436	17456.698500	1826.576172	19.195999
2831.041436	17456.698500	1825.580078	47.429588
2831.041436	17456.698500	1824.583008	20.445002
2831.041436	17456.698500	1823.585938	41.368423
2831.041436	17456.698500	1822.588867	43.052971
2831.041436	17456.698500	1821.591797	42.285858
2831.041436	17456.698500	1820.594727	-32.818539
2831.041436	17456.698500	1819.596680	169.952316
2831.041436	17456.698500	1818.599609	-125.628548
2831.041436	17456.698500	1817.601563	7.517593
2831.041436	17456.698500	1816.603516	87.877708
2831.041436	17456.698500	1815.604492	60.418560
2831.041436	17456.698500	1814.606445	83.173927
2831.041436	17456.698500	1813.607422	125.000938
2831.041436	17456.698500	1812.608398	39.943489
2831.041436	17456.698500	1811.609375	95.989601
2831.041436	17456.698500	1810.610352	132.817749
2831.041436	17456.698500	1809.610352	-7.385867
2831.041436	17456.698500	1808.611328	77.132576
2831.041436	17456.698500	1807.611328	135.256897
2831.041436	17456.698500	1806.611328	102.477242
2831.041436	17456.698500	1805.610352	179.552368
2831.041436	17456.698500	1804.610352	79.749359
2831.041436	17456.698500	1803.609375	96.949623
2831.041436	17456.698500	1802.608398	90.192459
2831.041436	17456.698500	1801.607422	28.452835
2831.041436	17456.698500	1800.606445	145.701859
2831.041436	17456.698500	1799.605469	153.046875
2831.041436	17456.698500	1798.603516	129.291656
2831.041436	17456.698500	1797.601563	81.615082
2831.041436	17456.698500	1796.599609	-130.706528
2831.041436	17456.698500	1795.597656	74.335609
2831.041436	17456.698500	1794.595703	14.552021
2831.041436	17456.698500	1793.592773	23.848280
2831.041436	17456.698500	1792.589844	56.900745
2831.041436	17456.698500	1791.587891	-167.506012
2831.041436	17456.698500	1790.583984	25.050344
2831.041436	17456.698500	1789.581055	-70.784515
2831.041436	17456.698500	1788.577148	-133.320023
2831.041436	17456.698500	1787.574219	-5.402671
2831.041436	17456.698500	1786.570313	48.577301
2831.041436	17456.698500	1785.566406	42.948715
2831.041436	17456.698500	1784.561523	91.976974
2831.041436	17456.698500	1783.557617	107.598969
2831.041436	17456.698500	1782.552734	-21.990650
2831.041436	17456.698500	1781.547852	126.682831
2831.041436	17456.698500	1780.542969	-41.072765
2831.041436	17456.698500	1779.538086	-21.008171
2831.041436	17456.698500	1778.532227	-50.959431
2831.041436	17456.698500	1777.527344	30.732548
2831.041436	17456.698500	1776.521484	-56.412712
2831.041436	17456.698500	1775.515625	79.725555
2831.041436	17456.698500	1774.508789	49.445343
2831.041436	17456.698500	1773.502930	135.472839
2831.041436	17456.698500	1772.496094	12.421228
2831.041436	17456.698500	1771.489258	-77.429153
2831.041436	17456.698500	1770.482422	100.890335
2831.041436	17456.698500	1769.475586	41.742382
2831.041436	17456.698500	1768.467773	48.963676
2831.041436	17456.698500	1767.460938	20.520203
2831.041436	17456.698500	1766.453125	-24.604095
2831.041436	17456.698500	1765.445313	-53.195721
2831.041436	17456.698500	1764.437500	58.023640
2831.041436	17456.698500	1763.428711	12.660368
2831.041436	17456.698500	1762.420898	83.366867
2831.041436	17456.698500	1761.412109	106.565819
2831.041436	17456.698500	1760.403320	101.242195
2831.041436	17456.698500	1759.393555	79.249702
2831.041436	17456.698500	1758.384766	251.381073
2831.041436	17456.698500	1757.375000	122.651184
2831.041436	17456.698500	1756.366211	24.668087
2831.041436	17456.698500	1755.356445	35.507420
2831.041436	17456.698500	1754.345703	72.282860
2831.041436	17456.698500	1753.335938	-172.581635
2831.041436	17456.698500	1752.325195	-15.307200
2831.041436	17456.698500	1751.315430	14.117856
2831.041436	17456.698500	1750.304688	-55.872135
2831.041436	17456.698500	1749.292969	70.299469
2831.041436	17456.698500	1748.282227	33.251331
2831.041436	17456.698500	1747.270508	90.658081
2831.041436	17456.698500	1746.259766	124.338921
2831.041436	17456.698500	1745.248047	-0.359927
2831.041436	17456.698500	1744.235352	21.336988
2831.041436	17456.698500	1743.223633	-11.361960
2831.041436	17456.698500	1742.211914	76.280861
2831.041436	17456.698500	1741.199219	19.807478
2831.041436	17456.698500	1740.186523	62.399052
2831.041436	17456.698500	1739.173828	-60.281948
2831.041436	17456.698500	1738.160156	-15.501287
2831.041436	17456.698500	1737.147461	64.571487
2831.041436	17456.698500	1736.133789	-60.646366
2831.041436	17456.698500	1735.120117	-49.140236
2831.041436	17456.698500	1734.106445	261.671844
2831.041436	17456.698500	1733.091797	272.945709
2831.041436	17456.698500	1732.078125	50.852425
2831.041436	17456.698500	1731.063477	-44.016094
2831.041436	17456.698500	1730.048828	101.345421
2831.041436	17456.698500	1729.034180	-50.174355
2831.041436	17456.698500	1728.019531	12.564743
2831.041436	17456.698500	1727.003906	-68.413651
2831.041436	17456.698500	1725.988281	76.527405
2831.041436	17456.698500	1724.972656	11.890428
2831.041436	17456.698500	1723.957031	10.731632
2831.041436	17456.698500	1722.941406	14.203937
2831.041436	17456.698500	1721.924805	-100.007195
2831.041436	17456.698500	1720.909180	166.711914
2831.041436	17456.698500	1719.892578	-95.749374
2831.041436	17456.698500	1718.875977	3.817238
2831.041436	17456.698500	1717.858398	42.160488
2831.041436	17456.698500	1716.841797	-161.596588
2831.041436	17456.698500	1715.824219	-88.137871
2831.041436	17456.698500	1714.806641	-167.451996
2831.041436	17456.698500	1713.789063	20.912880
2831.041436	17456.698500	1712.770508	-82.017914
2831.041436	17456.698500	1711.752930	47.435013
2831.041436	17456.698500	1710.734375	-133.048538
2831.041436	17456.698500	1709.715820	-22.551065
2831.041436	17456.698500	1708.697266	-52.930737
2831.041436	17456.698500	1707.678711	-34.103802
2831.041436	17456.698500	1706.659180	26.856638
2831.041436	17456.698500	1705.640625	-144.395142
2831.041436	17456.698500	1704.621094	-48.398243
2831.041436	17456.698500	1703.600586	101.399727
2831.041436	17456.698500	1702.581055	-67.620537
2831.041436	17456.698500	1701.561523	-14.051231
2831.041436	17456.698500	1700.541016	-73.015053
2831.041436	17456.698500	1699.520508	-195.252045
2831.041436	17456.698500	1698.500000	26.722980
2831.041436	17456.698500	1697.478516	54.224724
2831.041436	17456.698500	1696.458008	-4.938181
2831.041436	17456.698500	1695.436523	-78.186058
2831.041436	17456.698500	1694.415039	300.130035
2831.041436	17456.698500	1693.393555	109.772644
2831.041436	17456.698500	1692.372070	85.500015
2831.041436	17456.698500	1691.349609	33.111927
2831.041436	17456.698500	1690.327148	158.384003
2831.041436	17456.698500	1689.304688	33.433834
2831.041436	17456.698500	1688.282227	95.454239
2831.041436	17456.698500	1687.259766	52.249828
2831.041436	17456.698500	1686.236328	235.619751
2831.041436	17456.698500	1685.213867	89.534370
2831.041436	17456.698500	1684.190430	162.971390
2831.041436	17456.698500	1683.166016	161.606445
2831.041436	17456.698500	1682.142578	246.583496
2831.041436	17456.698500	1681.119141	326.816406
2831.041436	17456.698500	1680.094727	264.617767
2831.041436	17456.698500	1679.070313	258.395569
2831.041436	17456.698500	1678.045898	427.084412
2831.041436	17456.698500	1677.020508	546.680847
2831.041436	17456.698500	1675.996094	430.696106
2831.041436	17456.698500	1674.970703	438.265900
2831.041436	17456.698500	1673.945313	429.479614
2831.041436	17456.698500	1672.919922	478.921234
2831.041436	17456.698500	1671.893555	572.566772
2831.041436	17456.698500	1670.868164	477.462372
2831.041436	17456.698500	1669.841797	531.411499
2831.041436	17456.698500	1668.815430	401.346405
2831.041436	17456.698500	1667.789063	434.272095
2831.041436	17456.698500	1666.761719	425.244507
2831.041436	17456.698500	1665.735352	525.584412
2831.041436	17456.698500	1664.708008	411.778778
2831.041436	17456.698500	1663.680664	439.898651
2831.041436	17456.698500	1662.653320	477.285889
2831.041436	17456.698500	1661.625000	479.739532
2831.041436	17456.698500	1660.597656	461.254486
2831.041436	17456.698500	1659.569336	491.558624
2831.041436	17456.698500	1658.541016	554.366699
2831.041436	17456.698500	1657.512695	533.477722
2831.041436	17456.698500	1656.483398	605.493286
2831.041436	17456.698500	1655.455078	654.247375
2831.041436	17456.698500	1654.425781	607.737305
2831.041436	17456.698500	1653.396484	818.957153
2831.041436	17456.698500	1652.366211	649.354431
2831.041436	17456.698500	1651.336914	635.319641
2831.041436	17456.698500	1650.306641	769.778809
2831.041436	17456.698500	1649.276367	883.293579
2831.041436	17456.698500	1648.246094	834.377563
2831.041436	17456.698500	1647.215820	873.600403
2831.041436	17456.698500	1646.185547	980.042114
2831.041436	17456.698500	1645.154297	1000.646179
2831.041436	17456.698500	1644.123047	1167.258545
2831.041436	17456.698500	1643.091797	1159.996338
2831.041436	17456.698500	1642.060547	1157.366577
2831.041436	17456.698500	1641.028320	1404.902466
2831.041436	17456.698500	1639.997070	1209.988159
2831.041436	17456.698500	1638.964844	1235.116699
2831.041436	17456.698500	1637.931641	1278.745239
2831.041436	17456.698500	1636.899414	1336.256836
2831.041436	17456.698500	1635.867188	1289.606567
2831.041436	17456.698500	1634.833984	1203.630615
2831.041436	17456.698500	1633.800781	1362.906982
2831.041436	17456.698500	1632.767578	1119.683105
2831.041436	17456.698500	1631.734375	1419.984253
2831.041436	17456.698500	1630.700195	1158.347900
2831.041436	17456.698500	1629.666016	1204.258301
2831.041436	17456.698500	1628.631836	1411.936401
2831.041436	17456.698500	1627.597656	1249.840210
2831.041436	17456.698500	1626.563477	1302.667236
2831.041436	17456.698500	1625.528320	1427.077759
2831.041436	17456.698500	1624.493164	1593.019897
2831.041436	17456.698500	1623.458008	1618.072144
2831.041436	17456.698500	1622.422852	1396.130859
2831.041436	17456.698500	1621.387695	1532.026245
2831.041436	17456.698500	1620.351563	1621.725586
2831.041436	17456.698500	1619.315430	1658.345703
2831.041436	17456.698500	1618.279297	1600.401611
2831.041436	17456.698500	1617.243164	1607.072754
2831.041436	17456.698500	1616.207031	1657.572388
2831.041436	17456.698500	1615.169922	1883.264038
2831.041436	17456.698500	1614.132813	1915.288208
2831.041436	17456.698500	1613.095703	1954.237549
2831.041436	17456.698500	1612.058594	1924.081177
2831.041436	17456.698500	1611.020508	2004.518677
2831.041436	17456.698500	1609.983398	2078.055908
2831.041436	17456.698500	1608.945313	2006.521240
2831.041436	17456.698500	1607.907227	2112.307861
2831.041436	17456.698500	1606.868164	2298.633057
2831.041436	17456.698500	1605.830078	2418.193848
2831.041436	17456.698500	1604.791016	2372.073730
2831.041436	17456.698500	1603.751953	2339.809082
2831.041436	17456.698500	1602.712891	2181.099365
2831.041436	17456.698500	1601.673828	2146.657471
2831.041436	17456.698500	1600.633789	2077.771240
2831.041436	17456.698500	1599.594727	2031.946655
2831.041436	17456.698500	1598.554688	1887.350952
2831.041436	17456.698500	1597.513672	1933.546509
2831.041436	17456.698500	1596.473633	1876.403564
2831.041436	17456.698500	1595.433594	1943.349609
2831.041436	17456.698500	1594.392578	1661.265991
2831.041436	17456.698500	1593.351563	1657.134644
2831.041436	17456.698500	1592.310547	1877.999878
2831.041436	17456.698500	1591.268555	1800.472046
2831.041436	17456.698500	1590.227539	1918.065308
2831.041436	17456.698500	1589.185547	1854.420898
2831.041436	17456.698500	1588.143555	2027.092163
2831.041436	17456.698500	1587.100586	1718.174316
2831.041436	17456.698500	1586.058594	1650.173218
2831.041436	17456.698500	1585.015625	1722.069214
2831.041436	17456.698500	1583.972656	1929.207520
2831.041436	17456.698500	1582.929688	1826.985596
2831.041436	17456.698500	1581.886719	1972.277344
2831.041436	17456.698500	1580.843750	1641.152832
2831.041436	17456.698500	1579.799805	1740.728271
2831.041436	17456.698500	1578.755859	1602.207886
2831.041436	17456.698500	1577.711914	1784.276855
2831.041436	17456.698500	1576.666992	1817.562500
2831.041436	17456.698500	1575.623047	1908.111084
2831.041436	17456.698500	1574.578125	1847.683594
2831.041436	17456.698500	1573.533203	1853.674438
2831.041436	17456.698500	1572.488281	1994.652710
2831.041436	17456.698500	1571.443359	2012.173950
2831.041436	17456.698500	1570.397461	2105.180908
2831.041436	17456.698500	1569.351563	2003.947144
2831.041436	17456.698500	1568.305664	2151.894775
2831.041436	17456.698500	1567.259766	1893.187622
2831.041436	17456.698500	1566.213867	1961.289307
2831.041436	17456.698500	1565.166992	1823.888794
2831.041436	17456.698500	1564.120117	1590.714844
2831.041436	17456.698500	1563.073242	1754.917480
2831.041436	17456.698500	1562.026367	1738.818970
2831.041436	17456.698500	1560.978516	1585.874146
2831.041436	17456.698500	1559.930664	1455.878662
2831.041436	17456.698500	1558.883789	1476.566528
2831.041436	17456.698500	1557.834961	1472.217407
2831.041436	17456.698500	1556.787109	1322.025635
2831.041436	17456.698500	1555.739258	1548.120117
2831.041436	17456.698500	1554.690430	1359.371216
2831.041436	17456.698500	1553.641602	1364.473633
2831.041436	17456.698500	1552.592773	1453.952393
2831.041436	17456.698500	1551.542969	1427.294312
2831.041436	17456.698500	1550.494141	1453.116699
2831.041436	17456.698500	1549.444336	1567.805664
2831.041436	17456.698500	1548.394531	1753.105225
2831.041436	17456.698500	1547.344727	1599.272949
2831.041436	17456.698500	1546.293945	1877.955078
2831.041436	17456.698500	1545.244141	1979.150757
2831.041436	17456.698500	1544.193359	1664.100708
2831.041436	17456.698500	1543.142578	1531.206299
2831.041436	17456.698500	1542.090820	1573.532593
2831.041436	17456.698500	1541.040039	1709.145142
2831.041436	17456.698500	1539.988281	1644.763672
2831.041436	17456.698500	1538.936523	1721.391113
2831.041436	17456.698500	1537.884766	1752.636353
2831.041436	17456.698500	1536.833008	1822.576294
2831.041436	17456.698500	1535.780273	1835.791504
2831.041436	17456.698500	1534.727539	1692.411377
2831.041436	17456.698500	1533.674805	1655.882935
2831.041436	17456.698500	1532.622070	1680.745605
2831.041436	17456.698500	1531.569336	1642.148438
2831.041436	17456.698500	1530.515625	1696.679321
2831.041436	17456.698500	1529.461914	1690.032715
2831.041436	17456.698500	1528.408203	1526.986328
2831.041436	17456.698500	1527.354492	1268.860107
2831.041436	17456.698500	1526.299805	1473.424927
2831.041436	17456.698500	1525.246094	1236.001587
2831.041436	17456.698500	1524.191406	1069.016479
2831.041436	17456.698500	1523.136719	1153.698608
2831.041436	17456.698500	1522.081055	912.227173
2831.041436	17456.698500	1521.026367	1022.015320
2831.041436	17456.698500	1519.970703	1011.836609
2831.041436	17456.698500	1518.915039	897.614868
2831.041436	17456.698500	1517.859375	740.529236
2831.041436	17456.698500	1516.802734	778.229248
2831.041436	17456.698500	1515.747070	865.797852
2831.041436	17456.698500	1514.690430	559.798462
2831.041436	17456.698500	1513.633789	518.649658
2831.041436	17456.698500	1512.577148	742.194519
2831.041436	17456.698500	1511.519531	565.570313
2831.041436	17456.698500	1510.461914	508.921844
2831.041436	17456.698500	1509.405273	368.782104
2831.041436	17456.698500	1508.346680	732.669434
2831.041436	17456.698500	1507.289063	644.701782
2831.041436	17456.698500	1506.231445	410.059601
2831.041436	17456.698500	1505.172852	311.101440
2831.041436	17456.698500	1504.114258	442.577789
2831.041436	17456.698500	1503.055664	384.491882
2831.041436	17456.698500	1501.996094	516.105835
2831.041436	17456.698500	1500.937500	643.263306
2831.041436	17456.698500	1499.877930	411.775513
2831.041436	17456.698500	1498.818359	631.585876
2831.041436	17456.698500	1497.757813	607.864014
2831.041436	17456.698500	1496.698242	358.800568
2831.041436	17456.698500	1495.637695	425.521881
2831.041436	17456.698500	1494.577148	449.502167
2831.041436	17456.698500	1493.516602	469.073547
2831.041436	17456.698500	1492.456055	781.611206
2831.041436	17456.698500	1491.394531	616.624329
2831.041436	17456.698500	1490.333008	773.836487
2831.041436	17456.698500	1489.271484	620.389526
2831.041436	17456.698500	1488.209961	741.737610
2831.041436	17456.698500	1487.148438	899.153259
2831.041436	17456.698500	1486.085938	813.598206
2831.041436	17456.698500	1485.023438	867.665771
2831.041436	17456.698500	1483.960938	957.807190
2831.041436	17456.698500	1482.898438	978.308594
2831.041436	17456.698500	1481.834961	1165.279663
2831.041436	17456.698500	1480.772461	1042.084229
2831.041436	17456.698500	1479.708984	916.782593
2831.041436	17456.698500	1478.644531	939.944153
2831.041436	17456.698500	1477.581055	752.063354
2831.041436	17456.698500	1476.517578	496.980377
2831.041436	17456.698500	1475.453125	673.181274
2831.041436	17456.698500	1474.388672	575.668335
2831.041436	17456.698500	1473.323242	594.948425
2831.041436	17456.698500	1472.258789	589.761841
2831.041436	17456.698500	1471.193359	611.440552
2831.041436	17456.698500	1470.127930	559.373291
2831.041436	17456.698500	1469.062500	684.439819
2831.041436	17456.698500	1467.997070	619.103882
2831.041436	17456.698500	1466.930664	502.566193
2831.041436	17456.698500	1465.865234	580.515015
2831.041436	17456.698500	1464.798828	558.422241
2831.041436	17456.698500	1463.731445	392.585815
2831.041436	17456.698500	1462.665039	498.102661
2831.041436	17456.698500	1461.597656	587.671692
2831.041436	17456.698500	1460.530273	498.977509
2831.041436	17456.698500	1459.462891	456.859711
2831.041436	17456.698500	1458.395508	502.526154
2831.041436	17456.698500	1457.327148	313.591461
2831.041436	17456.698500	1456.259766	555.231201
2831.041436	17456.698500	1455.191406	444.564575
2831.041436	17456.698500	1454.123047	608.772400
2831.041436	17456.698500	1453.053711	487.159180
2831.041436	17456.698500	1451.985352	557.887939
2831.041436	17456.698500	1450.916016	709.585327
2831.041436	17456.698500	1449.846680	625.842102
2831.041436	17456.698500	1448.776367	728.262756
2831.041436	17456.698500	1447.707031	716.559326
2831.041436	17456.698500	1446.636719	683.387695
2831.041436	17456.698500	1445.566406	564.454163
2831.041436	17456.698500	1444.496094	590.592529
2831.041436	17456.698500	1443.425781	551.881531
2831.041436	17456.698500	1442.354492	559.872620
2831.041436	17456.698500	1441.283203	524.922119
2831.041436	17456.698500	1440.211914	572.951660
2831.041436	17456.698500	1439.140625	623.349548
2831.041436	17456.698500	1438.069336	562.116394
2831.041436	17456.698500	1436.997070	480.037476
2831.041436	17456.698500	1435.924805	552.914001
2831.041436	17456.698500	1434.852539	579.995544
2831.041436	17456.698500	1433.780273	418.114746
2831.041436	17456.698500	1432.707031	420.553345
2831.041436	17456.698500	1431.633789	525.785889
2831.041436	17456.698500	1430.560547	463.309082
2831.041436	17456.698500	1429.487305	437.100037
2831.041436	17456.698500	1428.413086	376.155670
2831.041436	17456.698500	1427.339844	534.427368
2831.041436	17456.698500	1426.265625	267.638794
2831.041436	17456.698500	1425.191406	83.124374
2831.041436	17456.698500	1424.116211	269.534576
2831.041436	17456.698500	1423.041992	205.045670
2831.041436	17456.698500	1421.966797	268.319550
2831.041436	17456.698500	1420.891602	265.399170
2831.041436	17456.698500	1419.816406	14.985184
2831.041436	17456.698500	1418.740234	234.761780
2831.041436	17456.698500	1417.665039	12.153259
2831.041436	17456.698500	1416.588867	-1.194182
2831.041436	17456.698500	1415.512695	66.150558
2831.041436	17456.698500	1414.435547	290.310425
2831.041436	17456.698500	1413.359375	363.241211
2831.041436	17456.698500	1412.282227	290.146484
2831.041436	17456.698500	1411.205078	317.963715
2831.041436	17456.698500	1410.127930	226.295959
2831.041436	17456.698500	1409.049805	479.193298
2831.041436	17456.698500	1407.972656	472.030579
2831.041436	17456.698500	1406.894531	462.775818
2831.041436	17456.698500	1405.816406	516.924683
2831.041436	17456.698500	1404.737305	421.727753
2831.041436	17456.698500	1403.659180	490.375610
2831.041436	17456.698500	1402.580078	611.970703
2831.041436	17456.698500	1401.500977	633.118713
2831.041436	17456.698500	1400.421875	655.596436
2831.041436	17456.698500	1399.341797	711.472168
2831.041436	17456.698500	1398.262695	823.304749
2831.041436	17456.698500	1397.182617	657.560730
2831.041436	17456.698500	1396.102539	640.243835
2831.041436	17456.698500	1395.021484	555.730286
2831.041436	17456.698500	1393.941406	414.305756
2831.041436	17456.698500	1392.860352	396.536102
2831.041436	17456.698500	1391.779297	595.818176
2831.041436	17456.698500	1390.698242	709.767517
2831.041436	17456.698500	1389.616211	530.921936
2831.041436	17456.698500	1388.535156	542.698242
2831.041436	17456.698500	1387.453125	572.925537
2831.041436	17456.698500	1386.371094	757.018921
2831.041436	17456.698500	1385.288086	631.450989
2831.041436	17456.698500	1384.206055	710.208191
2831.041436	17456.698500	1383.123047	522.135010
2831.041436	17456.698500	1382.040039	572.955627
2831.041436	17456.698500	1380.957031	457.988800
2831.041436	17456.698500	1379.873047	534.770935
2831.041436	17456.698500	1378.789063	496.265350
2831.041436	17456.698500	1377.705078	600.981140
2831.041436	17456.698500	1376.621094	622.850220
2831.041436	17456.698500	1375.537109	555.914856
2831.041436	17456.698500	1374.452148	390.501892
2831.041436	17456.698500	1373.367188	411.126007
2831.041436	17456.698500	1372.282227	716.312927
2831.041436	17456.698500	1371.197266	713.891907
2831.041436	17456.698500	1370.112305	453.055725
2831.041436	17456.698500	1369.026367	591.122620
2831.041436	17456.698500	1367.940430	482.363861
2831.041436	17456.698500	1366.854492	613.647766
2831.041436	17456.698500	1365.767578	653.928711
2831.041436	17456.698500	1364.681641	561.112366
2831.041436	17456.698500	1363.594727	331.553436
2831.041436	17456.698500	1362.507813	490.754150
2831.041436	17456.698500	1361.419922	435.066467
2831.041436	17456.698500	1360.333008	725.121277
2831.041436	17456.698500	1359.245117	540.976746
2831.041436	17456.698500	1358.157227	555.925049
2831.041436	17456.698500	1357.069336	562.535583
2831.041436	17456.698500	1355.981445	558.721802
2831.041436	17456.698500	1354.892578	538.429749
2831.041436	17456.698500	1353.803711	632.355469
2831.041436	17456.698500	1352.714844	723.019714
2831.041436	17456.698500	1351.625000	747.839355
2831.041436	17456.698500	1350.536133	776.115173
2831.041436	17456.698500	1349.446289	754.171021
2831.041436	17456.698500	1348.356445	853.587402
2831.041436	17456.698500	1347.266602	818.943726
2831.041436	17456.698500	1346.175781	1013.786072
2831.041436	17456.698500	1345.085938	831.860779
2831.041436	17456.698500	1343.995117	1019.381958
2831.041436	17456.698500	1342.903320	1011.403625
2831.041436	17456.698500	1341.812500	1040.471802
2831.041436	17456.698500	1340.720703	1034.682495
2831.041436	17456.698500	1339.629883	1173.225220
2831.041436	17456.698500	1338.538086	984.943237
2831.041436	17456.698500	1337.445313	1192.870117
2831.041436	17456.698500	1336.353516	1168.030884
2831.041436	17456.698500	1335.260742	1098.292480
2831.041436	17456.698500	1334.167969	1023.640381
2831.041436	17456.698500	1333.075195	1091.930054
2831.041436	17456.698500	1331.981445	956.247375
2831.041436	17456.698500	1330.888672	955.330505
2831.041436	17456.698500	1329.794922	1152.880249
2831.041436	17456.698500	1328.701172	1108.784668
2831.041436	17456.698500	1327.606445	1050.854370
2831.041436	17456.698500	1326.512695	1179.039429
2831.041436	17456.698500	1325.417969	1211.351074
2831.041436	17456.698500	1324.323242	1279.313354
2831.041436	17456.698500	1323.227539	1228.140015
2831.041436	17456.698500	1322.132813	1184.646240
2831.041436	17456.698500	1321.037109	1198.659912
2831.041436	17456.698500	1319.941406	1214.533081
2831.041436	17456.698500	1318.845703	1095.047974
2831.041436	17456.698500	1317.750000	1167.953979
2831.041436	17456.698500	1316.653320	940.950500
2831.041436	17456.698500	1315.556641	1131.050415
2831.041436	17456.698500	1314.459961	1178.565552
2831.041436	17456.698500	1313.363281	1175.680420
2831.041436	17456.698500	1312.265625	1105.992432
2831.041436	17456.698500	1311.167969	989.575562
2831.041436	17456.698500	1310.070313	977.886230
2831.041436	17456.698500	1308.972656	933.283936
2831.041436	17456.698500	1307.874023	933.873779
2831.041436	17456.698500	1306.776367	827.023376
2831.041436	17456.698500	1305.677734	770.723877
2831.041436	17456.698500	1304.579102	865.920532
2831.041436	17456.698500	1303.479492	911.587585
2831.041436	17456.698500	1302.380859	808.023193
2831.041436	17456.698500	1301.281250	706.395447
2831.041436	17456.698500	1300.181641	712.741272
2831.041436	17456.698500	1299.081055	538.578003
2831.041436	17456.698500	1297.981445	450.354950
2831.041436	17456.698500	1296.880859	533.611511
2831.041436	17456.698500	1295.780273	457.160889
2831.041436	17456.698500	1294.679688	495.009125
2831.041436	17456.698500	1293.578125	538.136597
2831.041436	17456.698500	1292.476563	446.422729
2831.041436	17456.698500	1291.375000	530.741821
2831.041436	17456.698500	1290.273438	401.590240
2831.041436	17456.698500	1289.171875	475.234741
2831.041436	17456.698500	1288.069336	525.693848
2831.041436	17456.698500	1286.966797	493.455414
2831.041436	17456.698500	1285.864258	393.608551
2831.041436	17456.698500	1284.761719	302.465973
2831.041436	17456.698500	1283.658203	156.867538
2831.041436	17456.698500	1282.554688	268.603790
2831.041436	17456.698500	1281.451172	290.914215
2831.041436	17456.698500	1280.347656	296.876221
2831.041436	17456.698500	1279.244141	316.115051
2831.041436	17456.698500	1278.139648	315.564362
2831.041436	17456.698500	1277.035156	299.393555
2831.041436	17456.698500	1275.930664	177.560928
2831.041436	17456.698500	1274.825195	288.452301
2831.041436	17456.698500	1273.720703	260.696167
2831.041436	17456.698500	1272.615234	284.820831
2831.041436	17456.698500	1271.508789	272.214294
2831.041436	17456.698500	1270.403320	167.409302
2831.041436	17456.698500	1269.297852	137.021240
2831.041436	17456.698500	1268.191406	314.204559
2831.041436	17456.698500	1267.084961	388.123718
2831.041436	17456.698500	1265.977539	265.145142
2831.041436	17456.698500	1264.871094	409.890411
2831.041436	17456.698500	1263.763672	324.664307
2831.041436	17456.698500	1262.656250	329.533630
2831.041436	17456.698500	1261.548828	308.220337
2831.041436	17456.698500	1260.440430	364.661194
2831.041436	17456.698500	1259.333008	388.781494
2831.041436	17456.698500	1258.224609	320.557922
2831.041436	17456.698500	1257.115234	442.472198
2831.041436	17456.698500	1256.006836	350.195801
2831.041436	17456.698500	1254.897461	499.392883
2831.041436	17456.698500	1253.788086	443.777740
2831.041436	17456.698500	1252.678711	502.103638
2831.041436	17456.698500	1251.569336	534.938293
2831.041436	17456.698500	1250.458984	544.129578
2831.041436	17456.698500	1249.349609	634.745483
2831.041436	17456.698500	1248.239258	513.280212
2831.041436	17456.698500	1247.127930	526.721436
2831.041436	17456.698500	1246.017578	557.551208
2831.041436	17456.698500	1244.906250	563.880920
2831.041436	17456.698500	1243.794922	636.242371
2831.041436	17456.698500	1242.683594	791.520630
2831.041436	17456.698500	1241.571289	795.715942
2831.041436	17456.698500	1240.459961	942.238281
2831.041436	17456.698500	1239.347656	844.486938
2831.041436	17456.698500	1238.234375	815.523865
2831.041436	17456.698500	1237.122070	821.650696
2831.041436	17456.698500	1236.008789	736.686584
2831.041436	17456.698500	1234.896484	773.357239
2831.041436	17456.698500	1233.782227	926.108337
2831.041436	17456.698500	1232.668945	912.071106
2831.041436	17456.698500	1231.555664	899.103149
2831.041436	17456.698500	1230.441406	839.032532
2831.041436	17456.698500	1229.327148	853.968567
2831.041436	17456.698500	1228.211914	714.136780
2831.041436	17456.698500	1227.097656	740.597900
2831.041436	17456.698500	1225.982422	897.714050
2831.041436	17456.698500	1224.867188	800.233948
2831.041436	17456.698500	1223.751953	754.767456
2831.041436	17456.698500	1222.635742	756.180847
2831.041436	17456.698500	1221.520508	781.061340
2831.041436	17456.698500	1220.404297	819.893921
2831.041436	17456.698500	1219.287109	887.552917
2831.041436	17456.698500	1218.170898	1091.356323
2831.041436	17456.698500	1217.053711	991.541748
2831.041436	17456.698500	1215.936523	936.729431
2831.041436	17456.698500	1214.819336	959.365173
2831.041436	17456.698500	1213.702148	851.831238
2831.041436	17456.698500	1212.583984	853.592407
2831.041436	17456.698500	1211.465820	765.244507
2831.041436	17456.698500	1210.347656	639.761597
2831.041436	17456.698500	1209.229492	424.541809
2831.041436	17456.698500	1208.110352	419.822113
2831.041436	17456.698500	1206.992188	396.800354
2831.041436	17456.698500	1205.873047	286.001923
2831.041436	17456.698500	1204.752930	244.886749
2831.041436	17456.698500	1203.633789	200.596649
2831.041436	17456.698500	1202.513672	55.517246
2831.041436	17456.698500	1201.393555	152.561035
2831.041436	17456.698500	1200.273438	122.119225
2831.041436	17456.698500	1199.152344	174.556152
2831.041436	17456.698500	1198.032227	177.615997
2831.041436	17456.698500	1196.911133	21.006878
2831.041436	17456.698500	1195.790039	90.747902
2831.041436	17456.698500	1194.667969	16.137430
2831.041436	17456.698500	1193.545898	118.501778
2831.041436	17456.698500	1192.424805	-3.551354
2831.041436	17456.698500	1191.301758	163.776016
2831.041436	17456.698500	1190.179688	205.252090
2831.041436	17456.698500	1189.056641	55.635353
2831.041436	17456.698500	1187.933594	80.799202
2831.041436	17456.698500	1186.810547	-11.664924
2831.041436	17456.698500	1185.687500	58.288544
2831.041436	17456.698500	1184.563477	127.516327
2831.041436	17456.698500	1183.440430	30.878170
2831.041436	17456.698500	1182.316406	44.404243
2831.041436	17456.698500	1181.191406	-36.284286
2831.041436	17456.698500	1180.067383	42.949402
2831.041436	17456.698500	1178.942383	-39.712372
2831.041436	17456.698500	1177.817383	-58.718651
2831.041436	17456.698500	1176.692383	-145.151764
2831.041436	17456.698500	1175.566406	-66.514587
2831.041436	17456.698500	1174.440430	-116.548035
2831.041436	17456.698500	1173.314453	-77.447227
2831.041436	17456.698500	1172.188477	43.262680
2831.041436	17456.698500	1171.062500	-25.128057
2831.041436	17456.698500	1169.935547	-145.695206
2831.041436	17456.698500	1168.808594	-112.504204
2831.041436	17456.698500	1167.681641	-83.225716
2831.041436	17456.698500	1166.553711	-29.899458
2831.041436	17456.698500	1165.426758	-55.949673
2831.041436	17456.698500	1164.298828	-17.246117
2831.041436	17456.698500	1163.170898	-69.113792
2831.041436	17456.698500	1162.041992	40.358147
2831.041436	17456.698500	1160.914063	38.760403
2831.041436	17456.698500	1159.785156	74.944649
2831.041436	17456.698500	1158.656250	-12.546291
2831.041436	17456.698500	1157.526367	-111.359306
2831.041436	17456.698500	1156.397461	8.669376
2831.041436	17456.698500	1155.267578	-92.835411
2831.041436	17456.698500	1154.137695	-6.922460
2831.041436	17456.698500	1153.006836	8.959929
2831.041436	17456.698500	1151.876953	-1.727266
2831.041436	17456.698500	1150.746094	-64.427856
2831.041436	17456.698500	1149.615234	-8.247102
2831.041436	17456.698500	1148.484375	28.932518
2831.041436	17456.698500	1147.352539	-59.137264
2831.041436	17456.698500	1146.220703	7.495548
2831.041436	17456.698500	1145.088867	62.852303
2831.041436	17456.698500	1143.957031	96.339607
2831.041436	17456.698500	1142.825195	197.176559
2831.041436	17456.698500	1141.692383	116.131828
2831.041436	17456.698500	1140.559570	307.005768
2831.041436	17456.698500	1139.426758	202.903748
2831.041436	17456.698500	1138.292969	184.871643
2831.041436	17456.698500	1137.159180	159.043945
2831.041436	17456.698500	1136.025391	203.623184
2831.041436	17456.698500	1134.891602	193.966705
2831.041436	17456.698500	1133.757813	64.137398
2831.041436	17456.698500	1132.623047	135.364090
2831.041436	17456.698500	1131.488281	78.646721
2831.041436	17456.698500	1130.353516	77.963737
2831.041436	17456.698500	1129.217773	53.936436
2831.041436	17456.698500	1128.083008	120.789742
2831.041436	17456.698500	1126.947266	76.633499
2831.041436	17456.698500	1125.811523	62.149498
2831.041436	17456.698500	1124.674805	19.935465
2831.041436	17456.698500	1123.539063	-43.893684
2831.041436	17456.698500	1122.402344	109.470306
2831.041436	17456.698500	1121.265625	39.739700
2831.041436	17456.698500	1120.127930	-32.951305
2831.041436	17456.698500	1118.990234	-42.033440
2831.041436	17456.698500	1117.853516	75.540764
2831.041436	17456.698500	1116.714844	201.566833
2831.041436	17456.698500	1115.577148	12.902519
2831.041436	17456.698500	1114.439453	53.154160
2831.041436	17456.698500	1113.300781	133.332687
2831.041436	17456.698500	1112.162109	222.848480
2831.041436	17456.698500	1111.022461	175.087875
2831.041436	17456.698500	1109.883789	188.435379
2831.041436	17456.698500	1108.744141	176.578217
2831.041436	17456.698500	1107.604492	221.590988
2831.041436	17456.698500	1106.463867	147.881393
2831.041436	17456.698500	1105.324219	134.846970
2831.041436	17456.698500	1104.183594	145.515945
2831.041436	17456.698500	1103.042969	182.608109
2831.041436	17456.698500	1101.902344	132.264130
2831.041436	17456.698500	1100.760742	36.427189
2831.041436	17456.698500	1099.619141	1.581849
2831.041436	17456.698500	1098.477539	35.717911
2831.041436	17456.698500	1097.335938	119.883286
2831.041436	17456.698500	1096.193359	96.696770
2831.041436	17456.698500	1095.051758	147.297852
2831.041436	17456.698500	1093.909180	148.543198
2831.041436	17456.698500	1092.765625	75.226685
2831.041436	17456.698500	1091.623047	29.231226
2831.041436	17456.698500	1090.479492	-23.877281
2831.041436	17456.698500	1089.335938	6.123442
2831.041436	17456.698500	1088.192383	-35.038494
2831.041436	17456.698500	1087.047852	122.395554
2831.041436	17456.698500	1085.903320	-75.307076
2831.041436	17456.698500	1084.758789	-22.107719
2831.041436	17456.698500	1083.614258	-62.901787
2831.041436	17456.698500	1082.469727	-168.376190
2831.041436	17456.698500	1081.324219	-57.236324
2831.041436	17456.698500	1080.178711	25.919138
2831.041436	17456.698500	1079.033203	-113.628929
2831.041436	17456.698500	1077.886719	-42.545017
2831.041436	17456.698500	1076.740234	-171.087341
2831.041436	17456.698500	1075.593750	-85.296288
2831.041436	17456.698500	1074.447266	44.434681
2831.041436	17456.698500	1073.300781	-31.737553
2831.041436	17456.698500	1072.153320	-154.148071
2831.041436	17456.698500	1071.005859	-140.636429
2831.041436	17456.698500	1069.858398	14.387846
2831.041436	17456.698500	1068.709961	-56.968048
2831.041436	17456.698500	1067.561523	58.231853
2831.041436	17456.698500	1066.413086	-1.670505
2831.041436	17456.698500	1065.264648	33.900211
2831.041436	17456.698500	1064.116211	148.218567
2831.041436	17456.698500	1062.966797	-6.044961
2831.041436	17456.698500	1061.817383	-39.557697
2831.041436	17456.698500	1060.667969	59.516445
2831.041436	17456.698500	1059.517578	245.813187
2831.041436	17456.698500	1058.368164	63.694809
2831.041436	17456.698500	1057.217773	242.267044
2831.041436	17456.698500	1056.067383	293.445251
2831.041436	17456.698500	1054.916016	162.641418
2831.041436	17456.698500	1053.764648	231.567368
2831.041436	17456.698500	1052.613281	231.047943
2831.041436	17456.698500	1051.461914	249.923187
2831.041436	17456.698500	1050.310547	63.937416
2831.041436	17456.698500	1049.158203	29.211370
2831.041436	17456.698500	1048.005859	25.293030
2831.041436	17456.698500	1046.853516	127.344673
2831.041436	17456.698500	1045.700195	-76.777191
2831.041436	17456.698500	1044.547852	-61.779705
2831.041436	17456.698500	1043.394531	65.967896
2831.041436	17456.698500	1042.240234	129.082870
2831.041436	17456.698500	1041.086914	120.246979
2831.041436	17456.698500	1039.932617	124.914505
2831.041436	17456.698500	1038.778320	200.543365
2831.041436	17456.698500	1037.624023	75.958969
2831.041436	17456.698500	1036.469727	128.773788
2831.041436	17456.698500	1035.314453	201.337677
2831.041436	17456.698500	1034.159180	255.978333
2831.041436	17456.698500	1033.003906	203.084625
2831.041436	17456.698500	1031.847656	303.312469
2831.041436	17456.698500	1030.692383	287.536102
2831.041436	17456.698500	1029.536133	198.856720
2831.041436	17456.698500	1028.378906	289.999969
2831.041436	17456.698500	1027.222656	292.772919
2831.041436	17456.698500	1026.065430	123.667191
2831.041436	17456.698500	1024.908203	246.300293
2831.041436	17456.698500	1023.750977	66.630898
2831.041436	17456.698500	1022.593750	-24.787552
2831.041436	17456.698500	1021.435547	96.791855
2831.041436	17456.698500	1020.277344	50.147923
2831.041436	17456.698500	1019.119141	185.514236
2831.041436	17456.698500	1017.959961	117.828552
2831.041436	17456.698500	1016.800781	142.387329
2831.041436	17456.698500	1015.641602	26.041370
2831.041436	17456.698500	1014.482422	216.266937
2831.041436	17456.698500	1013.323242	130.301041
2831.041436	17456.698500	1012.163086	25.926975
2831.041436	17456.698500	1011.002930	-10.110869
2831.041436	17456.698500	1009.842773	-7.553510
2831.041436	17456.698500	1008.681641	54.781178
2831.041436	17456.698500	1007.520508	45.341778
2831.041436	17456.698500	1006.359375	85.596252
2831.041436	17456.698500	1005.198242	81.250870
2831.041436	17456.698500	1004.037109	84.828758
2831.041436	17456.698500	1002.875000	60.538269
2831.041436	17456.698500	1001.712891	196.648438
2831.041436	17456.698500	1000.550781	173.446579
2831.041436	17456.698500	999.387695	223.135559
2831.041436	17456.698500	998.224609	162.287735
2831.041436	17456.698500	997.061523	89.451645
2831.041436	17456.698500	995.898438	80.994179
2831.041436	17456.698500	994.734375	170.370544
2831.041436	17456.698500	993.571289	-5.802269
2831.041436	17456.698500	992.407227	158.051453
2831.041436	17456.698500	991.242188	122.737473
2831.041436	17456.698500	990.078125	25.806067
2831.041436	17456.698500	988.913086	49.438728
2831.041436	17456.698500	987.748047	0.005919
2831.041436	17456.698500	986.583008	-1.270989
2831.041436	17456.698500	985.416992	-72.114761
2831.041436	17456.698500	984.250977	-52.963448
2831.041436	17456.698500	983.084961	1.235378
2831.041436	17456.698500	981.918945	-7.398962
2831.041436	17456.698500	980.751953	-13.895500
2831.041436	17456.698500	979.584961	-37.195114
2831.041436	17456.698500	978.417969	41.181866
2831.041436	17456.698500	977.250977	-24.866434
2831.041436	17456.698500	976.083008	-32.836933
2831.041436	17456.698500	974.915039	35.720219
2831.041436	17456.698500	973.747070	138.517593
2831.041436	17456.698500	972.579102	67.629105
2831.041436	17456.698500	971.410156	26.510344
2831.041436	17456.698500	970.242188	-8.056551
2831.041436	17456.698500	969.072266	189.333405
2831.041436	17456.698500	967.903320	207.062180
2831.041436	17456.698500	966.733398	77.733559
2831.041436	17456.698500	965.563477	64.797585
2831.041436	17456.698500	964.393555	210.305206
2831.041436	17456.698500	963.223633	336.554901
2831.041436	17456.698500	962.052734	400.146118
2831.041436	17456.698500	960.881836	95.589554
2831.041436	17456.698500	959.710938	309.114838
2831.041436	17456.698500	958.540039	222.878860
2831.041436	17456.698500	957.368164	267.986328
2831.041436	17456.698500	956.196289	296.772217
2831.041436	17456.698500	955.024414	311.024292
2831.041436	17456.698500	953.851563	56.850578
2831.041436	17456.698500	952.679688	75.746338
2831.041436	17456.698500	951.506836	101.904541
2831.041436	17456.698500	950.333984	31.914680
2831.041436	17456.698500	949.160156	-185.901932
2831.041436	17456.698500	947.986328	11.270343
2831.041436	17456.698500	946.812500	-109.650909
2831.041436	17456.698500	945.638672	14.182598
2831.041436	17456.698500	944.464844	48.269516
2831.041436	17456.698500	943.290039	-280.283325
2831.041436	17456.698500	942.115234	48.928207
2831.041436	17456.698500	940.940430	-29.430277
2831.041436	17456.698500	939.764648	-53.855026
2831.041436	17456.698500	938.588867	44.397472
2831.041436	17456.698500	937.413086	-81.318176
2831.041436	17456.698500	936.237305	133.256439
2831.041436	17456.698500	935.060547	31.116659
2831.041436	17456.698500	933.883789	81.937714
2831.041436	17456.698500	932.707031	-65.510269
2831.041436	17456.698500	931.530273	58.511570
2831.041436	17456.698500	930.352539	85.476501
2831.041436	17456.698500	929.175781	-31.853235
2831.041436	17456.698500	927.998047	70.486336
2831.041436	17456.698500	926.819336	39.236446
2831.041436	17456.698500	925.641602	206.125763
2831.041436	17456.698500	924.462891	273.872528
2831.041436	17456.698500	923.284180	300.676117
2831.041436	17456.698500	922.104492	340.358185
2831.041436	17456.698500	920.924805	349.864258
2831.041436	17456.698500	919.746094	352.024658
2831.041436	17456.698500	919.551758	363.996948
2831.041436	17456.698500	918.386719	330.389709
2831.041436	17456.698500	917.220703	453.776581
2831.041436	17456.698500	916.054688	409.365265
2831.041436	17456.698500	914.887695	298.303558
2831.041436	17456.698500	913.721680	318.375183
2831.041436	17456.698500	912.554688	196.582626
2831.041436	17456.698500	911.387695	276.778198
2831.041436	17456.698500	910.220703	210.845322
2831.041436	17456.698500	909.052734	93.372017
2831.041436	17456.698500	907.885742	224.999176
2831.041436	17456.698500	906.717773	206.273972
2831.041436	17456.698500	905.548828	48.020573
2831.041436	17456.698500	904.380859	44.311657
2831.041436	17456.698500	903.211914	137.127823
2831.041436	17456.698500	902.042969	53.988087
2831.041436	17456.698500	900.874023	-7.696382
2831.041436	17456.698500	899.704102	27.109564
2831.041436	17456.698500	898.535156	64.018326
2831.041436	17456.698500	897.365234	53.737335
2831.041436	17456.698500	896.194336	52.008263
2831.041436	17456.698500	895.024414	7.406026
2831.041436	17456.698500	893.853516	151.293213
2831.041436	17456.698500	892.682617	130.198242
2831.041436	17456.698500	891.511719	-19.379318
2831.041436	17456.698500	890.340820	43.006809
2831.041436	17456.698500	889.168945	98.923302
2831.041436	17456.698500	887.997070	37.103767
2831.041436	17456.698500	886.825195	99.367538
2831.041436	17456.698500	885.653320	161.581818
2831.041436	17456.698500	884.480469	-0.794239
2831.041436	17456.698500	883.307617	16.468161
2831.041436	17456.698500	882.134766	-88.145630
2831.041436	17456.698500	880.961914	-96.567749
2831.041436	17456.698500	879.788086	-47.317638
2831.041436	17456.698500	878.614258	-64.338303
2831.041436	17456.698500	877.440430	-15.164422
2831.041436	17456.698500	876.266602	-87.754997
2831.041436	17456.698500	875.091797	-4.485017
2831.041436	17456.698500	873.916992	-79.231026
2831.041436	17456.698500	872.742188	-30.192249
2831.041436	17456.698500	871.567383	-81.481506
2831.041436	17456.698500	870.391602	-160.505615
2831.041436	17456.698500	869.215820	14.281813
2831.041436	17456.698500	868.040039	35.441788
2831.041436	17456.698500	866.864258	82.151535
2831.041436	17456.698500	865.687500	98.977280
2831.041436	17456.698500	864.510742	73.149086
2831.041436	17456.698500	863.333984	-65.616280
2831.041436	17456.698500	862.157227	-112.752434
2831.041436	17456.698500	860.979492	36.044048
2831.041436	17456.698500	859.802734	-77.152176
2831.041436	17456.698500	858.625000	-73.238625
2831.041436	17456.698500	857.446289	-24.653868
2831.041436	17456.698500	856.268555	2.604591
2831.041436	17456.698500	855.089844	-174.419968
2831.041436	17456.698500	853.911133	-28.072495
2831.041436	17456.698500	852.731445	18.234472
2831.041436	17456.698500	851.552734	-67.331863
2831.041436	17456.698500	850.373047	-133.755722
2831.041436	17456.698500	849.193359	-212.930328
2831.041436	17456.698500	848.013672	-190.100845
2831.041436	17456.698500	846.833008	-80.200912
2831.041436	17456.698500	845.652344	-89.320457
2831.041436	17456.698500	844.471680	-45.371651
2831.041436	17456.698500	843.291016	-39.684612
2831.041436	17456.698500	842.110352	-138.041626
2831.041436	17456.698500	840.928711	126.534218
2831.041436	17456.698500	839.747070	64.203064
2831.041436	17456.698500	838.564453	-78.743767
2831.041436	17456.698500	837.382813	88.010834
2831.041436	17456.698500	836.200195	76.540710
2831.041436	17456.698500	835.017578	228.300552
2831.041436	17456.698500	833.834961	100.168732
2831.041436	17456.698500	832.651367	131.008682
2831.041436	17456.698500	831.467773	214.780060
2831.041436	17456.698500	830.284180	145.965210
2831.041436	17456.698500	829.100586	212.701294
2831.041436	17456.698500	827.916992	165.036118
2831.041436	17456.698500	826.732422	130.065918
2831.041436	17456.698500	825.547852	194.565887
2831.041436	17456.698500	824.363281	267.476379
2831.041436	17456.698500	823.177734	336.098175
2831.041436	17456.698500	821.992188	279.858398
2831.041436	17456.698500	820.806641	196.120209
2831.041436	17456.698500	819.621094	154.678543
2831.041436	17456.698500	818.434570	96.313545
2831.041436	17456.698500	817.249023	232.396820
2831.041436	17456.698500	816.062500	154.965775
2831.041436	17456.698500	814.875000	204.302551
2831.041436	17456.698500	813.688477	107.842331
2831.041436	17456.698500	812.500977	150.776230
2831.041436	17456.698500	811.313477	126.098946
2831.041436	17456.698500	810.125977	-8.367807
2831.041436	17456.698500	808.937500	26.036348
2831.041436	17456.698500	807.749023	113.150894
2831.041436	17456.698500	806.560547	117.923538
2831.041436	17456.698500	805.372070	-56.620377
2831.041436	17456.698500	804.182617	-47.654549
2831.041436	17456.698500	802.994141	-13.420607
2831.041436	17456.698500	801.803711	48.172684
2831.041436	17456.698500	800.614258	84.422188
2831.041436	17456.698500	799.424805	-77.435654
2831.041436	17456.698500	798.234375	-87.579529
2831.041436	17456.698500	797.043945	64.428894
2831.041436	17456.698500	795.852539	-202.700455
2831.041436	17456.698500	794.662109	-48.684441
2831.041436	17456.698500	793.470703	-16.844881
2831.041436	17456.698500	792.279297	23.370430
2831.041436	17456.698500	791.087891	-73.221642
2831.041436	17456.698500	789.895508	154.147324
2831.041436	17456.698500	788.703125	124.809402
2831.041436	17456.698500	787.510742	118.583893
2831.041436	17456.698500	786.318359	57.672935
2831.041436	17456.698500	785.125000	-24.261583
2831.041436	17456.698500	783.931641	24.094925
2831.041436	17456.698500	782.738281	124.925064
2831.041436	17456.698500	781.544922	74.446602
2831.041436	17456.698500	780.350586	49.159725
2831.041436	17456.698500	779.156250	-18.139433
2831.041436	17456.698500	777.961914	-81.241890
2831.041436	17456.698500	776.767578	109.603821
2831.041436	17456.698500	775.572266	40.145355
2831.041436	17456.698500	774.376953	31.525160
2831.041436	17456.698500	773.181641	171.799393
2831.041436	17456.698500	771.986328	93.893829
2831.041436	17456.698500	770.790039	133.398849
2831.041436	17456.698500	769.593750	36.607357
2831.041436	17456.698500	768.397461	-91.609512
2831.041436	17456.698500	767.201172	71.442604
2831.041436	17456.698500	766.003906	83.565872
2831.041436	17456.698500	764.806641	148.015259
2831.041436	17456.698500	763.609375	55.358677
2831.041436	17456.698500	762.412109	27.611284
2831.041436	17456.698500	761.213867	22.868166
2831.041436	17456.698500	760.015625	34.838974
2831.041436	17456.698500	758.817383	2.838206
2831.041436	17456.698500	757.618164	-62.649471
2831.041436	17456.698500	756.419922	80.999039
2831.041436	17456.698500	755.220703	203.647049
2831.041436	17456.698500	754.021484	98.350029
2831.041436	17456.698500	752.821289	227.153137
2831.041436	17456.698500	751.621094	8.994709
2831.041436	17456.698500	750.420898	18.619961
2831.041436	17456.698500	749.220703	-15.652676
2831.041436	17456.698500	748.020508	94.154427
2831.041436	17456.698500	746.819336	164.214722
2831.041436	17456.698500	745.618164	146.543869
2831.041436	17456.698500	744.416992	122.590195
2831.041436	17456.698500	743.214844	205.031021
2831.041436	17456.698500	742.012695	333.304413
2831.041436	17456.698500	740.810547	421.866089
2831.041436	17456.698500	739.608398	479.083344
2831.041436	17456.698500	738.406250	494.551025
2831.041436	17456.698500	737.203125	924.778381
2831.041436	17456.698500	736.000000	1098.469238
2831.041436	17456.698500	734.795898	1244.971802
2831.041436	17456.698500	733.592773	1339.308838
2831.041436	17456.698500	732.388672	1454.403564
2831.041436	17456.698500	731.184570	1546.517090
2831.041436	17456.698500	729.979492	1342.948120
2831.041436	17456.698500	728.775391	1064.509277
2831.041436	17456.698500	727.570313	811.128845
2831.041436	17456.698500	726.365234	792.921204
2831.041436	17456.698500	725.160156	481.407410
2831.041436	17456.698500	723.954102	635.828491
2831.041436	17456.698500	722.748047	530.260254
2831.041436	17456.698500	721.541992	289.590973
2831.041436	17456.698500	720.334961	254.747208
2831.041436	17456.698500	719.128906	311.319397
2831.041436	17456.698500	717.921875	220.341995
2831.041436	17456.698500	716.714844	210.379135
2831.041436	17456.698500	715.506836	229.465210
2831.041436	17456.698500	714.298828	117.721031
2831.041436	17456.698500	713.090820	89.026726
2831.041436	17456.698500	711.882813	52.017796
2831.041436	17456.698500	710.674805	-5.748878
2831.041436	17456.698500	709.465820	-40.699440
2831.041436	17456.698500	708.256836	-117.139198
2831.041436	17456.698500	707.047852	-133.438980
2831.041436	17456.698500	705.837891	36.820255
2831.041436	17456.698500	704.627930	109.569588
2831.041436	17456.698500	703.417969	91.087135
2831.041436	17456.698500	702.208008	74.661285
2831.041436	17456.698500	700.998047	87.218597
2831.041436	17456.698500	699.787109	37.617989
2831.041436	17456.698500	698.576172	159.865860
2831.041436	17456.698500	697.364258	122.644859
2831.041436	17456.698500	696.153320	178.552567
2831.041436	17456.698500	694.941406	317.179993
2831.041436	17456.698500	693.729492	139.210388
2831.041436	17456.698500	692.516602	66.776558
2831.041436	17456.698500	691.304688	165.988449
2831.041436	17456.698500	690.091797	151.427185
2831.041436	17456.698500	688.878906	333.217041
2831.041436	17456.698500	687.665039	273.120667
2831.041436	17456.698500	686.451172	103.525543
2831.041436	17456.698500	685.237305	185.998444
2831.041436	17456.698500	684.023438	185.807343
2831.041436	17456.698500	682.809570	352.850067
2831.041436	17456.698500	681.594727	280.332123
2831.041436	17456.698500	680.379883	311.025848
2831.041436	17456.698500	679.165039	267.402802
2831.041436	17456.698500	677.949219	291.861877
2831.041436	17456.698500	676.733398	305.981079
2831.041436	17456.698500	675.517578	377.820923
2831.041436	17456.698500	674.301758	241.374527
2831.041436	17456.698500	673.084961	306.981567
2831.041436	17456.698500	671.869141	304.538666
2831.041436	17456.698500	670.651367	384.497162
2831.041436	17456.698500	669.434570	235.745499
2831.041436	17456.698500	668.216797	371.268280
2831.041436	17456.698500	667.000000	257.562775
2831.041436	17456.698500	665.781250	417.701874
2831.041436	17456.698500	664.563477	439.857300
2831.041436	17456.698500	663.344727	468.163055
2831.041436	17456.698500	662.125977	504.676392
2831.041436	17456.698500	660.907227	325.178131
2831.041436	17456.698500	659.688477	371.969513
2831.041436	17456.698500	658.468750	278.911224
2831.041436	17456.698500	657.249023	350.340851
2831.041436	17456.698500	656.029297	384.736969
2831.041436	17456.698500	654.808594	406.779572
2831.041436	17456.698500	653.587891	404.152985
2831.041436	17456.698500	652.367188	344.009552
2831.041436	17456.698500	651.146484	316.742432
2831.041436	17456.698500	649.924805	515.319763
2831.041436	17456.698500	648.704102	375.120819
2831.041436	17456.698500	647.482422	417.622894
2831.041436	17456.698500	646.259766	388.287415
2831.041436	17456.698500	645.037109	402.039978
2831.041436	17456.698500	643.815430	471.162140
2831.041436	17456.698500	642.591797	359.803223
2831.041436	17456.698500	641.369141	408.398041
2831.041436	17456.698500	640.145508	538.954102
2831.041436	17456.698500	638.921875	562.895935
2831.041436	17456.698500	637.698242	424.975220
2831.041436	17456.698500	636.474609	371.095306
2831.041436	17456.698500	635.250000	272.183868
2831.041436	17456.698500	634.025391	373.967285
2831.041436	17456.698500	632.800781	326.277191
2831.041436	17456.698500	631.575195	303.166748
2831.041436	17456.698500	630.349609	237.100662
2831.041436	17456.698500	629.124023	424.737701
2831.041436	17456.698500	627.898438	350.502319
2831.041436	17456.698500	626.671875	423.531189
2831.041436	17456.698500	625.445313	316.625916
2831.041436	17456.698500	624.218750	258.829102
2831.041436	17456.698500	622.992188	344.113495
2831.041436	17456.698500	621.764648	368.073395
2831.041436	17456.698500	620.537109	191.847717
2831.041436	17456.698500	619.309570	91.270126
2831.041436	17456.698500	618.081055	19.328432
2831.041436	17456.698500	616.852539	190.354446
2831.041436	17456.698500	615.624023	114.362480
2831.041436	17456.698500	614.395508	81.265762
2831.041436	17456.698500	613.166992	-33.407742
2831.041436	17456.698500	611.937500	84.499298
2831.041436	17456.698500	610.708008	-89.238983
2831.041436	17456.698500	609.477539	36.811630
2831.041436	17456.698500	608.248047	48.678192
2831.041436	17456.698500	607.017578	146.145966
2831.041436	17456.698500	605.787109	39.839149
2831.041436	17456.698500	604.555664	-123.445206
2831.041436	17456.698500	603.325195	-76.866692
2831.041436	17456.698500	602.093750	-95.450455
2831.041436	17456.698500	600.861328	-54.972694
2831.041436	17456.698500	599.629883	-10.418763
2831.041436	17456.698500	598.397461	-0.459245
2831.041436	17456.698500	597.165039	-4.723974
2831.041436	17456.698500	595.932617	-108.632744
2831.041436	17456.698500	594.699219	-90.461617
2831.041436	17456.698500	593.465820	-112.938148
2831.041436	17456.698500	592.232422	-25.613977
2831.041436	17456.698500	590.999023	-35.853241
2831.041436	17456.698500	589.764648	-78.575500
2831.041436	17456.698500	588.530273	-68.436623
2831.041436	17456.698500	587.295898	8.747097
2831.041436	17456.698500	586.061523	71.710609
2831.041436	17456.698500	584.826172	142.792740
2831.041436	17456.698500	583.590820	-56.078022
2831.041436	17456.698500	582.355469	-55.966530
2831.041436	17456.698500	581.119141	110.536392
2831.041436	17456.698500	579.882813	-31.319548
2831.041436	17456.698500	578.646484	106.775276
2831.041436	17456.698500	577.410156	76.556274
2831.041436	17456.698500	576.172852	32.190025
2831.041436	17456.698500	574.935547	70.968094
2831.041436	17456.698500	573.698242	0.345095
2831.041436	17456.698500	572.460938	-58.059803
2831.041436	17456.698500	571.222656	-25.266470
2831.041436	17456.698500	569.984375	78.420326
2831.041436	17456.698500	568.746094	5.964931
2831.041436	17456.698500	567.506836	79.307495
2831.041436	17456.698500	566.267578	195.150955
2831.041436	17456.698500	565.028320	54.032379
2831.041436	17456.698500	563.789063	119.334526
2831.041436	17456.698500	562.548828	217.002014
2831.041436	17456.698500	561.309570	262.096619
2831.041436	17456.698500	560.068359	258.691162
2831.041436	17456.698500	558.828125	150.231659
2831.041436	17456.698500	557.586914	51.959087
2831.041436	17456.698500	556.345703	287.099487
2831.041436	17456.698500	555.104492	136.404663
2831.041436	17456.698500	553.863281	312.944794
2831.041436	17456.698500	552.621094	202.765182
2831.041436	17456.698500	551.378906	330.851959
2831.041436	17456.698500	550.136719	370.131653
2831.041436	17456.698500	548.893555	371.099426
2831.041436	17456.698500	547.650391	422.538055
2831.041436	17456.698500	546.407227	369.125488
2831.041436	17456.698500	545.164063	257.304871
2831.041436	17456.698500	543.919922	246.367264
2831.041436	17456.698500	542.675781	308.032257
2831.041436	17456.698500	541.431641	238.738037
2831.041436	17456.698500	540.186523	342.768860
2831.041436	17456.698500	538.941406	199.058060
2831.041436	17456.698500	537.696289	329.317169
2831.041436	17456.698500	536.451172	226.022354
2831.041436	17456.698500	535.205078	247.611725
2831.041436	17456.698500	533.959961	289.359558
2831.041436	17456.698500	532.712891	278.820038
2831.041436	17456.698500	531.466797	222.062973
2831.041436	17456.698500	530.219727	235.762589
2831.041436	17456.698500	528.972656	100.708176
2831.041436	17456.698500	527.725586	180.853271
2831.041436	17456.698500	526.478516	114.289536
2831.041436	17456.698500	525.230469	298.972290
2831.041436	17456.698500	523.982422	262.631561
2831.041436	17456.698500	522.734375	91.777344
2831.041436	17456.698500	521.485352	117.833275
2831.041436	17456.698500	520.236328	69.636566
2831.041436	17456.698500	518.987305	39.567791
2831.041436	17456.698500	517.737305	7.546656
2831.041436	17456.698500	516.488281	124.054108
2831.041436	17456.698500	515.238281	158.307755
2831.041436	17456.698500	513.988281	246.737289
2831.041436	17456.698500	512.737305	387.301453
2831.041436	17456.698500	511.486328	447.658325
2831.041436	17456.698500	510.235352	638.304504
2831.041436	17456.698500	508.984375	510.303314
2831.041436	17456.698500	507.732422	540.661438
2831.041436	17456.698500	506.480469	510.956573
2831.041436	17456.698500	505.228516	453.266174
2831.041436	17456.698500	503.976563	401.644287
2831.041436	17456.698500	502.723633	366.093048
2831.041436	17456.698500	501.470703	320.586395
2831.041436	17456.698500	500.217773	191.101074
2831.041436	17456.698500	498.963867	305.748596
2831.041436	17456.698500	497.709961	154.389420
2831.041436	17456.698500	496.456055	159.087555
2831.041436	17456.698500	495.202148	199.798569
2831.041436	17456.698500	493.947266	156.579224
2831.041436	17456.698500	492.692383	339.204742
2831.041436	17456.698500	491.437500	329.992859
2831.041436	17456.698500	490.181641	177.003189
2831.041436	17456.698500	488.926758	403.518829
2831.041436	17456.698500	487.670898	188.738708
2831.041436	17456.698500	486.414063	27.967731
2831.041436	17456.698500	485.158203	162.640091
2831.041436	17456.698500	483.901367	197.515213
2831.041436	17456.698500	482.644531	28.928818
2831.041436	17456.698500	481.386719	-3.952276
2831.041436	17456.698500	480.128906	-4.900898
2831.041436	17456.698500	478.871094	61.944164
2831.041436	17456.698500	477.613281	98.877182
2831.041436	17456.698500	476.355469	18.241682
2831.041436	17456.698500	475.096680	-8.560366
2831.041436	17456.698500	473.837891	2.500617
2831.041436	17456.698500	472.578125	17.545732
2831.041436	17456.698500	471.319336	-39.084438
2831.041436	17456.698500	470.059570	-83.745079
2831.041436	17456.698500	468.799805	48.727417
2831.041436	17456.698500	467.539063	-15.830257
2831.041436	17456.698500	466.278320	-52.515850
2831.041436	17456.698500	465.017578	-103.112808
2831.041436	17456.698500	463.756836	-96.035500
2831.041436	17456.698500	462.495117	-200.293686
2831.041436	17456.698500	461.233398	-232.971695
2831.041436	17456.698500	459.971680	-62.973808
2831.041436	17456.698500	458.709961	-97.687798
2831.041436	17456.698500	457.447266	32.444611
2831.041436	17456.698500	456.184570	31.438513
2831.041436	17456.698500	454.921875	6.582694
2831.041436	17456.698500	453.658203	-123.490120
2831.041436	17456.698500	452.394531	212.808731
2831.041436	17456.698500	451.130859	27.127708
2831.041436	17456.698500	449.867188	-13.708064
2831.041436	17456.698500	448.602539	-48.617516
2831.041436	17456.698500	447.337891	-113.296844
2831.041436	17456.698500	446.073242	89.615990
2831.041436	17456.698500	444.807617	50.601124
2831.041436	17456.698500	443.542969	23.437365
2831.041436	17456.698500	442.276367	130.937622
2831.041436	17456.698500	441.010742	83.843582
2831.041436	17456.698500	439.744141	262.444458
2831.041436	17456.698500	438.478516	205.310593
2831.041436	17456.698500	437.210938	294.597748
2831.041436	17456.698500	435.944336	110.684158
2831.041436	17456.698500	434.676758	282.891937
2831.041436	17456.698500	433.409180	237.358032
2831.041436	17456.698500	432.141602	264.927002
2831.041436	17456.698500	430.873047	268.664429
2831.041436	17456.698500	429.604492	298.001587
2831.041436	17456.698500	428.335938	246.195435
2831.041436	17456.698500	427.067383	148.861191
2831.041436	17456.698500	425.797852	290.488068
2831.041436	17456.698500	424.528320	145.559113
2831.041436	17456.698500	423.258789	198.033981
2831.041436	17456.698500	421.988281	165.470703
2831.041436	17456.698500	420.717773	77.527580
2831.041436	17456.698500	419.447266	32.900364
2831.041436	17456.698500	418.175781	112.443840
2831.041436	17456.698500	416.905273	32.040615
2831.041436	17456.698500	415.633789	36.317089
2831.041436	17456.698500	414.362305	34.521931
2831.041436	17456.698500	413.089844	-54.167667
2831.041436	17456.698500	411.817383	119.124428
2831.041436	17456.698500	410.544922	99.077217
2831.041436	17456.698500	409.272461	27.643024
2831.041436	17456.698500	407.999023	-89.244087
2831.041436	17456.698500	406.725586	69.394211
2831.041436	17456.698500	405.452148	25.000660
2831.041436	17456.698500	404.177734	7.975378
2831.041436	17456.698500	402.903320	-32.865311
2831.041436	17456.698500	401.628906	-58.164406
2831.041436	17456.698500	400.354492	118.916443
2831.041436	17456.698500	399.079102	43.978889
2831.041436	17456.698500	397.803711	124.156387
2831.041436	17456.698500	396.528320	29.116558
2831.041436	17456.698500	395.251953	93.045143
2831.041436	17456.698500	393.976563	44.701817
2831.041436	17456.698500	392.700195	-43.175686
2831.041436	17456.698500	391.422852	37.606083
2831.041436	17456.698500	390.145508	224.102417
2831.041436	17456.698500	388.869141	13.697929
2831.041436	17456.698500	387.590820	-18.319580
2831.041436	17456.698500	386.313477	-15.299301
2831.041436	17456.698500	385.035156	-69.487671
2831.041436	17456.698500	383.756836	64.319565
2831.041436	17456.698500	382.478516	191.860580
2831.041436	17456.698500	381.199219	19.047909
2831.041436	17456.698500	379.919922	26.295147
2831.041436	17456.698500	378.640625	-29.520702
2831.041436	17456.698500	377.360352	74.977066
2831.041436	17456.698500	376.080078	4.727369
2831.041436	17456.698500	374.799805	18.340248
2831.041436	17456.698500	373.519531	84.425644
2831.041436	17456.698500	372.238281	54.159908
2831.041436	17456.698500	370.957031	-21.511559
2831.041436	17456.698500	369.675781	35.489578
2831.041436	17456.698500	368.394531	-80.107590
2831.041436	17456.698500	367.112305	212.667435
2831.041436	17456.698500	365.830078	45.355511
2831.041436	17456.698500	364.546875	296.014099
2831.041436	17456.698500	363.264648	249.021164
2831.041436	17456.698500	361.981445	254.325226
2831.041436	17456.698500	360.698242	366.595490
2831.041436	17456.698500	359.414063	357.208221
2831.041436	17456.698500	358.129883	140.319397
2831.041436	17456.698500	356.845703	237.346924
2831.041436	17456.698500	355.561523	115.183228
2831.041436	17456.698500	354.276367	220.854385
2831.041436	17456.698500	352.991211	251.787384
2831.041436	17456.698500	351.706055	131.941635
2831.041436	17456.698500	350.420898	245.611404
2831.041436	17456.698500	349.134766	116.850830
2831.041436	17456.698500	347.848633	55.781891
2831.041436	17456.698500	346.561523	3.862350
2831.041436	17456.698500	345.275391	46.842865
2831.041436	17456.698500	343.988281	46.298470
2831.041436	17456.698500	342.700195	-3.599872
2831.041436	17456.698500	341.413086	80.250542
2831.041436	17456.698500	340.125000	60.193459
2831.041436	17456.698500	338.836914	92.018677
2831.041436	17456.698500	337.548828	35.565563
2831.041436	17456.698500	336.259766	108.767349
2831.041436	17456.698500	334.970703	-1.629962
2831.041436	17456.698500	333.681641	-139.938278
2831.041436	17456.698500	332.391602	-129.239594
2831.041436	17456.698500	331.101563	-24.053778
2831.041436	17456.698500	329.811523	-135.413361
2831.041436	17456.698500	328.521484	-43.489632
2831.041436	17456.698500	327.230469	84.479721
2831.041436	17456.698500	325.939453	-161.327133
2831.041436	17456.698500	324.648438	-184.549179
2831.041436	17456.698500	323.356445	-150.388748
2831.041436	17456.698500	322.064453	-60.814697
2831.041436	17456.698500	320.772461	-71.118256
2831.041436	17456.698500	319.480469	-59.022884
2831.041436	17456.698500	318.187500	-22.647141
2831.041436	17456.698500	316.894531	53.519695
2831.041436	17456.698500	315.601563	14.330920
2831.041436	17456.698500	314.307617	61.409161
2831.041436	17456.698500	313.013672	45.487972
2831.041436	17456.698500	311.719727	36.346046
2831.041436	17456.698500	310.425781	99.824478
2831.041436	17456.698500	309.130859	144.802216
2831.041436	17456.698500	307.835938	169.370651
2831.041436	17456.698500	306.541016	394.216187
2831.041436	17456.698500	305.245117	385.616455
2831.041436	17456.698500	303.949219	265.650085
2831.041436	17456.698500	302.653320	278.130554
2831.041436	17456.698500	301.356445	272.052429
2831.041436	17456.698500	300.060547	266.823822
2831.041436	17456.698500	298.763672	156.017792
