#X		#Y		#Wave		#Intensity
2754.882074	17416.301000	2000.043945	43.342842
2754.882074	17416.301000	1999.080078	-3.208562
2754.882074	17416.301000	1998.116211	-73.184425
2754.882074	17416.301000	1997.151367	30.094477
2754.882074	17416.301000	1996.186523	-15.566956
2754.882074	17416.301000	1995.222656	-143.196976
2754.882074	17416.301000	1994.256836	-48.085896
2754.882074	17416.301000	1993.291992	7.145766
2754.882074	17416.301000	1992.327148	-9.654583
2754.882074	17416.301000	1991.361328	-6.846112
2754.882074	17416.301000	1990.395508	30.412251
2754.882074	17416.301000	1989.429688	-26.565792
2754.882074	17416.301000	1988.463867	-44.123421
2754.882074	17416.301000	1987.497070	29.670378
2754.882074	17416.301000	1986.531250	105.733833
2754.882074	17416.301000	1985.564453	62.917374
2754.882074	17416.301000	1984.597656	126.259178
2754.882074	17416.301000	1983.630859	-28.090950
2754.882074	17416.301000	1982.664063	69.535202
2754.882074	17416.301000	1981.696289	-52.919926
2754.882074	17416.301000	1980.728516	-19.837910
2754.882074	17416.301000	1979.761719	82.252632
2754.882074	17416.301000	1978.792969	70.584366
2754.882074	17416.301000	1977.825195	-39.964668
2754.882074	17416.301000	1976.857422	118.475311
2754.882074	17416.301000	1975.888672	140.999069
2754.882074	17416.301000	1974.919922	-34.004368
2754.882074	17416.301000	1973.951172	30.263462
2754.882074	17416.301000	1972.982422	25.337746
2754.882074	17416.301000	1972.013672	67.174934
2754.882074	17416.301000	1971.043945	-21.782640
2754.882074	17416.301000	1970.075195	66.705048
2754.882074	17416.301000	1969.105469	41.691502
2754.882074	17416.301000	1968.135742	16.605267
2754.882074	17416.301000	1967.165039	-67.684341
2754.882074	17416.301000	1966.195313	69.695770
2754.882074	17416.301000	1965.224609	27.153055
2754.882074	17416.301000	1964.253906	-15.441157
2754.882074	17416.301000	1963.283203	55.172375
2754.882074	17416.301000	1962.312500	17.386591
2754.882074	17416.301000	1961.341797	176.451752
2754.882074	17416.301000	1960.370117	227.130569
2754.882074	17416.301000	1959.399414	167.026398
2754.882074	17416.301000	1958.427734	-3.796671
2754.882074	17416.301000	1957.455078	27.064951
2754.882074	17416.301000	1956.483398	-18.354237
2754.882074	17416.301000	1955.511719	46.832474
2754.882074	17416.301000	1954.539063	23.468573
2754.882074	17416.301000	1953.566406	66.430901
2754.882074	17416.301000	1952.593750	15.974796
2754.882074	17416.301000	1951.621094	-7.471127
2754.882074	17416.301000	1950.647461	18.185688
2754.882074	17416.301000	1949.674805	6.970891
2754.882074	17416.301000	1948.701172	108.676544
2754.882074	17416.301000	1947.727539	60.579121
2754.882074	17416.301000	1946.753906	-132.326736
2754.882074	17416.301000	1945.780273	-28.260832
2754.882074	17416.301000	1944.805664	141.991394
2754.882074	17416.301000	1943.831055	42.338562
2754.882074	17416.301000	1942.856445	-91.626358
2754.882074	17416.301000	1941.881836	-71.073608
2754.882074	17416.301000	1940.907227	42.620907
2754.882074	17416.301000	1939.932617	41.060726
2754.882074	17416.301000	1938.957031	59.098618
2754.882074	17416.301000	1937.981445	-128.695984
2754.882074	17416.301000	1937.005859	-10.204597
2754.882074	17416.301000	1936.030273	-60.763378
2754.882074	17416.301000	1935.054688	52.767036
2754.882074	17416.301000	1934.078125	-0.237949
2754.882074	17416.301000	1933.101563	25.110661
2754.882074	17416.301000	1932.125000	104.294830
2754.882074	17416.301000	1931.148438	61.099712
2754.882074	17416.301000	1930.171875	13.030105
2754.882074	17416.301000	1929.194336	-137.756119
2754.882074	17416.301000	1928.217773	12.335049
2754.882074	17416.301000	1927.240234	-40.577408
2754.882074	17416.301000	1926.262695	1.880481
2754.882074	17416.301000	1925.284180	80.992867
2754.882074	17416.301000	1924.306641	116.093773
2754.882074	17416.301000	1923.328125	16.802513
2754.882074	17416.301000	1922.350586	-84.886368
2754.882074	17416.301000	1921.372070	16.196203
2754.882074	17416.301000	1920.392578	141.669342
2754.882074	17416.301000	1919.414063	-84.479424
2754.882074	17416.301000	1918.434570	-22.484423
2754.882074	17416.301000	1917.456055	22.413725
2754.882074	17416.301000	1916.476563	-35.183395
2754.882074	17416.301000	1915.497070	-7.357938
2754.882074	17416.301000	1914.516602	-8.804126
2754.882074	17416.301000	1913.537109	-29.748671
2754.882074	17416.301000	1912.556641	2.969043
2754.882074	17416.301000	1911.576172	82.006416
2754.882074	17416.301000	1910.595703	-19.347429
2754.882074	17416.301000	1909.615234	66.997864
2754.882074	17416.301000	1908.633789	50.986111
2754.882074	17416.301000	1907.653320	100.766739
2754.882074	17416.301000	1906.671875	-7.777528
2754.882074	17416.301000	1905.690430	-157.668259
2754.882074	17416.301000	1904.708984	38.239918
2754.882074	17416.301000	1903.727539	-31.250412
2754.882074	17416.301000	1902.745117	-115.307838
2754.882074	17416.301000	1901.762695	-2.220686
2754.882074	17416.301000	1900.780273	45.145573
2754.882074	17416.301000	1899.797852	114.396629
2754.882074	17416.301000	1898.815430	-15.793474
2754.882074	17416.301000	1897.832031	34.008640
2754.882074	17416.301000	1896.849609	64.353226
2754.882074	17416.301000	1895.866211	46.081459
2754.882074	17416.301000	1894.882813	139.613754
2754.882074	17416.301000	1893.898438	43.599262
2754.882074	17416.301000	1892.915039	15.648147
2754.882074	17416.301000	1891.930664	-17.143560
2754.882074	17416.301000	1890.947266	-20.775146
2754.882074	17416.301000	1889.962891	-65.674507
2754.882074	17416.301000	1888.977539	-64.430008
2754.882074	17416.301000	1887.993164	7.202630
2754.882074	17416.301000	1887.007813	-10.969650
2754.882074	17416.301000	1886.023438	63.060558
2754.882074	17416.301000	1885.038086	-15.748926
2754.882074	17416.301000	1884.051758	36.434341
2754.882074	17416.301000	1883.066406	11.008816
2754.882074	17416.301000	1882.081055	2.564417
2754.882074	17416.301000	1881.094727	-90.709816
2754.882074	17416.301000	1880.108398	-36.122803
2754.882074	17416.301000	1879.122070	-37.283577
2754.882074	17416.301000	1878.135742	72.988853
2754.882074	17416.301000	1877.148438	3.989440
2754.882074	17416.301000	1876.162109	-16.554846
2754.882074	17416.301000	1875.174805	-49.199959
2754.882074	17416.301000	1874.187500	-72.153809
2754.882074	17416.301000	1873.199219	117.874100
2754.882074	17416.301000	1872.211914	5.358296
2754.882074	17416.301000	1871.223633	-46.639568
2754.882074	17416.301000	1870.236328	-42.990181
2754.882074	17416.301000	1869.248047	-41.767666
2754.882074	17416.301000	1868.258789	-76.822868
2754.882074	17416.301000	1867.270508	-24.843840
2754.882074	17416.301000	1866.282227	-67.157829
2754.882074	17416.301000	1865.292969	-56.301098
2754.882074	17416.301000	1864.303711	94.675171
2754.882074	17416.301000	1863.314453	88.565140
2754.882074	17416.301000	1862.324219	-6.917994
2754.882074	17416.301000	1861.334961	15.945039
2754.882074	17416.301000	1860.344727	-11.914721
2754.882074	17416.301000	1859.354492	92.982826
2754.882074	17416.301000	1858.364258	-14.553023
2754.882074	17416.301000	1857.374023	-90.696869
2754.882074	17416.301000	1856.383789	21.345432
2754.882074	17416.301000	1855.392578	53.730331
2754.882074	17416.301000	1854.401367	-7.967284
2754.882074	17416.301000	1853.410156	82.240097
2754.882074	17416.301000	1852.418945	51.860004
2754.882074	17416.301000	1851.426758	141.980438
2754.882074	17416.301000	1850.435547	135.655487
2754.882074	17416.301000	1849.443359	76.305077
2754.882074	17416.301000	1848.451172	43.450977
2754.882074	17416.301000	1847.458984	37.077789
2754.882074	17416.301000	1846.466797	35.498222
2754.882074	17416.301000	1845.473633	142.230820
2754.882074	17416.301000	1844.480469	-51.984772
2754.882074	17416.301000	1843.487305	114.835571
2754.882074	17416.301000	1842.494141	28.919600
2754.882074	17416.301000	1841.500977	17.583958
2754.882074	17416.301000	1840.506836	95.216202
2754.882074	17416.301000	1839.513672	107.860741
2754.882074	17416.301000	1838.519531	96.425247
2754.882074	17416.301000	1837.525391	10.442080
2754.882074	17416.301000	1836.530273	8.577988
2754.882074	17416.301000	1835.536133	59.547558
2754.882074	17416.301000	1834.541016	110.463318
2754.882074	17416.301000	1833.545898	115.685890
2754.882074	17416.301000	1832.550781	195.321030
2754.882074	17416.301000	1831.555664	68.389984
2754.882074	17416.301000	1830.560547	80.710945
2754.882074	17416.301000	1829.564453	-0.621332
2754.882074	17416.301000	1828.568359	162.819412
2754.882074	17416.301000	1827.572266	52.632610
2754.882074	17416.301000	1826.576172	33.606167
2754.882074	17416.301000	1825.580078	196.829285
2754.882074	17416.301000	1824.583008	31.421955
2754.882074	17416.301000	1823.585938	-66.832886
2754.882074	17416.301000	1822.588867	55.439621
2754.882074	17416.301000	1821.591797	-78.817795
2754.882074	17416.301000	1820.594727	60.097866
2754.882074	17416.301000	1819.596680	59.961727
2754.882074	17416.301000	1818.599609	-40.819317
2754.882074	17416.301000	1817.601563	38.003307
2754.882074	17416.301000	1816.603516	-55.645535
2754.882074	17416.301000	1815.604492	-8.065570
2754.882074	17416.301000	1814.606445	80.139740
2754.882074	17416.301000	1813.607422	120.401764
2754.882074	17416.301000	1812.608398	151.029358
2754.882074	17416.301000	1811.609375	26.108423
2754.882074	17416.301000	1810.610352	142.744400
2754.882074	17416.301000	1809.610352	-46.792850
2754.882074	17416.301000	1808.611328	21.896284
2754.882074	17416.301000	1807.611328	140.703094
2754.882074	17416.301000	1806.611328	120.800575
2754.882074	17416.301000	1805.610352	48.284115
2754.882074	17416.301000	1804.610352	21.134811
2754.882074	17416.301000	1803.609375	27.379345
2754.882074	17416.301000	1802.608398	12.075220
2754.882074	17416.301000	1801.607422	94.614586
2754.882074	17416.301000	1800.606445	57.709915
2754.882074	17416.301000	1799.605469	51.791954
2754.882074	17416.301000	1798.603516	86.384041
2754.882074	17416.301000	1797.601563	-55.642548
2754.882074	17416.301000	1796.599609	102.882729
2754.882074	17416.301000	1795.597656	130.121613
2754.882074	17416.301000	1794.595703	38.070324
2754.882074	17416.301000	1793.592773	112.873581
2754.882074	17416.301000	1792.589844	94.632477
2754.882074	17416.301000	1791.587891	14.382437
2754.882074	17416.301000	1790.583984	-3.953778
2754.882074	17416.301000	1789.581055	77.713654
2754.882074	17416.301000	1788.577148	40.200512
2754.882074	17416.301000	1787.574219	-59.268406
2754.882074	17416.301000	1786.570313	-54.005943
2754.882074	17416.301000	1785.566406	139.245239
2754.882074	17416.301000	1784.561523	32.486855
2754.882074	17416.301000	1783.557617	-38.595829
2754.882074	17416.301000	1782.552734	-119.232079
2754.882074	17416.301000	1781.547852	49.851826
2754.882074	17416.301000	1780.542969	66.609802
2754.882074	17416.301000	1779.538086	102.320969
2754.882074	17416.301000	1778.532227	64.258743
2754.882074	17416.301000	1777.527344	35.659939
2754.882074	17416.301000	1776.521484	-57.154568
2754.882074	17416.301000	1775.515625	30.569847
2754.882074	17416.301000	1774.508789	-50.460979
2754.882074	17416.301000	1773.502930	18.103569
2754.882074	17416.301000	1772.496094	112.694786
2754.882074	17416.301000	1771.489258	-27.845999
2754.882074	17416.301000	1770.482422	-85.320129
2754.882074	17416.301000	1769.475586	146.691284
2754.882074	17416.301000	1768.467773	-84.133537
2754.882074	17416.301000	1767.460938	-8.907072
2754.882074	17416.301000	1766.453125	59.107491
2754.882074	17416.301000	1765.445313	110.432564
2754.882074	17416.301000	1764.437500	73.950966
2754.882074	17416.301000	1763.428711	54.008636
2754.882074	17416.301000	1762.420898	112.224716
2754.882074	17416.301000	1761.412109	49.502476
2754.882074	17416.301000	1760.403320	69.659599
2754.882074	17416.301000	1759.393555	47.104343
2754.882074	17416.301000	1758.384766	-63.124687
2754.882074	17416.301000	1757.375000	39.717632
2754.882074	17416.301000	1756.366211	45.402592
2754.882074	17416.301000	1755.356445	-19.988482
2754.882074	17416.301000	1754.345703	113.354408
2754.882074	17416.301000	1753.335938	-87.011398
2754.882074	17416.301000	1752.325195	-131.245636
2754.882074	17416.301000	1751.315430	108.285461
2754.882074	17416.301000	1750.304688	151.394623
2754.882074	17416.301000	1749.292969	50.205387
2754.882074	17416.301000	1748.282227	-81.730637
2754.882074	17416.301000	1747.270508	-114.428177
2754.882074	17416.301000	1746.259766	-57.383205
2754.882074	17416.301000	1745.248047	167.298981
2754.882074	17416.301000	1744.235352	-14.420111
2754.882074	17416.301000	1743.223633	-44.992641
2754.882074	17416.301000	1742.211914	-73.254143
2754.882074	17416.301000	1741.199219	-70.885605
2754.882074	17416.301000	1740.186523	-16.656797
2754.882074	17416.301000	1739.173828	65.806099
2754.882074	17416.301000	1738.160156	-26.410461
2754.882074	17416.301000	1737.147461	-38.448788
2754.882074	17416.301000	1736.133789	69.724564
2754.882074	17416.301000	1735.120117	41.041317
2754.882074	17416.301000	1734.106445	101.889992
2754.882074	17416.301000	1733.091797	-11.764277
2754.882074	17416.301000	1732.078125	-0.533893
2754.882074	17416.301000	1731.063477	10.627264
2754.882074	17416.301000	1730.048828	78.260132
2754.882074	17416.301000	1729.034180	110.481796
2754.882074	17416.301000	1728.019531	50.799477
2754.882074	17416.301000	1727.003906	-81.905434
2754.882074	17416.301000	1725.988281	-73.388618
2754.882074	17416.301000	1724.972656	40.968494
2754.882074	17416.301000	1723.957031	-65.946938
2754.882074	17416.301000	1722.941406	29.433393
2754.882074	17416.301000	1721.924805	216.442322
2754.882074	17416.301000	1720.909180	-78.735413
2754.882074	17416.301000	1719.892578	-11.793015
2754.882074	17416.301000	1718.875977	-17.800678
2754.882074	17416.301000	1717.858398	-35.617622
2754.882074	17416.301000	1716.841797	9.968660
2754.882074	17416.301000	1715.824219	15.539520
2754.882074	17416.301000	1714.806641	-18.874430
2754.882074	17416.301000	1713.789063	33.563263
2754.882074	17416.301000	1712.770508	175.144058
2754.882074	17416.301000	1711.752930	138.217224
2754.882074	17416.301000	1710.734375	75.429108
2754.882074	17416.301000	1709.715820	-60.129841
2754.882074	17416.301000	1708.697266	10.774824
2754.882074	17416.301000	1707.678711	-80.249893
2754.882074	17416.301000	1706.659180	77.300636
2754.882074	17416.301000	1705.640625	68.269897
2754.882074	17416.301000	1704.621094	-8.798783
2754.882074	17416.301000	1703.600586	96.931976
2754.882074	17416.301000	1702.581055	45.572044
2754.882074	17416.301000	1701.561523	90.249542
2754.882074	17416.301000	1700.541016	158.282364
2754.882074	17416.301000	1699.520508	177.060791
2754.882074	17416.301000	1698.500000	170.029297
2754.882074	17416.301000	1697.478516	216.797180
2754.882074	17416.301000	1696.458008	219.037827
2754.882074	17416.301000	1695.436523	99.531693
2754.882074	17416.301000	1694.415039	157.858749
2754.882074	17416.301000	1693.393555	3.237409
2754.882074	17416.301000	1692.372070	131.647842
2754.882074	17416.301000	1691.349609	199.160583
2754.882074	17416.301000	1690.327148	149.704895
2754.882074	17416.301000	1689.304688	175.033890
2754.882074	17416.301000	1688.282227	230.698059
2754.882074	17416.301000	1687.259766	206.856293
2754.882074	17416.301000	1686.236328	288.110260
2754.882074	17416.301000	1685.213867	355.290924
2754.882074	17416.301000	1684.190430	403.719025
2754.882074	17416.301000	1683.166016	267.628632
2754.882074	17416.301000	1682.142578	418.703369
2754.882074	17416.301000	1681.119141	436.648407
2754.882074	17416.301000	1680.094727	480.215179
2754.882074	17416.301000	1679.070313	409.410980
2754.882074	17416.301000	1678.045898	436.574921
2754.882074	17416.301000	1677.020508	449.696625
2754.882074	17416.301000	1675.996094	663.323425
2754.882074	17416.301000	1674.970703	380.261475
2754.882074	17416.301000	1673.945313	456.233551
2754.882074	17416.301000	1672.919922	578.757507
2754.882074	17416.301000	1671.893555	559.070435
2754.882074	17416.301000	1670.868164	499.772614
2754.882074	17416.301000	1669.841797	405.527954
2754.882074	17416.301000	1668.815430	462.655548
2754.882074	17416.301000	1667.789063	570.956421
2754.882074	17416.301000	1666.761719	462.706726
2754.882074	17416.301000	1665.735352	563.940002
2754.882074	17416.301000	1664.708008	541.781921
2754.882074	17416.301000	1663.680664	380.030151
2754.882074	17416.301000	1662.653320	322.987274
2754.882074	17416.301000	1661.625000	461.278442
2754.882074	17416.301000	1660.597656	669.257202
2754.882074	17416.301000	1659.569336	642.347412
2754.882074	17416.301000	1658.541016	355.129639
2754.882074	17416.301000	1657.512695	588.509888
2754.882074	17416.301000	1656.483398	542.988708
2754.882074	17416.301000	1655.455078	571.808594
2754.882074	17416.301000	1654.425781	516.991394
2754.882074	17416.301000	1653.396484	515.585388
2754.882074	17416.301000	1652.366211	509.516541
2754.882074	17416.301000	1651.336914	524.336304
2754.882074	17416.301000	1650.306641	374.373230
2754.882074	17416.301000	1649.276367	604.952026
2754.882074	17416.301000	1648.246094	348.310303
2754.882074	17416.301000	1647.215820	497.616364
2754.882074	17416.301000	1646.185547	616.714294
2754.882074	17416.301000	1645.154297	649.973694
2754.882074	17416.301000	1644.123047	646.129639
2754.882074	17416.301000	1643.091797	633.012878
2754.882074	17416.301000	1642.060547	751.962219
2754.882074	17416.301000	1641.028320	697.116333
2754.882074	17416.301000	1639.997070	716.412109
2754.882074	17416.301000	1638.964844	624.541260
2754.882074	17416.301000	1637.931641	796.622192
2754.882074	17416.301000	1636.899414	723.288147
2754.882074	17416.301000	1635.867188	721.724670
2754.882074	17416.301000	1634.833984	731.723877
2754.882074	17416.301000	1633.800781	628.367371
2754.882074	17416.301000	1632.767578	698.521179
2754.882074	17416.301000	1631.734375	731.652893
2754.882074	17416.301000	1630.700195	762.455505
2754.882074	17416.301000	1629.666016	742.397827
2754.882074	17416.301000	1628.631836	879.508911
2754.882074	17416.301000	1627.597656	938.012268
2754.882074	17416.301000	1626.563477	1040.394531
2754.882074	17416.301000	1625.528320	909.451721
2754.882074	17416.301000	1624.493164	877.869446
2754.882074	17416.301000	1623.458008	1125.681641
2754.882074	17416.301000	1622.422852	1121.792358
2754.882074	17416.301000	1621.387695	974.822571
2754.882074	17416.301000	1620.351563	1003.285278
2754.882074	17416.301000	1619.315430	925.625549
2754.882074	17416.301000	1618.279297	1074.058594
2754.882074	17416.301000	1617.243164	1088.691284
2754.882074	17416.301000	1616.207031	1103.334106
2754.882074	17416.301000	1615.169922	915.116150
2754.882074	17416.301000	1614.132813	1091.150269
2754.882074	17416.301000	1613.095703	1165.741577
2754.882074	17416.301000	1612.058594	963.852722
2754.882074	17416.301000	1611.020508	1031.560181
2754.882074	17416.301000	1609.983398	995.634094
2754.882074	17416.301000	1608.945313	1003.483704
2754.882074	17416.301000	1607.907227	983.727234
2754.882074	17416.301000	1606.868164	1067.567871
2754.882074	17416.301000	1605.830078	999.527527
2754.882074	17416.301000	1604.791016	945.334290
2754.882074	17416.301000	1603.751953	1022.306213
2754.882074	17416.301000	1602.712891	1030.277832
2754.882074	17416.301000	1601.673828	1042.872192
2754.882074	17416.301000	1600.633789	1085.367065
2754.882074	17416.301000	1599.594727	861.252258
2754.882074	17416.301000	1598.554688	1034.814453
2754.882074	17416.301000	1597.513672	1102.638916
2754.882074	17416.301000	1596.473633	1000.483826
2754.882074	17416.301000	1595.433594	1151.041626
2754.882074	17416.301000	1594.392578	1030.601196
2754.882074	17416.301000	1593.351563	933.199524
2754.882074	17416.301000	1592.310547	1138.861572
2754.882074	17416.301000	1591.268555	993.342041
2754.882074	17416.301000	1590.227539	985.592651
2754.882074	17416.301000	1589.185547	1163.691528
2754.882074	17416.301000	1588.143555	1041.295532
2754.882074	17416.301000	1587.100586	955.666748
2754.882074	17416.301000	1586.058594	1163.583618
2754.882074	17416.301000	1585.015625	1100.963013
2754.882074	17416.301000	1583.972656	1159.871826
2754.882074	17416.301000	1582.929688	1175.261597
2754.882074	17416.301000	1581.886719	1204.431519
2754.882074	17416.301000	1580.843750	1146.593628
2754.882074	17416.301000	1579.799805	1104.842041
2754.882074	17416.301000	1578.755859	1065.439331
2754.882074	17416.301000	1577.711914	1312.234497
2754.882074	17416.301000	1576.666992	1153.875244
2754.882074	17416.301000	1575.623047	1029.953125
2754.882074	17416.301000	1574.578125	1134.894531
2754.882074	17416.301000	1573.533203	1198.668701
2754.882074	17416.301000	1572.488281	1141.259888
2754.882074	17416.301000	1571.443359	1358.291992
2754.882074	17416.301000	1570.397461	1120.369019
2754.882074	17416.301000	1569.351563	1266.557617
2754.882074	17416.301000	1568.305664	1072.260132
2754.882074	17416.301000	1567.259766	1031.158691
2754.882074	17416.301000	1566.213867	1405.845459
2754.882074	17416.301000	1565.166992	1177.522217
2754.882074	17416.301000	1564.120117	1275.850098
2754.882074	17416.301000	1563.073242	1228.089844
2754.882074	17416.301000	1562.026367	1397.227905
2754.882074	17416.301000	1560.978516	1180.697388
2754.882074	17416.301000	1559.930664	1094.350586
2754.882074	17416.301000	1558.883789	1131.275635
2754.882074	17416.301000	1557.834961	1061.039429
2754.882074	17416.301000	1556.787109	1086.658569
2754.882074	17416.301000	1555.739258	893.472839
2754.882074	17416.301000	1554.690430	1206.407227
2754.882074	17416.301000	1553.641602	1113.648071
2754.882074	17416.301000	1552.592773	1148.570801
2754.882074	17416.301000	1551.542969	1122.027954
2754.882074	17416.301000	1550.494141	1257.260864
2754.882074	17416.301000	1549.444336	1112.419922
2754.882074	17416.301000	1548.394531	1356.988525
2754.882074	17416.301000	1547.344727	1257.827515
2754.882074	17416.301000	1546.293945	1238.408691
2754.882074	17416.301000	1545.244141	1159.908203
2754.882074	17416.301000	1544.193359	1177.035400
2754.882074	17416.301000	1543.142578	1330.676880
2754.882074	17416.301000	1542.090820	1263.748901
2754.882074	17416.301000	1541.040039	1306.040649
2754.882074	17416.301000	1539.988281	1023.336914
2754.882074	17416.301000	1538.936523	1113.503906
2754.882074	17416.301000	1537.884766	1194.611694
2754.882074	17416.301000	1536.833008	975.896118
2754.882074	17416.301000	1535.780273	991.259338
2754.882074	17416.301000	1534.727539	899.956787
2754.882074	17416.301000	1533.674805	969.947266
2754.882074	17416.301000	1532.622070	701.770264
2754.882074	17416.301000	1531.569336	858.142883
2754.882074	17416.301000	1530.515625	830.730896
2754.882074	17416.301000	1529.461914	714.926392
2754.882074	17416.301000	1528.408203	708.101929
2754.882074	17416.301000	1527.354492	721.756836
2754.882074	17416.301000	1526.299805	812.554016
2754.882074	17416.301000	1525.246094	706.185608
2754.882074	17416.301000	1524.191406	778.958862
2754.882074	17416.301000	1523.136719	720.355835
2754.882074	17416.301000	1522.081055	775.109558
2754.882074	17416.301000	1521.026367	664.578674
2754.882074	17416.301000	1519.970703	905.149963
2754.882074	17416.301000	1518.915039	851.374939
2754.882074	17416.301000	1517.859375	693.567993
2754.882074	17416.301000	1516.802734	791.624573
2754.882074	17416.301000	1515.747070	962.124573
2754.882074	17416.301000	1514.690430	786.503845
2754.882074	17416.301000	1513.633789	1024.931396
2754.882074	17416.301000	1512.577148	912.831116
2754.882074	17416.301000	1511.519531	875.453857
2754.882074	17416.301000	1510.461914	675.413757
2754.882074	17416.301000	1509.405273	724.129150
2754.882074	17416.301000	1508.346680	879.090149
2754.882074	17416.301000	1507.289063	550.622009
2754.882074	17416.301000	1506.231445	800.571289
2754.882074	17416.301000	1505.172852	704.988892
2754.882074	17416.301000	1504.114258	781.108643
2754.882074	17416.301000	1503.055664	843.728943
2754.882074	17416.301000	1501.996094	854.489380
2754.882074	17416.301000	1500.937500	757.017090
2754.882074	17416.301000	1499.877930	912.323059
2754.882074	17416.301000	1498.818359	934.568237
2754.882074	17416.301000	1497.757813	965.898315
2754.882074	17416.301000	1496.698242	1004.059082
2754.882074	17416.301000	1495.637695	967.890991
2754.882074	17416.301000	1494.577148	834.903503
2754.882074	17416.301000	1493.516602	837.242615
2754.882074	17416.301000	1492.456055	997.354736
2754.882074	17416.301000	1491.394531	817.369812
2754.882074	17416.301000	1490.333008	797.419861
2754.882074	17416.301000	1489.271484	574.922485
2754.882074	17416.301000	1488.209961	737.517395
2754.882074	17416.301000	1487.148438	605.298828
2754.882074	17416.301000	1486.085938	603.715881
2754.882074	17416.301000	1485.023438	669.702515
2754.882074	17416.301000	1483.960938	515.314941
2754.882074	17416.301000	1482.898438	408.290863
2754.882074	17416.301000	1481.834961	685.848755
2754.882074	17416.301000	1480.772461	538.524109
2754.882074	17416.301000	1479.708984	445.274231
2754.882074	17416.301000	1478.644531	610.528076
2754.882074	17416.301000	1477.581055	609.554443
2754.882074	17416.301000	1476.517578	637.879089
2754.882074	17416.301000	1475.453125	562.926331
2754.882074	17416.301000	1474.388672	759.708435
2754.882074	17416.301000	1473.323242	613.210327
2754.882074	17416.301000	1472.258789	774.123657
2754.882074	17416.301000	1471.193359	603.082031
2754.882074	17416.301000	1470.127930	542.163818
2754.882074	17416.301000	1469.062500	483.475922
2754.882074	17416.301000	1467.997070	537.131531
2754.882074	17416.301000	1466.930664	595.123352
2754.882074	17416.301000	1465.865234	503.120514
2754.882074	17416.301000	1464.798828	427.086212
2754.882074	17416.301000	1463.731445	449.722656
2754.882074	17416.301000	1462.665039	380.546692
2754.882074	17416.301000	1461.597656	481.405151
2754.882074	17416.301000	1460.530273	381.052979
2754.882074	17416.301000	1459.462891	428.430878
2754.882074	17416.301000	1458.395508	355.027039
2754.882074	17416.301000	1457.327148	384.738098
2754.882074	17416.301000	1456.259766	458.892944
2754.882074	17416.301000	1455.191406	281.387146
2754.882074	17416.301000	1454.123047	391.841309
2754.882074	17416.301000	1453.053711	428.218262
2754.882074	17416.301000	1451.985352	299.956635
2754.882074	17416.301000	1450.916016	303.845612
2754.882074	17416.301000	1449.846680	520.201782
2754.882074	17416.301000	1448.776367	381.912567
2754.882074	17416.301000	1447.707031	455.869598
2754.882074	17416.301000	1446.636719	424.052551
2754.882074	17416.301000	1445.566406	369.978363
2754.882074	17416.301000	1444.496094	249.023285
2754.882074	17416.301000	1443.425781	355.041595
2754.882074	17416.301000	1442.354492	170.676483
2754.882074	17416.301000	1441.283203	182.554443
2754.882074	17416.301000	1440.211914	385.058044
2754.882074	17416.301000	1439.140625	246.738785
2754.882074	17416.301000	1438.069336	166.231674
2754.882074	17416.301000	1436.997070	157.542496
2754.882074	17416.301000	1435.924805	-33.362255
2754.882074	17416.301000	1434.852539	162.087448
2754.882074	17416.301000	1433.780273	176.005569
2754.882074	17416.301000	1432.707031	38.263401
2754.882074	17416.301000	1431.633789	3.546358
2754.882074	17416.301000	1430.560547	-126.079941
2754.882074	17416.301000	1429.487305	-42.860909
2754.882074	17416.301000	1428.413086	-0.718976
2754.882074	17416.301000	1427.339844	70.244545
2754.882074	17416.301000	1426.265625	138.248642
2754.882074	17416.301000	1425.191406	-19.347883
2754.882074	17416.301000	1424.116211	-76.244553
2754.882074	17416.301000	1423.041992	-39.156013
2754.882074	17416.301000	1421.966797	83.086433
2754.882074	17416.301000	1420.891602	139.979492
2754.882074	17416.301000	1419.816406	1.585335
2754.882074	17416.301000	1418.740234	53.768196
2754.882074	17416.301000	1417.665039	49.580330
2754.882074	17416.301000	1416.588867	101.292625
2754.882074	17416.301000	1415.512695	-100.566322
2754.882074	17416.301000	1414.435547	128.843063
2754.882074	17416.301000	1413.359375	97.923088
2754.882074	17416.301000	1412.282227	38.729801
2754.882074	17416.301000	1411.205078	64.318382
2754.882074	17416.301000	1410.127930	177.546829
2754.882074	17416.301000	1409.049805	30.371237
2754.882074	17416.301000	1407.972656	218.948151
2754.882074	17416.301000	1406.894531	60.826382
2754.882074	17416.301000	1405.816406	10.297119
2754.882074	17416.301000	1404.737305	-4.082270
2754.882074	17416.301000	1403.659180	257.238312
2754.882074	17416.301000	1402.580078	300.205627
2754.882074	17416.301000	1401.500977	416.799042
2754.882074	17416.301000	1400.421875	374.875580
2754.882074	17416.301000	1399.341797	207.591507
2754.882074	17416.301000	1398.262695	207.628647
2754.882074	17416.301000	1397.182617	348.580292
2754.882074	17416.301000	1396.102539	483.577881
2754.882074	17416.301000	1395.021484	342.932190
2754.882074	17416.301000	1393.941406	310.171753
2754.882074	17416.301000	1392.860352	348.001617
2754.882074	17416.301000	1391.779297	393.019318
2754.882074	17416.301000	1390.698242	275.100800
2754.882074	17416.301000	1389.616211	343.204620
2754.882074	17416.301000	1388.535156	404.847015
2754.882074	17416.301000	1387.453125	365.052399
2754.882074	17416.301000	1386.371094	381.534668
2754.882074	17416.301000	1385.288086	326.973267
2754.882074	17416.301000	1384.206055	276.035797
2754.882074	17416.301000	1383.123047	200.020126
2754.882074	17416.301000	1382.040039	378.250244
2754.882074	17416.301000	1380.957031	451.616791
2754.882074	17416.301000	1379.873047	523.035706
2754.882074	17416.301000	1378.789063	489.257690
2754.882074	17416.301000	1377.705078	456.915497
2754.882074	17416.301000	1376.621094	464.715179
2754.882074	17416.301000	1375.537109	724.249512
2754.882074	17416.301000	1374.452148	648.934692
2754.882074	17416.301000	1373.367188	720.528442
2754.882074	17416.301000	1372.282227	706.330444
2754.882074	17416.301000	1371.197266	476.933105
2754.882074	17416.301000	1370.112305	615.831909
2754.882074	17416.301000	1369.026367	603.115662
2754.882074	17416.301000	1367.940430	461.328491
2754.882074	17416.301000	1366.854492	449.823303
2754.882074	17416.301000	1365.767578	417.281860
2754.882074	17416.301000	1364.681641	448.350952
2754.882074	17416.301000	1363.594727	441.894531
2754.882074	17416.301000	1362.507813	412.715179
2754.882074	17416.301000	1361.419922	428.250671
2754.882074	17416.301000	1360.333008	331.862274
2754.882074	17416.301000	1359.245117	449.526581
2754.882074	17416.301000	1358.157227	421.577789
2754.882074	17416.301000	1357.069336	529.228210
2754.882074	17416.301000	1355.981445	532.192688
2754.882074	17416.301000	1354.892578	604.654236
2754.882074	17416.301000	1353.803711	568.431824
2754.882074	17416.301000	1352.714844	672.384705
2754.882074	17416.301000	1351.625000	530.596436
2754.882074	17416.301000	1350.536133	576.421753
2754.882074	17416.301000	1349.446289	592.803284
2754.882074	17416.301000	1348.356445	658.666565
2754.882074	17416.301000	1347.266602	415.543396
2754.882074	17416.301000	1346.175781	402.778198
2754.882074	17416.301000	1345.085938	536.256104
2754.882074	17416.301000	1343.995117	572.001099
2754.882074	17416.301000	1342.903320	566.275024
2754.882074	17416.301000	1341.812500	695.029053
2754.882074	17416.301000	1340.720703	613.851501
2754.882074	17416.301000	1339.629883	584.751160
2754.882074	17416.301000	1338.538086	690.564758
2754.882074	17416.301000	1337.445313	601.168457
2754.882074	17416.301000	1336.353516	633.600098
2754.882074	17416.301000	1335.260742	791.098999
2754.882074	17416.301000	1334.167969	660.167603
2754.882074	17416.301000	1333.075195	709.745605
2754.882074	17416.301000	1331.981445	745.200562
2754.882074	17416.301000	1330.888672	683.401917
2754.882074	17416.301000	1329.794922	954.345825
2754.882074	17416.301000	1328.701172	820.194580
2754.882074	17416.301000	1327.606445	923.512390
2754.882074	17416.301000	1326.512695	907.666687
2754.882074	17416.301000	1325.417969	944.633728
2754.882074	17416.301000	1324.323242	738.211914
2754.882074	17416.301000	1323.227539	903.989075
2754.882074	17416.301000	1322.132813	891.233826
2754.882074	17416.301000	1321.037109	870.785339
2754.882074	17416.301000	1319.941406	813.006897
2754.882074	17416.301000	1318.845703	855.045471
2754.882074	17416.301000	1317.750000	908.193420
2754.882074	17416.301000	1316.653320	770.222778
2754.882074	17416.301000	1315.556641	765.107544
2754.882074	17416.301000	1314.459961	786.115723
2754.882074	17416.301000	1313.363281	602.592041
2754.882074	17416.301000	1312.265625	685.340820
2754.882074	17416.301000	1311.167969	517.532166
2754.882074	17416.301000	1310.070313	714.580688
2754.882074	17416.301000	1308.972656	595.261719
2754.882074	17416.301000	1307.874023	630.193054
2754.882074	17416.301000	1306.776367	660.687256
2754.882074	17416.301000	1305.677734	508.944885
2754.882074	17416.301000	1304.579102	509.994049
2754.882074	17416.301000	1303.479492	475.328186
2754.882074	17416.301000	1302.380859	476.999756
2754.882074	17416.301000	1301.281250	499.399139
2754.882074	17416.301000	1300.181641	541.804199
2754.882074	17416.301000	1299.081055	429.491272
2754.882074	17416.301000	1297.981445	478.759735
2754.882074	17416.301000	1296.880859	390.109894
2754.882074	17416.301000	1295.780273	376.747894
2754.882074	17416.301000	1294.679688	254.489120
2754.882074	17416.301000	1293.578125	288.670898
2754.882074	17416.301000	1292.476563	343.836243
2754.882074	17416.301000	1291.375000	320.740967
2754.882074	17416.301000	1290.273438	322.208282
2754.882074	17416.301000	1289.171875	195.439331
2754.882074	17416.301000	1288.069336	123.550369
2754.882074	17416.301000	1286.966797	165.988602
2754.882074	17416.301000	1285.864258	242.961060
2754.882074	17416.301000	1284.761719	169.051682
2754.882074	17416.301000	1283.658203	257.438782
2754.882074	17416.301000	1282.554688	293.478729
2754.882074	17416.301000	1281.451172	266.004974
2754.882074	17416.301000	1280.347656	225.512192
2754.882074	17416.301000	1279.244141	260.719086
2754.882074	17416.301000	1278.139648	281.598450
2754.882074	17416.301000	1277.035156	167.158493
2754.882074	17416.301000	1275.930664	172.939713
2754.882074	17416.301000	1274.825195	297.438843
2754.882074	17416.301000	1273.720703	171.064804
2754.882074	17416.301000	1272.615234	239.950699
2754.882074	17416.301000	1271.508789	202.745987
2754.882074	17416.301000	1270.403320	255.586563
2754.882074	17416.301000	1269.297852	164.748505
2754.882074	17416.301000	1268.191406	307.106995
2754.882074	17416.301000	1267.084961	139.977829
2754.882074	17416.301000	1265.977539	195.252289
2754.882074	17416.301000	1264.871094	217.373932
2754.882074	17416.301000	1263.763672	158.045761
2754.882074	17416.301000	1262.656250	154.333054
2754.882074	17416.301000	1261.548828	218.342316
2754.882074	17416.301000	1260.440430	102.108917
2754.882074	17416.301000	1259.333008	159.687225
2754.882074	17416.301000	1258.224609	218.598648
2754.882074	17416.301000	1257.115234	141.712845
2754.882074	17416.301000	1256.006836	192.350815
2754.882074	17416.301000	1254.897461	255.287857
2754.882074	17416.301000	1253.788086	237.998489
2754.882074	17416.301000	1252.678711	58.743473
2754.882074	17416.301000	1251.569336	127.643997
2754.882074	17416.301000	1250.458984	144.359955
2754.882074	17416.301000	1249.349609	122.020477
2754.882074	17416.301000	1248.239258	160.719223
2754.882074	17416.301000	1247.127930	98.992401
2754.882074	17416.301000	1246.017578	136.751877
2754.882074	17416.301000	1244.906250	107.331558
2754.882074	17416.301000	1243.794922	127.833397
2754.882074	17416.301000	1242.683594	154.699890
2754.882074	17416.301000	1241.571289	136.572357
2754.882074	17416.301000	1240.459961	175.540497
2754.882074	17416.301000	1239.347656	150.846832
2754.882074	17416.301000	1238.234375	125.883064
2754.882074	17416.301000	1237.122070	156.099747
2754.882074	17416.301000	1236.008789	195.139786
2754.882074	17416.301000	1234.896484	106.995285
2754.882074	17416.301000	1233.782227	197.111450
2754.882074	17416.301000	1232.668945	167.830429
2754.882074	17416.301000	1231.555664	130.391693
2754.882074	17416.301000	1230.441406	113.918480
2754.882074	17416.301000	1229.327148	166.871292
2754.882074	17416.301000	1228.211914	183.246384
2754.882074	17416.301000	1227.097656	27.481827
2754.882074	17416.301000	1225.982422	171.410339
2754.882074	17416.301000	1224.867188	68.478310
2754.882074	17416.301000	1223.751953	148.981812
2754.882074	17416.301000	1222.635742	-7.413023
2754.882074	17416.301000	1221.520508	56.518623
2754.882074	17416.301000	1220.404297	-72.431656
2754.882074	17416.301000	1219.287109	20.126905
2754.882074	17416.301000	1218.170898	128.719498
2754.882074	17416.301000	1217.053711	79.148865
2754.882074	17416.301000	1215.936523	113.652100
2754.882074	17416.301000	1214.819336	115.879753
2754.882074	17416.301000	1213.702148	37.292477
2754.882074	17416.301000	1212.583984	59.992840
2754.882074	17416.301000	1211.465820	72.315636
2754.882074	17416.301000	1210.347656	59.630207
2754.882074	17416.301000	1209.229492	-7.435811
2754.882074	17416.301000	1208.110352	29.540438
2754.882074	17416.301000	1206.992188	64.640617
2754.882074	17416.301000	1205.873047	30.126225
2754.882074	17416.301000	1204.752930	37.941776
2754.882074	17416.301000	1203.633789	90.362885
2754.882074	17416.301000	1202.513672	123.148529
2754.882074	17416.301000	1201.393555	108.487663
2754.882074	17416.301000	1200.273438	0.840001
2754.882074	17416.301000	1199.152344	21.684448
2754.882074	17416.301000	1198.032227	139.930099
2754.882074	17416.301000	1196.911133	-33.579735
2754.882074	17416.301000	1195.790039	2.213634
2754.882074	17416.301000	1194.667969	52.961422
2754.882074	17416.301000	1193.545898	31.183790
2754.882074	17416.301000	1192.424805	42.753017
2754.882074	17416.301000	1191.301758	21.888750
2754.882074	17416.301000	1190.179688	-43.313179
2754.882074	17416.301000	1189.056641	-87.788498
2754.882074	17416.301000	1187.933594	18.665199
2754.882074	17416.301000	1186.810547	3.173672
2754.882074	17416.301000	1185.687500	-102.687111
2754.882074	17416.301000	1184.563477	-14.628362
2754.882074	17416.301000	1183.440430	8.682384
2754.882074	17416.301000	1182.316406	-2.297244
2754.882074	17416.301000	1181.191406	-45.887314
2754.882074	17416.301000	1180.067383	3.709128
2754.882074	17416.301000	1178.942383	-49.563091
2754.882074	17416.301000	1177.817383	3.726174
2754.882074	17416.301000	1176.692383	15.277920
2754.882074	17416.301000	1175.566406	74.568298
2754.882074	17416.301000	1174.440430	28.683769
2754.882074	17416.301000	1173.314453	144.050934
2754.882074	17416.301000	1172.188477	43.038288
2754.882074	17416.301000	1171.062500	49.068039
2754.882074	17416.301000	1169.935547	51.727581
2754.882074	17416.301000	1168.808594	36.593731
2754.882074	17416.301000	1167.681641	40.843113
2754.882074	17416.301000	1166.553711	48.832100
2754.882074	17416.301000	1165.426758	-34.157379
2754.882074	17416.301000	1164.298828	28.892248
2754.882074	17416.301000	1163.170898	-75.496758
2754.882074	17416.301000	1162.041992	-22.812822
2754.882074	17416.301000	1160.914063	-59.884171
2754.882074	17416.301000	1159.785156	-42.558636
2754.882074	17416.301000	1158.656250	-19.814339
2754.882074	17416.301000	1157.526367	-65.533325
2754.882074	17416.301000	1156.397461	-56.823921
2754.882074	17416.301000	1155.267578	-60.630295
2754.882074	17416.301000	1154.137695	-102.173149
2754.882074	17416.301000	1153.006836	-153.218887
2754.882074	17416.301000	1151.876953	-88.360497
2754.882074	17416.301000	1150.746094	18.554367
2754.882074	17416.301000	1149.615234	-90.898026
2754.882074	17416.301000	1148.484375	-163.173309
2754.882074	17416.301000	1147.352539	-111.278229
2754.882074	17416.301000	1146.220703	-101.423035
2754.882074	17416.301000	1145.088867	-116.211319
2754.882074	17416.301000	1143.957031	-154.391678
2754.882074	17416.301000	1142.825195	-101.388977
2754.882074	17416.301000	1141.692383	-176.112885
2754.882074	17416.301000	1140.559570	-62.054779
2754.882074	17416.301000	1139.426758	-114.319199
2754.882074	17416.301000	1138.292969	9.530312
2754.882074	17416.301000	1137.159180	59.445335
2754.882074	17416.301000	1136.025391	-105.683540
2754.882074	17416.301000	1134.891602	2.678794
2754.882074	17416.301000	1133.757813	-1.114666
2754.882074	17416.301000	1132.623047	-5.094852
2754.882074	17416.301000	1131.488281	114.746597
2754.882074	17416.301000	1130.353516	54.742653
2754.882074	17416.301000	1129.217773	77.638702
2754.882074	17416.301000	1128.083008	9.900441
2754.882074	17416.301000	1126.947266	39.353096
2754.882074	17416.301000	1125.811523	75.503212
2754.882074	17416.301000	1124.674805	74.517456
2754.882074	17416.301000	1123.539063	141.451111
2754.882074	17416.301000	1122.402344	248.043747
2754.882074	17416.301000	1121.265625	63.260521
2754.882074	17416.301000	1120.127930	217.816360
2754.882074	17416.301000	1118.990234	252.540741
2754.882074	17416.301000	1117.853516	371.760254
2754.882074	17416.301000	1116.714844	290.593719
2754.882074	17416.301000	1115.577148	162.097641
2754.882074	17416.301000	1114.439453	283.694458
2754.882074	17416.301000	1113.300781	261.458801
2754.882074	17416.301000	1112.162109	241.300888
2754.882074	17416.301000	1111.022461	206.908112
2754.882074	17416.301000	1109.883789	249.956482
2754.882074	17416.301000	1108.744141	172.677719
2754.882074	17416.301000	1107.604492	249.053894
2754.882074	17416.301000	1106.463867	209.723495
2754.882074	17416.301000	1105.324219	176.244568
2754.882074	17416.301000	1104.183594	256.976105
2754.882074	17416.301000	1103.042969	210.815277
2754.882074	17416.301000	1101.902344	247.324173
2754.882074	17416.301000	1100.760742	360.377045
2754.882074	17416.301000	1099.619141	421.487823
2754.882074	17416.301000	1098.477539	270.473511
2754.882074	17416.301000	1097.335938	347.543091
2754.882074	17416.301000	1096.193359	374.802216
2754.882074	17416.301000	1095.051758	360.137421
2754.882074	17416.301000	1093.909180	272.950317
2754.882074	17416.301000	1092.765625	377.627075
2754.882074	17416.301000	1091.623047	314.283478
2754.882074	17416.301000	1090.479492	423.414154
2754.882074	17416.301000	1089.335938	417.946960
2754.882074	17416.301000	1088.192383	304.583099
2754.882074	17416.301000	1087.047852	356.239532
2754.882074	17416.301000	1085.903320	302.842163
2754.882074	17416.301000	1084.758789	299.503387
2754.882074	17416.301000	1083.614258	260.795044
2754.882074	17416.301000	1082.469727	274.326569
2754.882074	17416.301000	1081.324219	250.495789
2754.882074	17416.301000	1080.178711	194.755569
2754.882074	17416.301000	1079.033203	301.246155
2754.882074	17416.301000	1077.886719	125.973640
2754.882074	17416.301000	1076.740234	82.129807
2754.882074	17416.301000	1075.593750	199.895386
2754.882074	17416.301000	1074.447266	141.475540
2754.882074	17416.301000	1073.300781	158.051025
2754.882074	17416.301000	1072.153320	35.617615
2754.882074	17416.301000	1071.005859	80.308083
2754.882074	17416.301000	1069.858398	95.280228
2754.882074	17416.301000	1068.709961	96.040512
2754.882074	17416.301000	1067.561523	135.292099
2754.882074	17416.301000	1066.413086	-1.355554
2754.882074	17416.301000	1065.264648	93.178719
2754.882074	17416.301000	1064.116211	25.970205
2754.882074	17416.301000	1062.966797	106.387054
2754.882074	17416.301000	1061.817383	-155.261475
2754.882074	17416.301000	1060.667969	-19.704796
2754.882074	17416.301000	1059.517578	135.836334
2754.882074	17416.301000	1058.368164	128.233414
2754.882074	17416.301000	1057.217773	47.123901
2754.882074	17416.301000	1056.067383	117.050529
2754.882074	17416.301000	1054.916016	71.985809
2754.882074	17416.301000	1053.764648	151.050186
2754.882074	17416.301000	1052.613281	133.003510
2754.882074	17416.301000	1051.461914	38.630573
2754.882074	17416.301000	1050.310547	84.782059
2754.882074	17416.301000	1049.158203	136.995804
2754.882074	17416.301000	1048.005859	-23.592035
2754.882074	17416.301000	1046.853516	18.550890
2754.882074	17416.301000	1045.700195	55.809998
2754.882074	17416.301000	1044.547852	24.425005
2754.882074	17416.301000	1043.394531	122.174438
2754.882074	17416.301000	1042.240234	22.791250
2754.882074	17416.301000	1041.086914	75.734039
2754.882074	17416.301000	1039.932617	120.931595
2754.882074	17416.301000	1038.778320	205.722900
2754.882074	17416.301000	1037.624023	145.260895
2754.882074	17416.301000	1036.469727	18.453896
2754.882074	17416.301000	1035.314453	223.873672
2754.882074	17416.301000	1034.159180	187.933975
2754.882074	17416.301000	1033.003906	194.033371
2754.882074	17416.301000	1031.847656	260.227448
2754.882074	17416.301000	1030.692383	304.857452
2754.882074	17416.301000	1029.536133	325.946594
2754.882074	17416.301000	1028.378906	389.917267
2754.882074	17416.301000	1027.222656	212.756866
2754.882074	17416.301000	1026.065430	288.397125
2754.882074	17416.301000	1024.908203	250.129883
2754.882074	17416.301000	1023.750977	114.544136
2754.882074	17416.301000	1022.593750	178.964691
2754.882074	17416.301000	1021.435547	91.075890
2754.882074	17416.301000	1020.277344	130.366409
2754.882074	17416.301000	1019.119141	29.452103
2754.882074	17416.301000	1017.959961	91.001602
2754.882074	17416.301000	1016.800781	32.778084
2754.882074	17416.301000	1015.641602	107.583420
2754.882074	17416.301000	1014.482422	49.610085
2754.882074	17416.301000	1013.323242	24.773724
2754.882074	17416.301000	1012.163086	-16.252728
2754.882074	17416.301000	1011.002930	43.183647
2754.882074	17416.301000	1009.842773	71.444275
2754.882074	17416.301000	1008.681641	-19.590918
2754.882074	17416.301000	1007.520508	-40.086357
2754.882074	17416.301000	1006.359375	25.418997
2754.882074	17416.301000	1005.198242	-51.408737
2754.882074	17416.301000	1004.037109	-2.929325
2754.882074	17416.301000	1002.875000	17.922117
2754.882074	17416.301000	1001.712891	32.186337
2754.882074	17416.301000	1000.550781	38.255028
2754.882074	17416.301000	999.387695	3.731108
2754.882074	17416.301000	998.224609	63.355080
2754.882074	17416.301000	997.061523	129.617752
2754.882074	17416.301000	995.898438	152.070023
2754.882074	17416.301000	994.734375	-3.683834
2754.882074	17416.301000	993.571289	61.321674
2754.882074	17416.301000	992.407227	61.379513
2754.882074	17416.301000	991.242188	-63.284691
2754.882074	17416.301000	990.078125	15.005569
2754.882074	17416.301000	988.913086	-35.742970
2754.882074	17416.301000	987.748047	47.716686
2754.882074	17416.301000	986.583008	22.959328
2754.882074	17416.301000	985.416992	45.931892
2754.882074	17416.301000	984.250977	92.802315
2754.882074	17416.301000	983.084961	116.477905
2754.882074	17416.301000	981.918945	97.412354
2754.882074	17416.301000	980.751953	8.583770
2754.882074	17416.301000	979.584961	38.106449
2754.882074	17416.301000	978.417969	42.198727
2754.882074	17416.301000	977.250977	112.128250
2754.882074	17416.301000	976.083008	105.481949
2754.882074	17416.301000	974.915039	125.044098
2754.882074	17416.301000	973.747070	117.171204
2754.882074	17416.301000	972.579102	88.410217
2754.882074	17416.301000	971.410156	209.290863
2754.882074	17416.301000	970.242188	196.608337
2754.882074	17416.301000	969.072266	239.594742
2754.882074	17416.301000	967.903320	169.488327
2754.882074	17416.301000	966.733398	263.614990
2754.882074	17416.301000	965.563477	343.942719
2754.882074	17416.301000	964.393555	287.965729
2754.882074	17416.301000	963.223633	201.387161
2754.882074	17416.301000	962.052734	283.239075
2754.882074	17416.301000	960.881836	190.683365
2754.882074	17416.301000	959.710938	157.573578
2754.882074	17416.301000	958.540039	216.094803
2754.882074	17416.301000	957.368164	197.408920
2754.882074	17416.301000	956.196289	90.288689
2754.882074	17416.301000	955.024414	185.485611
2754.882074	17416.301000	953.851563	118.337776
2754.882074	17416.301000	952.679688	102.764343
2754.882074	17416.301000	951.506836	25.413567
2754.882074	17416.301000	950.333984	125.063660
2754.882074	17416.301000	949.160156	100.004784
2754.882074	17416.301000	947.986328	-35.419895
2754.882074	17416.301000	946.812500	57.944443
2754.882074	17416.301000	945.638672	122.625664
2754.882074	17416.301000	944.464844	11.505127
2754.882074	17416.301000	943.290039	-52.440079
2754.882074	17416.301000	942.115234	36.993645
2754.882074	17416.301000	940.940430	-16.968590
2754.882074	17416.301000	939.764648	-21.763813
2754.882074	17416.301000	938.588867	8.256927
2754.882074	17416.301000	937.413086	246.565811
2754.882074	17416.301000	936.237305	280.645264
2754.882074	17416.301000	935.060547	206.356064
2754.882074	17416.301000	933.883789	148.347183
2754.882074	17416.301000	932.707031	223.115707
2754.882074	17416.301000	931.530273	165.081085
2754.882074	17416.301000	930.352539	219.425278
2754.882074	17416.301000	929.175781	118.548012
2754.882074	17416.301000	927.998047	3.350318
2754.882074	17416.301000	926.819336	82.139763
2754.882074	17416.301000	925.641602	148.628647
2754.882074	17416.301000	924.462891	86.515289
2754.882074	17416.301000	923.284180	197.852112
2754.882074	17416.301000	922.104492	143.874680
2754.882074	17416.301000	920.924805	132.740448
2754.882074	17416.301000	919.746094	134.750977
2754.882074	17416.301000	919.551758	68.896385
2754.882074	17416.301000	918.386719	37.330582
2754.882074	17416.301000	917.220703	109.728661
2754.882074	17416.301000	916.054688	53.675854
2754.882074	17416.301000	914.887695	50.611736
2754.882074	17416.301000	913.721680	145.321152
2754.882074	17416.301000	912.554688	134.057266
2754.882074	17416.301000	911.387695	139.072372
2754.882074	17416.301000	910.220703	284.557343
2754.882074	17416.301000	909.052734	250.828613
2754.882074	17416.301000	907.885742	198.776657
2754.882074	17416.301000	906.717773	197.601257
2754.882074	17416.301000	905.548828	326.612885
2754.882074	17416.301000	904.380859	319.274323
2754.882074	17416.301000	903.211914	196.006973
2754.882074	17416.301000	902.042969	113.436241
2754.882074	17416.301000	900.874023	211.796967
2754.882074	17416.301000	899.704102	216.613464
2754.882074	17416.301000	898.535156	146.226135
2754.882074	17416.301000	897.365234	73.819359
2754.882074	17416.301000	896.194336	188.288055
2754.882074	17416.301000	895.024414	81.344322
2754.882074	17416.301000	893.853516	37.365780
2754.882074	17416.301000	892.682617	-49.240273
2754.882074	17416.301000	891.511719	144.236084
2754.882074	17416.301000	890.340820	104.274757
2754.882074	17416.301000	889.168945	31.854511
2754.882074	17416.301000	887.997070	28.404175
2754.882074	17416.301000	886.825195	14.798201
2754.882074	17416.301000	885.653320	114.712311
2754.882074	17416.301000	884.480469	121.327347
2754.882074	17416.301000	883.307617	16.459875
2754.882074	17416.301000	882.134766	55.473125
2754.882074	17416.301000	880.961914	151.171234
2754.882074	17416.301000	879.788086	30.104107
2754.882074	17416.301000	878.614258	48.785156
2754.882074	17416.301000	877.440430	-25.687532
2754.882074	17416.301000	876.266602	55.705502
2754.882074	17416.301000	875.091797	116.809509
2754.882074	17416.301000	873.916992	-8.269266
2754.882074	17416.301000	872.742188	83.126831
2754.882074	17416.301000	871.567383	63.232590
2754.882074	17416.301000	870.391602	-29.464724
2754.882074	17416.301000	869.215820	106.295990
2754.882074	17416.301000	868.040039	47.948742
2754.882074	17416.301000	866.864258	-2.312200
2754.882074	17416.301000	865.687500	48.446156
2754.882074	17416.301000	864.510742	103.203232
2754.882074	17416.301000	863.333984	151.858856
2754.882074	17416.301000	862.157227	123.747932
2754.882074	17416.301000	860.979492	105.722794
2754.882074	17416.301000	859.802734	121.994522
2754.882074	17416.301000	858.625000	-13.100288
2754.882074	17416.301000	857.446289	93.934334
2754.882074	17416.301000	856.268555	-10.885275
2754.882074	17416.301000	855.089844	-33.000443
2754.882074	17416.301000	853.911133	3.342330
2754.882074	17416.301000	852.731445	126.329262
2754.882074	17416.301000	851.552734	-87.324928
2754.882074	17416.301000	850.373047	-36.951355
2754.882074	17416.301000	849.193359	-145.769608
2754.882074	17416.301000	848.013672	-16.895948
2754.882074	17416.301000	846.833008	-119.675034
2754.882074	17416.301000	845.652344	-29.154987
2754.882074	17416.301000	844.471680	-53.429642
2754.882074	17416.301000	843.291016	-63.628464
2754.882074	17416.301000	842.110352	-114.086494
2754.882074	17416.301000	840.928711	-37.811050
2754.882074	17416.301000	839.747070	-231.095535
2754.882074	17416.301000	838.564453	-112.643364
2754.882074	17416.301000	837.382813	-110.867546
2754.882074	17416.301000	836.200195	-24.693630
2754.882074	17416.301000	835.017578	-85.277985
2754.882074	17416.301000	833.834961	-117.731522
2754.882074	17416.301000	832.651367	-9.580728
2754.882074	17416.301000	831.467773	2.102064
2754.882074	17416.301000	830.284180	-24.393179
2754.882074	17416.301000	829.100586	-30.825802
2754.882074	17416.301000	827.916992	-149.676346
2754.882074	17416.301000	826.732422	-47.764854
2754.882074	17416.301000	825.547852	-58.269997
2754.882074	17416.301000	824.363281	-70.800240
2754.882074	17416.301000	823.177734	-57.277237
2754.882074	17416.301000	821.992188	-31.753145
2754.882074	17416.301000	820.806641	7.769048
2754.882074	17416.301000	819.621094	41.238491
2754.882074	17416.301000	818.434570	118.754456
2754.882074	17416.301000	817.249023	-32.171837
2754.882074	17416.301000	816.062500	-18.815449
2754.882074	17416.301000	814.875000	-3.486060
2754.882074	17416.301000	813.688477	-36.238739
2754.882074	17416.301000	812.500977	-6.948264
2754.882074	17416.301000	811.313477	56.328522
2754.882074	17416.301000	810.125977	-80.535873
2754.882074	17416.301000	808.937500	-3.314897
2754.882074	17416.301000	807.749023	-18.154678
2754.882074	17416.301000	806.560547	66.971092
2754.882074	17416.301000	805.372070	20.086308
2754.882074	17416.301000	804.182617	-32.800331
2754.882074	17416.301000	802.994141	48.204243
2754.882074	17416.301000	801.803711	-32.687756
2754.882074	17416.301000	800.614258	118.149750
2754.882074	17416.301000	799.424805	99.139534
2754.882074	17416.301000	798.234375	12.222346
2754.882074	17416.301000	797.043945	118.962204
2754.882074	17416.301000	795.852539	-19.868141
2754.882074	17416.301000	794.662109	-52.903168
2754.882074	17416.301000	793.470703	27.772266
2754.882074	17416.301000	792.279297	116.367783
2754.882074	17416.301000	791.087891	55.329636
2754.882074	17416.301000	789.895508	84.015457
2754.882074	17416.301000	788.703125	64.820969
2754.882074	17416.301000	787.510742	75.504929
2754.882074	17416.301000	786.318359	112.063438
2754.882074	17416.301000	785.125000	124.674347
2754.882074	17416.301000	783.931641	-36.032646
2754.882074	17416.301000	782.738281	8.415113
2754.882074	17416.301000	781.544922	86.665573
2754.882074	17416.301000	780.350586	-24.246544
2754.882074	17416.301000	779.156250	-29.659708
2754.882074	17416.301000	777.961914	-3.259947
2754.882074	17416.301000	776.767578	-92.278206
2754.882074	17416.301000	775.572266	-127.584618
2754.882074	17416.301000	774.376953	-49.557602
2754.882074	17416.301000	773.181641	-69.004257
2754.882074	17416.301000	771.986328	-22.875746
2754.882074	17416.301000	770.790039	9.297095
2754.882074	17416.301000	769.593750	164.615921
2754.882074	17416.301000	768.397461	-7.918250
2754.882074	17416.301000	767.201172	38.056911
2754.882074	17416.301000	766.003906	-21.250731
2754.882074	17416.301000	764.806641	-60.707199
2754.882074	17416.301000	763.609375	-42.613716
2754.882074	17416.301000	762.412109	112.368141
2754.882074	17416.301000	761.213867	-16.446402
2754.882074	17416.301000	760.015625	7.500061
2754.882074	17416.301000	758.817383	65.124580
2754.882074	17416.301000	757.618164	-39.884132
2754.882074	17416.301000	756.419922	-12.058585
2754.882074	17416.301000	755.220703	45.457554
2754.882074	17416.301000	754.021484	-15.964219
2754.882074	17416.301000	752.821289	65.250473
2754.882074	17416.301000	751.621094	186.019577
2754.882074	17416.301000	750.420898	78.985733
2754.882074	17416.301000	749.220703	82.841438
2754.882074	17416.301000	748.020508	233.148300
2754.882074	17416.301000	746.819336	169.633942
2754.882074	17416.301000	745.618164	100.185661
2754.882074	17416.301000	744.416992	234.494461
2754.882074	17416.301000	743.214844	242.144882
2754.882074	17416.301000	742.012695	239.880219
2754.882074	17416.301000	740.810547	81.414467
2754.882074	17416.301000	739.608398	249.117874
2754.882074	17416.301000	738.406250	238.876785
2754.882074	17416.301000	737.203125	463.723389
2754.882074	17416.301000	736.000000	694.378662
2754.882074	17416.301000	734.795898	733.349426
2754.882074	17416.301000	733.592773	797.949158
2754.882074	17416.301000	732.388672	830.912415
2754.882074	17416.301000	731.184570	911.205933
2754.882074	17416.301000	729.979492	646.126404
2754.882074	17416.301000	728.775391	558.689270
2754.882074	17416.301000	727.570313	467.319794
2754.882074	17416.301000	726.365234	342.442352
2754.882074	17416.301000	725.160156	337.860291
2754.882074	17416.301000	723.954102	287.920135
2754.882074	17416.301000	722.748047	208.416809
2754.882074	17416.301000	721.541992	172.272888
2754.882074	17416.301000	720.334961	224.766953
2754.882074	17416.301000	719.128906	99.963020
2754.882074	17416.301000	717.921875	51.982994
2754.882074	17416.301000	716.714844	13.845575
2754.882074	17416.301000	715.506836	46.559280
2754.882074	17416.301000	714.298828	28.074005
2754.882074	17416.301000	713.090820	90.241531
2754.882074	17416.301000	711.882813	-28.605392
2754.882074	17416.301000	710.674805	39.407497
2754.882074	17416.301000	709.465820	14.957605
2754.882074	17416.301000	708.256836	-33.091496
2754.882074	17416.301000	707.047852	-0.558407
2754.882074	17416.301000	705.837891	-34.869751
2754.882074	17416.301000	704.627930	160.669159
2754.882074	17416.301000	703.417969	73.268532
2754.882074	17416.301000	702.208008	74.254822
2754.882074	17416.301000	700.998047	92.891968
2754.882074	17416.301000	699.787109	113.464233
2754.882074	17416.301000	698.576172	77.098045
2754.882074	17416.301000	697.364258	1.485361
2754.882074	17416.301000	696.153320	-46.647038
2754.882074	17416.301000	694.941406	144.497101
2754.882074	17416.301000	693.729492	72.788872
2754.882074	17416.301000	692.516602	50.104309
2754.882074	17416.301000	691.304688	145.016495
2754.882074	17416.301000	690.091797	38.030586
2754.882074	17416.301000	688.878906	187.730652
2754.882074	17416.301000	687.665039	108.170891
2754.882074	17416.301000	686.451172	181.384659
2754.882074	17416.301000	685.237305	113.578316
2754.882074	17416.301000	684.023438	43.828865
2754.882074	17416.301000	682.809570	79.780693
2754.882074	17416.301000	681.594727	166.577820
2754.882074	17416.301000	680.379883	79.211670
2754.882074	17416.301000	679.165039	144.431107
2754.882074	17416.301000	677.949219	139.210236
2754.882074	17416.301000	676.733398	28.404280
2754.882074	17416.301000	675.517578	-29.589922
2754.882074	17416.301000	674.301758	121.535133
2754.882074	17416.301000	673.084961	151.444916
2754.882074	17416.301000	671.869141	122.729515
2754.882074	17416.301000	670.651367	136.978836
2754.882074	17416.301000	669.434570	75.061256
2754.882074	17416.301000	668.216797	147.861526
2754.882074	17416.301000	667.000000	160.117752
2754.882074	17416.301000	665.781250	135.279648
2754.882074	17416.301000	664.563477	49.965168
2754.882074	17416.301000	663.344727	7.589338
2754.882074	17416.301000	662.125977	84.182793
2754.882074	17416.301000	660.907227	244.576035
2754.882074	17416.301000	659.688477	147.582916
2754.882074	17416.301000	658.468750	171.454865
2754.882074	17416.301000	657.249023	115.422256
2754.882074	17416.301000	656.029297	80.836578
2754.882074	17416.301000	654.808594	18.991211
2754.882074	17416.301000	653.587891	107.106804
2754.882074	17416.301000	652.367188	144.562195
2754.882074	17416.301000	651.146484	135.283615
2754.882074	17416.301000	649.924805	153.247528
2754.882074	17416.301000	648.704102	177.039856
2754.882074	17416.301000	647.482422	93.830437
2754.882074	17416.301000	646.259766	140.953705
2754.882074	17416.301000	645.037109	147.223572
2754.882074	17416.301000	643.815430	67.955940
2754.882074	17416.301000	642.591797	202.510086
2754.882074	17416.301000	641.369141	156.294708
2754.882074	17416.301000	640.145508	209.176941
2754.882074	17416.301000	638.921875	7.591295
2754.882074	17416.301000	637.698242	25.529457
2754.882074	17416.301000	636.474609	0.748221
2754.882074	17416.301000	635.250000	154.558578
2754.882074	17416.301000	634.025391	83.186081
2754.882074	17416.301000	632.800781	87.517426
2754.882074	17416.301000	631.575195	105.427094
2754.882074	17416.301000	630.349609	65.148926
2754.882074	17416.301000	629.124023	24.892376
2754.882074	17416.301000	627.898438	-3.710759
2754.882074	17416.301000	626.671875	2.589020
2754.882074	17416.301000	625.445313	24.394207
2754.882074	17416.301000	624.218750	36.509457
2754.882074	17416.301000	622.992188	40.877598
2754.882074	17416.301000	621.764648	54.931755
2754.882074	17416.301000	620.537109	-31.693384
2754.882074	17416.301000	619.309570	21.100290
2754.882074	17416.301000	618.081055	50.654118
2754.882074	17416.301000	616.852539	-126.834244
2754.882074	17416.301000	615.624023	-75.963959
2754.882074	17416.301000	614.395508	58.061314
2754.882074	17416.301000	613.166992	-5.198411
2754.882074	17416.301000	611.937500	-6.557034
2754.882074	17416.301000	610.708008	-67.823784
2754.882074	17416.301000	609.477539	-1.511278
2754.882074	17416.301000	608.248047	30.009079
2754.882074	17416.301000	607.017578	44.141800
2754.882074	17416.301000	605.787109	42.831512
2754.882074	17416.301000	604.555664	-82.040321
2754.882074	17416.301000	603.325195	61.484863
2754.882074	17416.301000	602.093750	13.890275
2754.882074	17416.301000	600.861328	-112.785065
2754.882074	17416.301000	599.629883	-9.816566
2754.882074	17416.301000	598.397461	-12.960700
2754.882074	17416.301000	597.165039	-14.160160
2754.882074	17416.301000	595.932617	-61.613285
2754.882074	17416.301000	594.699219	-14.582104
2754.882074	17416.301000	593.465820	-94.745201
2754.882074	17416.301000	592.232422	6.255713
2754.882074	17416.301000	590.999023	-50.726948
2754.882074	17416.301000	589.764648	15.589258
2754.882074	17416.301000	588.530273	81.895782
2754.882074	17416.301000	587.295898	-94.368546
2754.882074	17416.301000	586.061523	-33.803005
2754.882074	17416.301000	584.826172	57.542377
2754.882074	17416.301000	583.590820	10.351624
2754.882074	17416.301000	582.355469	18.980528
2754.882074	17416.301000	581.119141	-31.989576
2754.882074	17416.301000	579.882813	42.053982
2754.882074	17416.301000	578.646484	-3.090656
2754.882074	17416.301000	577.410156	-65.490585
2754.882074	17416.301000	576.172852	-2.953108
2754.882074	17416.301000	574.935547	48.054260
2754.882074	17416.301000	573.698242	52.967812
2754.882074	17416.301000	572.460938	79.023628
2754.882074	17416.301000	571.222656	70.534081
2754.882074	17416.301000	569.984375	14.087188
2754.882074	17416.301000	568.746094	15.256416
2754.882074	17416.301000	567.506836	131.558731
2754.882074	17416.301000	566.267578	42.596260
2754.882074	17416.301000	565.028320	-23.291977
2754.882074	17416.301000	563.789063	140.948395
2754.882074	17416.301000	562.548828	92.366112
2754.882074	17416.301000	561.309570	87.909561
2754.882074	17416.301000	560.068359	186.945404
2754.882074	17416.301000	558.828125	151.867966
2754.882074	17416.301000	557.586914	141.727249
2754.882074	17416.301000	556.345703	-11.997453
2754.882074	17416.301000	555.104492	-56.508713
2754.882074	17416.301000	553.863281	-16.758631
2754.882074	17416.301000	552.621094	36.393875
2754.882074	17416.301000	551.378906	45.545128
2754.882074	17416.301000	550.136719	91.060364
2754.882074	17416.301000	548.893555	52.435661
2754.882074	17416.301000	547.650391	59.739887
2754.882074	17416.301000	546.407227	0.161467
2754.882074	17416.301000	545.164063	-13.498878
2754.882074	17416.301000	543.919922	-101.648392
2754.882074	17416.301000	542.675781	138.844162
2754.882074	17416.301000	541.431641	-12.278205
2754.882074	17416.301000	540.186523	23.821436
2754.882074	17416.301000	538.941406	-29.798086
2754.882074	17416.301000	537.696289	29.243418
2754.882074	17416.301000	536.451172	63.476509
2754.882074	17416.301000	535.205078	-73.992371
2754.882074	17416.301000	533.959961	-32.074028
2754.882074	17416.301000	532.712891	-108.390099
2754.882074	17416.301000	531.466797	11.736654
2754.882074	17416.301000	530.219727	15.552543
2754.882074	17416.301000	528.972656	-77.807762
2754.882074	17416.301000	527.725586	-102.510628
2754.882074	17416.301000	526.478516	-18.593542
2754.882074	17416.301000	525.230469	36.738861
2754.882074	17416.301000	523.982422	-29.800787
2754.882074	17416.301000	522.734375	-130.559128
2754.882074	17416.301000	521.485352	-0.943949
2754.882074	17416.301000	520.236328	52.516048
2754.882074	17416.301000	518.987305	43.188004
2754.882074	17416.301000	517.737305	-25.085405
2754.882074	17416.301000	516.488281	13.188000
2754.882074	17416.301000	515.238281	-113.955338
2754.882074	17416.301000	513.988281	-85.149811
2754.882074	17416.301000	512.737305	-63.942932
2754.882074	17416.301000	511.486328	-56.030224
2754.882074	17416.301000	510.235352	-95.598442
2754.882074	17416.301000	508.984375	-66.760643
2754.882074	17416.301000	507.732422	-151.855927
2754.882074	17416.301000	506.480469	-39.458870
2754.882074	17416.301000	505.228516	15.959452
2754.882074	17416.301000	503.976563	10.639381
2754.882074	17416.301000	502.723633	-114.196747
2754.882074	17416.301000	501.470703	-113.777000
2754.882074	17416.301000	500.217773	-41.284008
2754.882074	17416.301000	498.963867	4.639757
2754.882074	17416.301000	497.709961	44.863255
2754.882074	17416.301000	496.456055	105.922028
2754.882074	17416.301000	495.202148	2.109408
2754.882074	17416.301000	493.947266	-20.196711
2754.882074	17416.301000	492.692383	88.195236
2754.882074	17416.301000	491.437500	16.649260
2754.882074	17416.301000	490.181641	36.006046
2754.882074	17416.301000	488.926758	-37.393681
2754.882074	17416.301000	487.670898	14.131149
2754.882074	17416.301000	486.414063	-98.972099
2754.882074	17416.301000	485.158203	101.966286
2754.882074	17416.301000	483.901367	102.347961
2754.882074	17416.301000	482.644531	44.107338
2754.882074	17416.301000	481.386719	-82.171051
2754.882074	17416.301000	480.128906	-26.974245
2754.882074	17416.301000	478.871094	45.190788
2754.882074	17416.301000	477.613281	-54.599960
2754.882074	17416.301000	476.355469	66.613251
2754.882074	17416.301000	475.096680	146.213028
2754.882074	17416.301000	473.837891	135.138443
2754.882074	17416.301000	472.578125	108.946289
2754.882074	17416.301000	471.319336	1.597083
2754.882074	17416.301000	470.059570	9.354061
2754.882074	17416.301000	468.799805	-1.782772
2754.882074	17416.301000	467.539063	-50.663136
2754.882074	17416.301000	466.278320	113.501007
2754.882074	17416.301000	465.017578	32.504951
2754.882074	17416.301000	463.756836	124.893440
2754.882074	17416.301000	462.495117	-12.673281
2754.882074	17416.301000	461.233398	19.322235
2754.882074	17416.301000	459.971680	-24.075399
2754.882074	17416.301000	458.709961	77.490883
2754.882074	17416.301000	457.447266	73.539391
2754.882074	17416.301000	456.184570	75.185654
2754.882074	17416.301000	454.921875	114.413544
2754.882074	17416.301000	453.658203	217.535049
2754.882074	17416.301000	452.394531	44.050903
2754.882074	17416.301000	451.130859	113.174339
2754.882074	17416.301000	449.867188	44.952496
2754.882074	17416.301000	448.602539	113.914749
2754.882074	17416.301000	447.337891	23.033485
2754.882074	17416.301000	446.073242	27.945557
2754.882074	17416.301000	444.807617	-34.847343
2754.882074	17416.301000	443.542969	135.197403
2754.882074	17416.301000	442.276367	106.047333
2754.882074	17416.301000	441.010742	104.986732
2754.882074	17416.301000	439.744141	40.023285
2754.882074	17416.301000	438.478516	61.318054
2754.882074	17416.301000	437.210938	63.745781
2754.882074	17416.301000	435.944336	32.315453
2754.882074	17416.301000	434.676758	66.430946
2754.882074	17416.301000	433.409180	113.552528
2754.882074	17416.301000	432.141602	100.563530
2754.882074	17416.301000	430.873047	104.333878
2754.882074	17416.301000	429.604492	209.165710
2754.882074	17416.301000	428.335938	240.777634
2754.882074	17416.301000	427.067383	189.849121
2754.882074	17416.301000	425.797852	168.773453
2754.882074	17416.301000	424.528320	254.283539
2754.882074	17416.301000	423.258789	79.467392
2754.882074	17416.301000	421.988281	20.602564
2754.882074	17416.301000	420.717773	165.541702
2754.882074	17416.301000	419.447266	100.785751
2754.882074	17416.301000	418.175781	185.506256
2754.882074	17416.301000	416.905273	200.864456
2754.882074	17416.301000	415.633789	231.008514
2754.882074	17416.301000	414.362305	225.470108
2754.882074	17416.301000	413.089844	247.789688
2754.882074	17416.301000	411.817383	161.585419
2754.882074	17416.301000	410.544922	174.224518
2754.882074	17416.301000	409.272461	192.279205
2754.882074	17416.301000	407.999023	361.345337
2754.882074	17416.301000	406.725586	272.590668
2754.882074	17416.301000	405.452148	219.133148
2754.882074	17416.301000	404.177734	284.890747
2754.882074	17416.301000	402.903320	300.056396
2754.882074	17416.301000	401.628906	139.720474
2754.882074	17416.301000	400.354492	283.127197
2754.882074	17416.301000	399.079102	146.657486
2754.882074	17416.301000	397.803711	185.194107
2754.882074	17416.301000	396.528320	61.392662
2754.882074	17416.301000	395.251953	226.125580
2754.882074	17416.301000	393.976563	159.625641
2754.882074	17416.301000	392.700195	35.183998
2754.882074	17416.301000	391.422852	65.043854
2754.882074	17416.301000	390.145508	66.717033
2754.882074	17416.301000	388.869141	127.676064
2754.882074	17416.301000	387.590820	52.526161
2754.882074	17416.301000	386.313477	62.696056
2754.882074	17416.301000	385.035156	122.781342
2754.882074	17416.301000	383.756836	91.460060
2754.882074	17416.301000	382.478516	2.242154
2754.882074	17416.301000	381.199219	59.561119
2754.882074	17416.301000	379.919922	34.805428
2754.882074	17416.301000	378.640625	37.612766
2754.882074	17416.301000	377.360352	8.524645
2754.882074	17416.301000	376.080078	75.672707
2754.882074	17416.301000	374.799805	84.919075
2754.882074	17416.301000	373.519531	101.250328
2754.882074	17416.301000	372.238281	57.849800
2754.882074	17416.301000	370.957031	8.554969
2754.882074	17416.301000	369.675781	40.531437
2754.882074	17416.301000	368.394531	-104.018623
2754.882074	17416.301000	367.112305	-33.840412
2754.882074	17416.301000	365.830078	-28.936951
2754.882074	17416.301000	364.546875	-54.076591
2754.882074	17416.301000	363.264648	-103.665276
2754.882074	17416.301000	361.981445	-25.837145
2754.882074	17416.301000	360.698242	34.889095
2754.882074	17416.301000	359.414063	6.300323
2754.882074	17416.301000	358.129883	55.049213
2754.882074	17416.301000	356.845703	-16.935003
2754.882074	17416.301000	355.561523	-31.961908
2754.882074	17416.301000	354.276367	37.656235
2754.882074	17416.301000	352.991211	-87.386810
2754.882074	17416.301000	351.706055	88.556259
2754.882074	17416.301000	350.420898	-35.506462
2754.882074	17416.301000	349.134766	-32.473747
2754.882074	17416.301000	347.848633	29.212105
2754.882074	17416.301000	346.561523	58.966927
2754.882074	17416.301000	345.275391	54.988880
2754.882074	17416.301000	343.988281	-21.516945
2754.882074	17416.301000	342.700195	-70.819710
2754.882074	17416.301000	341.413086	-65.224518
2754.882074	17416.301000	340.125000	-12.191267
2754.882074	17416.301000	338.836914	-48.267910
2754.882074	17416.301000	337.548828	127.257828
2754.882074	17416.301000	336.259766	40.273964
2754.882074	17416.301000	334.970703	-21.412395
2754.882074	17416.301000	333.681641	-28.332241
2754.882074	17416.301000	332.391602	-39.524208
2754.882074	17416.301000	331.101563	-84.453987
2754.882074	17416.301000	329.811523	-85.738602
2754.882074	17416.301000	328.521484	33.938992
2754.882074	17416.301000	327.230469	-38.557899
2754.882074	17416.301000	325.939453	20.914066
2754.882074	17416.301000	324.648438	-23.327658
2754.882074	17416.301000	323.356445	-16.676098
2754.882074	17416.301000	322.064453	-18.021297
2754.882074	17416.301000	320.772461	-47.599083
2754.882074	17416.301000	319.480469	-41.036407
2754.882074	17416.301000	318.187500	1.608633
2754.882074	17416.301000	316.894531	1.290100
2754.882074	17416.301000	315.601563	-95.265961
2754.882074	17416.301000	314.307617	-67.554260
2754.882074	17416.301000	313.013672	-47.896126
2754.882074	17416.301000	311.719727	-36.295040
2754.882074	17416.301000	310.425781	-34.589424
2754.882074	17416.301000	309.130859	-63.003132
2754.882074	17416.301000	307.835938	62.033699
2754.882074	17416.301000	306.541016	78.020058
2754.882074	17416.301000	305.245117	30.852045
2754.882074	17416.301000	303.949219	138.850174
2754.882074	17416.301000	302.653320	185.527618
2754.882074	17416.301000	301.356445	-8.779761
2754.882074	17416.301000	300.060547	150.001877
2754.882074	17416.301000	298.763672	331.717041
