#X		#Y		#Wave		#Intensity
2835.565106	17343.175000	2000.043945	157.915131
2835.565106	17343.175000	1999.080078	24.073925
2835.565106	17343.175000	1998.116211	127.218956
2835.565106	17343.175000	1997.151367	-24.943361
2835.565106	17343.175000	1996.186523	-142.379486
2835.565106	17343.175000	1995.222656	-39.313671
2835.565106	17343.175000	1994.256836	26.546217
2835.565106	17343.175000	1993.291992	18.078514
2835.565106	17343.175000	1992.327148	-34.964176
2835.565106	17343.175000	1991.361328	50.623802
2835.565106	17343.175000	1990.395508	-101.425385
2835.565106	17343.175000	1989.429688	80.628136
2835.565106	17343.175000	1988.463867	-68.913788
2835.565106	17343.175000	1987.497070	38.843311
2835.565106	17343.175000	1986.531250	45.157051
2835.565106	17343.175000	1985.564453	-72.169617
2835.565106	17343.175000	1984.597656	-68.319687
2835.565106	17343.175000	1983.630859	103.602791
2835.565106	17343.175000	1982.664063	57.986877
2835.565106	17343.175000	1981.696289	126.043747
2835.565106	17343.175000	1980.728516	6.327610
2835.565106	17343.175000	1979.761719	-19.487717
2835.565106	17343.175000	1978.792969	83.117134
2835.565106	17343.175000	1977.825195	5.450504
2835.565106	17343.175000	1976.857422	-40.093956
2835.565106	17343.175000	1975.888672	-28.854069
2835.565106	17343.175000	1974.919922	-0.340722
2835.565106	17343.175000	1973.951172	107.114220
2835.565106	17343.175000	1972.982422	103.533844
2835.565106	17343.175000	1972.013672	-77.608582
2835.565106	17343.175000	1971.043945	-68.813087
2835.565106	17343.175000	1970.075195	31.202372
2835.565106	17343.175000	1969.105469	44.918083
2835.565106	17343.175000	1968.135742	-106.478310
2835.565106	17343.175000	1967.165039	13.222568
2835.565106	17343.175000	1966.195313	71.301155
2835.565106	17343.175000	1965.224609	-20.877531
2835.565106	17343.175000	1964.253906	29.816906
2835.565106	17343.175000	1963.283203	43.570408
2835.565106	17343.175000	1962.312500	30.251024
2835.565106	17343.175000	1961.341797	-47.043716
2835.565106	17343.175000	1960.370117	-1.261737
2835.565106	17343.175000	1959.399414	-21.912941
2835.565106	17343.175000	1958.427734	114.883812
2835.565106	17343.175000	1957.455078	62.270439
2835.565106	17343.175000	1956.483398	7.230066
2835.565106	17343.175000	1955.511719	116.938721
2835.565106	17343.175000	1954.539063	-78.171669
2835.565106	17343.175000	1953.566406	88.061157
2835.565106	17343.175000	1952.593750	-30.776190
2835.565106	17343.175000	1951.621094	10.124560
2835.565106	17343.175000	1950.647461	109.971680
2835.565106	17343.175000	1949.674805	-116.814034
2835.565106	17343.175000	1948.701172	24.785849
2835.565106	17343.175000	1947.727539	46.061832
2835.565106	17343.175000	1946.753906	111.521805
2835.565106	17343.175000	1945.780273	46.916317
2835.565106	17343.175000	1944.805664	63.311535
2835.565106	17343.175000	1943.831055	50.279087
2835.565106	17343.175000	1942.856445	-73.097023
2835.565106	17343.175000	1941.881836	-64.002831
2835.565106	17343.175000	1940.907227	50.521111
2835.565106	17343.175000	1939.932617	62.068531
2835.565106	17343.175000	1938.957031	63.822777
2835.565106	17343.175000	1937.981445	90.093102
2835.565106	17343.175000	1937.005859	52.673370
2835.565106	17343.175000	1936.030273	81.412621
2835.565106	17343.175000	1935.054688	51.382542
2835.565106	17343.175000	1934.078125	-8.003059
2835.565106	17343.175000	1933.101563	-94.280762
2835.565106	17343.175000	1932.125000	-9.188507
2835.565106	17343.175000	1931.148438	44.073856
2835.565106	17343.175000	1930.171875	-61.697933
2835.565106	17343.175000	1929.194336	-18.203823
2835.565106	17343.175000	1928.217773	8.166982
2835.565106	17343.175000	1927.240234	-7.027721
2835.565106	17343.175000	1926.262695	-63.765129
2835.565106	17343.175000	1925.284180	-56.917053
2835.565106	17343.175000	1924.306641	8.592003
2835.565106	17343.175000	1923.328125	69.202209
2835.565106	17343.175000	1922.350586	29.640858
2835.565106	17343.175000	1921.372070	-39.204102
2835.565106	17343.175000	1920.392578	104.443954
2835.565106	17343.175000	1919.414063	57.606640
2835.565106	17343.175000	1918.434570	108.441978
2835.565106	17343.175000	1917.456055	12.828944
2835.565106	17343.175000	1916.476563	17.309856
2835.565106	17343.175000	1915.497070	-12.357851
2835.565106	17343.175000	1914.516602	-17.611406
2835.565106	17343.175000	1913.537109	-35.048992
2835.565106	17343.175000	1912.556641	42.625660
2835.565106	17343.175000	1911.576172	86.148430
2835.565106	17343.175000	1910.595703	-26.334557
2835.565106	17343.175000	1909.615234	-26.665932
2835.565106	17343.175000	1908.633789	-36.735565
2835.565106	17343.175000	1907.653320	-66.283867
2835.565106	17343.175000	1906.671875	-93.378288
2835.565106	17343.175000	1905.690430	-1.132655
2835.565106	17343.175000	1904.708984	27.781265
2835.565106	17343.175000	1903.727539	22.609655
2835.565106	17343.175000	1902.745117	-19.061768
2835.565106	17343.175000	1901.762695	63.388485
2835.565106	17343.175000	1900.780273	31.465368
2835.565106	17343.175000	1899.797852	40.909679
2835.565106	17343.175000	1898.815430	-42.063190
2835.565106	17343.175000	1897.832031	-66.643898
2835.565106	17343.175000	1896.849609	1.168199
2835.565106	17343.175000	1895.866211	81.110359
2835.565106	17343.175000	1894.882813	-38.251156
2835.565106	17343.175000	1893.898438	12.515046
2835.565106	17343.175000	1892.915039	-2.328706
2835.565106	17343.175000	1891.930664	-150.751205
2835.565106	17343.175000	1890.947266	65.136330
2835.565106	17343.175000	1889.962891	9.016461
2835.565106	17343.175000	1888.977539	6.321348
2835.565106	17343.175000	1887.993164	110.412903
2835.565106	17343.175000	1887.007813	105.269096
2835.565106	17343.175000	1886.023438	-84.259392
2835.565106	17343.175000	1885.038086	-26.303988
2835.565106	17343.175000	1884.051758	-45.978939
2835.565106	17343.175000	1883.066406	67.708542
2835.565106	17343.175000	1882.081055	52.862652
2835.565106	17343.175000	1881.094727	-143.769348
2835.565106	17343.175000	1880.108398	86.180031
2835.565106	17343.175000	1879.122070	-23.171038
2835.565106	17343.175000	1878.135742	102.491402
2835.565106	17343.175000	1877.148438	60.981464
2835.565106	17343.175000	1876.162109	-77.383278
2835.565106	17343.175000	1875.174805	65.144028
2835.565106	17343.175000	1874.187500	110.783951
2835.565106	17343.175000	1873.199219	-131.605499
2835.565106	17343.175000	1872.211914	18.084332
2835.565106	17343.175000	1871.223633	-30.672724
2835.565106	17343.175000	1870.236328	147.947357
2835.565106	17343.175000	1869.248047	-55.614342
2835.565106	17343.175000	1868.258789	-51.168400
2835.565106	17343.175000	1867.270508	-116.843864
2835.565106	17343.175000	1866.282227	76.114212
2835.565106	17343.175000	1865.292969	-187.744339
2835.565106	17343.175000	1864.303711	-98.764305
2835.565106	17343.175000	1863.314453	-67.807510
2835.565106	17343.175000	1862.324219	37.994690
2835.565106	17343.175000	1861.334961	64.054901
2835.565106	17343.175000	1860.344727	44.218781
2835.565106	17343.175000	1859.354492	70.236832
2835.565106	17343.175000	1858.364258	91.402023
2835.565106	17343.175000	1857.374023	30.501951
2835.565106	17343.175000	1856.383789	3.381844
2835.565106	17343.175000	1855.392578	-21.333427
2835.565106	17343.175000	1854.401367	-26.765345
2835.565106	17343.175000	1853.410156	73.875656
2835.565106	17343.175000	1852.418945	-25.627213
2835.565106	17343.175000	1851.426758	70.115501
2835.565106	17343.175000	1850.435547	139.294647
2835.565106	17343.175000	1849.443359	-61.416866
2835.565106	17343.175000	1848.451172	161.885498
2835.565106	17343.175000	1847.458984	153.874603
2835.565106	17343.175000	1846.466797	-32.344543
2835.565106	17343.175000	1845.473633	-16.285915
2835.565106	17343.175000	1844.480469	182.679230
2835.565106	17343.175000	1843.487305	37.401978
2835.565106	17343.175000	1842.494141	84.646545
2835.565106	17343.175000	1841.500977	-29.333122
2835.565106	17343.175000	1840.506836	15.451322
2835.565106	17343.175000	1839.513672	67.407066
2835.565106	17343.175000	1838.519531	-24.942856
2835.565106	17343.175000	1837.525391	-88.437775
2835.565106	17343.175000	1836.530273	-12.537674
2835.565106	17343.175000	1835.536133	-191.408875
2835.565106	17343.175000	1834.541016	196.755646
2835.565106	17343.175000	1833.545898	161.979935
2835.565106	17343.175000	1832.550781	7.107342
2835.565106	17343.175000	1831.555664	94.782471
2835.565106	17343.175000	1830.560547	16.744648
2835.565106	17343.175000	1829.564453	75.521530
2835.565106	17343.175000	1828.568359	21.454226
2835.565106	17343.175000	1827.572266	77.746445
2835.565106	17343.175000	1826.576172	105.199547
2835.565106	17343.175000	1825.580078	22.281408
2835.565106	17343.175000	1824.583008	23.292002
2835.565106	17343.175000	1823.585938	31.462263
2835.565106	17343.175000	1822.588867	-3.551443
2835.565106	17343.175000	1821.591797	196.285660
2835.565106	17343.175000	1820.594727	29.396076
2835.565106	17343.175000	1819.596680	-32.052700
2835.565106	17343.175000	1818.599609	-33.630199
2835.565106	17343.175000	1817.601563	12.654214
2835.565106	17343.175000	1816.603516	-156.608887
2835.565106	17343.175000	1815.604492	131.396317
2835.565106	17343.175000	1814.606445	115.285652
2835.565106	17343.175000	1813.607422	175.720871
2835.565106	17343.175000	1812.608398	54.260010
2835.565106	17343.175000	1811.609375	-31.309677
2835.565106	17343.175000	1810.610352	43.357201
2835.565106	17343.175000	1809.610352	3.178832
2835.565106	17343.175000	1808.611328	32.310062
2835.565106	17343.175000	1807.611328	35.097813
2835.565106	17343.175000	1806.611328	54.574451
2835.565106	17343.175000	1805.610352	71.614586
2835.565106	17343.175000	1804.610352	79.053558
2835.565106	17343.175000	1803.609375	88.837120
2835.565106	17343.175000	1802.608398	65.144318
2835.565106	17343.175000	1801.607422	-23.045153
2835.565106	17343.175000	1800.606445	65.407127
2835.565106	17343.175000	1799.605469	36.836842
2835.565106	17343.175000	1798.603516	79.822456
2835.565106	17343.175000	1797.601563	44.018333
2835.565106	17343.175000	1796.599609	-32.364841
2835.565106	17343.175000	1795.597656	72.491547
2835.565106	17343.175000	1794.595703	69.965218
2835.565106	17343.175000	1793.592773	-51.803539
2835.565106	17343.175000	1792.589844	83.853539
2835.565106	17343.175000	1791.587891	45.452045
2835.565106	17343.175000	1790.583984	54.671425
2835.565106	17343.175000	1789.581055	30.494425
2835.565106	17343.175000	1788.577148	1.518036
2835.565106	17343.175000	1787.574219	51.092728
2835.565106	17343.175000	1786.570313	22.034578
2835.565106	17343.175000	1785.566406	-64.185585
2835.565106	17343.175000	1784.561523	147.072220
2835.565106	17343.175000	1783.557617	132.155914
2835.565106	17343.175000	1782.552734	-42.196892
2835.565106	17343.175000	1781.547852	-85.706566
2835.565106	17343.175000	1780.542969	-76.926476
2835.565106	17343.175000	1779.538086	-44.418278
2835.565106	17343.175000	1778.532227	14.179468
2835.565106	17343.175000	1777.527344	-210.125595
2835.565106	17343.175000	1776.521484	-35.170544
2835.565106	17343.175000	1775.515625	20.878256
2835.565106	17343.175000	1774.508789	17.470970
2835.565106	17343.175000	1773.502930	73.395874
2835.565106	17343.175000	1772.496094	29.520178
2835.565106	17343.175000	1771.489258	-45.248085
2835.565106	17343.175000	1770.482422	-27.463676
2835.565106	17343.175000	1769.475586	182.493927
2835.565106	17343.175000	1768.467773	105.223122
2835.565106	17343.175000	1767.460938	122.828163
2835.565106	17343.175000	1766.453125	-44.625008
2835.565106	17343.175000	1765.445313	-88.750999
2835.565106	17343.175000	1764.437500	-21.474655
2835.565106	17343.175000	1763.428711	74.171837
2835.565106	17343.175000	1762.420898	-72.004128
2835.565106	17343.175000	1761.412109	14.041959
2835.565106	17343.175000	1760.403320	7.612750
2835.565106	17343.175000	1759.393555	133.779907
2835.565106	17343.175000	1758.384766	120.130501
2835.565106	17343.175000	1757.375000	59.079807
2835.565106	17343.175000	1756.366211	16.946539
2835.565106	17343.175000	1755.356445	55.251766
2835.565106	17343.175000	1754.345703	15.399677
2835.565106	17343.175000	1753.335938	46.496857
2835.565106	17343.175000	1752.325195	51.510910
2835.565106	17343.175000	1751.315430	143.985626
2835.565106	17343.175000	1750.304688	-52.108135
2835.565106	17343.175000	1749.292969	-77.958931
2835.565106	17343.175000	1748.282227	21.432386
2835.565106	17343.175000	1747.270508	42.746880
2835.565106	17343.175000	1746.259766	19.115730
2835.565106	17343.175000	1745.248047	-4.557027
2835.565106	17343.175000	1744.235352	56.755905
2835.565106	17343.175000	1743.223633	-63.829636
2835.565106	17343.175000	1742.211914	-78.171700
2835.565106	17343.175000	1741.199219	6.583410
2835.565106	17343.175000	1740.186523	-40.906647
2835.565106	17343.175000	1739.173828	8.320159
2835.565106	17343.175000	1738.160156	-13.299096
2835.565106	17343.175000	1737.147461	-67.975647
2835.565106	17343.175000	1736.133789	-103.815948
2835.565106	17343.175000	1735.120117	-26.512691
2835.565106	17343.175000	1734.106445	62.501659
2835.565106	17343.175000	1733.091797	10.014093
2835.565106	17343.175000	1732.078125	-61.347782
2835.565106	17343.175000	1731.063477	-64.407631
2835.565106	17343.175000	1730.048828	17.289093
2835.565106	17343.175000	1729.034180	25.898811
2835.565106	17343.175000	1728.019531	100.390938
2835.565106	17343.175000	1727.003906	28.841316
2835.565106	17343.175000	1725.988281	-35.665443
2835.565106	17343.175000	1724.972656	38.654064
2835.565106	17343.175000	1723.957031	110.547600
2835.565106	17343.175000	1722.941406	12.991933
2835.565106	17343.175000	1721.924805	-56.351830
2835.565106	17343.175000	1720.909180	-76.326767
2835.565106	17343.175000	1719.892578	169.330490
2835.565106	17343.175000	1718.875977	318.472931
2835.565106	17343.175000	1717.858398	-61.284817
2835.565106	17343.175000	1716.841797	57.210083
2835.565106	17343.175000	1715.824219	39.351563
2835.565106	17343.175000	1714.806641	122.456696
2835.565106	17343.175000	1713.789063	179.654633
2835.565106	17343.175000	1712.770508	117.036858
2835.565106	17343.175000	1711.752930	289.155579
2835.565106	17343.175000	1710.734375	195.943893
2835.565106	17343.175000	1709.715820	231.788437
2835.565106	17343.175000	1708.697266	159.654846
2835.565106	17343.175000	1707.678711	136.766037
2835.565106	17343.175000	1706.659180	191.232834
2835.565106	17343.175000	1705.640625	250.332535
2835.565106	17343.175000	1704.621094	274.197540
2835.565106	17343.175000	1703.600586	288.632263
2835.565106	17343.175000	1702.581055	136.640793
2835.565106	17343.175000	1701.561523	120.561913
2835.565106	17343.175000	1700.541016	198.145889
2835.565106	17343.175000	1699.520508	287.371063
2835.565106	17343.175000	1698.500000	184.507339
2835.565106	17343.175000	1697.478516	257.228668
2835.565106	17343.175000	1696.458008	247.962494
2835.565106	17343.175000	1695.436523	175.468048
2835.565106	17343.175000	1694.415039	208.256607
2835.565106	17343.175000	1693.393555	343.929138
2835.565106	17343.175000	1692.372070	198.837524
2835.565106	17343.175000	1691.349609	77.143906
2835.565106	17343.175000	1690.327148	226.674637
2835.565106	17343.175000	1689.304688	182.090729
2835.565106	17343.175000	1688.282227	230.974136
2835.565106	17343.175000	1687.259766	307.843781
2835.565106	17343.175000	1686.236328	188.396790
2835.565106	17343.175000	1685.213867	258.167786
2835.565106	17343.175000	1684.190430	292.840668
2835.565106	17343.175000	1683.166016	276.092499
2835.565106	17343.175000	1682.142578	198.627029
2835.565106	17343.175000	1681.119141	594.962158
2835.565106	17343.175000	1680.094727	552.395935
2835.565106	17343.175000	1679.070313	593.805908
2835.565106	17343.175000	1678.045898	560.522583
2835.565106	17343.175000	1677.020508	632.163696
2835.565106	17343.175000	1675.996094	715.411011
2835.565106	17343.175000	1674.970703	754.294067
2835.565106	17343.175000	1673.945313	709.220825
2835.565106	17343.175000	1672.919922	845.906616
2835.565106	17343.175000	1671.893555	935.904663
2835.565106	17343.175000	1670.868164	774.257690
2835.565106	17343.175000	1669.841797	819.924377
2835.565106	17343.175000	1668.815430	968.004578
2835.565106	17343.175000	1667.789063	878.526245
2835.565106	17343.175000	1666.761719	919.400818
2835.565106	17343.175000	1665.735352	946.275879
2835.565106	17343.175000	1664.708008	982.413940
2835.565106	17343.175000	1663.680664	839.382385
2835.565106	17343.175000	1662.653320	815.001648
2835.565106	17343.175000	1661.625000	748.740173
2835.565106	17343.175000	1660.597656	933.588562
2835.565106	17343.175000	1659.569336	690.613342
2835.565106	17343.175000	1658.541016	784.706299
2835.565106	17343.175000	1657.512695	692.844971
2835.565106	17343.175000	1656.483398	758.969482
2835.565106	17343.175000	1655.455078	734.464233
2835.565106	17343.175000	1654.425781	693.684082
2835.565106	17343.175000	1653.396484	768.991638
2835.565106	17343.175000	1652.366211	718.885559
2835.565106	17343.175000	1651.336914	645.575073
2835.565106	17343.175000	1650.306641	683.651794
2835.565106	17343.175000	1649.276367	786.656616
2835.565106	17343.175000	1648.246094	704.032471
2835.565106	17343.175000	1647.215820	827.829102
2835.565106	17343.175000	1646.185547	696.498718
2835.565106	17343.175000	1645.154297	822.524841
2835.565106	17343.175000	1644.123047	781.601196
2835.565106	17343.175000	1643.091797	935.337341
2835.565106	17343.175000	1642.060547	866.572021
2835.565106	17343.175000	1641.028320	983.130127
2835.565106	17343.175000	1639.997070	935.196167
2835.565106	17343.175000	1638.964844	975.252136
2835.565106	17343.175000	1637.931641	1117.138428
2835.565106	17343.175000	1636.899414	874.724182
2835.565106	17343.175000	1635.867188	935.556885
2835.565106	17343.175000	1634.833984	915.364563
2835.565106	17343.175000	1633.800781	946.061768
2835.565106	17343.175000	1632.767578	1219.590088
2835.565106	17343.175000	1631.734375	1148.446533
2835.565106	17343.175000	1630.700195	1012.578430
2835.565106	17343.175000	1629.666016	1066.299805
2835.565106	17343.175000	1628.631836	962.836914
2835.565106	17343.175000	1627.597656	986.491943
2835.565106	17343.175000	1626.563477	973.166321
2835.565106	17343.175000	1625.528320	987.548584
2835.565106	17343.175000	1624.493164	900.308777
2835.565106	17343.175000	1623.458008	949.319458
2835.565106	17343.175000	1622.422852	1023.697998
2835.565106	17343.175000	1621.387695	1104.966309
2835.565106	17343.175000	1620.351563	1052.355957
2835.565106	17343.175000	1619.315430	1131.264404
2835.565106	17343.175000	1618.279297	1046.369629
2835.565106	17343.175000	1617.243164	1079.118896
2835.565106	17343.175000	1616.207031	1234.056152
2835.565106	17343.175000	1615.169922	1098.460815
2835.565106	17343.175000	1614.132813	979.050659
2835.565106	17343.175000	1613.095703	1145.427979
2835.565106	17343.175000	1612.058594	1178.113159
2835.565106	17343.175000	1611.020508	1162.406738
2835.565106	17343.175000	1609.983398	1271.076904
2835.565106	17343.175000	1608.945313	1149.442261
2835.565106	17343.175000	1607.907227	1069.295776
2835.565106	17343.175000	1606.868164	1306.807129
2835.565106	17343.175000	1605.830078	1258.884277
2835.565106	17343.175000	1604.791016	1291.504395
2835.565106	17343.175000	1603.751953	1397.726440
2835.565106	17343.175000	1602.712891	1379.718750
2835.565106	17343.175000	1601.673828	1341.028564
2835.565106	17343.175000	1600.633789	1198.898193
2835.565106	17343.175000	1599.594727	1187.853638
2835.565106	17343.175000	1598.554688	1254.949097
2835.565106	17343.175000	1597.513672	1227.816040
2835.565106	17343.175000	1596.473633	1198.411621
2835.565106	17343.175000	1595.433594	1231.039673
2835.565106	17343.175000	1594.392578	1151.139160
2835.565106	17343.175000	1593.351563	1218.214478
2835.565106	17343.175000	1592.310547	1163.617920
2835.565106	17343.175000	1591.268555	1297.233276
2835.565106	17343.175000	1590.227539	976.504028
2835.565106	17343.175000	1589.185547	1071.128906
2835.565106	17343.175000	1588.143555	1195.546509
2835.565106	17343.175000	1587.100586	1120.418213
2835.565106	17343.175000	1586.058594	1309.001099
2835.565106	17343.175000	1585.015625	1188.063599
2835.565106	17343.175000	1583.972656	1197.821899
2835.565106	17343.175000	1582.929688	1145.725464
2835.565106	17343.175000	1581.886719	1260.901978
2835.565106	17343.175000	1580.843750	1165.328369
2835.565106	17343.175000	1579.799805	1250.713745
2835.565106	17343.175000	1578.755859	1255.949219
2835.565106	17343.175000	1577.711914	1112.408691
2835.565106	17343.175000	1576.666992	1138.298218
2835.565106	17343.175000	1575.623047	1173.356934
2835.565106	17343.175000	1574.578125	1142.070557
2835.565106	17343.175000	1573.533203	1122.253540
2835.565106	17343.175000	1572.488281	1088.744995
2835.565106	17343.175000	1571.443359	1160.447144
2835.565106	17343.175000	1570.397461	1122.409912
2835.565106	17343.175000	1569.351563	1262.682373
2835.565106	17343.175000	1568.305664	1016.744751
2835.565106	17343.175000	1567.259766	962.837036
2835.565106	17343.175000	1566.213867	819.891846
2835.565106	17343.175000	1565.166992	1028.717407
2835.565106	17343.175000	1564.120117	913.259460
2835.565106	17343.175000	1563.073242	864.075745
2835.565106	17343.175000	1562.026367	924.493408
2835.565106	17343.175000	1560.978516	891.349121
2835.565106	17343.175000	1559.930664	858.245300
2835.565106	17343.175000	1558.883789	973.457581
2835.565106	17343.175000	1557.834961	810.408630
2835.565106	17343.175000	1556.787109	766.026917
2835.565106	17343.175000	1555.739258	878.992859
2835.565106	17343.175000	1554.690430	834.669678
2835.565106	17343.175000	1553.641602	808.626343
2835.565106	17343.175000	1552.592773	951.222839
2835.565106	17343.175000	1551.542969	888.778442
2835.565106	17343.175000	1550.494141	1113.357178
2835.565106	17343.175000	1549.444336	1023.646973
2835.565106	17343.175000	1548.394531	1109.301270
2835.565106	17343.175000	1547.344727	1078.874146
2835.565106	17343.175000	1546.293945	1116.758545
2835.565106	17343.175000	1545.244141	963.550110
2835.565106	17343.175000	1544.193359	912.797241
2835.565106	17343.175000	1543.142578	1121.373657
2835.565106	17343.175000	1542.090820	900.136658
2835.565106	17343.175000	1541.040039	999.583130
2835.565106	17343.175000	1539.988281	985.373474
2835.565106	17343.175000	1538.936523	812.130798
2835.565106	17343.175000	1537.884766	854.842896
2835.565106	17343.175000	1536.833008	877.133301
2835.565106	17343.175000	1535.780273	892.635254
2835.565106	17343.175000	1534.727539	796.905457
2835.565106	17343.175000	1533.674805	807.957520
2835.565106	17343.175000	1532.622070	703.285034
2835.565106	17343.175000	1531.569336	709.895325
2835.565106	17343.175000	1530.515625	587.210388
2835.565106	17343.175000	1529.461914	734.567932
2835.565106	17343.175000	1528.408203	666.445374
2835.565106	17343.175000	1527.354492	632.407715
2835.565106	17343.175000	1526.299805	487.331696
2835.565106	17343.175000	1525.246094	414.897095
2835.565106	17343.175000	1524.191406	560.092041
2835.565106	17343.175000	1523.136719	338.213470
2835.565106	17343.175000	1522.081055	426.818970
2835.565106	17343.175000	1521.026367	402.193878
2835.565106	17343.175000	1519.970703	182.877029
2835.565106	17343.175000	1518.915039	278.392578
2835.565106	17343.175000	1517.859375	353.545624
2835.565106	17343.175000	1516.802734	394.765625
2835.565106	17343.175000	1515.747070	268.584534
2835.565106	17343.175000	1514.690430	228.462433
2835.565106	17343.175000	1513.633789	188.405228
2835.565106	17343.175000	1512.577148	200.424026
2835.565106	17343.175000	1511.519531	291.615021
2835.565106	17343.175000	1510.461914	253.975647
2835.565106	17343.175000	1509.405273	275.166168
2835.565106	17343.175000	1508.346680	115.627525
2835.565106	17343.175000	1507.289063	-30.237225
2835.565106	17343.175000	1506.231445	70.200394
2835.565106	17343.175000	1505.172852	-12.267850
2835.565106	17343.175000	1504.114258	-60.783527
2835.565106	17343.175000	1503.055664	161.648819
2835.565106	17343.175000	1501.996094	101.936317
2835.565106	17343.175000	1500.937500	173.176361
2835.565106	17343.175000	1499.877930	160.968628
2835.565106	17343.175000	1498.818359	60.855309
2835.565106	17343.175000	1497.757813	170.554321
2835.565106	17343.175000	1496.698242	32.260735
2835.565106	17343.175000	1495.637695	42.849529
2835.565106	17343.175000	1494.577148	-7.359960
2835.565106	17343.175000	1493.516602	197.126221
2835.565106	17343.175000	1492.456055	198.834229
2835.565106	17343.175000	1491.394531	227.623367
2835.565106	17343.175000	1490.333008	38.021729
2835.565106	17343.175000	1489.271484	350.633118
2835.565106	17343.175000	1488.209961	188.210709
2835.565106	17343.175000	1487.148438	165.447189
2835.565106	17343.175000	1486.085938	392.513611
2835.565106	17343.175000	1485.023438	342.837189
2835.565106	17343.175000	1483.960938	304.486023
2835.565106	17343.175000	1482.898438	401.139130
2835.565106	17343.175000	1481.834961	385.398407
2835.565106	17343.175000	1480.772461	160.684769
2835.565106	17343.175000	1479.708984	196.812286
2835.565106	17343.175000	1478.644531	259.948334
2835.565106	17343.175000	1477.581055	464.654114
2835.565106	17343.175000	1476.517578	399.855377
2835.565106	17343.175000	1475.453125	299.175385
2835.565106	17343.175000	1474.388672	358.019257
2835.565106	17343.175000	1473.323242	349.545013
2835.565106	17343.175000	1472.258789	339.000732
2835.565106	17343.175000	1471.193359	261.152527
2835.565106	17343.175000	1470.127930	297.798309
2835.565106	17343.175000	1469.062500	388.142395
2835.565106	17343.175000	1467.997070	420.509644
2835.565106	17343.175000	1466.930664	589.221558
2835.565106	17343.175000	1465.865234	525.148926
2835.565106	17343.175000	1464.798828	470.414520
2835.565106	17343.175000	1463.731445	511.553864
2835.565106	17343.175000	1462.665039	515.067810
2835.565106	17343.175000	1461.597656	663.653687
2835.565106	17343.175000	1460.530273	667.510620
2835.565106	17343.175000	1459.462891	751.088074
2835.565106	17343.175000	1458.395508	481.881256
2835.565106	17343.175000	1457.327148	733.721863
2835.565106	17343.175000	1456.259766	554.250671
2835.565106	17343.175000	1455.191406	444.360931
2835.565106	17343.175000	1454.123047	602.057190
2835.565106	17343.175000	1453.053711	755.627869
2835.565106	17343.175000	1451.985352	679.086243
2835.565106	17343.175000	1450.916016	750.609863
2835.565106	17343.175000	1449.846680	702.713074
2835.565106	17343.175000	1448.776367	659.134399
2835.565106	17343.175000	1447.707031	664.156616
2835.565106	17343.175000	1446.636719	598.562073
2835.565106	17343.175000	1445.566406	725.005615
2835.565106	17343.175000	1444.496094	590.134888
2835.565106	17343.175000	1443.425781	479.239838
2835.565106	17343.175000	1442.354492	435.495331
2835.565106	17343.175000	1441.283203	526.221924
2835.565106	17343.175000	1440.211914	293.585693
2835.565106	17343.175000	1439.140625	358.063721
2835.565106	17343.175000	1438.069336	449.132599
2835.565106	17343.175000	1436.997070	281.757935
2835.565106	17343.175000	1435.924805	230.498215
2835.565106	17343.175000	1434.852539	320.560059
2835.565106	17343.175000	1433.780273	211.081604
2835.565106	17343.175000	1432.707031	186.037994
2835.565106	17343.175000	1431.633789	171.706711
2835.565106	17343.175000	1430.560547	204.586761
2835.565106	17343.175000	1429.487305	27.821709
2835.565106	17343.175000	1428.413086	187.288742
2835.565106	17343.175000	1427.339844	55.387310
2835.565106	17343.175000	1426.265625	5.235632
2835.565106	17343.175000	1425.191406	-5.120661
2835.565106	17343.175000	1424.116211	-28.126421
2835.565106	17343.175000	1423.041992	-50.309948
2835.565106	17343.175000	1421.966797	-49.467110
2835.565106	17343.175000	1420.891602	-148.286423
2835.565106	17343.175000	1419.816406	-25.575085
2835.565106	17343.175000	1418.740234	-42.288383
2835.565106	17343.175000	1417.665039	-90.626175
2835.565106	17343.175000	1416.588867	-20.849054
2835.565106	17343.175000	1415.512695	125.610947
2835.565106	17343.175000	1414.435547	84.825127
2835.565106	17343.175000	1413.359375	102.009613
2835.565106	17343.175000	1412.282227	62.620106
2835.565106	17343.175000	1411.205078	-117.266899
2835.565106	17343.175000	1410.127930	161.137085
2835.565106	17343.175000	1409.049805	37.610161
2835.565106	17343.175000	1407.972656	35.386387
2835.565106	17343.175000	1406.894531	77.379082
2835.565106	17343.175000	1405.816406	206.599472
2835.565106	17343.175000	1404.737305	241.814651
2835.565106	17343.175000	1403.659180	276.873413
2835.565106	17343.175000	1402.580078	139.952225
2835.565106	17343.175000	1401.500977	151.692932
2835.565106	17343.175000	1400.421875	193.539688
2835.565106	17343.175000	1399.341797	124.747711
2835.565106	17343.175000	1398.262695	327.940521
2835.565106	17343.175000	1397.182617	201.288834
2835.565106	17343.175000	1396.102539	349.731506
2835.565106	17343.175000	1395.021484	115.985374
2835.565106	17343.175000	1393.941406	293.097290
2835.565106	17343.175000	1392.860352	307.079742
2835.565106	17343.175000	1391.779297	375.545135
2835.565106	17343.175000	1390.698242	256.555817
2835.565106	17343.175000	1389.616211	309.012482
2835.565106	17343.175000	1388.535156	284.895935
2835.565106	17343.175000	1387.453125	302.050751
2835.565106	17343.175000	1386.371094	190.868866
2835.565106	17343.175000	1385.288086	294.971863
2835.565106	17343.175000	1384.206055	136.240952
2835.565106	17343.175000	1383.123047	359.843933
2835.565106	17343.175000	1382.040039	175.983017
2835.565106	17343.175000	1380.957031	367.955780
2835.565106	17343.175000	1379.873047	344.621460
2835.565106	17343.175000	1378.789063	382.733765
2835.565106	17343.175000	1377.705078	377.847137
2835.565106	17343.175000	1376.621094	519.402283
2835.565106	17343.175000	1375.537109	265.969299
2835.565106	17343.175000	1374.452148	425.138062
2835.565106	17343.175000	1373.367188	393.870514
2835.565106	17343.175000	1372.282227	337.404175
2835.565106	17343.175000	1371.197266	510.551788
2835.565106	17343.175000	1370.112305	509.099213
2835.565106	17343.175000	1369.026367	413.264557
2835.565106	17343.175000	1367.940430	347.286804
2835.565106	17343.175000	1366.854492	372.439117
2835.565106	17343.175000	1365.767578	351.766418
2835.565106	17343.175000	1364.681641	354.215637
2835.565106	17343.175000	1363.594727	383.708496
2835.565106	17343.175000	1362.507813	364.578888
2835.565106	17343.175000	1361.419922	431.560455
2835.565106	17343.175000	1360.333008	337.305176
2835.565106	17343.175000	1359.245117	424.909119
2835.565106	17343.175000	1358.157227	469.849396
2835.565106	17343.175000	1357.069336	456.935822
2835.565106	17343.175000	1355.981445	405.018616
2835.565106	17343.175000	1354.892578	508.424500
2835.565106	17343.175000	1353.803711	709.805176
2835.565106	17343.175000	1352.714844	399.600861
2835.565106	17343.175000	1351.625000	378.792572
2835.565106	17343.175000	1350.536133	590.889282
2835.565106	17343.175000	1349.446289	656.176941
2835.565106	17343.175000	1348.356445	642.525696
2835.565106	17343.175000	1347.266602	534.152039
2835.565106	17343.175000	1346.175781	827.491943
2835.565106	17343.175000	1345.085938	719.113831
2835.565106	17343.175000	1343.995117	579.457947
2835.565106	17343.175000	1342.903320	749.409302
2835.565106	17343.175000	1341.812500	773.272400
2835.565106	17343.175000	1340.720703	772.087219
2835.565106	17343.175000	1339.629883	858.236816
2835.565106	17343.175000	1338.538086	683.279968
2835.565106	17343.175000	1337.445313	700.504944
2835.565106	17343.175000	1336.353516	641.589844
2835.565106	17343.175000	1335.260742	695.060059
2835.565106	17343.175000	1334.167969	634.973999
2835.565106	17343.175000	1333.075195	640.395874
2835.565106	17343.175000	1331.981445	657.511658
2835.565106	17343.175000	1330.888672	598.138977
2835.565106	17343.175000	1329.794922	625.280334
2835.565106	17343.175000	1328.701172	620.917297
2835.565106	17343.175000	1327.606445	655.604736
2835.565106	17343.175000	1326.512695	473.199463
2835.565106	17343.175000	1325.417969	509.165710
2835.565106	17343.175000	1324.323242	488.561066
2835.565106	17343.175000	1323.227539	554.717407
2835.565106	17343.175000	1322.132813	530.116699
2835.565106	17343.175000	1321.037109	687.277649
2835.565106	17343.175000	1319.941406	703.440308
2835.565106	17343.175000	1318.845703	585.551941
2835.565106	17343.175000	1317.750000	542.424683
2835.565106	17343.175000	1316.653320	604.104553
2835.565106	17343.175000	1315.556641	522.780945
2835.565106	17343.175000	1314.459961	484.158661
2835.565106	17343.175000	1313.363281	563.138977
2835.565106	17343.175000	1312.265625	516.149963
2835.565106	17343.175000	1311.167969	576.664612
2835.565106	17343.175000	1310.070313	448.903229
2835.565106	17343.175000	1308.972656	313.287201
2835.565106	17343.175000	1307.874023	496.617218
2835.565106	17343.175000	1306.776367	461.467377
2835.565106	17343.175000	1305.677734	366.065918
2835.565106	17343.175000	1304.579102	264.692352
2835.565106	17343.175000	1303.479492	259.029785
2835.565106	17343.175000	1302.380859	134.368805
2835.565106	17343.175000	1301.281250	230.760254
2835.565106	17343.175000	1300.181641	218.996643
2835.565106	17343.175000	1299.081055	437.855927
2835.565106	17343.175000	1297.981445	169.904800
2835.565106	17343.175000	1296.880859	208.011719
2835.565106	17343.175000	1295.780273	157.855774
2835.565106	17343.175000	1294.679688	294.765106
2835.565106	17343.175000	1293.578125	154.367920
2835.565106	17343.175000	1292.476563	334.191345
2835.565106	17343.175000	1291.375000	351.252502
2835.565106	17343.175000	1290.273438	133.847717
2835.565106	17343.175000	1289.171875	168.331543
2835.565106	17343.175000	1288.069336	216.225388
2835.565106	17343.175000	1286.966797	234.062561
2835.565106	17343.175000	1285.864258	225.709763
2835.565106	17343.175000	1284.761719	227.389145
2835.565106	17343.175000	1283.658203	302.842499
2835.565106	17343.175000	1282.554688	410.664978
2835.565106	17343.175000	1281.451172	314.274048
2835.565106	17343.175000	1280.347656	325.925598
2835.565106	17343.175000	1279.244141	231.596649
2835.565106	17343.175000	1278.139648	466.859192
2835.565106	17343.175000	1277.035156	340.378540
2835.565106	17343.175000	1275.930664	370.403229
2835.565106	17343.175000	1274.825195	331.973145
2835.565106	17343.175000	1273.720703	320.791718
2835.565106	17343.175000	1272.615234	372.891815
2835.565106	17343.175000	1271.508789	317.991760
2835.565106	17343.175000	1270.403320	410.058075
2835.565106	17343.175000	1269.297852	391.200989
2835.565106	17343.175000	1268.191406	330.453613
2835.565106	17343.175000	1267.084961	317.558197
2835.565106	17343.175000	1265.977539	328.507416
2835.565106	17343.175000	1264.871094	345.885742
2835.565106	17343.175000	1263.763672	322.388947
2835.565106	17343.175000	1262.656250	355.517029
2835.565106	17343.175000	1261.548828	273.755310
2835.565106	17343.175000	1260.440430	307.346558
2835.565106	17343.175000	1259.333008	189.771988
2835.565106	17343.175000	1258.224609	246.968323
2835.565106	17343.175000	1257.115234	165.896545
2835.565106	17343.175000	1256.006836	131.188156
2835.565106	17343.175000	1254.897461	118.487030
2835.565106	17343.175000	1253.788086	138.451675
2835.565106	17343.175000	1252.678711	84.940941
2835.565106	17343.175000	1251.569336	160.987045
2835.565106	17343.175000	1250.458984	162.312851
2835.565106	17343.175000	1249.349609	67.560944
2835.565106	17343.175000	1248.239258	5.972018
2835.565106	17343.175000	1247.127930	33.904991
2835.565106	17343.175000	1246.017578	271.568756
2835.565106	17343.175000	1244.906250	62.680164
2835.565106	17343.175000	1243.794922	128.205719
2835.565106	17343.175000	1242.683594	84.754776
2835.565106	17343.175000	1241.571289	71.589363
2835.565106	17343.175000	1240.459961	99.609673
2835.565106	17343.175000	1239.347656	85.771454
2835.565106	17343.175000	1238.234375	45.287128
2835.565106	17343.175000	1237.122070	119.006020
2835.565106	17343.175000	1236.008789	81.598312
2835.565106	17343.175000	1234.896484	24.643284
2835.565106	17343.175000	1233.782227	87.313026
2835.565106	17343.175000	1232.668945	79.961777
2835.565106	17343.175000	1231.555664	143.407791
2835.565106	17343.175000	1230.441406	61.642235
2835.565106	17343.175000	1229.327148	129.087982
2835.565106	17343.175000	1228.211914	48.177132
2835.565106	17343.175000	1227.097656	112.792068
2835.565106	17343.175000	1225.982422	44.983494
2835.565106	17343.175000	1224.867188	9.636204
2835.565106	17343.175000	1223.751953	60.858582
2835.565106	17343.175000	1222.635742	-0.880148
2835.565106	17343.175000	1221.520508	-11.016000
2835.565106	17343.175000	1220.404297	0.600901
2835.565106	17343.175000	1219.287109	-14.509910
2835.565106	17343.175000	1218.170898	50.634003
2835.565106	17343.175000	1217.053711	-30.671478
2835.565106	17343.175000	1215.936523	-0.134348
2835.565106	17343.175000	1214.819336	95.203400
2835.565106	17343.175000	1213.702148	24.314911
2835.565106	17343.175000	1212.583984	157.991211
2835.565106	17343.175000	1211.465820	81.680557
2835.565106	17343.175000	1210.347656	8.643192
2835.565106	17343.175000	1209.229492	75.960686
2835.565106	17343.175000	1208.110352	22.047100
2835.565106	17343.175000	1206.992188	28.487419
2835.565106	17343.175000	1205.873047	8.825109
2835.565106	17343.175000	1204.752930	207.005005
2835.565106	17343.175000	1203.633789	-15.112023
2835.565106	17343.175000	1202.513672	-17.525970
2835.565106	17343.175000	1201.393555	20.637218
2835.565106	17343.175000	1200.273438	-8.384639
2835.565106	17343.175000	1199.152344	-32.202385
2835.565106	17343.175000	1198.032227	-103.161148
2835.565106	17343.175000	1196.911133	-89.780006
2835.565106	17343.175000	1195.790039	-124.811821
2835.565106	17343.175000	1194.667969	-140.317642
2835.565106	17343.175000	1193.545898	-136.460007
2835.565106	17343.175000	1192.424805	-110.062027
2835.565106	17343.175000	1191.301758	-141.561371
2835.565106	17343.175000	1190.179688	-175.681915
2835.565106	17343.175000	1189.056641	-215.507248
2835.565106	17343.175000	1187.933594	-85.873215
2835.565106	17343.175000	1186.810547	-65.683540
2835.565106	17343.175000	1185.687500	-108.600777
2835.565106	17343.175000	1184.563477	-81.859375
2835.565106	17343.175000	1183.440430	-13.125526
2835.565106	17343.175000	1182.316406	65.492661
2835.565106	17343.175000	1181.191406	83.529877
2835.565106	17343.175000	1180.067383	70.129089
2835.565106	17343.175000	1178.942383	84.541504
2835.565106	17343.175000	1177.817383	29.072031
2835.565106	17343.175000	1176.692383	68.620659
2835.565106	17343.175000	1175.566406	52.161369
2835.565106	17343.175000	1174.440430	90.724709
2835.565106	17343.175000	1173.314453	87.811745
2835.565106	17343.175000	1172.188477	122.713570
2835.565106	17343.175000	1171.062500	173.235962
2835.565106	17343.175000	1169.935547	47.139931
2835.565106	17343.175000	1168.808594	127.007393
2835.565106	17343.175000	1167.681641	126.170975
2835.565106	17343.175000	1166.553711	108.812561
2835.565106	17343.175000	1165.426758	84.011536
2835.565106	17343.175000	1164.298828	161.107651
2835.565106	17343.175000	1163.170898	176.925583
2835.565106	17343.175000	1162.041992	149.392273
2835.565106	17343.175000	1160.914063	114.850441
2835.565106	17343.175000	1159.785156	270.264221
2835.565106	17343.175000	1158.656250	111.272354
2835.565106	17343.175000	1157.526367	177.229935
2835.565106	17343.175000	1156.397461	-20.235491
2835.565106	17343.175000	1155.267578	104.514397
2835.565106	17343.175000	1154.137695	60.626694
2835.565106	17343.175000	1153.006836	27.731865
2835.565106	17343.175000	1151.876953	-33.313404
2835.565106	17343.175000	1150.746094	-50.379700
2835.565106	17343.175000	1149.615234	-23.366720
2835.565106	17343.175000	1148.484375	21.750113
2835.565106	17343.175000	1147.352539	-120.386627
2835.565106	17343.175000	1146.220703	-99.460732
2835.565106	17343.175000	1145.088867	-100.101913
2835.565106	17343.175000	1143.957031	-72.539993
2835.565106	17343.175000	1142.825195	-160.159546
2835.565106	17343.175000	1141.692383	-149.343979
2835.565106	17343.175000	1140.559570	-86.912689
2835.565106	17343.175000	1139.426758	-123.787865
2835.565106	17343.175000	1138.292969	-62.199139
2835.565106	17343.175000	1137.159180	-140.262238
2835.565106	17343.175000	1136.025391	-113.648849
2835.565106	17343.175000	1134.891602	-157.943710
2835.565106	17343.175000	1133.757813	-73.005035
2835.565106	17343.175000	1132.623047	-112.543999
2835.565106	17343.175000	1131.488281	-78.068275
2835.565106	17343.175000	1130.353516	69.589340
2835.565106	17343.175000	1129.217773	105.015457
2835.565106	17343.175000	1128.083008	180.107315
2835.565106	17343.175000	1126.947266	166.942703
2835.565106	17343.175000	1125.811523	73.106339
2835.565106	17343.175000	1124.674805	140.050964
2835.565106	17343.175000	1123.539063	110.379135
2835.565106	17343.175000	1122.402344	10.596151
2835.565106	17343.175000	1121.265625	-27.089098
2835.565106	17343.175000	1120.127930	-0.536958
2835.565106	17343.175000	1118.990234	-84.595612
2835.565106	17343.175000	1117.853516	-9.329925
2835.565106	17343.175000	1116.714844	-139.192200
2835.565106	17343.175000	1115.577148	-63.368267
2835.565106	17343.175000	1114.439453	87.683342
2835.565106	17343.175000	1113.300781	12.681734
2835.565106	17343.175000	1112.162109	66.192490
2835.565106	17343.175000	1111.022461	92.188080
2835.565106	17343.175000	1109.883789	90.435822
2835.565106	17343.175000	1108.744141	145.247055
2835.565106	17343.175000	1107.604492	167.627411
2835.565106	17343.175000	1106.463867	195.733871
2835.565106	17343.175000	1105.324219	73.083961
2835.565106	17343.175000	1104.183594	81.503471
2835.565106	17343.175000	1103.042969	138.358536
2835.565106	17343.175000	1101.902344	44.210983
2835.565106	17343.175000	1100.760742	-23.935186
2835.565106	17343.175000	1099.619141	50.585083
2835.565106	17343.175000	1098.477539	33.876617
2835.565106	17343.175000	1097.335938	43.952450
2835.565106	17343.175000	1096.193359	142.773483
2835.565106	17343.175000	1095.051758	117.458946
2835.565106	17343.175000	1093.909180	130.464951
2835.565106	17343.175000	1092.765625	27.063734
2835.565106	17343.175000	1091.623047	32.017281
2835.565106	17343.175000	1090.479492	111.374817
2835.565106	17343.175000	1089.335938	101.867622
2835.565106	17343.175000	1088.192383	178.505844
2835.565106	17343.175000	1087.047852	61.020679
2835.565106	17343.175000	1085.903320	106.040016
2835.565106	17343.175000	1084.758789	67.917747
2835.565106	17343.175000	1083.614258	84.261192
2835.565106	17343.175000	1082.469727	44.008732
2835.565106	17343.175000	1081.324219	115.178551
2835.565106	17343.175000	1080.178711	90.098892
2835.565106	17343.175000	1079.033203	34.706692
2835.565106	17343.175000	1077.886719	42.180202
2835.565106	17343.175000	1076.740234	11.044559
2835.565106	17343.175000	1075.593750	110.112671
2835.565106	17343.175000	1074.447266	-29.572062
2835.565106	17343.175000	1073.300781	62.371635
2835.565106	17343.175000	1072.153320	63.899715
2835.565106	17343.175000	1071.005859	120.733780
2835.565106	17343.175000	1069.858398	53.255619
2835.565106	17343.175000	1068.709961	45.954296
2835.565106	17343.175000	1067.561523	83.891365
2835.565106	17343.175000	1066.413086	30.046288
2835.565106	17343.175000	1065.264648	25.845776
2835.565106	17343.175000	1064.116211	3.518805
2835.565106	17343.175000	1062.966797	68.673935
2835.565106	17343.175000	1061.817383	29.746925
2835.565106	17343.175000	1060.667969	33.536583
2835.565106	17343.175000	1059.517578	-123.295395
2835.565106	17343.175000	1058.368164	-37.032433
2835.565106	17343.175000	1057.217773	-33.063068
2835.565106	17343.175000	1056.067383	-40.926941
2835.565106	17343.175000	1054.916016	-12.001534
2835.565106	17343.175000	1053.764648	-3.618408
2835.565106	17343.175000	1052.613281	55.371857
2835.565106	17343.175000	1051.461914	56.076206
2835.565106	17343.175000	1050.310547	-22.523407
2835.565106	17343.175000	1049.158203	60.606522
2835.565106	17343.175000	1048.005859	5.518895
2835.565106	17343.175000	1046.853516	42.615101
2835.565106	17343.175000	1045.700195	146.451035
2835.565106	17343.175000	1044.547852	52.793884
2835.565106	17343.175000	1043.394531	115.037109
2835.565106	17343.175000	1042.240234	82.730461
2835.565106	17343.175000	1041.086914	155.580811
2835.565106	17343.175000	1039.932617	126.646439
2835.565106	17343.175000	1038.778320	6.785734
2835.565106	17343.175000	1037.624023	128.444550
2835.565106	17343.175000	1036.469727	111.544319
2835.565106	17343.175000	1035.314453	21.460014
2835.565106	17343.175000	1034.159180	171.173676
2835.565106	17343.175000	1033.003906	104.005211
2835.565106	17343.175000	1031.847656	106.692764
2835.565106	17343.175000	1030.692383	294.235321
2835.565106	17343.175000	1029.536133	272.479706
2835.565106	17343.175000	1028.378906	188.439575
2835.565106	17343.175000	1027.222656	130.456390
2835.565106	17343.175000	1026.065430	44.254257
2835.565106	17343.175000	1024.908203	-34.425240
2835.565106	17343.175000	1023.750977	112.384796
2835.565106	17343.175000	1022.593750	110.413963
2835.565106	17343.175000	1021.435547	123.578392
2835.565106	17343.175000	1020.277344	125.527054
2835.565106	17343.175000	1019.119141	162.025192
2835.565106	17343.175000	1017.959961	76.546463
2835.565106	17343.175000	1016.800781	-11.012491
2835.565106	17343.175000	1015.641602	79.232239
2835.565106	17343.175000	1014.482422	18.064949
2835.565106	17343.175000	1013.323242	219.868591
2835.565106	17343.175000	1012.163086	16.935047
2835.565106	17343.175000	1011.002930	94.839828
2835.565106	17343.175000	1009.842773	128.405334
2835.565106	17343.175000	1008.681641	108.744652
2835.565106	17343.175000	1007.520508	127.123833
2835.565106	17343.175000	1006.359375	155.317917
2835.565106	17343.175000	1005.198242	95.963295
2835.565106	17343.175000	1004.037109	45.662651
2835.565106	17343.175000	1002.875000	89.205696
2835.565106	17343.175000	1001.712891	71.480713
2835.565106	17343.175000	1000.550781	115.035217
2835.565106	17343.175000	999.387695	-36.820641
2835.565106	17343.175000	998.224609	-85.398201
2835.565106	17343.175000	997.061523	-60.178249
2835.565106	17343.175000	995.898438	-27.309546
2835.565106	17343.175000	994.734375	-15.514273
2835.565106	17343.175000	993.571289	-48.079983
2835.565106	17343.175000	992.407227	61.917892
2835.565106	17343.175000	991.242188	2.072706
2835.565106	17343.175000	990.078125	-53.733475
2835.565106	17343.175000	988.913086	-99.880447
2835.565106	17343.175000	987.748047	-47.894115
2835.565106	17343.175000	986.583008	89.558235
2835.565106	17343.175000	985.416992	-43.612488
2835.565106	17343.175000	984.250977	-76.686493
2835.565106	17343.175000	983.084961	-36.462891
2835.565106	17343.175000	981.918945	-82.997643
2835.565106	17343.175000	980.751953	43.024357
2835.565106	17343.175000	979.584961	124.990013
2835.565106	17343.175000	978.417969	193.082642
2835.565106	17343.175000	977.250977	254.050003
2835.565106	17343.175000	976.083008	261.411194
2835.565106	17343.175000	974.915039	246.161163
2835.565106	17343.175000	973.747070	133.728348
2835.565106	17343.175000	972.579102	169.966949
2835.565106	17343.175000	971.410156	219.650879
2835.565106	17343.175000	970.242188	97.965370
2835.565106	17343.175000	969.072266	74.438156
2835.565106	17343.175000	967.903320	198.536591
2835.565106	17343.175000	966.733398	195.061523
2835.565106	17343.175000	965.563477	149.862137
2835.565106	17343.175000	964.393555	44.890301
2835.565106	17343.175000	963.223633	166.879150
2835.565106	17343.175000	962.052734	169.760590
2835.565106	17343.175000	960.881836	146.407333
2835.565106	17343.175000	959.710938	118.292740
2835.565106	17343.175000	958.540039	261.046417
2835.565106	17343.175000	957.368164	139.823380
2835.565106	17343.175000	956.196289	202.409973
2835.565106	17343.175000	955.024414	115.765884
2835.565106	17343.175000	953.851563	98.754524
2835.565106	17343.175000	952.679688	1.720102
2835.565106	17343.175000	951.506836	-45.628918
2835.565106	17343.175000	950.333984	-105.868843
2835.565106	17343.175000	949.160156	123.615112
2835.565106	17343.175000	947.986328	15.957131
2835.565106	17343.175000	946.812500	81.752670
2835.565106	17343.175000	945.638672	-27.744608
2835.565106	17343.175000	944.464844	-0.250289
2835.565106	17343.175000	943.290039	43.285358
2835.565106	17343.175000	942.115234	-34.220646
2835.565106	17343.175000	940.940430	10.679696
2835.565106	17343.175000	939.764648	-48.016685
2835.565106	17343.175000	938.588867	8.122433
2835.565106	17343.175000	937.413086	17.097290
2835.565106	17343.175000	936.237305	-15.251535
2835.565106	17343.175000	935.060547	-30.744572
2835.565106	17343.175000	933.883789	-85.893852
2835.565106	17343.175000	932.707031	11.709558
2835.565106	17343.175000	931.530273	37.690899
2835.565106	17343.175000	930.352539	8.963948
2835.565106	17343.175000	929.175781	64.961632
2835.565106	17343.175000	927.998047	81.410652
2835.565106	17343.175000	926.819336	45.105133
2835.565106	17343.175000	925.641602	48.306736
2835.565106	17343.175000	924.462891	79.739120
2835.565106	17343.175000	923.284180	37.747837
2835.565106	17343.175000	922.104492	25.864698
2835.565106	17343.175000	920.924805	62.880119
2835.565106	17343.175000	919.746094	65.000107
2835.565106	17343.175000	919.551758	115.257172
2835.565106	17343.175000	918.386719	99.524559
2835.565106	17343.175000	917.220703	12.338490
2835.565106	17343.175000	916.054688	-5.283509
2835.565106	17343.175000	914.887695	-22.914721
2835.565106	17343.175000	913.721680	64.659477
2835.565106	17343.175000	912.554688	-1.857638
2835.565106	17343.175000	911.387695	1.125259
2835.565106	17343.175000	910.220703	4.089349
2835.565106	17343.175000	909.052734	82.131676
2835.565106	17343.175000	907.885742	86.920135
2835.565106	17343.175000	906.717773	24.132469
2835.565106	17343.175000	905.548828	-14.253613
2835.565106	17343.175000	904.380859	-30.132137
2835.565106	17343.175000	903.211914	17.746315
2835.565106	17343.175000	902.042969	93.715363
2835.565106	17343.175000	900.874023	51.530602
2835.565106	17343.175000	899.704102	5.600470
2835.565106	17343.175000	898.535156	17.763496
2835.565106	17343.175000	897.365234	56.137119
2835.565106	17343.175000	896.194336	55.144852
2835.565106	17343.175000	895.024414	26.044245
2835.565106	17343.175000	893.853516	30.645523
2835.565106	17343.175000	892.682617	-13.443181
2835.565106	17343.175000	891.511719	7.979510
2835.565106	17343.175000	890.340820	-8.046161
2835.565106	17343.175000	889.168945	-68.979065
2835.565106	17343.175000	887.997070	-56.952236
2835.565106	17343.175000	886.825195	-35.593407
2835.565106	17343.175000	885.653320	75.490685
2835.565106	17343.175000	884.480469	-60.237495
2835.565106	17343.175000	883.307617	4.056339
2835.565106	17343.175000	882.134766	19.727364
2835.565106	17343.175000	880.961914	-31.876579
2835.565106	17343.175000	879.788086	-49.849720
2835.565106	17343.175000	878.614258	47.953308
2835.565106	17343.175000	877.440430	-11.128937
2835.565106	17343.175000	876.266602	-64.599693
2835.565106	17343.175000	875.091797	-32.209484
2835.565106	17343.175000	873.916992	-83.810722
2835.565106	17343.175000	872.742188	54.882168
2835.565106	17343.175000	871.567383	23.777321
2835.565106	17343.175000	870.391602	-55.808704
2835.565106	17343.175000	869.215820	106.997055
2835.565106	17343.175000	868.040039	-101.212463
2835.565106	17343.175000	866.864258	-115.530350
2835.565106	17343.175000	865.687500	-53.459187
2835.565106	17343.175000	864.510742	-28.681160
2835.565106	17343.175000	863.333984	-149.197571
2835.565106	17343.175000	862.157227	31.985374
2835.565106	17343.175000	860.979492	-19.629568
2835.565106	17343.175000	859.802734	-80.541595
2835.565106	17343.175000	858.625000	-124.688744
2835.565106	17343.175000	857.446289	13.509682
2835.565106	17343.175000	856.268555	4.685377
2835.565106	17343.175000	855.089844	-33.900524
2835.565106	17343.175000	853.911133	14.913116
2835.565106	17343.175000	852.731445	-77.589294
2835.565106	17343.175000	851.552734	-75.271851
2835.565106	17343.175000	850.373047	-69.246780
2835.565106	17343.175000	849.193359	-83.670067
2835.565106	17343.175000	848.013672	13.355135
2835.565106	17343.175000	846.833008	-79.095802
2835.565106	17343.175000	845.652344	-4.409073
2835.565106	17343.175000	844.471680	-141.388031
2835.565106	17343.175000	843.291016	-70.448097
2835.565106	17343.175000	842.110352	-14.390438
2835.565106	17343.175000	840.928711	-99.360680
2835.565106	17343.175000	839.747070	-65.593628
2835.565106	17343.175000	838.564453	60.875919
2835.565106	17343.175000	837.382813	76.038979
2835.565106	17343.175000	836.200195	-27.447845
2835.565106	17343.175000	835.017578	-43.793953
2835.565106	17343.175000	833.834961	-39.758537
2835.565106	17343.175000	832.651367	-82.045403
2835.565106	17343.175000	831.467773	-78.018227
2835.565106	17343.175000	830.284180	-16.594185
2835.565106	17343.175000	829.100586	68.865227
2835.565106	17343.175000	827.916992	33.965050
2835.565106	17343.175000	826.732422	-32.388454
2835.565106	17343.175000	825.547852	56.700813
2835.565106	17343.175000	824.363281	34.752918
2835.565106	17343.175000	823.177734	-1.988497
2835.565106	17343.175000	821.992188	-14.682998
2835.565106	17343.175000	820.806641	-101.329315
2835.565106	17343.175000	819.621094	30.159746
2835.565106	17343.175000	818.434570	54.405960
2835.565106	17343.175000	817.249023	89.719360
2835.565106	17343.175000	816.062500	150.873703
2835.565106	17343.175000	814.875000	145.510117
2835.565106	17343.175000	813.688477	158.605408
2835.565106	17343.175000	812.500977	195.688171
2835.565106	17343.175000	811.313477	151.538330
2835.565106	17343.175000	810.125977	76.029419
2835.565106	17343.175000	808.937500	48.513863
2835.565106	17343.175000	807.749023	44.982029
2835.565106	17343.175000	806.560547	94.925613
2835.565106	17343.175000	805.372070	23.151752
2835.565106	17343.175000	804.182617	60.162228
2835.565106	17343.175000	802.994141	-15.275064
2835.565106	17343.175000	801.803711	21.714846
2835.565106	17343.175000	800.614258	42.101688
2835.565106	17343.175000	799.424805	110.361847
2835.565106	17343.175000	798.234375	68.097633
2835.565106	17343.175000	797.043945	108.693985
2835.565106	17343.175000	795.852539	-104.754608
2835.565106	17343.175000	794.662109	26.024197
2835.565106	17343.175000	793.470703	105.222824
2835.565106	17343.175000	792.279297	4.101689
2835.565106	17343.175000	791.087891	-108.020393
2835.565106	17343.175000	789.895508	-15.992096
2835.565106	17343.175000	788.703125	13.483389
2835.565106	17343.175000	787.510742	0.663578
2835.565106	17343.175000	786.318359	-23.184492
2835.565106	17343.175000	785.125000	105.466934
2835.565106	17343.175000	783.931641	-26.786005
2835.565106	17343.175000	782.738281	-2.885516
2835.565106	17343.175000	781.544922	-111.206421
2835.565106	17343.175000	780.350586	-35.911190
2835.565106	17343.175000	779.156250	24.661516
2835.565106	17343.175000	777.961914	37.491108
2835.565106	17343.175000	776.767578	31.960070
2835.565106	17343.175000	775.572266	83.286766
2835.565106	17343.175000	774.376953	20.882771
2835.565106	17343.175000	773.181641	-3.000041
2835.565106	17343.175000	771.986328	13.447315
2835.565106	17343.175000	770.790039	68.366982
2835.565106	17343.175000	769.593750	11.482088
2835.565106	17343.175000	768.397461	57.202198
2835.565106	17343.175000	767.201172	-1.506245
2835.565106	17343.175000	766.003906	-19.911777
2835.565106	17343.175000	764.806641	82.515625
2835.565106	17343.175000	763.609375	111.673798
2835.565106	17343.175000	762.412109	-20.236200
2835.565106	17343.175000	761.213867	16.231398
2835.565106	17343.175000	760.015625	138.651566
2835.565106	17343.175000	758.817383	145.788803
2835.565106	17343.175000	757.618164	178.512955
2835.565106	17343.175000	756.419922	119.805183
2835.565106	17343.175000	755.220703	249.373489
2835.565106	17343.175000	754.021484	38.980835
2835.565106	17343.175000	752.821289	47.908390
2835.565106	17343.175000	751.621094	190.166687
2835.565106	17343.175000	750.420898	175.296127
2835.565106	17343.175000	749.220703	151.291687
2835.565106	17343.175000	748.020508	176.575058
2835.565106	17343.175000	746.819336	218.262817
2835.565106	17343.175000	745.618164	196.055466
2835.565106	17343.175000	744.416992	190.265854
2835.565106	17343.175000	743.214844	224.594452
2835.565106	17343.175000	742.012695	213.306763
2835.565106	17343.175000	740.810547	191.072540
2835.565106	17343.175000	739.608398	290.965851
2835.565106	17343.175000	738.406250	423.608551
2835.565106	17343.175000	737.203125	488.767059
2835.565106	17343.175000	736.000000	515.630188
2835.565106	17343.175000	734.795898	464.152802
2835.565106	17343.175000	733.592773	702.211792
2835.565106	17343.175000	732.388672	672.537292
2835.565106	17343.175000	731.184570	668.344055
2835.565106	17343.175000	729.979492	578.608826
2835.565106	17343.175000	728.775391	490.716492
2835.565106	17343.175000	727.570313	393.751495
2835.565106	17343.175000	726.365234	287.720154
2835.565106	17343.175000	725.160156	325.361542
2835.565106	17343.175000	723.954102	208.452148
2835.565106	17343.175000	722.748047	244.247818
2835.565106	17343.175000	721.541992	98.300598
2835.565106	17343.175000	720.334961	143.157928
2835.565106	17343.175000	719.128906	137.122833
2835.565106	17343.175000	717.921875	3.955601
2835.565106	17343.175000	716.714844	25.154587
2835.565106	17343.175000	715.506836	-28.095152
2835.565106	17343.175000	714.298828	-30.523024
2835.565106	17343.175000	713.090820	-2.120675
2835.565106	17343.175000	711.882813	-82.591911
2835.565106	17343.175000	710.674805	27.392920
2835.565106	17343.175000	709.465820	-38.577877
2835.565106	17343.175000	708.256836	102.137444
2835.565106	17343.175000	707.047852	18.018187
2835.565106	17343.175000	705.837891	-2.656706
2835.565106	17343.175000	704.627930	36.448647
2835.565106	17343.175000	703.417969	-4.183279
2835.565106	17343.175000	702.208008	152.587463
2835.565106	17343.175000	700.998047	151.746277
2835.565106	17343.175000	699.787109	87.526863
2835.565106	17343.175000	698.576172	14.265666
2835.565106	17343.175000	697.364258	141.873367
2835.565106	17343.175000	696.153320	124.676712
2835.565106	17343.175000	694.941406	105.659096
2835.565106	17343.175000	693.729492	135.456085
2835.565106	17343.175000	692.516602	-40.892048
2835.565106	17343.175000	691.304688	50.342438
2835.565106	17343.175000	690.091797	105.373291
2835.565106	17343.175000	688.878906	41.107147
2835.565106	17343.175000	687.665039	45.493874
2835.565106	17343.175000	686.451172	67.918907
2835.565106	17343.175000	685.237305	72.255844
2835.565106	17343.175000	684.023438	53.100208
2835.565106	17343.175000	682.809570	97.105148
2835.565106	17343.175000	681.594727	117.610107
2835.565106	17343.175000	680.379883	-69.399300
2835.565106	17343.175000	679.165039	77.355812
2835.565106	17343.175000	677.949219	104.998764
2835.565106	17343.175000	676.733398	17.212027
2835.565106	17343.175000	675.517578	79.062325
2835.565106	17343.175000	674.301758	110.224297
2835.565106	17343.175000	673.084961	-40.644123
2835.565106	17343.175000	671.869141	112.989105
2835.565106	17343.175000	670.651367	44.990131
2835.565106	17343.175000	669.434570	142.669250
2835.565106	17343.175000	668.216797	166.466446
2835.565106	17343.175000	667.000000	210.030334
2835.565106	17343.175000	665.781250	188.763748
2835.565106	17343.175000	664.563477	275.438385
2835.565106	17343.175000	663.344727	254.118118
2835.565106	17343.175000	662.125977	407.238312
2835.565106	17343.175000	660.907227	396.639221
2835.565106	17343.175000	659.688477	315.907562
2835.565106	17343.175000	658.468750	382.568573
2835.565106	17343.175000	657.249023	424.019135
2835.565106	17343.175000	656.029297	242.646820
2835.565106	17343.175000	654.808594	407.997772
2835.565106	17343.175000	653.587891	345.180389
2835.565106	17343.175000	652.367188	357.773651
2835.565106	17343.175000	651.146484	302.122711
2835.565106	17343.175000	649.924805	329.025574
2835.565106	17343.175000	648.704102	341.536774
2835.565106	17343.175000	647.482422	337.870575
2835.565106	17343.175000	646.259766	346.734406
2835.565106	17343.175000	645.037109	368.120117
2835.565106	17343.175000	643.815430	466.562622
2835.565106	17343.175000	642.591797	290.692688
2835.565106	17343.175000	641.369141	406.976593
2835.565106	17343.175000	640.145508	390.600098
2835.565106	17343.175000	638.921875	272.099152
2835.565106	17343.175000	637.698242	323.759796
2835.565106	17343.175000	636.474609	414.763184
2835.565106	17343.175000	635.250000	355.327057
2835.565106	17343.175000	634.025391	281.570465
2835.565106	17343.175000	632.800781	325.919159
2835.565106	17343.175000	631.575195	305.816437
2835.565106	17343.175000	630.349609	307.158783
2835.565106	17343.175000	629.124023	333.509186
2835.565106	17343.175000	627.898438	372.336853
2835.565106	17343.175000	626.671875	291.356537
2835.565106	17343.175000	625.445313	308.675232
2835.565106	17343.175000	624.218750	145.498062
2835.565106	17343.175000	622.992188	282.473480
2835.565106	17343.175000	621.764648	160.393784
2835.565106	17343.175000	620.537109	174.045303
2835.565106	17343.175000	619.309570	51.986198
2835.565106	17343.175000	618.081055	58.459885
2835.565106	17343.175000	616.852539	27.430038
2835.565106	17343.175000	615.624023	23.148184
2835.565106	17343.175000	614.395508	15.273570
2835.565106	17343.175000	613.166992	91.192986
2835.565106	17343.175000	611.937500	27.980356
2835.565106	17343.175000	610.708008	155.504761
2835.565106	17343.175000	609.477539	152.845932
2835.565106	17343.175000	608.248047	118.090286
2835.565106	17343.175000	607.017578	42.347870
2835.565106	17343.175000	605.787109	57.445900
2835.565106	17343.175000	604.555664	95.658897
2835.565106	17343.175000	603.325195	32.353207
2835.565106	17343.175000	602.093750	4.645134
2835.565106	17343.175000	600.861328	57.002045
2835.565106	17343.175000	599.629883	50.599030
2835.565106	17343.175000	598.397461	35.277874
2835.565106	17343.175000	597.165039	3.931884
2835.565106	17343.175000	595.932617	-103.882126
2835.565106	17343.175000	594.699219	26.530197
2835.565106	17343.175000	593.465820	-40.417015
2835.565106	17343.175000	592.232422	47.230785
2835.565106	17343.175000	590.999023	8.682536
2835.565106	17343.175000	589.764648	-35.203640
2835.565106	17343.175000	588.530273	41.657154
2835.565106	17343.175000	587.295898	-85.709213
2835.565106	17343.175000	586.061523	-182.870148
2835.565106	17343.175000	584.826172	-75.931435
2835.565106	17343.175000	583.590820	-48.903286
2835.565106	17343.175000	582.355469	-211.715378
2835.565106	17343.175000	581.119141	-78.307755
2835.565106	17343.175000	579.882813	-95.695206
2835.565106	17343.175000	578.646484	-4.959960
2835.565106	17343.175000	577.410156	48.494453
2835.565106	17343.175000	576.172852	-36.312828
2835.565106	17343.175000	574.935547	2.906991
2835.565106	17343.175000	573.698242	120.023354
2835.565106	17343.175000	572.460938	189.255814
2835.565106	17343.175000	571.222656	111.486015
2835.565106	17343.175000	569.984375	106.303146
2835.565106	17343.175000	568.746094	115.260277
2835.565106	17343.175000	567.506836	136.577408
2835.565106	17343.175000	566.267578	37.575710
2835.565106	17343.175000	565.028320	124.299492
2835.565106	17343.175000	563.789063	212.735443
2835.565106	17343.175000	562.548828	239.239288
2835.565106	17343.175000	561.309570	212.691971
2835.565106	17343.175000	560.068359	191.435303
2835.565106	17343.175000	558.828125	175.472473
2835.565106	17343.175000	557.586914	270.776245
2835.565106	17343.175000	556.345703	90.534668
2835.565106	17343.175000	555.104492	115.160240
2835.565106	17343.175000	553.863281	35.612843
2835.565106	17343.175000	552.621094	174.919052
2835.565106	17343.175000	551.378906	98.890030
2835.565106	17343.175000	550.136719	209.868469
2835.565106	17343.175000	548.893555	259.054749
2835.565106	17343.175000	547.650391	89.556007
2835.565106	17343.175000	546.407227	54.099689
2835.565106	17343.175000	545.164063	69.759010
2835.565106	17343.175000	543.919922	50.153774
2835.565106	17343.175000	542.675781	93.969742
2835.565106	17343.175000	541.431641	-13.726715
2835.565106	17343.175000	540.186523	7.165647
2835.565106	17343.175000	538.941406	-14.217181
2835.565106	17343.175000	537.696289	-107.773170
2835.565106	17343.175000	536.451172	-83.384666
2835.565106	17343.175000	535.205078	-111.803963
2835.565106	17343.175000	533.959961	26.901691
2835.565106	17343.175000	532.712891	-5.066060
2835.565106	17343.175000	531.466797	-14.166703
2835.565106	17343.175000	530.219727	-139.302277
2835.565106	17343.175000	528.972656	-97.414856
2835.565106	17343.175000	527.725586	114.903282
2835.565106	17343.175000	526.478516	35.480244
2835.565106	17343.175000	525.230469	-40.403080
2835.565106	17343.175000	523.982422	-5.622332
2835.565106	17343.175000	522.734375	-14.755155
2835.565106	17343.175000	521.485352	-48.465981
2835.565106	17343.175000	520.236328	-157.630936
2835.565106	17343.175000	518.987305	-29.876972
2835.565106	17343.175000	517.737305	-16.209366
2835.565106	17343.175000	516.488281	-4.301238
2835.565106	17343.175000	515.238281	19.872061
2835.565106	17343.175000	513.988281	3.712234
2835.565106	17343.175000	512.737305	78.698868
2835.565106	17343.175000	511.486328	-33.850803
2835.565106	17343.175000	510.235352	-16.703918
2835.565106	17343.175000	508.984375	24.958330
2835.565106	17343.175000	507.732422	-59.487995
2835.565106	17343.175000	506.480469	-149.148544
2835.565106	17343.175000	505.228516	-44.465290
2835.565106	17343.175000	503.976563	-120.085747
2835.565106	17343.175000	502.723633	-53.944427
2835.565106	17343.175000	501.470703	-5.322314
2835.565106	17343.175000	500.217773	-2.191185
2835.565106	17343.175000	498.963867	11.431924
2835.565106	17343.175000	497.709961	-71.099251
2835.565106	17343.175000	496.456055	12.455884
2835.565106	17343.175000	495.202148	31.323267
2835.565106	17343.175000	493.947266	-17.951178
2835.565106	17343.175000	492.692383	117.953995
2835.565106	17343.175000	491.437500	61.708035
2835.565106	17343.175000	490.181641	68.346115
2835.565106	17343.175000	488.926758	71.498482
2835.565106	17343.175000	487.670898	64.182411
2835.565106	17343.175000	486.414063	83.047592
2835.565106	17343.175000	485.158203	187.393127
2835.565106	17343.175000	483.901367	77.175240
2835.565106	17343.175000	482.644531	-3.343880
2835.565106	17343.175000	481.386719	161.988525
2835.565106	17343.175000	480.128906	72.784676
2835.565106	17343.175000	478.871094	-5.916716
2835.565106	17343.175000	477.613281	134.943039
2835.565106	17343.175000	476.355469	99.824493
2835.565106	17343.175000	475.096680	118.712837
2835.565106	17343.175000	473.837891	130.637619
2835.565106	17343.175000	472.578125	99.045929
2835.565106	17343.175000	471.319336	163.196442
2835.565106	17343.175000	470.059570	88.129242
2835.565106	17343.175000	468.799805	232.290756
2835.565106	17343.175000	467.539063	108.557648
2835.565106	17343.175000	466.278320	117.037392
2835.565106	17343.175000	465.017578	115.091133
2835.565106	17343.175000	463.756836	154.867584
2835.565106	17343.175000	462.495117	163.353210
2835.565106	17343.175000	461.233398	215.276367
2835.565106	17343.175000	459.971680	74.381386
2835.565106	17343.175000	458.709961	63.797787
2835.565106	17343.175000	457.447266	9.818050
2835.565106	17343.175000	456.184570	21.828568
2835.565106	17343.175000	454.921875	68.549080
2835.565106	17343.175000	453.658203	61.464333
2835.565106	17343.175000	452.394531	45.713501
2835.565106	17343.175000	451.130859	29.973219
2835.565106	17343.175000	449.867188	116.546051
2835.565106	17343.175000	448.602539	-10.148372
2835.565106	17343.175000	447.337891	0.136335
2835.565106	17343.175000	446.073242	-57.162651
2835.565106	17343.175000	444.807617	-27.815792
2835.565106	17343.175000	443.542969	32.696144
2835.565106	17343.175000	442.276367	-76.530853
2835.565106	17343.175000	441.010742	-62.787170
2835.565106	17343.175000	439.744141	-71.557922
2835.565106	17343.175000	438.478516	118.688583
2835.565106	17343.175000	437.210938	106.408424
2835.565106	17343.175000	435.944336	88.937943
2835.565106	17343.175000	434.676758	190.796616
2835.565106	17343.175000	433.409180	136.982620
2835.565106	17343.175000	432.141602	14.031569
2835.565106	17343.175000	430.873047	88.148819
2835.565106	17343.175000	429.604492	84.460266
2835.565106	17343.175000	428.335938	256.970062
2835.565106	17343.175000	427.067383	201.394180
2835.565106	17343.175000	425.797852	214.893204
2835.565106	17343.175000	424.528320	188.654755
2835.565106	17343.175000	423.258789	233.172897
2835.565106	17343.175000	421.988281	222.419403
2835.565106	17343.175000	420.717773	135.726715
2835.565106	17343.175000	419.447266	138.738556
2835.565106	17343.175000	418.175781	91.699776
2835.565106	17343.175000	416.905273	60.165108
2835.565106	17343.175000	415.633789	4.469230
2835.565106	17343.175000	414.362305	222.787506
2835.565106	17343.175000	413.089844	44.651871
2835.565106	17343.175000	411.817383	7.809812
2835.565106	17343.175000	410.544922	51.883327
2835.565106	17343.175000	409.272461	104.494324
2835.565106	17343.175000	407.999023	-20.302401
2835.565106	17343.175000	406.725586	-69.370514
2835.565106	17343.175000	405.452148	-49.647041
2835.565106	17343.175000	404.177734	40.537548
2835.565106	17343.175000	402.903320	-3.556612
2835.565106	17343.175000	401.628906	-82.101295
2835.565106	17343.175000	400.354492	-2.509118
2835.565106	17343.175000	399.079102	202.448288
2835.565106	17343.175000	397.803711	22.259768
2835.565106	17343.175000	396.528320	-77.184975
2835.565106	17343.175000	395.251953	-58.152798
2835.565106	17343.175000	393.976563	-35.791538
2835.565106	17343.175000	392.700195	8.773462
2835.565106	17343.175000	391.422852	-78.984421
2835.565106	17343.175000	390.145508	66.606796
2835.565106	17343.175000	388.869141	-17.927673
2835.565106	17343.175000	387.590820	-40.796242
2835.565106	17343.175000	386.313477	20.264059
2835.565106	17343.175000	385.035156	-11.447356
2835.565106	17343.175000	383.756836	68.153748
2835.565106	17343.175000	382.478516	94.431961
2835.565106	17343.175000	381.199219	-109.106995
2835.565106	17343.175000	379.919922	74.507156
2835.565106	17343.175000	378.640625	28.326448
2835.565106	17343.175000	377.360352	-24.865507
2835.565106	17343.175000	376.080078	-42.260754
2835.565106	17343.175000	374.799805	-32.448433
2835.565106	17343.175000	373.519531	-38.242477
2835.565106	17343.175000	372.238281	-3.177545
2835.565106	17343.175000	370.957031	59.031139
2835.565106	17343.175000	369.675781	67.967461
2835.565106	17343.175000	368.394531	54.439728
2835.565106	17343.175000	367.112305	16.737436
2835.565106	17343.175000	365.830078	-65.637558
2835.565106	17343.175000	364.546875	14.108799
2835.565106	17343.175000	363.264648	-137.094376
2835.565106	17343.175000	361.981445	-52.783691
2835.565106	17343.175000	360.698242	10.710990
2835.565106	17343.175000	359.414063	-101.989456
2835.565106	17343.175000	358.129883	75.254761
2835.565106	17343.175000	356.845703	-53.391750
2835.565106	17343.175000	355.561523	63.401863
2835.565106	17343.175000	354.276367	85.971786
2835.565106	17343.175000	352.991211	-50.434868
2835.565106	17343.175000	351.706055	68.638428
2835.565106	17343.175000	350.420898	25.328615
2835.565106	17343.175000	349.134766	-78.010788
2835.565106	17343.175000	347.848633	89.248627
2835.565106	17343.175000	346.561523	10.680371
2835.565106	17343.175000	345.275391	64.595360
2835.565106	17343.175000	343.988281	-79.503693
2835.565106	17343.175000	342.700195	-55.441582
2835.565106	17343.175000	341.413086	-59.078228
2835.565106	17343.175000	340.125000	54.226761
2835.565106	17343.175000	338.836914	13.856251
2835.565106	17343.175000	337.548828	75.063797
2835.565106	17343.175000	336.259766	1.351167
2835.565106	17343.175000	334.970703	86.968025
2835.565106	17343.175000	333.681641	46.193756
2835.565106	17343.175000	332.391602	-7.043914
2835.565106	17343.175000	331.101563	144.765045
2835.565106	17343.175000	329.811523	8.791559
2835.565106	17343.175000	328.521484	38.711060
2835.565106	17343.175000	327.230469	-62.794720
2835.565106	17343.175000	325.939453	20.144417
2835.565106	17343.175000	324.648438	34.474739
2835.565106	17343.175000	323.356445	61.662888
2835.565106	17343.175000	322.064453	-35.732685
2835.565106	17343.175000	320.772461	-49.005188
2835.565106	17343.175000	319.480469	-76.593735
2835.565106	17343.175000	318.187500	-86.313866
2835.565106	17343.175000	316.894531	-98.522194
2835.565106	17343.175000	315.601563	-9.854419
2835.565106	17343.175000	314.307617	-52.559414
2835.565106	17343.175000	313.013672	-38.510925
2835.565106	17343.175000	311.719727	-16.886038
2835.565106	17343.175000	310.425781	118.966820
2835.565106	17343.175000	309.130859	-103.412308
2835.565106	17343.175000	307.835938	25.406792
2835.565106	17343.175000	306.541016	33.038609
2835.565106	17343.175000	305.245117	14.254382
2835.565106	17343.175000	303.949219	45.188072
2835.565106	17343.175000	302.653320	157.911163
2835.565106	17343.175000	301.356445	108.847237
2835.565106	17343.175000	300.060547	217.612717
2835.565106	17343.175000	298.763672	166.296799
