#X		#Y		#Wave		#Intensity
2765.004521	17407.242167	2000.043945	-137.969742
2765.004521	17407.242167	1999.080078	-42.364338
2765.004521	17407.242167	1998.116211	-17.936026
2765.004521	17407.242167	1997.151367	-152.865860
2765.004521	17407.242167	1996.186523	-8.505599
2765.004521	17407.242167	1995.222656	-33.381165
2765.004521	17407.242167	1994.256836	-123.312881
2765.004521	17407.242167	1993.291992	18.875748
2765.004521	17407.242167	1992.327148	36.566372
2765.004521	17407.242167	1991.361328	115.513519
2765.004521	17407.242167	1990.395508	141.845718
2765.004521	17407.242167	1989.429688	16.631491
2765.004521	17407.242167	1988.463867	9.643500
2765.004521	17407.242167	1987.497070	24.373999
2765.004521	17407.242167	1986.531250	38.555687
2765.004521	17407.242167	1985.564453	-81.301682
2765.004521	17407.242167	1984.597656	28.299282
2765.004521	17407.242167	1983.630859	26.148813
2765.004521	17407.242167	1982.664063	154.511353
2765.004521	17407.242167	1981.696289	42.714222
2765.004521	17407.242167	1980.728516	222.026810
2765.004521	17407.242167	1979.761719	134.103729
2765.004521	17407.242167	1978.792969	169.292084
2765.004521	17407.242167	1977.825195	184.325562
2765.004521	17407.242167	1976.857422	87.899887
2765.004521	17407.242167	1975.888672	25.709471
2765.004521	17407.242167	1974.919922	103.853233
2765.004521	17407.242167	1973.951172	193.975739
2765.004521	17407.242167	1972.982422	138.215363
2765.004521	17407.242167	1972.013672	168.493347
2765.004521	17407.242167	1971.043945	198.473022
2765.004521	17407.242167	1970.075195	289.797852
2765.004521	17407.242167	1969.105469	72.719902
2765.004521	17407.242167	1968.135742	92.053444
2765.004521	17407.242167	1967.165039	125.924416
2765.004521	17407.242167	1966.195313	41.308189
2765.004521	17407.242167	1965.224609	27.934128
2765.004521	17407.242167	1964.253906	31.597290
2765.004521	17407.242167	1963.283203	350.213745
2765.004521	17407.242167	1962.312500	75.270111
2765.004521	17407.242167	1961.341797	68.523666
2765.004521	17407.242167	1960.370117	9.938827
2765.004521	17407.242167	1959.399414	-9.413561
2765.004521	17407.242167	1958.427734	17.830482
2765.004521	17407.242167	1957.455078	54.764183
2765.004521	17407.242167	1956.483398	118.604980
2765.004521	17407.242167	1955.511719	135.593033
2765.004521	17407.242167	1954.539063	93.469711
2765.004521	17407.242167	1953.566406	53.717033
2765.004521	17407.242167	1952.593750	6.512861
2765.004521	17407.242167	1951.621094	96.809212
2765.004521	17407.242167	1950.647461	152.603500
2765.004521	17407.242167	1949.674805	14.305787
2765.004521	17407.242167	1948.701172	126.426834
2765.004521	17407.242167	1947.727539	78.885338
2765.004521	17407.242167	1946.753906	156.480347
2765.004521	17407.242167	1945.780273	-6.480049
2765.004521	17407.242167	1944.805664	14.583924
2765.004521	17407.242167	1943.831055	89.570808
2765.004521	17407.242167	1942.856445	-51.319332
2765.004521	17407.242167	1941.881836	-15.632237
2765.004521	17407.242167	1940.907227	66.603729
2765.004521	17407.242167	1939.932617	97.322906
2765.004521	17407.242167	1938.957031	-63.133060
2765.004521	17407.242167	1937.981445	31.291077
2765.004521	17407.242167	1937.005859	-36.003132
2765.004521	17407.242167	1936.030273	16.749945
2765.004521	17407.242167	1935.054688	-62.744312
2765.004521	17407.242167	1934.078125	56.122967
2765.004521	17407.242167	1933.101563	40.327038
2765.004521	17407.242167	1932.125000	-43.970676
2765.004521	17407.242167	1931.148438	-10.753932
2765.004521	17407.242167	1930.171875	-11.772771
2765.004521	17407.242167	1929.194336	-10.315495
2765.004521	17407.242167	1928.217773	59.657654
2765.004521	17407.242167	1927.240234	68.509949
2765.004521	17407.242167	1926.262695	-5.721659
2765.004521	17407.242167	1925.284180	64.328896
2765.004521	17407.242167	1924.306641	-109.982170
2765.004521	17407.242167	1923.328125	-91.154617
2765.004521	17407.242167	1922.350586	-16.093424
2765.004521	17407.242167	1921.372070	-24.054287
2765.004521	17407.242167	1920.392578	-19.749468
2765.004521	17407.242167	1919.414063	-54.452351
2765.004521	17407.242167	1918.434570	23.205347
2765.004521	17407.242167	1917.456055	15.472703
2765.004521	17407.242167	1916.476563	-6.839138
2765.004521	17407.242167	1915.497070	-43.717682
2765.004521	17407.242167	1914.516602	-119.549141
2765.004521	17407.242167	1913.537109	9.576223
2765.004521	17407.242167	1912.556641	-88.050911
2765.004521	17407.242167	1911.576172	48.465523
2765.004521	17407.242167	1910.595703	-139.183777
2765.004521	17407.242167	1909.615234	-131.734024
2765.004521	17407.242167	1908.633789	-14.574077
2765.004521	17407.242167	1907.653320	14.913306
2765.004521	17407.242167	1906.671875	12.794901
2765.004521	17407.242167	1905.690430	27.794374
2765.004521	17407.242167	1904.708984	142.682388
2765.004521	17407.242167	1903.727539	23.907267
2765.004521	17407.242167	1902.745117	116.989151
2765.004521	17407.242167	1901.762695	-176.798645
2765.004521	17407.242167	1900.780273	-86.006096
2765.004521	17407.242167	1899.797852	-9.771675
2765.004521	17407.242167	1898.815430	-64.824242
2765.004521	17407.242167	1897.832031	11.516458
2765.004521	17407.242167	1896.849609	22.258743
2765.004521	17407.242167	1895.866211	-25.270222
2765.004521	17407.242167	1894.882813	26.924500
2765.004521	17407.242167	1893.898438	-66.617477
2765.004521	17407.242167	1892.915039	-143.052734
2765.004521	17407.242167	1891.930664	-73.664177
2765.004521	17407.242167	1890.947266	-125.655159
2765.004521	17407.242167	1889.962891	-138.716187
2765.004521	17407.242167	1888.977539	-25.481405
2765.004521	17407.242167	1887.993164	-103.960388
2765.004521	17407.242167	1887.007813	-48.888363
2765.004521	17407.242167	1886.023438	76.578751
2765.004521	17407.242167	1885.038086	-52.634468
2765.004521	17407.242167	1884.051758	-82.308945
2765.004521	17407.242167	1883.066406	-12.502956
2765.004521	17407.242167	1882.081055	67.028542
2765.004521	17407.242167	1881.094727	-122.460449
2765.004521	17407.242167	1880.108398	32.291790
2765.004521	17407.242167	1879.122070	63.467304
2765.004521	17407.242167	1878.135742	-111.229424
2765.004521	17407.242167	1877.148438	36.314034
2765.004521	17407.242167	1876.162109	36.132130
2765.004521	17407.242167	1875.174805	-36.638042
2765.004521	17407.242167	1874.187500	57.685589
2765.004521	17407.242167	1873.199219	6.803862
2765.004521	17407.242167	1872.211914	-87.576889
2765.004521	17407.242167	1871.223633	81.817825
2765.004521	17407.242167	1870.236328	-150.343445
2765.004521	17407.242167	1869.248047	-34.136238
2765.004521	17407.242167	1868.258789	-14.658058
2765.004521	17407.242167	1867.270508	99.123123
2765.004521	17407.242167	1866.282227	50.948112
2765.004521	17407.242167	1865.292969	48.732628
2765.004521	17407.242167	1864.303711	-59.767681
2765.004521	17407.242167	1863.314453	-13.603165
2765.004521	17407.242167	1862.324219	10.827422
2765.004521	17407.242167	1861.334961	-85.472618
2765.004521	17407.242167	1860.344727	-58.590763
2765.004521	17407.242167	1859.354492	-43.774963
2765.004521	17407.242167	1858.364258	33.794460
2765.004521	17407.242167	1857.374023	142.712555
2765.004521	17407.242167	1856.383789	-33.077484
2765.004521	17407.242167	1855.392578	90.297539
2765.004521	17407.242167	1854.401367	-29.941698
2765.004521	17407.242167	1853.410156	16.233412
2765.004521	17407.242167	1852.418945	-41.270111
2765.004521	17407.242167	1851.426758	0.064934
2765.004521	17407.242167	1850.435547	-35.735954
2765.004521	17407.242167	1849.443359	-30.571774
2765.004521	17407.242167	1848.451172	42.028606
2765.004521	17407.242167	1847.458984	76.054214
2765.004521	17407.242167	1846.466797	153.395935
2765.004521	17407.242167	1845.473633	-12.465733
2765.004521	17407.242167	1844.480469	91.306091
2765.004521	17407.242167	1843.487305	36.181881
2765.004521	17407.242167	1842.494141	38.802040
2765.004521	17407.242167	1841.500977	22.150232
2765.004521	17407.242167	1840.506836	72.824516
2765.004521	17407.242167	1839.513672	116.234550
2765.004521	17407.242167	1838.519531	250.961411
2765.004521	17407.242167	1837.525391	101.944717
2765.004521	17407.242167	1836.530273	-44.647781
2765.004521	17407.242167	1835.536133	-49.449574
2765.004521	17407.242167	1834.541016	8.176307
2765.004521	17407.242167	1833.545898	202.655975
2765.004521	17407.242167	1832.550781	-42.479977
2765.004521	17407.242167	1831.555664	5.371348
2765.004521	17407.242167	1830.560547	50.754734
2765.004521	17407.242167	1829.564453	86.469055
2765.004521	17407.242167	1828.568359	-9.873277
2765.004521	17407.242167	1827.572266	325.649048
2765.004521	17407.242167	1826.576172	85.249786
2765.004521	17407.242167	1825.580078	156.679871
2765.004521	17407.242167	1824.583008	64.957687
2765.004521	17407.242167	1823.585938	59.517281
2765.004521	17407.242167	1822.588867	157.088608
2765.004521	17407.242167	1821.591797	74.806450
2765.004521	17407.242167	1820.594727	59.578522
2765.004521	17407.242167	1819.596680	44.284782
2765.004521	17407.242167	1818.599609	74.432976
2765.004521	17407.242167	1817.601563	75.756065
2765.004521	17407.242167	1816.603516	191.931366
2765.004521	17407.242167	1815.604492	97.316612
2765.004521	17407.242167	1814.606445	129.510590
2765.004521	17407.242167	1813.607422	226.220795
2765.004521	17407.242167	1812.608398	274.957001
2765.004521	17407.242167	1811.609375	175.276489
2765.004521	17407.242167	1810.610352	111.419258
2765.004521	17407.242167	1809.610352	272.270020
2765.004521	17407.242167	1808.611328	337.337860
2765.004521	17407.242167	1807.611328	184.766388
2765.004521	17407.242167	1806.611328	326.110474
2765.004521	17407.242167	1805.610352	190.130493
2765.004521	17407.242167	1804.610352	195.052673
2765.004521	17407.242167	1803.609375	47.005859
2765.004521	17407.242167	1802.608398	180.704025
2765.004521	17407.242167	1801.607422	65.935699
2765.004521	17407.242167	1800.606445	146.852219
2765.004521	17407.242167	1799.605469	132.163086
2765.004521	17407.242167	1798.603516	229.523178
2765.004521	17407.242167	1797.601563	197.902496
2765.004521	17407.242167	1796.599609	118.474945
2765.004521	17407.242167	1795.597656	62.813393
2765.004521	17407.242167	1794.595703	100.052261
2765.004521	17407.242167	1793.592773	191.991074
2765.004521	17407.242167	1792.589844	262.325562
2765.004521	17407.242167	1791.587891	-1.115713
2765.004521	17407.242167	1790.583984	164.293365
2765.004521	17407.242167	1789.581055	134.181610
2765.004521	17407.242167	1788.577148	161.117920
2765.004521	17407.242167	1787.574219	-9.723514
2765.004521	17407.242167	1786.570313	145.546570
2765.004521	17407.242167	1785.566406	138.766068
2765.004521	17407.242167	1784.561523	234.194595
2765.004521	17407.242167	1783.557617	279.492798
2765.004521	17407.242167	1782.552734	224.722397
2765.004521	17407.242167	1781.547852	203.141830
2765.004521	17407.242167	1780.542969	202.841965
2765.004521	17407.242167	1779.538086	71.637329
2765.004521	17407.242167	1778.532227	147.163971
2765.004521	17407.242167	1777.527344	163.112488
2765.004521	17407.242167	1776.521484	133.765991
2765.004521	17407.242167	1775.515625	294.364258
2765.004521	17407.242167	1774.508789	274.227966
2765.004521	17407.242167	1773.502930	180.342392
2765.004521	17407.242167	1772.496094	105.345123
2765.004521	17407.242167	1771.489258	270.018616
2765.004521	17407.242167	1770.482422	235.105911
2765.004521	17407.242167	1769.475586	131.243622
2765.004521	17407.242167	1768.467773	207.601425
2765.004521	17407.242167	1767.460938	196.019379
2765.004521	17407.242167	1766.453125	215.127808
2765.004521	17407.242167	1765.445313	82.318565
2765.004521	17407.242167	1764.437500	120.121964
2765.004521	17407.242167	1763.428711	190.947861
2765.004521	17407.242167	1762.420898	173.917633
2765.004521	17407.242167	1761.412109	166.221420
2765.004521	17407.242167	1760.403320	191.549744
2765.004521	17407.242167	1759.393555	20.117697
2765.004521	17407.242167	1758.384766	106.746094
2765.004521	17407.242167	1757.375000	100.845810
2765.004521	17407.242167	1756.366211	161.092758
2765.004521	17407.242167	1755.356445	-110.197411
2765.004521	17407.242167	1754.345703	49.147129
2765.004521	17407.242167	1753.335938	30.844229
2765.004521	17407.242167	1752.325195	36.048637
2765.004521	17407.242167	1751.315430	130.982742
2765.004521	17407.242167	1750.304688	-93.496590
2765.004521	17407.242167	1749.292969	131.143478
2765.004521	17407.242167	1748.282227	34.093517
2765.004521	17407.242167	1747.270508	3.095905
2765.004521	17407.242167	1746.259766	19.226612
2765.004521	17407.242167	1745.248047	110.789520
2765.004521	17407.242167	1744.235352	-57.648235
2765.004521	17407.242167	1743.223633	109.165535
2765.004521	17407.242167	1742.211914	46.750633
2765.004521	17407.242167	1741.199219	-65.368286
2765.004521	17407.242167	1740.186523	46.617401
2765.004521	17407.242167	1739.173828	14.474110
2765.004521	17407.242167	1738.160156	-20.172270
2765.004521	17407.242167	1737.147461	-36.072605
2765.004521	17407.242167	1736.133789	16.267622
2765.004521	17407.242167	1735.120117	18.926901
2765.004521	17407.242167	1734.106445	87.446693
2765.004521	17407.242167	1733.091797	75.648148
2765.004521	17407.242167	1732.078125	18.945465
2765.004521	17407.242167	1731.063477	-23.753504
2765.004521	17407.242167	1730.048828	-118.404121
2765.004521	17407.242167	1729.034180	-27.105425
2765.004521	17407.242167	1728.019531	96.981094
2765.004521	17407.242167	1727.003906	67.840485
2765.004521	17407.242167	1725.988281	-1.445841
2765.004521	17407.242167	1724.972656	32.699947
2765.004521	17407.242167	1723.957031	-119.187256
2765.004521	17407.242167	1722.941406	15.842020
2765.004521	17407.242167	1721.924805	-11.619310
2765.004521	17407.242167	1720.909180	-39.197777
2765.004521	17407.242167	1719.892578	29.479607
2765.004521	17407.242167	1718.875977	-43.045670
2765.004521	17407.242167	1717.858398	-85.139587
2765.004521	17407.242167	1716.841797	6.594397
2765.004521	17407.242167	1715.824219	37.064007
2765.004521	17407.242167	1714.806641	83.829407
2765.004521	17407.242167	1713.789063	71.733330
2765.004521	17407.242167	1712.770508	66.540161
2765.004521	17407.242167	1711.752930	72.967621
2765.004521	17407.242167	1710.734375	79.248985
2765.004521	17407.242167	1709.715820	-36.625183
2765.004521	17407.242167	1708.697266	-70.468758
2765.004521	17407.242167	1707.678711	127.796974
2765.004521	17407.242167	1706.659180	9.237574
2765.004521	17407.242167	1705.640625	167.297424
2765.004521	17407.242167	1704.621094	-31.182631
2765.004521	17407.242167	1703.600586	-103.153404
2765.004521	17407.242167	1702.581055	-18.194675
2765.004521	17407.242167	1701.561523	66.610054
2765.004521	17407.242167	1700.541016	-160.311432
2765.004521	17407.242167	1699.520508	6.207631
2765.004521	17407.242167	1698.500000	-66.303680
2765.004521	17407.242167	1697.478516	-141.260101
2765.004521	17407.242167	1696.458008	-12.642837
2765.004521	17407.242167	1695.436523	19.843248
2765.004521	17407.242167	1694.415039	-32.031448
2765.004521	17407.242167	1693.393555	23.614799
2765.004521	17407.242167	1692.372070	-14.429037
2765.004521	17407.242167	1691.349609	31.602940
2765.004521	17407.242167	1690.327148	19.058268
2765.004521	17407.242167	1689.304688	-63.716900
2765.004521	17407.242167	1688.282227	-8.673273
2765.004521	17407.242167	1687.259766	-54.232742
2765.004521	17407.242167	1686.236328	5.238376
2765.004521	17407.242167	1685.213867	10.877443
2765.004521	17407.242167	1684.190430	86.460052
2765.004521	17407.242167	1683.166016	3.125152
2765.004521	17407.242167	1682.142578	36.464787
2765.004521	17407.242167	1681.119141	-14.328388
2765.004521	17407.242167	1680.094727	72.468231
2765.004521	17407.242167	1679.070313	-22.843519
2765.004521	17407.242167	1678.045898	-13.240080
2765.004521	17407.242167	1677.020508	3.250956
2765.004521	17407.242167	1675.996094	24.327679
2765.004521	17407.242167	1674.970703	-78.265961
2765.004521	17407.242167	1673.945313	-169.250610
2765.004521	17407.242167	1672.919922	40.340225
2765.004521	17407.242167	1671.893555	26.075321
2765.004521	17407.242167	1670.868164	-100.063721
2765.004521	17407.242167	1669.841797	-126.099724
2765.004521	17407.242167	1668.815430	-42.757313
2765.004521	17407.242167	1667.789063	-180.697876
2765.004521	17407.242167	1666.761719	-16.072130
2765.004521	17407.242167	1665.735352	-179.709305
2765.004521	17407.242167	1664.708008	-36.230961
2765.004521	17407.242167	1663.680664	-55.721695
2765.004521	17407.242167	1662.653320	22.416920
2765.004521	17407.242167	1661.625000	91.141327
2765.004521	17407.242167	1660.597656	-91.309189
2765.004521	17407.242167	1659.569336	174.874435
2765.004521	17407.242167	1658.541016	129.462433
2765.004521	17407.242167	1657.512695	16.624041
2765.004521	17407.242167	1656.483398	203.450775
2765.004521	17407.242167	1655.455078	118.404129
2765.004521	17407.242167	1654.425781	24.030500
2765.004521	17407.242167	1653.396484	89.851868
2765.004521	17407.242167	1652.366211	113.794540
2765.004521	17407.242167	1651.336914	-6.201602
2765.004521	17407.242167	1650.306641	115.119514
2765.004521	17407.242167	1649.276367	292.032013
2765.004521	17407.242167	1648.246094	250.788651
2765.004521	17407.242167	1647.215820	151.541718
2765.004521	17407.242167	1646.185547	309.673859
2765.004521	17407.242167	1645.154297	525.646912
2765.004521	17407.242167	1644.123047	553.757080
2765.004521	17407.242167	1643.091797	357.036957
2765.004521	17407.242167	1642.060547	306.328796
2765.004521	17407.242167	1641.028320	313.504913
2765.004521	17407.242167	1639.997070	413.311035
2765.004521	17407.242167	1638.964844	550.083740
2765.004521	17407.242167	1637.931641	464.507416
2765.004521	17407.242167	1636.899414	471.548645
2765.004521	17407.242167	1635.867188	552.622681
2765.004521	17407.242167	1634.833984	524.880615
2765.004521	17407.242167	1633.800781	605.859680
2765.004521	17407.242167	1632.767578	471.694031
2765.004521	17407.242167	1631.734375	504.063293
2765.004521	17407.242167	1630.700195	758.343079
2765.004521	17407.242167	1629.666016	700.455994
2765.004521	17407.242167	1628.631836	811.294373
2765.004521	17407.242167	1627.597656	820.415894
2765.004521	17407.242167	1626.563477	954.281738
2765.004521	17407.242167	1625.528320	1041.880005
2765.004521	17407.242167	1624.493164	1140.991577
2765.004521	17407.242167	1623.458008	1237.756958
2765.004521	17407.242167	1622.422852	1519.162354
2765.004521	17407.242167	1621.387695	1451.961548
2765.004521	17407.242167	1620.351563	1580.915527
2765.004521	17407.242167	1619.315430	1825.181274
2765.004521	17407.242167	1618.279297	2037.070923
2765.004521	17407.242167	1617.243164	1990.601074
2765.004521	17407.242167	1616.207031	2153.984375
2765.004521	17407.242167	1615.169922	2213.566162
2765.004521	17407.242167	1614.132813	2881.615234
2765.004521	17407.242167	1613.095703	3136.941895
2765.004521	17407.242167	1612.058594	3233.222168
2765.004521	17407.242167	1611.020508	3797.074219
2765.004521	17407.242167	1609.983398	3831.056396
2765.004521	17407.242167	1608.945313	4249.564453
2765.004521	17407.242167	1607.907227	4138.450195
2765.004521	17407.242167	1606.868164	4172.398926
2765.004521	17407.242167	1605.830078	4137.348145
2765.004521	17407.242167	1604.791016	4373.819824
2765.004521	17407.242167	1603.751953	4451.514160
2765.004521	17407.242167	1602.712891	4283.127930
2765.004521	17407.242167	1601.673828	4397.679199
2765.004521	17407.242167	1600.633789	4509.910645
2765.004521	17407.242167	1599.594727	4511.829590
2765.004521	17407.242167	1598.554688	4529.862793
2765.004521	17407.242167	1597.513672	4467.501953
2765.004521	17407.242167	1596.473633	4111.190918
2765.004521	17407.242167	1595.433594	4023.788574
2765.004521	17407.242167	1594.392578	3833.123047
2765.004521	17407.242167	1593.351563	3587.485596
2765.004521	17407.242167	1592.310547	3211.163330
2765.004521	17407.242167	1591.268555	2770.769531
2765.004521	17407.242167	1590.227539	2569.253174
2765.004521	17407.242167	1589.185547	2124.690430
2765.004521	17407.242167	1588.143555	1928.072388
2765.004521	17407.242167	1587.100586	1795.788452
2765.004521	17407.242167	1586.058594	1583.394165
2765.004521	17407.242167	1585.015625	1361.965210
2765.004521	17407.242167	1583.972656	1197.988525
2765.004521	17407.242167	1582.929688	1118.926880
2765.004521	17407.242167	1581.886719	1127.023926
2765.004521	17407.242167	1580.843750	910.727539
2765.004521	17407.242167	1579.799805	1042.657715
2765.004521	17407.242167	1578.755859	858.653625
2765.004521	17407.242167	1577.711914	748.052917
2765.004521	17407.242167	1576.666992	628.406372
2765.004521	17407.242167	1575.623047	783.490906
2765.004521	17407.242167	1574.578125	707.519104
2765.004521	17407.242167	1573.533203	743.739990
2765.004521	17407.242167	1572.488281	697.707703
2765.004521	17407.242167	1571.443359	471.154205
2765.004521	17407.242167	1570.397461	532.796875
2765.004521	17407.242167	1569.351563	722.497559
2765.004521	17407.242167	1568.305664	752.261536
2765.004521	17407.242167	1567.259766	617.614624
2765.004521	17407.242167	1566.213867	485.401031
2765.004521	17407.242167	1565.166992	325.916626
2765.004521	17407.242167	1564.120117	472.554962
2765.004521	17407.242167	1563.073242	541.619141
2765.004521	17407.242167	1562.026367	288.941559
2765.004521	17407.242167	1560.978516	152.831131
2765.004521	17407.242167	1559.930664	562.155579
2765.004521	17407.242167	1558.883789	419.426727
2765.004521	17407.242167	1557.834961	285.955109
2765.004521	17407.242167	1556.787109	264.385803
2765.004521	17407.242167	1555.739258	252.054291
2765.004521	17407.242167	1554.690430	317.319885
2765.004521	17407.242167	1553.641602	132.003647
2765.004521	17407.242167	1552.592773	274.958344
2765.004521	17407.242167	1551.542969	333.675446
2765.004521	17407.242167	1550.494141	39.493050
2765.004521	17407.242167	1549.444336	189.548248
2765.004521	17407.242167	1548.394531	25.497398
2765.004521	17407.242167	1547.344727	134.765472
2765.004521	17407.242167	1546.293945	-15.327476
2765.004521	17407.242167	1545.244141	160.130646
2765.004521	17407.242167	1544.193359	210.518250
2765.004521	17407.242167	1543.142578	279.205872
2765.004521	17407.242167	1542.090820	206.999390
2765.004521	17407.242167	1541.040039	162.242447
2765.004521	17407.242167	1539.988281	-23.305750
2765.004521	17407.242167	1538.936523	243.582214
2765.004521	17407.242167	1537.884766	315.096771
2765.004521	17407.242167	1536.833008	486.665649
2765.004521	17407.242167	1535.780273	492.491821
2765.004521	17407.242167	1534.727539	630.151794
2765.004521	17407.242167	1533.674805	447.781158
2765.004521	17407.242167	1532.622070	646.952148
2765.004521	17407.242167	1531.569336	698.669556
2765.004521	17407.242167	1530.515625	766.376221
2765.004521	17407.242167	1529.461914	856.879211
2765.004521	17407.242167	1528.408203	756.969482
2765.004521	17407.242167	1527.354492	992.845154
2765.004521	17407.242167	1526.299805	1013.378113
2765.004521	17407.242167	1525.246094	730.317078
2765.004521	17407.242167	1524.191406	932.479614
2765.004521	17407.242167	1523.136719	747.252136
2765.004521	17407.242167	1522.081055	650.582214
2765.004521	17407.242167	1521.026367	626.583679
2765.004521	17407.242167	1519.970703	213.242081
2765.004521	17407.242167	1518.915039	357.158936
2765.004521	17407.242167	1517.859375	430.997040
2765.004521	17407.242167	1516.802734	199.423401
2765.004521	17407.242167	1515.747070	183.054199
2765.004521	17407.242167	1514.690430	-0.572894
2765.004521	17407.242167	1513.633789	76.128235
2765.004521	17407.242167	1512.577148	94.156181
2765.004521	17407.242167	1511.519531	71.623947
2765.004521	17407.242167	1510.461914	94.462852
2765.004521	17407.242167	1509.405273	58.694439
2765.004521	17407.242167	1508.346680	271.626190
2765.004521	17407.242167	1507.289063	202.251389
2765.004521	17407.242167	1506.231445	239.214478
2765.004521	17407.242167	1505.172852	305.666351
2765.004521	17407.242167	1504.114258	586.735535
2765.004521	17407.242167	1503.055664	488.622711
2765.004521	17407.242167	1501.996094	882.692993
2765.004521	17407.242167	1500.937500	999.233887
2765.004521	17407.242167	1499.877930	1422.689331
2765.004521	17407.242167	1498.818359	1325.112915
2765.004521	17407.242167	1497.757813	1762.177856
2765.004521	17407.242167	1496.698242	2077.485107
2765.004521	17407.242167	1495.637695	2142.608154
2765.004521	17407.242167	1494.577148	2500.849365
2765.004521	17407.242167	1493.516602	2665.327637
2765.004521	17407.242167	1492.456055	2613.629639
2765.004521	17407.242167	1491.394531	2773.830566
2765.004521	17407.242167	1490.333008	2837.297119
2765.004521	17407.242167	1489.271484	2581.189453
2765.004521	17407.242167	1488.209961	2451.404297
2765.004521	17407.242167	1487.148438	2193.549316
2765.004521	17407.242167	1486.085938	1994.457397
2765.004521	17407.242167	1485.023438	1593.135864
2765.004521	17407.242167	1483.960938	1475.541016
2765.004521	17407.242167	1482.898438	1227.722534
2765.004521	17407.242167	1481.834961	935.186890
2765.004521	17407.242167	1480.772461	896.942078
2765.004521	17407.242167	1479.708984	739.757813
2765.004521	17407.242167	1478.644531	728.824890
2765.004521	17407.242167	1477.581055	421.576202
2765.004521	17407.242167	1476.517578	381.865997
2765.004521	17407.242167	1475.453125	461.331329
2765.004521	17407.242167	1474.388672	504.950531
2765.004521	17407.242167	1473.323242	573.479126
2765.004521	17407.242167	1472.258789	615.253601
2765.004521	17407.242167	1471.193359	800.588928
2765.004521	17407.242167	1470.127930	970.279114
2765.004521	17407.242167	1469.062500	1057.372803
2765.004521	17407.242167	1467.997070	1314.655151
2765.004521	17407.242167	1466.930664	1634.942749
2765.004521	17407.242167	1465.865234	1841.209106
2765.004521	17407.242167	1464.798828	2403.151611
2765.004521	17407.242167	1463.731445	2737.123047
2765.004521	17407.242167	1462.665039	3191.734131
2765.004521	17407.242167	1461.597656	3498.718018
2765.004521	17407.242167	1460.530273	3562.440918
2765.004521	17407.242167	1459.462891	3856.546143
2765.004521	17407.242167	1458.395508	4272.509277
2765.004521	17407.242167	1457.327148	4204.622559
2765.004521	17407.242167	1456.259766	4009.224121
2765.004521	17407.242167	1455.191406	3773.939209
2765.004521	17407.242167	1454.123047	3453.711426
2765.004521	17407.242167	1453.053711	3234.585205
2765.004521	17407.242167	1451.985352	3077.923828
2765.004521	17407.242167	1450.916016	2928.189941
2765.004521	17407.242167	1449.846680	3077.564209
2765.004521	17407.242167	1448.776367	2983.977783
2765.004521	17407.242167	1447.707031	3352.748535
2765.004521	17407.242167	1446.636719	3281.276123
2765.004521	17407.242167	1445.566406	3815.573975
2765.004521	17407.242167	1444.496094	3600.781494
2765.004521	17407.242167	1443.425781	3604.358154
2765.004521	17407.242167	1442.354492	3223.864990
2765.004521	17407.242167	1441.283203	2909.166748
2765.004521	17407.242167	1440.211914	2621.323486
2765.004521	17407.242167	1439.140625	2192.662598
2765.004521	17407.242167	1438.069336	2004.308838
2765.004521	17407.242167	1436.997070	1525.223022
2765.004521	17407.242167	1435.924805	1337.161987
2765.004521	17407.242167	1434.852539	1062.860229
2765.004521	17407.242167	1433.780273	757.075012
2765.004521	17407.242167	1432.707031	691.726990
2765.004521	17407.242167	1431.633789	592.874878
2765.004521	17407.242167	1430.560547	543.526733
2765.004521	17407.242167	1429.487305	505.295166
2765.004521	17407.242167	1428.413086	668.793762
2765.004521	17407.242167	1427.339844	582.004211
2765.004521	17407.242167	1426.265625	459.254089
2765.004521	17407.242167	1425.191406	611.173462
2765.004521	17407.242167	1424.116211	638.857910
2765.004521	17407.242167	1423.041992	842.832825
2765.004521	17407.242167	1421.966797	845.805847
2765.004521	17407.242167	1420.891602	1138.539185
2765.004521	17407.242167	1419.816406	1255.344604
2765.004521	17407.242167	1418.740234	1527.920654
2765.004521	17407.242167	1417.665039	1635.785645
2765.004521	17407.242167	1416.588867	1883.085815
2765.004521	17407.242167	1415.512695	2153.422607
2765.004521	17407.242167	1414.435547	2433.094727
2765.004521	17407.242167	1413.359375	2572.016113
2765.004521	17407.242167	1412.282227	2591.330566
2765.004521	17407.242167	1411.205078	2581.550537
2765.004521	17407.242167	1410.127930	2714.006104
2765.004521	17407.242167	1409.049805	2992.978760
2765.004521	17407.242167	1407.972656	2523.603516
2765.004521	17407.242167	1406.894531	2673.887451
2765.004521	17407.242167	1405.816406	2715.146484
2765.004521	17407.242167	1404.737305	2889.783936
2765.004521	17407.242167	1403.659180	2752.961914
2765.004521	17407.242167	1402.580078	3028.150391
2765.004521	17407.242167	1401.500977	2915.393066
2765.004521	17407.242167	1400.421875	3077.094482
2765.004521	17407.242167	1399.341797	3033.981445
2765.004521	17407.242167	1398.262695	2981.387207
2765.004521	17407.242167	1397.182617	3107.341797
2765.004521	17407.242167	1396.102539	3319.357666
2765.004521	17407.242167	1395.021484	3340.144531
2765.004521	17407.242167	1393.941406	3435.966064
2765.004521	17407.242167	1392.860352	3037.010742
2765.004521	17407.242167	1391.779297	3014.840088
2765.004521	17407.242167	1390.698242	2989.654297
2765.004521	17407.242167	1389.616211	2704.669189
2765.004521	17407.242167	1388.535156	2473.961914
2765.004521	17407.242167	1387.453125	2224.037842
2765.004521	17407.242167	1386.371094	2104.079346
2765.004521	17407.242167	1385.288086	1827.860840
2765.004521	17407.242167	1384.206055	1848.308228
2765.004521	17407.242167	1383.123047	1445.520874
2765.004521	17407.242167	1382.040039	1207.171631
2765.004521	17407.242167	1380.957031	1055.028687
2765.004521	17407.242167	1379.873047	964.211487
2765.004521	17407.242167	1378.789063	769.735291
2765.004521	17407.242167	1377.705078	594.903564
2765.004521	17407.242167	1376.621094	670.835205
2765.004521	17407.242167	1375.537109	371.175568
2765.004521	17407.242167	1374.452148	304.206573
2765.004521	17407.242167	1373.367188	375.425354
2765.004521	17407.242167	1372.282227	202.267151
2765.004521	17407.242167	1371.197266	326.723969
2765.004521	17407.242167	1370.112305	255.168610
2765.004521	17407.242167	1369.026367	174.276047
2765.004521	17407.242167	1367.940430	320.891479
2765.004521	17407.242167	1366.854492	198.120163
2765.004521	17407.242167	1365.767578	221.791595
2765.004521	17407.242167	1364.681641	82.355408
2765.004521	17407.242167	1363.594727	482.382111
2765.004521	17407.242167	1362.507813	403.580750
2765.004521	17407.242167	1361.419922	477.789917
2765.004521	17407.242167	1360.333008	590.164612
2765.004521	17407.242167	1359.245117	591.650085
2765.004521	17407.242167	1358.157227	659.108276
2765.004521	17407.242167	1357.069336	697.731262
2765.004521	17407.242167	1355.981445	806.044128
2765.004521	17407.242167	1354.892578	731.473938
2765.004521	17407.242167	1353.803711	701.035583
2765.004521	17407.242167	1352.714844	722.434814
2765.004521	17407.242167	1351.625000	874.489502
2765.004521	17407.242167	1350.536133	752.720398
2765.004521	17407.242167	1349.446289	781.185364
2765.004521	17407.242167	1348.356445	570.747620
2765.004521	17407.242167	1347.266602	586.706665
2765.004521	17407.242167	1346.175781	606.603271
2765.004521	17407.242167	1345.085938	635.267151
2765.004521	17407.242167	1343.995117	662.642517
2765.004521	17407.242167	1342.903320	595.478271
2765.004521	17407.242167	1341.812500	629.553955
2765.004521	17407.242167	1340.720703	755.798523
2765.004521	17407.242167	1339.629883	520.327209
2765.004521	17407.242167	1338.538086	591.360107
2765.004521	17407.242167	1337.445313	418.496826
2765.004521	17407.242167	1336.353516	529.917603
2765.004521	17407.242167	1335.260742	597.154541
2765.004521	17407.242167	1334.167969	430.396179
2765.004521	17407.242167	1333.075195	579.349304
2765.004521	17407.242167	1331.981445	687.309265
2765.004521	17407.242167	1330.888672	709.397278
2765.004521	17407.242167	1329.794922	744.863708
2765.004521	17407.242167	1328.701172	806.077576
2765.004521	17407.242167	1327.606445	673.712402
2765.004521	17407.242167	1326.512695	811.168274
2765.004521	17407.242167	1325.417969	886.930298
2765.004521	17407.242167	1324.323242	865.712097
2765.004521	17407.242167	1323.227539	869.744873
2765.004521	17407.242167	1322.132813	842.141418
2765.004521	17407.242167	1321.037109	487.716156
2765.004521	17407.242167	1319.941406	559.708923
2765.004521	17407.242167	1318.845703	366.266907
2765.004521	17407.242167	1317.750000	363.477631
2765.004521	17407.242167	1316.653320	467.481903
2765.004521	17407.242167	1315.556641	340.764404
2765.004521	17407.242167	1314.459961	519.491882
2765.004521	17407.242167	1313.363281	288.663055
2765.004521	17407.242167	1312.265625	237.162933
2765.004521	17407.242167	1311.167969	422.081635
2765.004521	17407.242167	1310.070313	395.334839
2765.004521	17407.242167	1308.972656	227.610840
2765.004521	17407.242167	1307.874023	395.681396
2765.004521	17407.242167	1306.776367	240.901566
2765.004521	17407.242167	1305.677734	568.510559
2765.004521	17407.242167	1304.579102	537.543701
2765.004521	17407.242167	1303.479492	525.143005
2765.004521	17407.242167	1302.380859	837.732605
2765.004521	17407.242167	1301.281250	872.789368
2765.004521	17407.242167	1300.181641	839.915771
2765.004521	17407.242167	1299.081055	910.279419
2765.004521	17407.242167	1297.981445	902.604126
2765.004521	17407.242167	1296.880859	873.270142
2765.004521	17407.242167	1295.780273	921.623108
2765.004521	17407.242167	1294.679688	716.251770
2765.004521	17407.242167	1293.578125	703.924316
2765.004521	17407.242167	1292.476563	608.789063
2765.004521	17407.242167	1291.375000	555.590088
2765.004521	17407.242167	1290.273438	553.801758
2765.004521	17407.242167	1289.171875	416.538086
2765.004521	17407.242167	1288.069336	265.897552
2765.004521	17407.242167	1286.966797	207.625610
2765.004521	17407.242167	1285.864258	261.835419
2765.004521	17407.242167	1284.761719	206.157196
2765.004521	17407.242167	1283.658203	346.853882
2765.004521	17407.242167	1282.554688	255.151505
2765.004521	17407.242167	1281.451172	323.356567
2765.004521	17407.242167	1280.347656	353.401550
2765.004521	17407.242167	1279.244141	361.566620
2765.004521	17407.242167	1278.139648	510.602997
2765.004521	17407.242167	1277.035156	802.343262
2765.004521	17407.242167	1275.930664	692.130981
2765.004521	17407.242167	1274.825195	768.042175
2765.004521	17407.242167	1273.720703	848.906982
2765.004521	17407.242167	1272.615234	702.359924
2765.004521	17407.242167	1271.508789	786.327698
2765.004521	17407.242167	1270.403320	857.876831
2765.004521	17407.242167	1269.297852	946.284485
2765.004521	17407.242167	1268.191406	1015.491882
2765.004521	17407.242167	1267.084961	1052.291138
2765.004521	17407.242167	1265.977539	1004.188904
2765.004521	17407.242167	1264.871094	996.453003
2765.004521	17407.242167	1263.763672	966.081116
2765.004521	17407.242167	1262.656250	881.324341
2765.004521	17407.242167	1261.548828	977.095886
2765.004521	17407.242167	1260.440430	837.794861
2765.004521	17407.242167	1259.333008	880.336853
2765.004521	17407.242167	1258.224609	627.341370
2765.004521	17407.242167	1257.115234	577.671753
2765.004521	17407.242167	1256.006836	454.215393
2765.004521	17407.242167	1254.897461	351.169891
2765.004521	17407.242167	1253.788086	297.028778
2765.004521	17407.242167	1252.678711	272.261902
2765.004521	17407.242167	1251.569336	356.247742
2765.004521	17407.242167	1250.458984	199.918549
2765.004521	17407.242167	1249.349609	212.701080
2765.004521	17407.242167	1248.239258	199.035446
2765.004521	17407.242167	1247.127930	295.667267
2765.004521	17407.242167	1246.017578	250.241791
2765.004521	17407.242167	1244.906250	150.111542
2765.004521	17407.242167	1243.794922	89.154175
2765.004521	17407.242167	1242.683594	97.769249
2765.004521	17407.242167	1241.571289	33.168167
2765.004521	17407.242167	1240.459961	8.926673
2765.004521	17407.242167	1239.347656	50.407307
2765.004521	17407.242167	1238.234375	-17.665224
2765.004521	17407.242167	1237.122070	7.351949
2765.004521	17407.242167	1236.008789	14.309479
2765.004521	17407.242167	1234.896484	-30.936722
2765.004521	17407.242167	1233.782227	8.125555
2765.004521	17407.242167	1232.668945	51.012417
2765.004521	17407.242167	1231.555664	-21.683020
2765.004521	17407.242167	1230.441406	42.336327
2765.004521	17407.242167	1229.327148	-227.646561
2765.004521	17407.242167	1228.211914	-73.513863
2765.004521	17407.242167	1227.097656	11.162697
2765.004521	17407.242167	1225.982422	-100.435738
2765.004521	17407.242167	1224.867188	-74.965446
2765.004521	17407.242167	1223.751953	-56.401684
2765.004521	17407.242167	1222.635742	-62.851387
2765.004521	17407.242167	1221.520508	-132.781815
2765.004521	17407.242167	1220.404297	46.350594
2765.004521	17407.242167	1219.287109	-58.334755
2765.004521	17407.242167	1218.170898	-4.670572
2765.004521	17407.242167	1217.053711	125.972923
2765.004521	17407.242167	1215.936523	256.589264
2765.004521	17407.242167	1214.819336	291.590057
2765.004521	17407.242167	1213.702148	366.233948
2765.004521	17407.242167	1212.583984	296.602722
2765.004521	17407.242167	1211.465820	430.934265
2765.004521	17407.242167	1210.347656	605.624573
2765.004521	17407.242167	1209.229492	667.622314
2765.004521	17407.242167	1208.110352	614.790344
2765.004521	17407.242167	1206.992188	697.141785
2765.004521	17407.242167	1205.873047	753.129639
2765.004521	17407.242167	1204.752930	744.333557
2765.004521	17407.242167	1203.633789	805.914246
2765.004521	17407.242167	1202.513672	860.035645
2765.004521	17407.242167	1201.393555	921.433716
2765.004521	17407.242167	1200.273438	850.257019
2765.004521	17407.242167	1199.152344	841.180481
2765.004521	17407.242167	1198.032227	1000.080811
2765.004521	17407.242167	1196.911133	1003.421875
2765.004521	17407.242167	1195.790039	1031.502319
2765.004521	17407.242167	1194.667969	1262.582520
2765.004521	17407.242167	1193.545898	1164.845093
2765.004521	17407.242167	1192.424805	1252.700684
2765.004521	17407.242167	1191.301758	1191.320679
2765.004521	17407.242167	1190.179688	1155.435303
2765.004521	17407.242167	1189.056641	1046.398193
2765.004521	17407.242167	1187.933594	1026.071167
2765.004521	17407.242167	1186.810547	929.378662
2765.004521	17407.242167	1185.687500	864.191040
2765.004521	17407.242167	1184.563477	739.365906
2765.004521	17407.242167	1183.440430	709.332214
2765.004521	17407.242167	1182.316406	585.944092
2765.004521	17407.242167	1181.191406	471.706940
2765.004521	17407.242167	1180.067383	404.179077
2765.004521	17407.242167	1178.942383	470.913483
2765.004521	17407.242167	1177.817383	410.394562
2765.004521	17407.242167	1176.692383	349.344269
2765.004521	17407.242167	1175.566406	408.599823
2765.004521	17407.242167	1174.440430	321.856262
2765.004521	17407.242167	1173.314453	320.375183
2765.004521	17407.242167	1172.188477	275.859497
2765.004521	17407.242167	1171.062500	455.805237
2765.004521	17407.242167	1169.935547	358.718231
2765.004521	17407.242167	1168.808594	360.079559
2765.004521	17407.242167	1167.681641	306.456482
2765.004521	17407.242167	1166.553711	443.323029
2765.004521	17407.242167	1165.426758	387.328979
2765.004521	17407.242167	1164.298828	365.120636
2765.004521	17407.242167	1163.170898	444.340546
2765.004521	17407.242167	1162.041992	392.089478
2765.004521	17407.242167	1160.914063	357.701782
2765.004521	17407.242167	1159.785156	431.085114
2765.004521	17407.242167	1158.656250	588.964294
2765.004521	17407.242167	1157.526367	508.199127
2765.004521	17407.242167	1156.397461	590.523926
2765.004521	17407.242167	1155.267578	650.431885
2765.004521	17407.242167	1154.137695	744.779358
2765.004521	17407.242167	1153.006836	726.323059
2765.004521	17407.242167	1151.876953	652.703003
2765.004521	17407.242167	1150.746094	604.488586
2765.004521	17407.242167	1149.615234	685.987610
2765.004521	17407.242167	1148.484375	762.144592
2765.004521	17407.242167	1147.352539	714.602600
2765.004521	17407.242167	1146.220703	851.634094
2765.004521	17407.242167	1145.088867	1018.112671
2765.004521	17407.242167	1143.957031	1072.202026
2765.004521	17407.242167	1142.825195	1321.376343
2765.004521	17407.242167	1141.692383	1577.170654
2765.004521	17407.242167	1140.559570	1570.345947
2765.004521	17407.242167	1139.426758	1613.205078
2765.004521	17407.242167	1138.292969	1439.521729
2765.004521	17407.242167	1137.159180	1340.225586
2765.004521	17407.242167	1136.025391	1160.673218
2765.004521	17407.242167	1134.891602	904.148926
2765.004521	17407.242167	1133.757813	817.773132
2765.004521	17407.242167	1132.623047	793.637451
2765.004521	17407.242167	1131.488281	601.930298
2765.004521	17407.242167	1130.353516	785.745544
2765.004521	17407.242167	1129.217773	578.946289
2765.004521	17407.242167	1128.083008	533.605835
2765.004521	17407.242167	1126.947266	668.847961
2765.004521	17407.242167	1125.811523	499.716309
2765.004521	17407.242167	1124.674805	618.204651
2765.004521	17407.242167	1123.539063	445.916016
2765.004521	17407.242167	1122.402344	429.474762
2765.004521	17407.242167	1121.265625	523.300842
2765.004521	17407.242167	1120.127930	372.811523
2765.004521	17407.242167	1118.990234	531.755432
2765.004521	17407.242167	1117.853516	527.559692
2765.004521	17407.242167	1116.714844	442.622437
2765.004521	17407.242167	1115.577148	494.538757
2765.004521	17407.242167	1114.439453	608.508667
2765.004521	17407.242167	1113.300781	706.188477
2765.004521	17407.242167	1112.162109	863.130920
2765.004521	17407.242167	1111.022461	941.320313
2765.004521	17407.242167	1109.883789	1049.703003
2765.004521	17407.242167	1108.744141	1211.457153
2765.004521	17407.242167	1107.604492	1512.605591
2765.004521	17407.242167	1106.463867	1575.225708
2765.004521	17407.242167	1105.324219	1732.405762
2765.004521	17407.242167	1104.183594	1920.715454
2765.004521	17407.242167	1103.042969	1766.554443
2765.004521	17407.242167	1101.902344	2027.258057
2765.004521	17407.242167	1100.760742	1897.386597
2765.004521	17407.242167	1099.619141	1737.882935
2765.004521	17407.242167	1098.477539	1697.439453
2765.004521	17407.242167	1097.335938	1660.606689
2765.004521	17407.242167	1096.193359	1408.910522
2765.004521	17407.242167	1095.051758	1326.494385
2765.004521	17407.242167	1093.909180	1289.544678
2765.004521	17407.242167	1092.765625	1045.024536
2765.004521	17407.242167	1091.623047	1095.293579
2765.004521	17407.242167	1090.479492	970.248352
2765.004521	17407.242167	1089.335938	758.405518
2765.004521	17407.242167	1088.192383	705.804138
2765.004521	17407.242167	1087.047852	742.927673
2765.004521	17407.242167	1085.903320	600.489258
2765.004521	17407.242167	1084.758789	472.031281
2765.004521	17407.242167	1083.614258	389.903381
2765.004521	17407.242167	1082.469727	491.841370
2765.004521	17407.242167	1081.324219	300.025726
2765.004521	17407.242167	1080.178711	487.392548
2765.004521	17407.242167	1079.033203	440.283600
2765.004521	17407.242167	1077.886719	408.784027
2765.004521	17407.242167	1076.740234	550.324219
2765.004521	17407.242167	1075.593750	384.795746
2765.004521	17407.242167	1074.447266	343.687836
2765.004521	17407.242167	1073.300781	234.986389
2765.004521	17407.242167	1072.153320	406.759247
2765.004521	17407.242167	1071.005859	357.291504
2765.004521	17407.242167	1069.858398	351.688629
2765.004521	17407.242167	1068.709961	406.940735
2765.004521	17407.242167	1067.561523	343.916565
2765.004521	17407.242167	1066.413086	289.851929
2765.004521	17407.242167	1065.264648	434.010040
2765.004521	17407.242167	1064.116211	407.874786
2765.004521	17407.242167	1062.966797	498.729156
2765.004521	17407.242167	1061.817383	333.987885
2765.004521	17407.242167	1060.667969	317.588531
2765.004521	17407.242167	1059.517578	319.993103
2765.004521	17407.242167	1058.368164	393.911835
2765.004521	17407.242167	1057.217773	346.923584
2765.004521	17407.242167	1056.067383	341.738220
2765.004521	17407.242167	1054.916016	350.685303
2765.004521	17407.242167	1053.764648	349.476746
2765.004521	17407.242167	1052.613281	285.349915
2765.004521	17407.242167	1051.461914	375.462067
2765.004521	17407.242167	1050.310547	252.367416
2765.004521	17407.242167	1049.158203	265.862183
2765.004521	17407.242167	1048.005859	260.016388
2765.004521	17407.242167	1046.853516	374.654755
2765.004521	17407.242167	1045.700195	344.498230
2765.004521	17407.242167	1044.547852	438.801758
2765.004521	17407.242167	1043.394531	479.429077
2765.004521	17407.242167	1042.240234	481.387878
2765.004521	17407.242167	1041.086914	329.393341
2765.004521	17407.242167	1039.932617	216.566269
2765.004521	17407.242167	1038.778320	219.083344
2765.004521	17407.242167	1037.624023	341.874298
2765.004521	17407.242167	1036.469727	428.609528
2765.004521	17407.242167	1035.314453	391.488281
2765.004521	17407.242167	1034.159180	364.241516
2765.004521	17407.242167	1033.003906	354.109985
2765.004521	17407.242167	1031.847656	467.746918
2765.004521	17407.242167	1030.692383	566.093018
2765.004521	17407.242167	1029.536133	323.820343
2765.004521	17407.242167	1028.378906	238.352188
2765.004521	17407.242167	1027.222656	177.255875
2765.004521	17407.242167	1026.065430	176.612534
2765.004521	17407.242167	1024.908203	108.353516
2765.004521	17407.242167	1023.750977	95.033051
2765.004521	17407.242167	1022.593750	63.251244
2765.004521	17407.242167	1021.435547	134.578552
2765.004521	17407.242167	1020.277344	21.459150
2765.004521	17407.242167	1019.119141	109.513138
2765.004521	17407.242167	1017.959961	-33.852165
2765.004521	17407.242167	1016.800781	-16.147625
2765.004521	17407.242167	1015.641602	-27.012899
2765.004521	17407.242167	1014.482422	-134.716553
2765.004521	17407.242167	1013.323242	-75.366982
2765.004521	17407.242167	1012.163086	43.334114
2765.004521	17407.242167	1011.002930	70.122536
2765.004521	17407.242167	1009.842773	-67.925568
2765.004521	17407.242167	1008.681641	-109.484604
2765.004521	17407.242167	1007.520508	25.884405
2765.004521	17407.242167	1006.359375	-11.097394
2765.004521	17407.242167	1005.198242	-78.551613
2765.004521	17407.242167	1004.037109	82.030006
2765.004521	17407.242167	1002.875000	165.320129
2765.004521	17407.242167	1001.712891	91.254356
2765.004521	17407.242167	1000.550781	114.953735
2765.004521	17407.242167	999.387695	-22.296326
2765.004521	17407.242167	998.224609	-24.158337
2765.004521	17407.242167	997.061523	151.802704
2765.004521	17407.242167	995.898438	-34.987514
2765.004521	17407.242167	994.734375	93.806648
2765.004521	17407.242167	993.571289	102.706078
2765.004521	17407.242167	992.407227	-112.575439
2765.004521	17407.242167	991.242188	-40.739704
2765.004521	17407.242167	990.078125	-42.957161
2765.004521	17407.242167	988.913086	34.077183
2765.004521	17407.242167	987.748047	94.124733
2765.004521	17407.242167	986.583008	48.219555
2765.004521	17407.242167	985.416992	52.258656
2765.004521	17407.242167	984.250977	-25.849566
2765.004521	17407.242167	983.084961	84.270241
2765.004521	17407.242167	981.918945	132.606720
2765.004521	17407.242167	980.751953	34.556328
2765.004521	17407.242167	979.584961	176.476700
2765.004521	17407.242167	978.417969	160.339340
2765.004521	17407.242167	977.250977	34.315010
2765.004521	17407.242167	976.083008	103.333313
2765.004521	17407.242167	974.915039	95.468193
2765.004521	17407.242167	973.747070	29.237535
2765.004521	17407.242167	972.579102	120.052788
2765.004521	17407.242167	971.410156	-9.815691
2765.004521	17407.242167	970.242188	224.388138
2765.004521	17407.242167	969.072266	70.704269
2765.004521	17407.242167	967.903320	70.415047
2765.004521	17407.242167	966.733398	173.376282
2765.004521	17407.242167	965.563477	173.993011
2765.004521	17407.242167	964.393555	61.668289
2765.004521	17407.242167	963.223633	45.931202
2765.004521	17407.242167	962.052734	138.677002
2765.004521	17407.242167	960.881836	213.759933
2765.004521	17407.242167	959.710938	315.920929
2765.004521	17407.242167	958.540039	172.577713
2765.004521	17407.242167	957.368164	205.925766
2765.004521	17407.242167	956.196289	110.455086
2765.004521	17407.242167	955.024414	47.523758
2765.004521	17407.242167	953.851563	92.230103
2765.004521	17407.242167	952.679688	59.591934
2765.004521	17407.242167	951.506836	75.958008
2765.004521	17407.242167	950.333984	59.463768
2765.004521	17407.242167	949.160156	-90.293480
2765.004521	17407.242167	947.986328	-10.414148
2765.004521	17407.242167	946.812500	-93.552376
2765.004521	17407.242167	945.638672	-9.540539
2765.004521	17407.242167	944.464844	-167.849213
2765.004521	17407.242167	943.290039	-69.961723
2765.004521	17407.242167	942.115234	142.324738
2765.004521	17407.242167	940.940430	96.167015
2765.004521	17407.242167	939.764648	68.410843
2765.004521	17407.242167	938.588867	152.476318
2765.004521	17407.242167	937.413086	135.906464
2765.004521	17407.242167	936.237305	167.361069
2765.004521	17407.242167	935.060547	180.715088
2765.004521	17407.242167	933.883789	47.493103
2765.004521	17407.242167	932.707031	163.640457
2765.004521	17407.242167	931.530273	204.313950
2765.004521	17407.242167	930.352539	254.116562
2765.004521	17407.242167	929.175781	75.118317
2765.004521	17407.242167	927.998047	182.024139
2765.004521	17407.242167	926.819336	186.076233
2765.004521	17407.242167	925.641602	121.493034
2765.004521	17407.242167	924.462891	63.778774
2765.004521	17407.242167	923.284180	10.657151
2765.004521	17407.242167	922.104492	16.964485
2765.004521	17407.242167	920.924805	14.125158
2765.004521	17407.242167	919.746094	16.952719
2765.004521	17407.242167	919.551758	50.579128
2765.004521	17407.242167	918.386719	-13.965603
2765.004521	17407.242167	917.220703	-57.934505
2765.004521	17407.242167	916.054688	46.490341
2765.004521	17407.242167	914.887695	185.107590
2765.004521	17407.242167	913.721680	122.864166
2765.004521	17407.242167	912.554688	-12.356924
2765.004521	17407.242167	911.387695	103.372070
2765.004521	17407.242167	910.220703	150.638458
2765.004521	17407.242167	909.052734	-89.389023
2765.004521	17407.242167	907.885742	-21.592094
2765.004521	17407.242167	906.717773	27.944910
2765.004521	17407.242167	905.548828	-123.053535
2765.004521	17407.242167	904.380859	-23.403709
2765.004521	17407.242167	903.211914	-19.456108
2765.004521	17407.242167	902.042969	-17.790825
2765.004521	17407.242167	900.874023	-127.688774
2765.004521	17407.242167	899.704102	8.291634
2765.004521	17407.242167	898.535156	69.110001
2765.004521	17407.242167	897.365234	4.759007
2765.004521	17407.242167	896.194336	15.502630
2765.004521	17407.242167	895.024414	55.802422
2765.004521	17407.242167	893.853516	43.783352
2765.004521	17407.242167	892.682617	-13.705013
2765.004521	17407.242167	891.511719	6.107138
2765.004521	17407.242167	890.340820	-58.177868
2765.004521	17407.242167	889.168945	-2.019920
2765.004521	17407.242167	887.997070	-104.902954
2765.004521	17407.242167	886.825195	-62.397022
2765.004521	17407.242167	885.653320	-4.018977
2765.004521	17407.242167	884.480469	-29.667713
2765.004521	17407.242167	883.307617	-71.200706
2765.004521	17407.242167	882.134766	50.665462
2765.004521	17407.242167	880.961914	93.065796
2765.004521	17407.242167	879.788086	124.101814
2765.004521	17407.242167	878.614258	-1.368128
2765.004521	17407.242167	877.440430	-85.980553
2765.004521	17407.242167	876.266602	28.926842
2765.004521	17407.242167	875.091797	-14.875023
2765.004521	17407.242167	873.916992	-83.594704
2765.004521	17407.242167	872.742188	-52.609455
2765.004521	17407.242167	871.567383	1.004716
2765.004521	17407.242167	870.391602	-76.761116
2765.004521	17407.242167	869.215820	-5.068619
2765.004521	17407.242167	868.040039	68.847504
2765.004521	17407.242167	866.864258	70.298424
2765.004521	17407.242167	865.687500	69.476341
2765.004521	17407.242167	864.510742	89.003777
2765.004521	17407.242167	863.333984	180.891602
2765.004521	17407.242167	862.157227	-3.162787
2765.004521	17407.242167	860.979492	5.027848
2765.004521	17407.242167	859.802734	-13.925757
2765.004521	17407.242167	858.625000	25.877098
2765.004521	17407.242167	857.446289	0.124963
2765.004521	17407.242167	856.268555	-68.555748
2765.004521	17407.242167	855.089844	5.072009
2765.004521	17407.242167	853.911133	51.557083
2765.004521	17407.242167	852.731445	-8.102861
2765.004521	17407.242167	851.552734	40.591728
2765.004521	17407.242167	850.373047	-23.587568
2765.004521	17407.242167	849.193359	-110.319885
2765.004521	17407.242167	848.013672	-86.497734
2765.004521	17407.242167	846.833008	-58.189949
2765.004521	17407.242167	845.652344	-38.932076
2765.004521	17407.242167	844.471680	50.188046
2765.004521	17407.242167	843.291016	-241.672775
2765.004521	17407.242167	842.110352	-294.558929
2765.004521	17407.242167	840.928711	40.086132
2765.004521	17407.242167	839.747070	-130.009888
2765.004521	17407.242167	838.564453	-20.789495
2765.004521	17407.242167	837.382813	-57.995979
2765.004521	17407.242167	836.200195	-70.444122
2765.004521	17407.242167	835.017578	-148.181076
2765.004521	17407.242167	833.834961	-113.394295
2765.004521	17407.242167	832.651367	72.094688
2765.004521	17407.242167	831.467773	66.288078
2765.004521	17407.242167	830.284180	19.979856
2765.004521	17407.242167	829.100586	-33.079464
2765.004521	17407.242167	827.916992	-88.389862
2765.004521	17407.242167	826.732422	-105.493683
2765.004521	17407.242167	825.547852	0.970273
2765.004521	17407.242167	824.363281	30.980534
2765.004521	17407.242167	823.177734	103.628967
2765.004521	17407.242167	821.992188	-46.099651
2765.004521	17407.242167	820.806641	116.286407
2765.004521	17407.242167	819.621094	164.096222
2765.004521	17407.242167	818.434570	95.156929
2765.004521	17407.242167	817.249023	124.942230
2765.004521	17407.242167	816.062500	71.683472
2765.004521	17407.242167	814.875000	22.903046
2765.004521	17407.242167	813.688477	48.109489
2765.004521	17407.242167	812.500977	55.340137
2765.004521	17407.242167	811.313477	102.882240
2765.004521	17407.242167	810.125977	-109.585968
2765.004521	17407.242167	808.937500	36.490929
2765.004521	17407.242167	807.749023	-59.456188
2765.004521	17407.242167	806.560547	120.076607
2765.004521	17407.242167	805.372070	-7.265172
2765.004521	17407.242167	804.182617	98.236877
2765.004521	17407.242167	802.994141	71.602531
2765.004521	17407.242167	801.803711	-28.901819
2765.004521	17407.242167	800.614258	24.973095
2765.004521	17407.242167	799.424805	74.314789
2765.004521	17407.242167	798.234375	74.399124
2765.004521	17407.242167	797.043945	-32.879356
2765.004521	17407.242167	795.852539	47.628197
2765.004521	17407.242167	794.662109	128.062119
2765.004521	17407.242167	793.470703	22.957355
2765.004521	17407.242167	792.279297	-26.291901
2765.004521	17407.242167	791.087891	143.333420
2765.004521	17407.242167	789.895508	73.900497
2765.004521	17407.242167	788.703125	145.114639
2765.004521	17407.242167	787.510742	39.910938
2765.004521	17407.242167	786.318359	-112.157806
2765.004521	17407.242167	785.125000	30.325544
2765.004521	17407.242167	783.931641	7.624552
2765.004521	17407.242167	782.738281	109.790062
2765.004521	17407.242167	781.544922	-167.215942
2765.004521	17407.242167	780.350586	10.656359
2765.004521	17407.242167	779.156250	139.371857
2765.004521	17407.242167	777.961914	67.421371
2765.004521	17407.242167	776.767578	13.279097
2765.004521	17407.242167	775.572266	10.347747
2765.004521	17407.242167	774.376953	16.279404
2765.004521	17407.242167	773.181641	106.774849
2765.004521	17407.242167	771.986328	134.851273
2765.004521	17407.242167	770.790039	136.158829
2765.004521	17407.242167	769.593750	213.076813
2765.004521	17407.242167	768.397461	196.471558
2765.004521	17407.242167	767.201172	164.253326
2765.004521	17407.242167	766.003906	301.014557
2765.004521	17407.242167	764.806641	208.655182
2765.004521	17407.242167	763.609375	222.986420
2765.004521	17407.242167	762.412109	186.142685
2765.004521	17407.242167	761.213867	298.140076
2765.004521	17407.242167	760.015625	290.074066
2765.004521	17407.242167	758.817383	348.592285
2765.004521	17407.242167	757.618164	173.864517
2765.004521	17407.242167	756.419922	267.801239
2765.004521	17407.242167	755.220703	408.259369
2765.004521	17407.242167	754.021484	402.133972
2765.004521	17407.242167	752.821289	413.706970
2765.004521	17407.242167	751.621094	414.129883
2765.004521	17407.242167	750.420898	376.793549
2765.004521	17407.242167	749.220703	317.244598
2765.004521	17407.242167	748.020508	355.211334
2765.004521	17407.242167	746.819336	390.890015
2765.004521	17407.242167	745.618164	255.863586
2765.004521	17407.242167	744.416992	273.711914
2765.004521	17407.242167	743.214844	386.745941
2765.004521	17407.242167	742.012695	247.206940
2765.004521	17407.242167	740.810547	375.585938
2765.004521	17407.242167	739.608398	490.572235
2765.004521	17407.242167	738.406250	430.606049
2765.004521	17407.242167	737.203125	691.462524
2765.004521	17407.242167	736.000000	753.041870
2765.004521	17407.242167	734.795898	845.503479
2765.004521	17407.242167	733.592773	1083.823120
2765.004521	17407.242167	732.388672	1045.614990
2765.004521	17407.242167	731.184570	1181.993408
2765.004521	17407.242167	729.979492	1221.014038
2765.004521	17407.242167	728.775391	988.184875
2765.004521	17407.242167	727.570313	766.438538
2765.004521	17407.242167	726.365234	789.885803
2765.004521	17407.242167	725.160156	546.074341
2765.004521	17407.242167	723.954102	611.384949
2765.004521	17407.242167	722.748047	559.625122
2765.004521	17407.242167	721.541992	390.867706
2765.004521	17407.242167	720.334961	475.848206
2765.004521	17407.242167	719.128906	362.207703
2765.004521	17407.242167	717.921875	369.850952
2765.004521	17407.242167	716.714844	309.078949
2765.004521	17407.242167	715.506836	345.268311
2765.004521	17407.242167	714.298828	330.690857
2765.004521	17407.242167	713.090820	399.795868
2765.004521	17407.242167	711.882813	413.734833
2765.004521	17407.242167	710.674805	443.027771
2765.004521	17407.242167	709.465820	507.481781
2765.004521	17407.242167	708.256836	474.974457
2765.004521	17407.242167	707.047852	484.245209
2765.004521	17407.242167	705.837891	445.034027
2765.004521	17407.242167	704.627930	447.586426
2765.004521	17407.242167	703.417969	588.670654
2765.004521	17407.242167	702.208008	384.330750
2765.004521	17407.242167	700.998047	382.320862
2765.004521	17407.242167	699.787109	226.356934
2765.004521	17407.242167	698.576172	358.341431
2765.004521	17407.242167	697.364258	283.639221
2765.004521	17407.242167	696.153320	384.680939
2765.004521	17407.242167	694.941406	320.872742
2765.004521	17407.242167	693.729492	314.133972
2765.004521	17407.242167	692.516602	445.668152
2765.004521	17407.242167	691.304688	451.963562
2765.004521	17407.242167	690.091797	350.652039
2765.004521	17407.242167	688.878906	459.982300
2765.004521	17407.242167	687.665039	376.147003
2765.004521	17407.242167	686.451172	336.159119
2765.004521	17407.242167	685.237305	311.483398
2765.004521	17407.242167	684.023438	341.574738
2765.004521	17407.242167	682.809570	257.613190
2765.004521	17407.242167	681.594727	197.736633
2765.004521	17407.242167	680.379883	273.679016
2765.004521	17407.242167	679.165039	310.104279
2765.004521	17407.242167	677.949219	322.365570
2765.004521	17407.242167	676.733398	192.236526
2765.004521	17407.242167	675.517578	291.981750
2765.004521	17407.242167	674.301758	457.296082
2765.004521	17407.242167	673.084961	405.841034
2765.004521	17407.242167	671.869141	476.880371
2765.004521	17407.242167	670.651367	466.897736
2765.004521	17407.242167	669.434570	577.154602
2765.004521	17407.242167	668.216797	466.476013
2765.004521	17407.242167	667.000000	585.330994
2765.004521	17407.242167	665.781250	411.214172
2765.004521	17407.242167	664.563477	265.531982
2765.004521	17407.242167	663.344727	576.450012
2765.004521	17407.242167	662.125977	345.512512
2765.004521	17407.242167	660.907227	383.223602
2765.004521	17407.242167	659.688477	488.553070
2765.004521	17407.242167	658.468750	475.918060
2765.004521	17407.242167	657.249023	439.237122
2765.004521	17407.242167	656.029297	356.708191
2765.004521	17407.242167	654.808594	357.060364
2765.004521	17407.242167	653.587891	379.178558
2765.004521	17407.242167	652.367188	423.049866
2765.004521	17407.242167	651.146484	340.419098
2765.004521	17407.242167	649.924805	283.932739
2765.004521	17407.242167	648.704102	310.240356
2765.004521	17407.242167	647.482422	414.924286
2765.004521	17407.242167	646.259766	325.661896
2765.004521	17407.242167	645.037109	312.619751
2765.004521	17407.242167	643.815430	286.486023
2765.004521	17407.242167	642.591797	321.268646
2765.004521	17407.242167	641.369141	184.073547
2765.004521	17407.242167	640.145508	264.485168
2765.004521	17407.242167	638.921875	216.478882
2765.004521	17407.242167	637.698242	222.832794
2765.004521	17407.242167	636.474609	274.816315
2765.004521	17407.242167	635.250000	174.557693
2765.004521	17407.242167	634.025391	189.510422
2765.004521	17407.242167	632.800781	254.408737
2765.004521	17407.242167	631.575195	258.410614
2765.004521	17407.242167	630.349609	166.805145
2765.004521	17407.242167	629.124023	281.526764
2765.004521	17407.242167	627.898438	328.862518
2765.004521	17407.242167	626.671875	219.848755
2765.004521	17407.242167	625.445313	86.981674
2765.004521	17407.242167	624.218750	140.758774
2765.004521	17407.242167	622.992188	172.794754
2765.004521	17407.242167	621.764648	150.565872
2765.004521	17407.242167	620.537109	67.606522
2765.004521	17407.242167	619.309570	244.828766
2765.004521	17407.242167	618.081055	46.956898
2765.004521	17407.242167	616.852539	72.365700
2765.004521	17407.242167	615.624023	102.079575
2765.004521	17407.242167	614.395508	172.921753
2765.004521	17407.242167	613.166992	18.479174
2765.004521	17407.242167	611.937500	-77.454086
2765.004521	17407.242167	610.708008	21.475346
2765.004521	17407.242167	609.477539	7.797401
2765.004521	17407.242167	608.248047	15.757454
2765.004521	17407.242167	607.017578	25.861629
2765.004521	17407.242167	605.787109	-18.123075
2765.004521	17407.242167	604.555664	149.826431
2765.004521	17407.242167	603.325195	-15.259278
2765.004521	17407.242167	602.093750	35.875912
2765.004521	17407.242167	600.861328	102.107025
2765.004521	17407.242167	599.629883	-41.278481
2765.004521	17407.242167	598.397461	16.290911
2765.004521	17407.242167	597.165039	-73.032013
2765.004521	17407.242167	595.932617	144.305527
2765.004521	17407.242167	594.699219	111.116661
2765.004521	17407.242167	593.465820	34.774387
2765.004521	17407.242167	592.232422	59.889111
2765.004521	17407.242167	590.999023	147.562439
2765.004521	17407.242167	589.764648	94.990807
2765.004521	17407.242167	588.530273	186.935394
2765.004521	17407.242167	587.295898	252.973373
2765.004521	17407.242167	586.061523	209.051590
2765.004521	17407.242167	584.826172	309.548615
2765.004521	17407.242167	583.590820	157.908188
2765.004521	17407.242167	582.355469	146.369125
2765.004521	17407.242167	581.119141	283.454102
2765.004521	17407.242167	579.882813	327.897797
2765.004521	17407.242167	578.646484	262.537659
2765.004521	17407.242167	577.410156	298.382965
2765.004521	17407.242167	576.172852	379.414398
2765.004521	17407.242167	574.935547	587.366150
2765.004521	17407.242167	573.698242	375.789490
2765.004521	17407.242167	572.460938	375.079346
2765.004521	17407.242167	571.222656	301.278534
2765.004521	17407.242167	569.984375	214.629868
2765.004521	17407.242167	568.746094	160.277374
2765.004521	17407.242167	567.506836	140.344864
2765.004521	17407.242167	566.267578	182.743576
2765.004521	17407.242167	565.028320	242.329895
2765.004521	17407.242167	563.789063	377.073914
2765.004521	17407.242167	562.548828	204.769455
2765.004521	17407.242167	561.309570	257.948242
2765.004521	17407.242167	560.068359	197.383514
2765.004521	17407.242167	558.828125	177.642105
2765.004521	17407.242167	557.586914	192.254608
2765.004521	17407.242167	556.345703	241.203812
2765.004521	17407.242167	555.104492	232.269760
2765.004521	17407.242167	553.863281	118.327766
2765.004521	17407.242167	552.621094	-6.254091
2765.004521	17407.242167	551.378906	160.670349
2765.004521	17407.242167	550.136719	267.570557
2765.004521	17407.242167	548.893555	241.657898
2765.004521	17407.242167	547.650391	121.568649
2765.004521	17407.242167	546.407227	279.891357
2765.004521	17407.242167	545.164063	224.131058
2765.004521	17407.242167	543.919922	266.869781
2765.004521	17407.242167	542.675781	170.553665
2765.004521	17407.242167	541.431641	211.221329
2765.004521	17407.242167	540.186523	95.782501
2765.004521	17407.242167	538.941406	68.099144
2765.004521	17407.242167	537.696289	49.018440
2765.004521	17407.242167	536.451172	134.713242
2765.004521	17407.242167	535.205078	40.913109
2765.004521	17407.242167	533.959961	103.154449
2765.004521	17407.242167	532.712891	-63.141533
2765.004521	17407.242167	531.466797	-20.044178
2765.004521	17407.242167	530.219727	174.658646
2765.004521	17407.242167	528.972656	234.844070
2765.004521	17407.242167	527.725586	73.100250
2765.004521	17407.242167	526.478516	-20.254654
2765.004521	17407.242167	525.230469	16.594898
2765.004521	17407.242167	523.982422	72.666382
2765.004521	17407.242167	522.734375	265.223145
2765.004521	17407.242167	521.485352	182.734589
2765.004521	17407.242167	520.236328	72.618332
2765.004521	17407.242167	518.987305	75.530716
2765.004521	17407.242167	517.737305	38.005085
2765.004521	17407.242167	516.488281	2.673100
2765.004521	17407.242167	515.238281	-60.286324
2765.004521	17407.242167	513.988281	-174.271790
2765.004521	17407.242167	512.737305	-83.820778
2765.004521	17407.242167	511.486328	-104.027832
2765.004521	17407.242167	510.235352	-119.926834
2765.004521	17407.242167	508.984375	-95.357864
2765.004521	17407.242167	507.732422	5.805182
2765.004521	17407.242167	506.480469	17.663240
2765.004521	17407.242167	505.228516	99.712051
2765.004521	17407.242167	503.976563	-22.269964
2765.004521	17407.242167	502.723633	-91.036133
2765.004521	17407.242167	501.470703	-79.000473
2765.004521	17407.242167	500.217773	-77.548775
2765.004521	17407.242167	498.963867	-118.531067
2765.004521	17407.242167	497.709961	-125.485146
2765.004521	17407.242167	496.456055	-138.764709
2765.004521	17407.242167	495.202148	-54.378262
2765.004521	17407.242167	493.947266	-141.854141
2765.004521	17407.242167	492.692383	-65.915016
2765.004521	17407.242167	491.437500	-104.496811
2765.004521	17407.242167	490.181641	-47.611786
2765.004521	17407.242167	488.926758	41.085091
2765.004521	17407.242167	487.670898	59.832340
2765.004521	17407.242167	486.414063	53.174404
2765.004521	17407.242167	485.158203	-122.930740
2765.004521	17407.242167	483.901367	-61.704517
2765.004521	17407.242167	482.644531	82.112144
2765.004521	17407.242167	481.386719	-81.098167
2765.004521	17407.242167	480.128906	-24.072145
2765.004521	17407.242167	478.871094	94.327011
2765.004521	17407.242167	477.613281	26.508034
2765.004521	17407.242167	476.355469	-43.374329
2765.004521	17407.242167	475.096680	62.328926
2765.004521	17407.242167	473.837891	-28.636858
2765.004521	17407.242167	472.578125	-85.724335
2765.004521	17407.242167	471.319336	-98.383820
2765.004521	17407.242167	470.059570	-58.199238
2765.004521	17407.242167	468.799805	-62.384041
2765.004521	17407.242167	467.539063	-102.464806
2765.004521	17407.242167	466.278320	-20.040882
2765.004521	17407.242167	465.017578	132.025848
2765.004521	17407.242167	463.756836	11.739148
2765.004521	17407.242167	462.495117	174.289993
2765.004521	17407.242167	461.233398	193.298965
2765.004521	17407.242167	459.971680	26.668091
2765.004521	17407.242167	458.709961	64.675789
2765.004521	17407.242167	457.447266	41.510807
2765.004521	17407.242167	456.184570	45.751976
2765.004521	17407.242167	454.921875	16.257599
2765.004521	17407.242167	453.658203	66.830948
2765.004521	17407.242167	452.394531	54.164925
2765.004521	17407.242167	451.130859	-19.596235
2765.004521	17407.242167	449.867188	157.240463
2765.004521	17407.242167	448.602539	77.123009
2765.004521	17407.242167	447.337891	58.052650
2765.004521	17407.242167	446.073242	89.465851
2765.004521	17407.242167	444.807617	-24.345469
2765.004521	17407.242167	443.542969	97.450340
2765.004521	17407.242167	442.276367	137.129028
2765.004521	17407.242167	441.010742	-20.895842
2765.004521	17407.242167	439.744141	-71.693039
2765.004521	17407.242167	438.478516	45.618855
2765.004521	17407.242167	437.210938	-19.987354
2765.004521	17407.242167	435.944336	34.123249
2765.004521	17407.242167	434.676758	46.140083
2765.004521	17407.242167	433.409180	129.481476
2765.004521	17407.242167	432.141602	78.355072
2765.004521	17407.242167	430.873047	-12.705717
2765.004521	17407.242167	429.604492	189.986389
2765.004521	17407.242167	428.335938	224.665710
2765.004521	17407.242167	427.067383	263.439545
2765.004521	17407.242167	425.797852	123.847069
2765.004521	17407.242167	424.528320	237.920776
2765.004521	17407.242167	423.258789	255.419586
2765.004521	17407.242167	421.988281	136.580032
2765.004521	17407.242167	420.717773	220.931168
2765.004521	17407.242167	419.447266	305.134033
2765.004521	17407.242167	418.175781	177.644958
2765.004521	17407.242167	416.905273	213.422913
2765.004521	17407.242167	415.633789	334.890106
2765.004521	17407.242167	414.362305	299.194794
2765.004521	17407.242167	413.089844	98.060677
2765.004521	17407.242167	411.817383	177.221008
2765.004521	17407.242167	410.544922	13.565417
2765.004521	17407.242167	409.272461	2.490775
2765.004521	17407.242167	407.999023	258.881683
2765.004521	17407.242167	406.725586	193.089218
2765.004521	17407.242167	405.452148	77.002289
2765.004521	17407.242167	404.177734	255.398468
2765.004521	17407.242167	402.903320	72.148056
2765.004521	17407.242167	401.628906	193.717880
2765.004521	17407.242167	400.354492	152.178711
2765.004521	17407.242167	399.079102	81.231598
2765.004521	17407.242167	397.803711	135.345322
2765.004521	17407.242167	396.528320	145.409805
2765.004521	17407.242167	395.251953	-15.819342
2765.004521	17407.242167	393.976563	60.591415
2765.004521	17407.242167	392.700195	-36.343281
2765.004521	17407.242167	391.422852	152.159317
2765.004521	17407.242167	390.145508	-18.178507
2765.004521	17407.242167	388.869141	21.805666
2765.004521	17407.242167	387.590820	101.099434
2765.004521	17407.242167	386.313477	134.283783
2765.004521	17407.242167	385.035156	15.156089
2765.004521	17407.242167	383.756836	151.921219
2765.004521	17407.242167	382.478516	23.975874
2765.004521	17407.242167	381.199219	99.763977
2765.004521	17407.242167	379.919922	162.749191
2765.004521	17407.242167	378.640625	21.539499
2765.004521	17407.242167	377.360352	71.436455
2765.004521	17407.242167	376.080078	129.324158
2765.004521	17407.242167	374.799805	47.582485
2765.004521	17407.242167	373.519531	9.207465
2765.004521	17407.242167	372.238281	161.699768
2765.004521	17407.242167	370.957031	39.545376
2765.004521	17407.242167	369.675781	68.740250
2765.004521	17407.242167	368.394531	6.201240
2765.004521	17407.242167	367.112305	18.073397
2765.004521	17407.242167	365.830078	100.160507
2765.004521	17407.242167	364.546875	129.950302
2765.004521	17407.242167	363.264648	117.866837
2765.004521	17407.242167	361.981445	16.195517
2765.004521	17407.242167	360.698242	3.365681
2765.004521	17407.242167	359.414063	97.962013
2765.004521	17407.242167	358.129883	-216.289200
2765.004521	17407.242167	356.845703	-83.112801
2765.004521	17407.242167	355.561523	-126.547089
2765.004521	17407.242167	354.276367	-180.755661
2765.004521	17407.242167	352.991211	-71.734154
2765.004521	17407.242167	351.706055	26.450836
2765.004521	17407.242167	350.420898	-49.762848
2765.004521	17407.242167	349.134766	26.770985
2765.004521	17407.242167	347.848633	-93.788132
2765.004521	17407.242167	346.561523	-22.348839
2765.004521	17407.242167	345.275391	-34.138351
2765.004521	17407.242167	343.988281	-139.481476
2765.004521	17407.242167	342.700195	155.858063
2765.004521	17407.242167	341.413086	59.884293
2765.004521	17407.242167	340.125000	-15.892199
2765.004521	17407.242167	338.836914	54.573658
2765.004521	17407.242167	337.548828	97.642944
2765.004521	17407.242167	336.259766	-120.087219
2765.004521	17407.242167	334.970703	62.367031
2765.004521	17407.242167	333.681641	60.468063
2765.004521	17407.242167	332.391602	78.657249
2765.004521	17407.242167	331.101563	28.197186
2765.004521	17407.242167	329.811523	10.223835
2765.004521	17407.242167	328.521484	-14.482217
2765.004521	17407.242167	327.230469	13.862880
2765.004521	17407.242167	325.939453	-36.719440
2765.004521	17407.242167	324.648438	11.097133
2765.004521	17407.242167	323.356445	-69.483589
2765.004521	17407.242167	322.064453	-82.613869
2765.004521	17407.242167	320.772461	-180.787338
2765.004521	17407.242167	319.480469	23.251537
2765.004521	17407.242167	318.187500	-100.823952
2765.004521	17407.242167	316.894531	93.651161
2765.004521	17407.242167	315.601563	46.619850
2765.004521	17407.242167	314.307617	-99.802589
2765.004521	17407.242167	313.013672	-20.467957
2765.004521	17407.242167	311.719727	-67.258919
2765.004521	17407.242167	310.425781	224.660782
2765.004521	17407.242167	309.130859	32.637234
2765.004521	17407.242167	307.835938	68.232361
2765.004521	17407.242167	306.541016	-22.184757
2765.004521	17407.242167	305.245117	190.859604
2765.004521	17407.242167	303.949219	189.530960
2765.004521	17407.242167	302.653320	245.063309
2765.004521	17407.242167	301.356445	260.881805
2765.004521	17407.242167	300.060547	181.641846
2765.004521	17407.242167	298.763672	229.003983
