#X		#Y		#Wave		#Intensity
2751.934415	17365.944500	2000.043945	-322.329620
2751.934415	17365.944500	1999.080078	116.477791
2751.934415	17365.944500	1998.116211	-1.652113
2751.934415	17365.944500	1997.151367	-63.285206
2751.934415	17365.944500	1996.186523	-264.192139
2751.934415	17365.944500	1995.222656	119.053627
2751.934415	17365.944500	1994.256836	100.440765
2751.934415	17365.944500	1993.291992	41.695942
2751.934415	17365.944500	1992.327148	-10.083463
2751.934415	17365.944500	1991.361328	51.568710
2751.934415	17365.944500	1990.395508	53.345982
2751.934415	17365.944500	1989.429688	252.637772
2751.934415	17365.944500	1988.463867	95.171097
2751.934415	17365.944500	1987.497070	328.182556
2751.934415	17365.944500	1986.531250	61.128254
2751.934415	17365.944500	1985.564453	-154.277481
2751.934415	17365.944500	1984.597656	151.651901
2751.934415	17365.944500	1983.630859	83.874367
2751.934415	17365.944500	1982.664063	-11.412229
2751.934415	17365.944500	1981.696289	-40.279942
2751.934415	17365.944500	1980.728516	-146.047638
2751.934415	17365.944500	1979.761719	-126.136635
2751.934415	17365.944500	1978.792969	-138.620026
2751.934415	17365.944500	1977.825195	152.279099
2751.934415	17365.944500	1976.857422	139.158569
2751.934415	17365.944500	1975.888672	120.841324
2751.934415	17365.944500	1974.919922	62.786201
2751.934415	17365.944500	1973.951172	145.124222
2751.934415	17365.944500	1972.982422	-182.281418
2751.934415	17365.944500	1972.013672	193.072861
2751.934415	17365.944500	1971.043945	116.833702
2751.934415	17365.944500	1970.075195	227.760284
2751.934415	17365.944500	1969.105469	128.930984
2751.934415	17365.944500	1968.135742	291.164063
2751.934415	17365.944500	1967.165039	-150.512711
2751.934415	17365.944500	1966.195313	181.314850
2751.934415	17365.944500	1965.224609	182.804657
2751.934415	17365.944500	1964.253906	292.476105
2751.934415	17365.944500	1963.283203	40.014328
2751.934415	17365.944500	1962.312500	297.051483
2751.934415	17365.944500	1961.341797	-130.366394
2751.934415	17365.944500	1960.370117	8.207664
2751.934415	17365.944500	1959.399414	166.270737
2751.934415	17365.944500	1958.427734	-71.878410
2751.934415	17365.944500	1957.455078	-189.546494
2751.934415	17365.944500	1956.483398	226.285278
2751.934415	17365.944500	1955.511719	361.589966
2751.934415	17365.944500	1954.539063	-61.220547
2751.934415	17365.944500	1953.566406	174.644073
2751.934415	17365.944500	1952.593750	-167.086319
2751.934415	17365.944500	1951.621094	66.067940
2751.934415	17365.944500	1950.647461	-15.333905
2751.934415	17365.944500	1949.674805	82.473198
2751.934415	17365.944500	1948.701172	37.768459
2751.934415	17365.944500	1947.727539	-41.357475
2751.934415	17365.944500	1946.753906	88.095711
2751.934415	17365.944500	1945.780273	70.202393
2751.934415	17365.944500	1944.805664	358.938385
2751.934415	17365.944500	1943.831055	196.165451
2751.934415	17365.944500	1942.856445	-47.532673
2751.934415	17365.944500	1941.881836	-136.709213
2751.934415	17365.944500	1940.907227	178.611801
2751.934415	17365.944500	1939.932617	-67.537186
2751.934415	17365.944500	1938.957031	-7.296761
2751.934415	17365.944500	1937.981445	395.916992
2751.934415	17365.944500	1937.005859	-131.965485
2751.934415	17365.944500	1936.030273	-35.111458
2751.934415	17365.944500	1935.054688	328.604584
2751.934415	17365.944500	1934.078125	-93.775208
2751.934415	17365.944500	1933.101563	154.713486
2751.934415	17365.944500	1932.125000	-69.278793
2751.934415	17365.944500	1931.148438	20.011641
2751.934415	17365.944500	1930.171875	106.803452
2751.934415	17365.944500	1929.194336	66.350990
2751.934415	17365.944500	1928.217773	-59.704823
2751.934415	17365.944500	1927.240234	-43.902187
2751.934415	17365.944500	1926.262695	-165.023560
2751.934415	17365.944500	1925.284180	-88.119759
2751.934415	17365.944500	1924.306641	-245.868546
2751.934415	17365.944500	1923.328125	-252.074295
2751.934415	17365.944500	1922.350586	-18.883646
2751.934415	17365.944500	1921.372070	-115.515274
2751.934415	17365.944500	1920.392578	-75.362930
2751.934415	17365.944500	1919.414063	121.026085
2751.934415	17365.944500	1918.434570	-63.473469
2751.934415	17365.944500	1917.456055	84.016747
2751.934415	17365.944500	1916.476563	31.353704
2751.934415	17365.944500	1915.497070	159.248138
2751.934415	17365.944500	1914.516602	109.027008
2751.934415	17365.944500	1913.537109	-28.982435
2751.934415	17365.944500	1912.556641	281.720947
2751.934415	17365.944500	1911.576172	21.833885
2751.934415	17365.944500	1910.595703	137.407135
2751.934415	17365.944500	1909.615234	45.788200
2751.934415	17365.944500	1908.633789	85.778152
2751.934415	17365.944500	1907.653320	3.938220
2751.934415	17365.944500	1906.671875	229.019028
2751.934415	17365.944500	1905.690430	217.798981
2751.934415	17365.944500	1904.708984	-209.763443
2751.934415	17365.944500	1903.727539	-157.617996
2751.934415	17365.944500	1902.745117	35.666794
2751.934415	17365.944500	1901.762695	-170.203156
2751.934415	17365.944500	1900.780273	-210.564545
2751.934415	17365.944500	1899.797852	128.544754
2751.934415	17365.944500	1898.815430	34.619991
2751.934415	17365.944500	1897.832031	-287.843231
2751.934415	17365.944500	1896.849609	187.198212
2751.934415	17365.944500	1895.866211	-52.554684
2751.934415	17365.944500	1894.882813	-7.900251
2751.934415	17365.944500	1893.898438	65.883408
2751.934415	17365.944500	1892.915039	18.153824
2751.934415	17365.944500	1891.930664	-194.730148
2751.934415	17365.944500	1890.947266	-57.871944
2751.934415	17365.944500	1889.962891	-91.033951
2751.934415	17365.944500	1888.977539	-167.895279
2751.934415	17365.944500	1887.993164	48.911343
2751.934415	17365.944500	1887.007813	153.998260
2751.934415	17365.944500	1886.023438	120.726929
2751.934415	17365.944500	1885.038086	-196.354935
2751.934415	17365.944500	1884.051758	22.624142
2751.934415	17365.944500	1883.066406	103.277611
2751.934415	17365.944500	1882.081055	65.080612
2751.934415	17365.944500	1881.094727	259.555023
2751.934415	17365.944500	1880.108398	100.109291
2751.934415	17365.944500	1879.122070	52.140213
2751.934415	17365.944500	1878.135742	-51.564823
2751.934415	17365.944500	1877.148438	-2.681471
2751.934415	17365.944500	1876.162109	288.294647
2751.934415	17365.944500	1875.174805	145.744278
2751.934415	17365.944500	1874.187500	39.511501
2751.934415	17365.944500	1873.199219	61.547348
2751.934415	17365.944500	1872.211914	27.866230
2751.934415	17365.944500	1871.223633	73.987122
2751.934415	17365.944500	1870.236328	-25.094917
2751.934415	17365.944500	1869.248047	161.177902
2751.934415	17365.944500	1868.258789	30.578960
2751.934415	17365.944500	1867.270508	-177.392517
2751.934415	17365.944500	1866.282227	194.739563
2751.934415	17365.944500	1865.292969	-114.798943
2751.934415	17365.944500	1864.303711	-30.458519
2751.934415	17365.944500	1863.314453	32.042114
2751.934415	17365.944500	1862.324219	280.426636
2751.934415	17365.944500	1861.334961	-108.851929
2751.934415	17365.944500	1860.344727	141.735703
2751.934415	17365.944500	1859.354492	42.147530
2751.934415	17365.944500	1858.364258	63.192139
2751.934415	17365.944500	1857.374023	209.621490
2751.934415	17365.944500	1856.383789	237.705093
2751.934415	17365.944500	1855.392578	-166.056580
2751.934415	17365.944500	1854.401367	-186.308701
2751.934415	17365.944500	1853.410156	-33.039551
2751.934415	17365.944500	1852.418945	375.616089
2751.934415	17365.944500	1851.426758	183.884888
2751.934415	17365.944500	1850.435547	298.170837
2751.934415	17365.944500	1849.443359	60.561947
2751.934415	17365.944500	1848.451172	87.921394
2751.934415	17365.944500	1847.458984	83.862473
2751.934415	17365.944500	1846.466797	79.705498
2751.934415	17365.944500	1845.473633	152.487152
2751.934415	17365.944500	1844.480469	-111.848946
2751.934415	17365.944500	1843.487305	-113.871086
2751.934415	17365.944500	1842.494141	213.639496
2751.934415	17365.944500	1841.500977	-82.158920
2751.934415	17365.944500	1840.506836	-89.327843
2751.934415	17365.944500	1839.513672	33.249943
2751.934415	17365.944500	1838.519531	9.000129
2751.934415	17365.944500	1837.525391	13.488265
2751.934415	17365.944500	1836.530273	166.869232
2751.934415	17365.944500	1835.536133	127.829590
2751.934415	17365.944500	1834.541016	38.229660
2751.934415	17365.944500	1833.545898	-89.897682
2751.934415	17365.944500	1832.550781	120.525856
2751.934415	17365.944500	1831.555664	323.535583
2751.934415	17365.944500	1830.560547	199.840714
2751.934415	17365.944500	1829.564453	76.058220
2751.934415	17365.944500	1828.568359	290.559570
2751.934415	17365.944500	1827.572266	195.327393
2751.934415	17365.944500	1826.576172	61.610031
2751.934415	17365.944500	1825.580078	241.997589
2751.934415	17365.944500	1824.583008	96.047905
2751.934415	17365.944500	1823.585938	141.810883
2751.934415	17365.944500	1822.588867	280.900177
2751.934415	17365.944500	1821.591797	132.189133
2751.934415	17365.944500	1820.594727	-9.425339
2751.934415	17365.944500	1819.596680	258.533875
2751.934415	17365.944500	1818.599609	73.529572
2751.934415	17365.944500	1817.601563	252.456940
2751.934415	17365.944500	1816.603516	-47.718887
2751.934415	17365.944500	1815.604492	-31.941238
2751.934415	17365.944500	1814.606445	337.910278
2751.934415	17365.944500	1813.607422	39.801922
2751.934415	17365.944500	1812.608398	-74.126617
2751.934415	17365.944500	1811.609375	110.840073
2751.934415	17365.944500	1810.610352	-17.736866
2751.934415	17365.944500	1809.610352	154.858612
2751.934415	17365.944500	1808.611328	80.975456
2751.934415	17365.944500	1807.611328	138.414154
2751.934415	17365.944500	1806.611328	25.979519
2751.934415	17365.944500	1805.610352	71.113594
2751.934415	17365.944500	1804.610352	-196.893784
2751.934415	17365.944500	1803.609375	-25.491428
2751.934415	17365.944500	1802.608398	-193.436234
2751.934415	17365.944500	1801.607422	-110.793793
2751.934415	17365.944500	1800.606445	-52.233166
2751.934415	17365.944500	1799.605469	125.459427
2751.934415	17365.944500	1798.603516	214.609787
2751.934415	17365.944500	1797.601563	-87.729431
2751.934415	17365.944500	1796.599609	-10.865857
2751.934415	17365.944500	1795.597656	87.248383
2751.934415	17365.944500	1794.595703	166.065491
2751.934415	17365.944500	1793.592773	104.004257
2751.934415	17365.944500	1792.589844	51.311726
2751.934415	17365.944500	1791.587891	-65.883469
2751.934415	17365.944500	1790.583984	-40.279182
2751.934415	17365.944500	1789.581055	92.328659
2751.934415	17365.944500	1788.577148	36.533291
2751.934415	17365.944500	1787.574219	11.529417
2751.934415	17365.944500	1786.570313	143.470154
2751.934415	17365.944500	1785.566406	146.627457
2751.934415	17365.944500	1784.561523	-31.294172
2751.934415	17365.944500	1783.557617	-233.129669
2751.934415	17365.944500	1782.552734	-68.723389
2751.934415	17365.944500	1781.547852	-123.404083
2751.934415	17365.944500	1780.542969	-4.658606
2751.934415	17365.944500	1779.538086	-28.817526
2751.934415	17365.944500	1778.532227	34.783684
2751.934415	17365.944500	1777.527344	-75.334000
2751.934415	17365.944500	1776.521484	85.283791
2751.934415	17365.944500	1775.515625	55.569374
2751.934415	17365.944500	1774.508789	-230.889542
2751.934415	17365.944500	1773.502930	-80.437531
2751.934415	17365.944500	1772.496094	138.606888
2751.934415	17365.944500	1771.489258	86.723808
2751.934415	17365.944500	1770.482422	-129.122177
2751.934415	17365.944500	1769.475586	158.021881
2751.934415	17365.944500	1768.467773	-8.345159
2751.934415	17365.944500	1767.460938	-243.635712
2751.934415	17365.944500	1766.453125	-90.074677
2751.934415	17365.944500	1765.445313	34.766579
2751.934415	17365.944500	1764.437500	-39.799469
2751.934415	17365.944500	1763.428711	117.752563
2751.934415	17365.944500	1762.420898	-99.409523
2751.934415	17365.944500	1761.412109	24.512964
2751.934415	17365.944500	1760.403320	-69.776764
2751.934415	17365.944500	1759.393555	-50.550846
2751.934415	17365.944500	1758.384766	105.832825
2751.934415	17365.944500	1757.375000	141.183258
2751.934415	17365.944500	1756.366211	-164.563644
2751.934415	17365.944500	1755.356445	-212.423813
2751.934415	17365.944500	1754.345703	-312.544037
2751.934415	17365.944500	1753.335938	-254.299683
2751.934415	17365.944500	1752.325195	291.001251
2751.934415	17365.944500	1751.315430	15.230345
2751.934415	17365.944500	1750.304688	-125.870346
2751.934415	17365.944500	1749.292969	-92.187683
2751.934415	17365.944500	1748.282227	-11.432877
2751.934415	17365.944500	1747.270508	-44.360985
2751.934415	17365.944500	1746.259766	28.862534
2751.934415	17365.944500	1745.248047	141.999496
2751.934415	17365.944500	1744.235352	-314.340759
2751.934415	17365.944500	1743.223633	55.814301
2751.934415	17365.944500	1742.211914	198.973526
2751.934415	17365.944500	1741.199219	-123.167366
2751.934415	17365.944500	1740.186523	-13.486723
2751.934415	17365.944500	1739.173828	242.252472
2751.934415	17365.944500	1738.160156	-7.190085
2751.934415	17365.944500	1737.147461	56.994438
2751.934415	17365.944500	1736.133789	-46.497730
2751.934415	17365.944500	1735.120117	-166.653229
2751.934415	17365.944500	1734.106445	-147.871628
2751.934415	17365.944500	1733.091797	111.100128
2751.934415	17365.944500	1732.078125	-42.591225
2751.934415	17365.944500	1731.063477	58.016453
2751.934415	17365.944500	1730.048828	269.107452
2751.934415	17365.944500	1729.034180	-68.825020
2751.934415	17365.944500	1728.019531	170.083267
2751.934415	17365.944500	1727.003906	-31.554205
2751.934415	17365.944500	1725.988281	-99.136284
2751.934415	17365.944500	1724.972656	-117.460724
2751.934415	17365.944500	1723.957031	45.205994
2751.934415	17365.944500	1722.941406	38.249767
2751.934415	17365.944500	1721.924805	160.451294
2751.934415	17365.944500	1720.909180	-98.511192
2751.934415	17365.944500	1719.892578	138.504471
2751.934415	17365.944500	1718.875977	130.780518
2751.934415	17365.944500	1717.858398	179.263077
2751.934415	17365.944500	1716.841797	91.282219
2751.934415	17365.944500	1715.824219	129.998413
2751.934415	17365.944500	1714.806641	267.173157
2751.934415	17365.944500	1713.789063	462.827301
2751.934415	17365.944500	1712.770508	409.330200
2751.934415	17365.944500	1711.752930	517.675659
2751.934415	17365.944500	1710.734375	452.106750
2751.934415	17365.944500	1709.715820	250.286194
2751.934415	17365.944500	1708.697266	266.567047
2751.934415	17365.944500	1707.678711	371.808197
2751.934415	17365.944500	1706.659180	526.071533
2751.934415	17365.944500	1705.640625	389.374420
2751.934415	17365.944500	1704.621094	217.379944
2751.934415	17365.944500	1703.600586	368.724060
2751.934415	17365.944500	1702.581055	149.604721
2751.934415	17365.944500	1701.561523	382.609009
2751.934415	17365.944500	1700.541016	235.848846
2751.934415	17365.944500	1699.520508	199.068802
2751.934415	17365.944500	1698.500000	649.208069
2751.934415	17365.944500	1697.478516	705.677002
2751.934415	17365.944500	1696.458008	560.691040
2751.934415	17365.944500	1695.436523	427.285980
2751.934415	17365.944500	1694.415039	174.453278
2751.934415	17365.944500	1693.393555	405.823639
2751.934415	17365.944500	1692.372070	459.201538
2751.934415	17365.944500	1691.349609	573.190063
2751.934415	17365.944500	1690.327148	621.527405
2751.934415	17365.944500	1689.304688	648.668457
2751.934415	17365.944500	1688.282227	593.857361
2751.934415	17365.944500	1687.259766	658.103760
2751.934415	17365.944500	1686.236328	490.875397
2751.934415	17365.944500	1685.213867	702.003967
2751.934415	17365.944500	1684.190430	926.905579
2751.934415	17365.944500	1683.166016	677.581726
2751.934415	17365.944500	1682.142578	596.329773
2751.934415	17365.944500	1681.119141	986.453186
2751.934415	17365.944500	1680.094727	694.876343
2751.934415	17365.944500	1679.070313	879.244995
2751.934415	17365.944500	1678.045898	930.459778
2751.934415	17365.944500	1677.020508	867.233582
2751.934415	17365.944500	1675.996094	953.173706
2751.934415	17365.944500	1674.970703	742.862305
2751.934415	17365.944500	1673.945313	870.494751
2751.934415	17365.944500	1672.919922	753.272339
2751.934415	17365.944500	1671.893555	931.868652
2751.934415	17365.944500	1670.868164	940.259155
2751.934415	17365.944500	1669.841797	894.946960
2751.934415	17365.944500	1668.815430	833.249084
2751.934415	17365.944500	1667.789063	713.271179
2751.934415	17365.944500	1666.761719	916.766541
2751.934415	17365.944500	1665.735352	1106.151001
2751.934415	17365.944500	1664.708008	1081.272583
2751.934415	17365.944500	1663.680664	1265.685181
2751.934415	17365.944500	1662.653320	1415.047241
2751.934415	17365.944500	1661.625000	1747.951416
2751.934415	17365.944500	1660.597656	1706.336060
2751.934415	17365.944500	1659.569336	1834.321777
2751.934415	17365.944500	1658.541016	1836.673828
2751.934415	17365.944500	1657.512695	1852.888672
2751.934415	17365.944500	1656.483398	1896.869263
2751.934415	17365.944500	1655.455078	2063.894287
2751.934415	17365.944500	1654.425781	2214.498047
2751.934415	17365.944500	1653.396484	2381.225342
2751.934415	17365.944500	1652.366211	2297.076904
2751.934415	17365.944500	1651.336914	2498.404053
2751.934415	17365.944500	1650.306641	2576.574463
2751.934415	17365.944500	1649.276367	2708.014160
2751.934415	17365.944500	1648.246094	2971.561768
2751.934415	17365.944500	1647.215820	2891.713135
2751.934415	17365.944500	1646.185547	2675.033447
2751.934415	17365.944500	1645.154297	2931.288574
2751.934415	17365.944500	1644.123047	3393.679932
2751.934415	17365.944500	1643.091797	3352.973877
2751.934415	17365.944500	1642.060547	3096.760010
2751.934415	17365.944500	1641.028320	3769.488281
2751.934415	17365.944500	1639.997070	3564.161377
2751.934415	17365.944500	1638.964844	3694.608887
2751.934415	17365.944500	1637.931641	3880.505615
2751.934415	17365.944500	1636.899414	3895.035400
2751.934415	17365.944500	1635.867188	4011.355225
2751.934415	17365.944500	1634.833984	4062.787109
2751.934415	17365.944500	1633.800781	3919.849365
2751.934415	17365.944500	1632.767578	4426.866699
2751.934415	17365.944500	1631.734375	4066.496094
2751.934415	17365.944500	1630.700195	4226.418457
2751.934415	17365.944500	1629.666016	4312.289551
2751.934415	17365.944500	1628.631836	4541.402832
2751.934415	17365.944500	1627.597656	4463.095703
2751.934415	17365.944500	1626.563477	4528.039551
2751.934415	17365.944500	1625.528320	4856.235840
2751.934415	17365.944500	1624.493164	4650.849609
2751.934415	17365.944500	1623.458008	4724.908203
2751.934415	17365.944500	1622.422852	4893.584473
2751.934415	17365.944500	1621.387695	5080.658203
2751.934415	17365.944500	1620.351563	5152.259766
2751.934415	17365.944500	1619.315430	4887.009277
2751.934415	17365.944500	1618.279297	4988.620605
2751.934415	17365.944500	1617.243164	4991.038574
2751.934415	17365.944500	1616.207031	4714.477051
2751.934415	17365.944500	1615.169922	5272.516113
2751.934415	17365.944500	1614.132813	5390.137207
2751.934415	17365.944500	1613.095703	5254.250488
2751.934415	17365.944500	1612.058594	5408.733887
2751.934415	17365.944500	1611.020508	5081.729492
2751.934415	17365.944500	1609.983398	5438.902344
2751.934415	17365.944500	1608.945313	5213.389648
2751.934415	17365.944500	1607.907227	5669.424316
2751.934415	17365.944500	1606.868164	5545.268066
2751.934415	17365.944500	1605.830078	5851.550293
2751.934415	17365.944500	1604.791016	5513.509766
2751.934415	17365.944500	1603.751953	5677.112305
2751.934415	17365.944500	1602.712891	5668.205078
2751.934415	17365.944500	1601.673828	6075.544434
2751.934415	17365.944500	1600.633789	5717.184082
2751.934415	17365.944500	1599.594727	5986.539551
2751.934415	17365.944500	1598.554688	5842.163086
2751.934415	17365.944500	1597.513672	5525.548828
2751.934415	17365.944500	1596.473633	5510.073242
2751.934415	17365.944500	1595.433594	5740.415039
2751.934415	17365.944500	1594.392578	5557.370117
2751.934415	17365.944500	1593.351563	5482.365723
2751.934415	17365.944500	1592.310547	5565.840332
2751.934415	17365.944500	1591.268555	5672.274414
2751.934415	17365.944500	1590.227539	5721.403809
2751.934415	17365.944500	1589.185547	5811.853516
2751.934415	17365.944500	1588.143555	5482.614746
2751.934415	17365.944500	1587.100586	5561.738770
2751.934415	17365.944500	1586.058594	5920.647949
2751.934415	17365.944500	1585.015625	5642.226563
2751.934415	17365.944500	1583.972656	5517.550293
2751.934415	17365.944500	1582.929688	5587.776367
2751.934415	17365.944500	1581.886719	5848.208496
2751.934415	17365.944500	1580.843750	5847.520996
2751.934415	17365.944500	1579.799805	5906.439941
2751.934415	17365.944500	1578.755859	5589.944824
2751.934415	17365.944500	1577.711914	5372.103516
2751.934415	17365.944500	1576.666992	5760.920898
2751.934415	17365.944500	1575.623047	5428.925781
2751.934415	17365.944500	1574.578125	5694.248047
2751.934415	17365.944500	1573.533203	5287.100098
2751.934415	17365.944500	1572.488281	5131.779297
2751.934415	17365.944500	1571.443359	5221.277832
2751.934415	17365.944500	1570.397461	4965.646973
2751.934415	17365.944500	1569.351563	5352.467285
2751.934415	17365.944500	1568.305664	4822.935059
2751.934415	17365.944500	1567.259766	4497.062500
2751.934415	17365.944500	1566.213867	4646.552734
2751.934415	17365.944500	1565.166992	4259.405762
2751.934415	17365.944500	1564.120117	4262.979004
2751.934415	17365.944500	1563.073242	4291.790527
2751.934415	17365.944500	1562.026367	3992.057129
2751.934415	17365.944500	1560.978516	4014.305908
2751.934415	17365.944500	1559.930664	3758.336182
2751.934415	17365.944500	1558.883789	3849.348389
2751.934415	17365.944500	1557.834961	3566.396729
2751.934415	17365.944500	1556.787109	3384.047852
2751.934415	17365.944500	1555.739258	3224.710449
2751.934415	17365.944500	1554.690430	3589.785889
2751.934415	17365.944500	1553.641602	3316.798828
2751.934415	17365.944500	1552.592773	3492.905029
2751.934415	17365.944500	1551.542969	3261.323242
2751.934415	17365.944500	1550.494141	3148.434570
2751.934415	17365.944500	1549.444336	3320.351807
2751.934415	17365.944500	1548.394531	2923.213623
2751.934415	17365.944500	1547.344727	3279.785400
2751.934415	17365.944500	1546.293945	3283.628174
2751.934415	17365.944500	1545.244141	2862.184082
2751.934415	17365.944500	1544.193359	3130.305664
2751.934415	17365.944500	1543.142578	3130.117188
2751.934415	17365.944500	1542.090820	3252.865479
2751.934415	17365.944500	1541.040039	2898.333496
2751.934415	17365.944500	1539.988281	3175.979980
2751.934415	17365.944500	1538.936523	2699.210205
2751.934415	17365.944500	1537.884766	2904.425781
2751.934415	17365.944500	1536.833008	2932.550537
2751.934415	17365.944500	1535.780273	2813.195068
2751.934415	17365.944500	1534.727539	2793.979004
2751.934415	17365.944500	1533.674805	2627.381836
2751.934415	17365.944500	1532.622070	2302.145508
2751.934415	17365.944500	1531.569336	2871.363281
2751.934415	17365.944500	1530.515625	2762.107910
2751.934415	17365.944500	1529.461914	2777.851318
2751.934415	17365.944500	1528.408203	2308.414795
2751.934415	17365.944500	1527.354492	2490.155273
2751.934415	17365.944500	1526.299805	2195.898682
2751.934415	17365.944500	1525.246094	2017.570190
2751.934415	17365.944500	1524.191406	2109.175293
2751.934415	17365.944500	1523.136719	1679.805298
2751.934415	17365.944500	1522.081055	1749.165161
2751.934415	17365.944500	1521.026367	1605.813965
2751.934415	17365.944500	1519.970703	1181.910522
2751.934415	17365.944500	1518.915039	1256.461426
2751.934415	17365.944500	1517.859375	1082.196533
2751.934415	17365.944500	1516.802734	957.976013
2751.934415	17365.944500	1515.747070	1155.329468
2751.934415	17365.944500	1514.690430	904.876587
2751.934415	17365.944500	1513.633789	849.246033
2751.934415	17365.944500	1512.577148	662.692810
2751.934415	17365.944500	1511.519531	894.673828
2751.934415	17365.944500	1510.461914	889.430298
2751.934415	17365.944500	1509.405273	529.602722
2751.934415	17365.944500	1508.346680	518.072571
2751.934415	17365.944500	1507.289063	341.866821
2751.934415	17365.944500	1506.231445	784.819763
2751.934415	17365.944500	1505.172852	297.424622
2751.934415	17365.944500	1504.114258	438.098785
2751.934415	17365.944500	1503.055664	416.415619
2751.934415	17365.944500	1501.996094	394.950867
2751.934415	17365.944500	1500.937500	-21.137228
2751.934415	17365.944500	1499.877930	206.100937
2751.934415	17365.944500	1498.818359	108.681328
2751.934415	17365.944500	1497.757813	275.360229
2751.934415	17365.944500	1496.698242	-143.985275
2751.934415	17365.944500	1495.637695	131.338287
2751.934415	17365.944500	1494.577148	149.861557
2751.934415	17365.944500	1493.516602	-158.115799
2751.934415	17365.944500	1492.456055	117.742966
2751.934415	17365.944500	1491.394531	132.441437
2751.934415	17365.944500	1490.333008	59.546413
2751.934415	17365.944500	1489.271484	-33.347610
2751.934415	17365.944500	1488.209961	-4.411771
2751.934415	17365.944500	1487.148438	83.264801
2751.934415	17365.944500	1486.085938	-112.379677
2751.934415	17365.944500	1485.023438	-249.213242
2751.934415	17365.944500	1483.960938	-167.577026
2751.934415	17365.944500	1482.898438	51.474918
2751.934415	17365.944500	1481.834961	-41.782429
2751.934415	17365.944500	1480.772461	78.831543
2751.934415	17365.944500	1479.708984	-319.450043
2751.934415	17365.944500	1478.644531	39.866276
2751.934415	17365.944500	1477.581055	-88.132156
2751.934415	17365.944500	1476.517578	46.935493
2751.934415	17365.944500	1475.453125	161.843506
2751.934415	17365.944500	1474.388672	335.363953
2751.934415	17365.944500	1473.323242	172.484436
2751.934415	17365.944500	1472.258789	452.032135
2751.934415	17365.944500	1471.193359	314.411652
2751.934415	17365.944500	1470.127930	538.001465
2751.934415	17365.944500	1469.062500	512.927002
2751.934415	17365.944500	1467.997070	399.030396
2751.934415	17365.944500	1466.930664	898.667725
2751.934415	17365.944500	1465.865234	668.276489
2751.934415	17365.944500	1464.798828	1018.004272
2751.934415	17365.944500	1463.731445	1064.016113
2751.934415	17365.944500	1462.665039	930.683533
2751.934415	17365.944500	1461.597656	1001.950500
2751.934415	17365.944500	1460.530273	1090.476318
2751.934415	17365.944500	1459.462891	1050.880371
2751.934415	17365.944500	1458.395508	963.352295
2751.934415	17365.944500	1457.327148	1504.101685
2751.934415	17365.944500	1456.259766	1267.024536
2751.934415	17365.944500	1455.191406	886.403198
2751.934415	17365.944500	1454.123047	1014.696472
2751.934415	17365.944500	1453.053711	1223.683228
2751.934415	17365.944500	1451.985352	1216.323608
2751.934415	17365.944500	1450.916016	1049.251831
2751.934415	17365.944500	1449.846680	624.739868
2751.934415	17365.944500	1448.776367	1016.092773
2751.934415	17365.944500	1447.707031	852.013062
2751.934415	17365.944500	1446.636719	894.245972
2751.934415	17365.944500	1445.566406	744.111389
2751.934415	17365.944500	1444.496094	1177.728271
2751.934415	17365.944500	1443.425781	1158.321167
2751.934415	17365.944500	1442.354492	926.921143
2751.934415	17365.944500	1441.283203	880.329468
2751.934415	17365.944500	1440.211914	1247.122070
2751.934415	17365.944500	1439.140625	1066.603638
2751.934415	17365.944500	1438.069336	1195.187866
2751.934415	17365.944500	1436.997070	940.098389
2751.934415	17365.944500	1435.924805	1076.933960
2751.934415	17365.944500	1434.852539	1014.581055
2751.934415	17365.944500	1433.780273	932.404663
2751.934415	17365.944500	1432.707031	652.029602
2751.934415	17365.944500	1431.633789	916.389587
2751.934415	17365.944500	1430.560547	943.802551
2751.934415	17365.944500	1429.487305	971.922607
2751.934415	17365.944500	1428.413086	842.476868
2751.934415	17365.944500	1427.339844	988.812866
2751.934415	17365.944500	1426.265625	1045.100464
2751.934415	17365.944500	1425.191406	819.082214
2751.934415	17365.944500	1424.116211	1018.275513
2751.934415	17365.944500	1423.041992	944.596008
2751.934415	17365.944500	1421.966797	860.887268
2751.934415	17365.944500	1420.891602	690.703491
2751.934415	17365.944500	1419.816406	702.011047
2751.934415	17365.944500	1418.740234	863.984375
2751.934415	17365.944500	1417.665039	1104.636475
2751.934415	17365.944500	1416.588867	1093.914673
2751.934415	17365.944500	1415.512695	959.938354
2751.934415	17365.944500	1414.435547	989.636780
2751.934415	17365.944500	1413.359375	1141.005371
2751.934415	17365.944500	1412.282227	1334.784302
2751.934415	17365.944500	1411.205078	1377.001953
2751.934415	17365.944500	1410.127930	1430.507568
2751.934415	17365.944500	1409.049805	1624.403076
2751.934415	17365.944500	1407.972656	1487.880859
2751.934415	17365.944500	1406.894531	1720.509521
2751.934415	17365.944500	1405.816406	1704.867065
2751.934415	17365.944500	1404.737305	1961.241943
2751.934415	17365.944500	1403.659180	1822.113892
2751.934415	17365.944500	1402.580078	1925.293091
2751.934415	17365.944500	1401.500977	2182.798340
2751.934415	17365.944500	1400.421875	2156.087646
2751.934415	17365.944500	1399.341797	2905.151855
2751.934415	17365.944500	1398.262695	2398.935059
2751.934415	17365.944500	1397.182617	2257.546631
2751.934415	17365.944500	1396.102539	2439.482422
2751.934415	17365.944500	1395.021484	2617.683105
2751.934415	17365.944500	1393.941406	2630.567627
2751.934415	17365.944500	1392.860352	2534.743164
2751.934415	17365.944500	1391.779297	2436.243896
2751.934415	17365.944500	1390.698242	2615.099854
2751.934415	17365.944500	1389.616211	2700.196289
2751.934415	17365.944500	1388.535156	2561.611816
2751.934415	17365.944500	1387.453125	2676.326904
2751.934415	17365.944500	1386.371094	2619.776611
2751.934415	17365.944500	1385.288086	2682.866699
2751.934415	17365.944500	1384.206055	2944.644531
2751.934415	17365.944500	1383.123047	2985.680176
2751.934415	17365.944500	1382.040039	2684.450684
2751.934415	17365.944500	1380.957031	2844.677734
2751.934415	17365.944500	1379.873047	2986.344238
2751.934415	17365.944500	1378.789063	3061.010254
2751.934415	17365.944500	1377.705078	3377.766846
2751.934415	17365.944500	1376.621094	3461.645996
2751.934415	17365.944500	1375.537109	3402.921875
2751.934415	17365.944500	1374.452148	3472.892822
2751.934415	17365.944500	1373.367188	3491.016602
2751.934415	17365.944500	1372.282227	3636.149170
2751.934415	17365.944500	1371.197266	3712.062988
2751.934415	17365.944500	1370.112305	3676.384033
2751.934415	17365.944500	1369.026367	3718.704102
2751.934415	17365.944500	1367.940430	3562.403809
2751.934415	17365.944500	1366.854492	3653.370850
2751.934415	17365.944500	1365.767578	3692.919922
2751.934415	17365.944500	1364.681641	3626.464355
2751.934415	17365.944500	1363.594727	3709.544189
2751.934415	17365.944500	1362.507813	3413.667480
2751.934415	17365.944500	1361.419922	3869.625244
2751.934415	17365.944500	1360.333008	3861.453613
2751.934415	17365.944500	1359.245117	3836.196289
2751.934415	17365.944500	1358.157227	3982.772461
2751.934415	17365.944500	1357.069336	3936.212646
2751.934415	17365.944500	1355.981445	3847.083740
2751.934415	17365.944500	1354.892578	4091.096924
2751.934415	17365.944500	1353.803711	4049.679443
2751.934415	17365.944500	1352.714844	3876.895996
2751.934415	17365.944500	1351.625000	3985.906006
2751.934415	17365.944500	1350.536133	4053.574463
2751.934415	17365.944500	1349.446289	4090.932373
2751.934415	17365.944500	1348.356445	3978.425049
2751.934415	17365.944500	1347.266602	4296.350098
2751.934415	17365.944500	1346.175781	4508.076172
2751.934415	17365.944500	1345.085938	4575.643066
2751.934415	17365.944500	1343.995117	4499.285645
2751.934415	17365.944500	1342.903320	4957.524902
2751.934415	17365.944500	1341.812500	4633.928223
2751.934415	17365.944500	1340.720703	4621.175781
2751.934415	17365.944500	1339.629883	4694.550293
2751.934415	17365.944500	1338.538086	5025.922852
2751.934415	17365.944500	1337.445313	5001.581543
2751.934415	17365.944500	1336.353516	5004.483398
2751.934415	17365.944500	1335.260742	4626.291992
2751.934415	17365.944500	1334.167969	4768.953125
2751.934415	17365.944500	1333.075195	4839.761230
2751.934415	17365.944500	1331.981445	4638.859863
2751.934415	17365.944500	1330.888672	4805.073730
2751.934415	17365.944500	1329.794922	4868.638184
2751.934415	17365.944500	1328.701172	4862.997559
2751.934415	17365.944500	1327.606445	4927.574219
2751.934415	17365.944500	1326.512695	5195.995117
2751.934415	17365.944500	1325.417969	5003.197266
2751.934415	17365.944500	1324.323242	5360.309570
2751.934415	17365.944500	1323.227539	5304.870117
2751.934415	17365.944500	1322.132813	5717.801758
2751.934415	17365.944500	1321.037109	5789.573242
2751.934415	17365.944500	1319.941406	5594.820801
2751.934415	17365.944500	1318.845703	5523.341797
2751.934415	17365.944500	1317.750000	5841.054688
2751.934415	17365.944500	1316.653320	5632.605957
2751.934415	17365.944500	1315.556641	5748.789063
2751.934415	17365.944500	1314.459961	6082.661133
2751.934415	17365.944500	1313.363281	6051.846191
2751.934415	17365.944500	1312.265625	5942.455078
2751.934415	17365.944500	1311.167969	5596.477051
2751.934415	17365.944500	1310.070313	5247.630859
2751.934415	17365.944500	1308.972656	4657.280273
2751.934415	17365.944500	1307.874023	4760.668945
2751.934415	17365.944500	1306.776367	4374.076172
2751.934415	17365.944500	1305.677734	4488.769531
2751.934415	17365.944500	1304.579102	4208.704590
2751.934415	17365.944500	1303.479492	4089.276611
2751.934415	17365.944500	1302.380859	3851.268799
2751.934415	17365.944500	1301.281250	4087.602051
2751.934415	17365.944500	1300.181641	3834.253906
2751.934415	17365.944500	1299.081055	3589.378662
2751.934415	17365.944500	1297.981445	3592.600342
2751.934415	17365.944500	1296.880859	3655.574951
2751.934415	17365.944500	1295.780273	3428.301025
2751.934415	17365.944500	1294.679688	3313.259277
2751.934415	17365.944500	1293.578125	3193.850586
2751.934415	17365.944500	1292.476563	3162.520752
2751.934415	17365.944500	1291.375000	3421.383057
2751.934415	17365.944500	1290.273438	3017.283447
2751.934415	17365.944500	1289.171875	2748.956543
2751.934415	17365.944500	1288.069336	2855.708008
2751.934415	17365.944500	1286.966797	2769.146973
2751.934415	17365.944500	1285.864258	2751.105713
2751.934415	17365.944500	1284.761719	2635.477051
2751.934415	17365.944500	1283.658203	2426.229248
2751.934415	17365.944500	1282.554688	2635.500000
2751.934415	17365.944500	1281.451172	2258.459473
2751.934415	17365.944500	1280.347656	2321.321045
2751.934415	17365.944500	1279.244141	2627.444092
2751.934415	17365.944500	1278.139648	2498.832520
2751.934415	17365.944500	1277.035156	2216.739014
2751.934415	17365.944500	1275.930664	2252.775146
2751.934415	17365.944500	1274.825195	2576.302246
2751.934415	17365.944500	1273.720703	2460.746826
2751.934415	17365.944500	1272.615234	2831.423340
2751.934415	17365.944500	1271.508789	2757.342041
2751.934415	17365.944500	1270.403320	2844.633789
2751.934415	17365.944500	1269.297852	2824.804688
2751.934415	17365.944500	1268.191406	2903.585693
2751.934415	17365.944500	1267.084961	2807.340576
2751.934415	17365.944500	1265.977539	2780.684814
2751.934415	17365.944500	1264.871094	2806.684326
2751.934415	17365.944500	1263.763672	2723.719482
2751.934415	17365.944500	1262.656250	2825.867676
2751.934415	17365.944500	1261.548828	2720.457764
2751.934415	17365.944500	1260.440430	2569.742432
2751.934415	17365.944500	1259.333008	2549.562256
2751.934415	17365.944500	1258.224609	2407.411377
2751.934415	17365.944500	1257.115234	2429.932861
2751.934415	17365.944500	1256.006836	2377.279297
2751.934415	17365.944500	1254.897461	2217.202881
2751.934415	17365.944500	1253.788086	2357.142334
2751.934415	17365.944500	1252.678711	2120.402588
2751.934415	17365.944500	1251.569336	2166.083740
2751.934415	17365.944500	1250.458984	2429.940918
2751.934415	17365.944500	1249.349609	2449.880371
2751.934415	17365.944500	1248.239258	2416.707275
2751.934415	17365.944500	1247.127930	2844.643311
2751.934415	17365.944500	1246.017578	2745.966797
2751.934415	17365.944500	1244.906250	2572.909668
2751.934415	17365.944500	1243.794922	2583.755859
2751.934415	17365.944500	1242.683594	2482.860840
2751.934415	17365.944500	1241.571289	2565.158691
2751.934415	17365.944500	1240.459961	2312.528564
2751.934415	17365.944500	1239.347656	2354.228760
2751.934415	17365.944500	1238.234375	2469.716309
2751.934415	17365.944500	1237.122070	2226.601318
2751.934415	17365.944500	1236.008789	2141.702148
2751.934415	17365.944500	1234.896484	2176.845459
2751.934415	17365.944500	1233.782227	2251.547119
2751.934415	17365.944500	1232.668945	2252.916992
2751.934415	17365.944500	1231.555664	2343.843994
2751.934415	17365.944500	1230.441406	2358.941895
2751.934415	17365.944500	1229.327148	2495.939209
2751.934415	17365.944500	1228.211914	2783.739014
2751.934415	17365.944500	1227.097656	2856.550293
2751.934415	17365.944500	1225.982422	3273.162842
2751.934415	17365.944500	1224.867188	3191.437988
2751.934415	17365.944500	1223.751953	3416.970215
2751.934415	17365.944500	1222.635742	3470.404297
2751.934415	17365.944500	1221.520508	3835.783203
2751.934415	17365.944500	1220.404297	3803.766113
2751.934415	17365.944500	1219.287109	3841.072266
2751.934415	17365.944500	1218.170898	4029.896484
2751.934415	17365.944500	1217.053711	4169.519531
2751.934415	17365.944500	1215.936523	4129.495605
2751.934415	17365.944500	1214.819336	4079.505127
2751.934415	17365.944500	1213.702148	3995.363281
2751.934415	17365.944500	1212.583984	3910.777100
2751.934415	17365.944500	1211.465820	4070.659424
2751.934415	17365.944500	1210.347656	3774.545410
2751.934415	17365.944500	1209.229492	3512.504150
2751.934415	17365.944500	1208.110352	3305.657471
2751.934415	17365.944500	1206.992188	3112.228027
2751.934415	17365.944500	1205.873047	2770.331543
2751.934415	17365.944500	1204.752930	2620.404297
2751.934415	17365.944500	1203.633789	2267.348877
2751.934415	17365.944500	1202.513672	2088.556641
2751.934415	17365.944500	1201.393555	2069.980713
2751.934415	17365.944500	1200.273438	1882.143555
2751.934415	17365.944500	1199.152344	1790.031738
2751.934415	17365.944500	1198.032227	1715.790283
2751.934415	17365.944500	1196.911133	1833.931519
2751.934415	17365.944500	1195.790039	1919.192261
2751.934415	17365.944500	1194.667969	1849.282104
2751.934415	17365.944500	1193.545898	1829.873169
2751.934415	17365.944500	1192.424805	1810.440918
2751.934415	17365.944500	1191.301758	1885.475830
2751.934415	17365.944500	1190.179688	1729.232666
2751.934415	17365.944500	1189.056641	1723.088623
2751.934415	17365.944500	1187.933594	1445.243774
2751.934415	17365.944500	1186.810547	1591.028564
2751.934415	17365.944500	1185.687500	1371.002319
2751.934415	17365.944500	1184.563477	1488.970093
2751.934415	17365.944500	1183.440430	1560.469971
2751.934415	17365.944500	1182.316406	1708.607544
2751.934415	17365.944500	1181.191406	1676.797485
2751.934415	17365.944500	1180.067383	1555.908325
2751.934415	17365.944500	1178.942383	1676.228882
2751.934415	17365.944500	1177.817383	1616.598145
2751.934415	17365.944500	1176.692383	1602.786255
2751.934415	17365.944500	1175.566406	1632.232910
2751.934415	17365.944500	1174.440430	1463.882568
2751.934415	17365.944500	1173.314453	1389.673340
2751.934415	17365.944500	1172.188477	1396.799316
2751.934415	17365.944500	1171.062500	1357.411621
2751.934415	17365.944500	1169.935547	1153.932129
2751.934415	17365.944500	1168.808594	1057.174805
2751.934415	17365.944500	1167.681641	910.308105
2751.934415	17365.944500	1166.553711	934.142639
2751.934415	17365.944500	1165.426758	577.471802
2751.934415	17365.944500	1164.298828	493.570007
2751.934415	17365.944500	1163.170898	263.106812
2751.934415	17365.944500	1162.041992	312.951141
2751.934415	17365.944500	1160.914063	368.166351
2751.934415	17365.944500	1159.785156	228.366318
2751.934415	17365.944500	1158.656250	124.765816
2751.934415	17365.944500	1157.526367	-27.661016
2751.934415	17365.944500	1156.397461	139.981750
2751.934415	17365.944500	1155.267578	-78.407288
2751.934415	17365.944500	1154.137695	152.685730
2751.934415	17365.944500	1153.006836	37.508179
2751.934415	17365.944500	1151.876953	-64.744667
2751.934415	17365.944500	1150.746094	-16.912935
2751.934415	17365.944500	1149.615234	130.292892
2751.934415	17365.944500	1148.484375	-263.868439
2751.934415	17365.944500	1147.352539	-224.556122
2751.934415	17365.944500	1146.220703	-230.136627
2751.934415	17365.944500	1145.088867	-194.421539
2751.934415	17365.944500	1143.957031	-12.495838
2751.934415	17365.944500	1142.825195	88.684380
2751.934415	17365.944500	1141.692383	45.461636
2751.934415	17365.944500	1140.559570	15.657311
2751.934415	17365.944500	1139.426758	207.651291
2751.934415	17365.944500	1138.292969	93.764427
2751.934415	17365.944500	1137.159180	145.714828
2751.934415	17365.944500	1136.025391	199.983948
2751.934415	17365.944500	1134.891602	323.609955
2751.934415	17365.944500	1133.757813	120.246178
2751.934415	17365.944500	1132.623047	126.961220
2751.934415	17365.944500	1131.488281	277.469696
2751.934415	17365.944500	1130.353516	217.081238
2751.934415	17365.944500	1129.217773	438.108368
2751.934415	17365.944500	1128.083008	585.122620
2751.934415	17365.944500	1126.947266	565.384460
2751.934415	17365.944500	1125.811523	499.790741
2751.934415	17365.944500	1124.674805	281.089172
2751.934415	17365.944500	1123.539063	500.297211
2751.934415	17365.944500	1122.402344	465.235413
2751.934415	17365.944500	1121.265625	763.500061
2751.934415	17365.944500	1120.127930	775.535950
2751.934415	17365.944500	1118.990234	761.964844
2751.934415	17365.944500	1117.853516	1000.711731
2751.934415	17365.944500	1116.714844	964.088501
2751.934415	17365.944500	1115.577148	879.428223
2751.934415	17365.944500	1114.439453	910.454834
2751.934415	17365.944500	1113.300781	750.897705
2751.934415	17365.944500	1112.162109	689.359802
2751.934415	17365.944500	1111.022461	478.654358
2751.934415	17365.944500	1109.883789	330.121368
2751.934415	17365.944500	1108.744141	479.538391
2751.934415	17365.944500	1107.604492	451.577087
2751.934415	17365.944500	1106.463867	357.605072
2751.934415	17365.944500	1105.324219	312.133026
2751.934415	17365.944500	1104.183594	292.324585
2751.934415	17365.944500	1103.042969	395.341980
2751.934415	17365.944500	1101.902344	571.936584
2751.934415	17365.944500	1100.760742	635.477478
2751.934415	17365.944500	1099.619141	544.057068
2751.934415	17365.944500	1098.477539	706.729370
2751.934415	17365.944500	1097.335938	611.601196
2751.934415	17365.944500	1096.193359	645.439758
2751.934415	17365.944500	1095.051758	709.449097
2751.934415	17365.944500	1093.909180	800.486328
2751.934415	17365.944500	1092.765625	848.548767
2751.934415	17365.944500	1091.623047	872.637695
2751.934415	17365.944500	1090.479492	727.689941
2751.934415	17365.944500	1089.335938	558.300720
2751.934415	17365.944500	1088.192383	574.840637
2751.934415	17365.944500	1087.047852	479.044952
2751.934415	17365.944500	1085.903320	321.782623
2751.934415	17365.944500	1084.758789	380.371552
2751.934415	17365.944500	1083.614258	302.731171
2751.934415	17365.944500	1082.469727	35.464527
2751.934415	17365.944500	1081.324219	-97.017769
2751.934415	17365.944500	1080.178711	-108.189941
2751.934415	17365.944500	1079.033203	-137.319992
2751.934415	17365.944500	1077.886719	-94.747612
2751.934415	17365.944500	1076.740234	-117.263069
2751.934415	17365.944500	1075.593750	21.609770
2751.934415	17365.944500	1074.447266	124.028725
2751.934415	17365.944500	1073.300781	18.247305
2751.934415	17365.944500	1072.153320	71.593330
2751.934415	17365.944500	1071.005859	-48.549095
2751.934415	17365.944500	1069.858398	53.417339
2751.934415	17365.944500	1068.709961	220.167801
2751.934415	17365.944500	1067.561523	432.442230
2751.934415	17365.944500	1066.413086	382.664093
2751.934415	17365.944500	1065.264648	351.786255
2751.934415	17365.944500	1064.116211	377.501678
2751.934415	17365.944500	1062.966797	319.530029
2751.934415	17365.944500	1061.817383	452.107910
2751.934415	17365.944500	1060.667969	71.527023
2751.934415	17365.944500	1059.517578	48.599438
2751.934415	17365.944500	1058.368164	-195.693481
2751.934415	17365.944500	1057.217773	-276.397308
2751.934415	17365.944500	1056.067383	-36.574677
2751.934415	17365.944500	1054.916016	3.535342
2751.934415	17365.944500	1053.764648	63.958260
2751.934415	17365.944500	1052.613281	-208.607895
2751.934415	17365.944500	1051.461914	-204.464142
2751.934415	17365.944500	1050.310547	-176.916306
2751.934415	17365.944500	1049.158203	-38.523384
2751.934415	17365.944500	1048.005859	114.874557
2751.934415	17365.944500	1046.853516	35.550774
2751.934415	17365.944500	1045.700195	43.856155
2751.934415	17365.944500	1044.547852	71.952576
2751.934415	17365.944500	1043.394531	152.019424
2751.934415	17365.944500	1042.240234	17.067926
2751.934415	17365.944500	1041.086914	65.138596
2751.934415	17365.944500	1039.932617	234.641617
2751.934415	17365.944500	1038.778320	119.726151
2751.934415	17365.944500	1037.624023	257.992676
2751.934415	17365.944500	1036.469727	423.764313
2751.934415	17365.944500	1035.314453	153.383224
2751.934415	17365.944500	1034.159180	437.942413
2751.934415	17365.944500	1033.003906	639.258179
2751.934415	17365.944500	1031.847656	704.927307
2751.934415	17365.944500	1030.692383	704.360474
2751.934415	17365.944500	1029.536133	550.713989
2751.934415	17365.944500	1028.378906	770.953308
2751.934415	17365.944500	1027.222656	448.181244
2751.934415	17365.944500	1026.065430	408.594513
2751.934415	17365.944500	1024.908203	11.676716
2751.934415	17365.944500	1023.750977	255.083084
2751.934415	17365.944500	1022.593750	123.552887
2751.934415	17365.944500	1021.435547	153.775635
2751.934415	17365.944500	1020.277344	351.556702
2751.934415	17365.944500	1019.119141	465.444000
2751.934415	17365.944500	1017.959961	395.450867
2751.934415	17365.944500	1016.800781	370.778625
2751.934415	17365.944500	1015.641602	383.711487
2751.934415	17365.944500	1014.482422	502.407715
2751.934415	17365.944500	1013.323242	754.285278
2751.934415	17365.944500	1012.163086	621.278015
2751.934415	17365.944500	1011.002930	696.736145
2751.934415	17365.944500	1009.842773	888.567078
2751.934415	17365.944500	1008.681641	656.594849
2751.934415	17365.944500	1007.520508	923.595886
2751.934415	17365.944500	1006.359375	1380.160156
2751.934415	17365.944500	1005.198242	1288.768188
2751.934415	17365.944500	1004.037109	1401.108643
2751.934415	17365.944500	1002.875000	1599.311646
2751.934415	17365.944500	1001.712891	1817.110352
2751.934415	17365.944500	1000.550781	1807.752930
2751.934415	17365.944500	999.387695	1831.707031
2751.934415	17365.944500	998.224609	1820.475830
2751.934415	17365.944500	997.061523	1684.063232
2751.934415	17365.944500	995.898438	1669.143311
2751.934415	17365.944500	994.734375	1828.423706
2751.934415	17365.944500	993.571289	1945.395752
2751.934415	17365.944500	992.407227	1770.222412
2751.934415	17365.944500	991.242188	1806.635986
2751.934415	17365.944500	990.078125	1746.597412
2751.934415	17365.944500	988.913086	1701.958374
2751.934415	17365.944500	987.748047	1613.586304
2751.934415	17365.944500	986.583008	1407.908081
2751.934415	17365.944500	985.416992	1044.725220
2751.934415	17365.944500	984.250977	972.335999
2751.934415	17365.944500	983.084961	758.597168
2751.934415	17365.944500	981.918945	680.305847
2751.934415	17365.944500	980.751953	477.766876
2751.934415	17365.944500	979.584961	477.645355
2751.934415	17365.944500	978.417969	729.695435
2751.934415	17365.944500	977.250977	420.367584
2751.934415	17365.944500	976.083008	535.863770
2751.934415	17365.944500	974.915039	431.582855
2751.934415	17365.944500	973.747070	584.983154
2751.934415	17365.944500	972.579102	437.931183
2751.934415	17365.944500	971.410156	633.996582
2751.934415	17365.944500	970.242188	395.198914
2751.934415	17365.944500	969.072266	381.453491
2751.934415	17365.944500	967.903320	391.870911
2751.934415	17365.944500	966.733398	313.971741
2751.934415	17365.944500	965.563477	459.642059
2751.934415	17365.944500	964.393555	451.278687
2751.934415	17365.944500	963.223633	383.697388
2751.934415	17365.944500	962.052734	597.826416
2751.934415	17365.944500	960.881836	533.389282
2751.934415	17365.944500	959.710938	596.458618
2751.934415	17365.944500	958.540039	465.740753
2751.934415	17365.944500	957.368164	388.653870
2751.934415	17365.944500	956.196289	615.417969
2751.934415	17365.944500	955.024414	529.553894
2751.934415	17365.944500	953.851563	508.895477
2751.934415	17365.944500	952.679688	489.250702
2751.934415	17365.944500	951.506836	426.308197
2751.934415	17365.944500	950.333984	422.495575
2751.934415	17365.944500	949.160156	568.486145
2751.934415	17365.944500	947.986328	337.840546
2751.934415	17365.944500	946.812500	655.129456
2751.934415	17365.944500	945.638672	599.351379
2751.934415	17365.944500	944.464844	383.496887
2751.934415	17365.944500	943.290039	306.481873
2751.934415	17365.944500	942.115234	506.962341
2751.934415	17365.944500	940.940430	446.902496
2751.934415	17365.944500	939.764648	117.913338
2751.934415	17365.944500	938.588867	244.079819
2751.934415	17365.944500	937.413086	332.005859
2751.934415	17365.944500	936.237305	271.497528
2751.934415	17365.944500	935.060547	617.469116
2751.934415	17365.944500	933.883789	544.259888
2751.934415	17365.944500	932.707031	782.043152
2751.934415	17365.944500	931.530273	850.115295
2751.934415	17365.944500	930.352539	674.994568
2751.934415	17365.944500	929.175781	806.525391
2751.934415	17365.944500	927.998047	660.725403
2751.934415	17365.944500	926.819336	842.681641
2751.934415	17365.944500	925.641602	986.443176
2751.934415	17365.944500	924.462891	975.725342
2751.934415	17365.944500	923.284180	793.658447
2751.934415	17365.944500	922.104492	757.403687
2751.934415	17365.944500	920.924805	636.523193
2751.934415	17365.944500	919.746094	645.367615
2751.934415	17365.944500	919.551758	671.268433
2751.934415	17365.944500	918.386719	621.938110
2751.934415	17365.944500	917.220703	642.222046
2751.934415	17365.944500	916.054688	453.336945
2751.934415	17365.944500	914.887695	441.765808
2751.934415	17365.944500	913.721680	119.801872
2751.934415	17365.944500	912.554688	251.588181
2751.934415	17365.944500	911.387695	351.563629
2751.934415	17365.944500	910.220703	263.646667
2751.934415	17365.944500	909.052734	80.757294
2751.934415	17365.944500	907.885742	81.278503
2751.934415	17365.944500	906.717773	128.080017
2751.934415	17365.944500	905.548828	-76.062561
2751.934415	17365.944500	904.380859	94.871071
2751.934415	17365.944500	903.211914	160.290100
2751.934415	17365.944500	902.042969	128.680084
2751.934415	17365.944500	900.874023	366.551300
2751.934415	17365.944500	899.704102	399.982178
2751.934415	17365.944500	898.535156	355.397308
2751.934415	17365.944500	897.365234	247.590698
2751.934415	17365.944500	896.194336	209.171997
2751.934415	17365.944500	895.024414	488.350464
2751.934415	17365.944500	893.853516	228.828796
2751.934415	17365.944500	892.682617	320.519073
2751.934415	17365.944500	891.511719	504.585876
2751.934415	17365.944500	890.340820	368.943756
2751.934415	17365.944500	889.168945	601.068909
2751.934415	17365.944500	887.997070	500.989899
2751.934415	17365.944500	886.825195	524.804016
2751.934415	17365.944500	885.653320	605.222656
2751.934415	17365.944500	884.480469	628.812500
2751.934415	17365.944500	883.307617	536.815430
2751.934415	17365.944500	882.134766	566.511169
2751.934415	17365.944500	880.961914	424.000031
2751.934415	17365.944500	879.788086	317.124603
2751.934415	17365.944500	878.614258	352.853699
2751.934415	17365.944500	877.440430	457.687836
2751.934415	17365.944500	876.266602	539.316040
2751.934415	17365.944500	875.091797	151.181320
2751.934415	17365.944500	873.916992	324.884583
2751.934415	17365.944500	872.742188	372.678314
2751.934415	17365.944500	871.567383	462.264282
2751.934415	17365.944500	870.391602	836.629089
2751.934415	17365.944500	869.215820	354.114258
2751.934415	17365.944500	868.040039	468.503510
2751.934415	17365.944500	866.864258	714.650940
2751.934415	17365.944500	865.687500	451.968658
2751.934415	17365.944500	864.510742	212.322922
2751.934415	17365.944500	863.333984	250.962296
2751.934415	17365.944500	862.157227	155.616898
2751.934415	17365.944500	860.979492	254.728775
2751.934415	17365.944500	859.802734	278.431061
2751.934415	17365.944500	858.625000	387.753784
2751.934415	17365.944500	857.446289	143.707031
2751.934415	17365.944500	856.268555	317.618713
2751.934415	17365.944500	855.089844	83.959862
2751.934415	17365.944500	853.911133	220.042664
2751.934415	17365.944500	852.731445	163.848755
2751.934415	17365.944500	851.552734	220.343353
2751.934415	17365.944500	850.373047	243.330872
2751.934415	17365.944500	849.193359	527.120911
2751.934415	17365.944500	848.013672	272.332184
2751.934415	17365.944500	846.833008	443.174591
2751.934415	17365.944500	845.652344	530.429565
2751.934415	17365.944500	844.471680	459.071411
2751.934415	17365.944500	843.291016	406.426849
2751.934415	17365.944500	842.110352	287.016083
2751.934415	17365.944500	840.928711	94.629601
2751.934415	17365.944500	839.747070	185.631317
2751.934415	17365.944500	838.564453	-33.895370
2751.934415	17365.944500	837.382813	-70.117401
2751.934415	17365.944500	836.200195	-87.659683
2751.934415	17365.944500	835.017578	-303.065308
2751.934415	17365.944500	833.834961	-152.097290
2751.934415	17365.944500	832.651367	-109.487030
2751.934415	17365.944500	831.467773	-106.503929
2751.934415	17365.944500	830.284180	-84.874908
2751.934415	17365.944500	829.100586	-5.092477
2751.934415	17365.944500	827.916992	-23.151110
2751.934415	17365.944500	826.732422	21.095455
2751.934415	17365.944500	825.547852	-252.773254
2751.934415	17365.944500	824.363281	-295.925537
2751.934415	17365.944500	823.177734	-69.023880
2751.934415	17365.944500	821.992188	-101.951469
2751.934415	17365.944500	820.806641	-68.475220
2751.934415	17365.944500	819.621094	-111.910873
2751.934415	17365.944500	818.434570	-26.684824
2751.934415	17365.944500	817.249023	-22.510702
2751.934415	17365.944500	816.062500	-93.111145
2751.934415	17365.944500	814.875000	-20.593060
2751.934415	17365.944500	813.688477	-155.603348
2751.934415	17365.944500	812.500977	-307.214569
2751.934415	17365.944500	811.313477	-120.855240
2751.934415	17365.944500	810.125977	-34.142876
2751.934415	17365.944500	808.937500	-73.958359
2751.934415	17365.944500	807.749023	31.229898
2751.934415	17365.944500	806.560547	-81.220963
2751.934415	17365.944500	805.372070	-276.539734
2751.934415	17365.944500	804.182617	79.015518
2751.934415	17365.944500	802.994141	-159.857361
2751.934415	17365.944500	801.803711	255.436096
2751.934415	17365.944500	800.614258	-91.114182
2751.934415	17365.944500	799.424805	-7.192020
2751.934415	17365.944500	798.234375	-119.894569
2751.934415	17365.944500	797.043945	222.421570
2751.934415	17365.944500	795.852539	-74.438484
2751.934415	17365.944500	794.662109	104.284325
2751.934415	17365.944500	793.470703	572.261047
2751.934415	17365.944500	792.279297	628.734802
2751.934415	17365.944500	791.087891	732.653625
2751.934415	17365.944500	789.895508	919.104736
2751.934415	17365.944500	788.703125	909.220032
2751.934415	17365.944500	787.510742	630.851929
2751.934415	17365.944500	786.318359	556.928772
2751.934415	17365.944500	785.125000	648.107971
2751.934415	17365.944500	783.931641	658.718994
2751.934415	17365.944500	782.738281	613.569214
2751.934415	17365.944500	781.544922	339.425934
2751.934415	17365.944500	780.350586	228.269638
2751.934415	17365.944500	779.156250	288.250214
2751.934415	17365.944500	777.961914	216.224930
2751.934415	17365.944500	776.767578	34.949406
2751.934415	17365.944500	775.572266	208.127548
2751.934415	17365.944500	774.376953	37.139950
2751.934415	17365.944500	773.181641	253.413162
2751.934415	17365.944500	771.986328	109.171600
2751.934415	17365.944500	770.790039	-18.582117
2751.934415	17365.944500	769.593750	300.363800
2751.934415	17365.944500	768.397461	14.072627
2751.934415	17365.944500	767.201172	65.309822
2751.934415	17365.944500	766.003906	114.427505
2751.934415	17365.944500	764.806641	27.741102
2751.934415	17365.944500	763.609375	33.588345
2751.934415	17365.944500	762.412109	119.576485
2751.934415	17365.944500	761.213867	38.997959
2751.934415	17365.944500	760.015625	408.473053
2751.934415	17365.944500	758.817383	442.857025
2751.934415	17365.944500	757.618164	384.753845
2751.934415	17365.944500	756.419922	490.944427
2751.934415	17365.944500	755.220703	393.777374
2751.934415	17365.944500	754.021484	276.089874
2751.934415	17365.944500	752.821289	222.047256
2751.934415	17365.944500	751.621094	192.621582
2751.934415	17365.944500	750.420898	386.806824
2751.934415	17365.944500	749.220703	45.521828
2751.934415	17365.944500	748.020508	11.966641
2751.934415	17365.944500	746.819336	-156.924927
2751.934415	17365.944500	745.618164	41.164024
2751.934415	17365.944500	744.416992	148.967728
2751.934415	17365.944500	743.214844	160.395554
2751.934415	17365.944500	742.012695	102.142372
2751.934415	17365.944500	740.810547	545.701233
2751.934415	17365.944500	739.608398	575.403137
2751.934415	17365.944500	738.406250	850.753723
2751.934415	17365.944500	737.203125	1295.862549
2751.934415	17365.944500	736.000000	1769.418823
2751.934415	17365.944500	734.795898	2365.521240
2751.934415	17365.944500	733.592773	2936.811768
2751.934415	17365.944500	732.388672	3072.215576
2751.934415	17365.944500	731.184570	3090.994873
2751.934415	17365.944500	729.979492	2950.289795
2751.934415	17365.944500	728.775391	2298.651611
2751.934415	17365.944500	727.570313	1990.579224
2751.934415	17365.944500	726.365234	1839.939941
2751.934415	17365.944500	725.160156	1378.871338
2751.934415	17365.944500	723.954102	1203.894775
2751.934415	17365.944500	722.748047	935.059998
2751.934415	17365.944500	721.541992	825.556396
2751.934415	17365.944500	720.334961	754.867432
2751.934415	17365.944500	719.128906	569.935181
2751.934415	17365.944500	717.921875	487.078125
2751.934415	17365.944500	716.714844	506.233643
2751.934415	17365.944500	715.506836	274.551208
2751.934415	17365.944500	714.298828	301.891052
2751.934415	17365.944500	713.090820	200.800919
2751.934415	17365.944500	711.882813	301.509338
2751.934415	17365.944500	710.674805	231.024063
2751.934415	17365.944500	709.465820	52.601990
2751.934415	17365.944500	708.256836	163.463699
2751.934415	17365.944500	707.047852	145.999786
2751.934415	17365.944500	705.837891	207.941772
2751.934415	17365.944500	704.627930	312.605927
2751.934415	17365.944500	703.417969	502.701233
2751.934415	17365.944500	702.208008	542.168091
2751.934415	17365.944500	700.998047	634.513306
2751.934415	17365.944500	699.787109	783.770142
2751.934415	17365.944500	698.576172	869.943481
2751.934415	17365.944500	697.364258	889.006958
2751.934415	17365.944500	696.153320	747.515930
2751.934415	17365.944500	694.941406	671.119202
2751.934415	17365.944500	693.729492	604.926941
2751.934415	17365.944500	692.516602	595.645447
2751.934415	17365.944500	691.304688	379.256561
2751.934415	17365.944500	690.091797	481.723724
2751.934415	17365.944500	688.878906	438.018341
2751.934415	17365.944500	687.665039	546.552856
2751.934415	17365.944500	686.451172	379.121826
2751.934415	17365.944500	685.237305	104.267319
2751.934415	17365.944500	684.023438	10.054713
2751.934415	17365.944500	682.809570	218.030869
2751.934415	17365.944500	681.594727	101.578011
2751.934415	17365.944500	680.379883	222.339325
2751.934415	17365.944500	679.165039	-102.735985
2751.934415	17365.944500	677.949219	26.172829
2751.934415	17365.944500	676.733398	-67.756912
2751.934415	17365.944500	675.517578	-5.682450
2751.934415	17365.944500	674.301758	11.851270
2751.934415	17365.944500	673.084961	-45.491154
2751.934415	17365.944500	671.869141	30.797966
2751.934415	17365.944500	670.651367	54.475231
2751.934415	17365.944500	669.434570	132.798645
2751.934415	17365.944500	668.216797	152.468643
2751.934415	17365.944500	667.000000	87.235840
2751.934415	17365.944500	665.781250	84.738052
2751.934415	17365.944500	664.563477	-93.573730
2751.934415	17365.944500	663.344727	63.693546
2751.934415	17365.944500	662.125977	-61.929634
2751.934415	17365.944500	660.907227	85.243210
2751.934415	17365.944500	659.688477	89.005005
2751.934415	17365.944500	658.468750	123.092949
2751.934415	17365.944500	657.249023	82.516876
2751.934415	17365.944500	656.029297	161.082397
2751.934415	17365.944500	654.808594	19.710402
2751.934415	17365.944500	653.587891	90.276817
2751.934415	17365.944500	652.367188	255.661453
2751.934415	17365.944500	651.146484	130.631805
2751.934415	17365.944500	649.924805	158.934113
2751.934415	17365.944500	648.704102	159.054214
2751.934415	17365.944500	647.482422	483.691711
2751.934415	17365.944500	646.259766	419.367126
2751.934415	17365.944500	645.037109	343.036163
2751.934415	17365.944500	643.815430	365.479523
2751.934415	17365.944500	642.591797	164.454254
2751.934415	17365.944500	641.369141	136.704987
2751.934415	17365.944500	640.145508	161.355682
2751.934415	17365.944500	638.921875	81.410561
2751.934415	17365.944500	637.698242	164.523773
2751.934415	17365.944500	636.474609	251.683472
2751.934415	17365.944500	635.250000	385.119690
2751.934415	17365.944500	634.025391	383.847260
2751.934415	17365.944500	632.800781	605.771240
2751.934415	17365.944500	631.575195	512.125732
2751.934415	17365.944500	630.349609	782.278870
2751.934415	17365.944500	629.124023	435.635712
2751.934415	17365.944500	627.898438	830.346436
2751.934415	17365.944500	626.671875	724.941162
2751.934415	17365.944500	625.445313	866.589539
2751.934415	17365.944500	624.218750	719.202454
2751.934415	17365.944500	622.992188	668.271851
2751.934415	17365.944500	621.764648	683.643433
2751.934415	17365.944500	620.537109	913.715088
2751.934415	17365.944500	619.309570	738.640869
2751.934415	17365.944500	618.081055	812.346680
2751.934415	17365.944500	616.852539	735.739990
2751.934415	17365.944500	615.624023	783.502075
2751.934415	17365.944500	614.395508	642.956726
2751.934415	17365.944500	613.166992	366.312622
2751.934415	17365.944500	611.937500	452.400238
2751.934415	17365.944500	610.708008	230.132446
2751.934415	17365.944500	609.477539	178.215851
2751.934415	17365.944500	608.248047	-225.904602
2751.934415	17365.944500	607.017578	-99.435417
2751.934415	17365.944500	605.787109	-241.057739
2751.934415	17365.944500	604.555664	-54.471096
2751.934415	17365.944500	603.325195	-331.888306
2751.934415	17365.944500	602.093750	-199.194183
2751.934415	17365.944500	600.861328	-324.366669
2751.934415	17365.944500	599.629883	-289.509644
2751.934415	17365.944500	598.397461	-158.667786
2751.934415	17365.944500	597.165039	-205.612640
2751.934415	17365.944500	595.932617	-376.298981
2751.934415	17365.944500	594.699219	-474.937683
2751.934415	17365.944500	593.465820	-377.784973
2751.934415	17365.944500	592.232422	-120.898201
2751.934415	17365.944500	590.999023	-67.605301
2751.934415	17365.944500	589.764648	65.561714
2751.934415	17365.944500	588.530273	-80.532623
2751.934415	17365.944500	587.295898	94.629402
2751.934415	17365.944500	586.061523	198.013718
2751.934415	17365.944500	584.826172	257.578705
2751.934415	17365.944500	583.590820	177.676788
2751.934415	17365.944500	582.355469	26.152716
2751.934415	17365.944500	581.119141	-125.222527
2751.934415	17365.944500	579.882813	-123.070412
2751.934415	17365.944500	578.646484	-33.209377
2751.934415	17365.944500	577.410156	14.882942
2751.934415	17365.944500	576.172852	39.152458
2751.934415	17365.944500	574.935547	105.290787
2751.934415	17365.944500	573.698242	141.635620
2751.934415	17365.944500	572.460938	-86.539856
2751.934415	17365.944500	571.222656	-46.023960
2751.934415	17365.944500	569.984375	119.835442
2751.934415	17365.944500	568.746094	-94.023506
2751.934415	17365.944500	567.506836	113.683197
2751.934415	17365.944500	566.267578	67.013641
2751.934415	17365.944500	565.028320	-23.266022
2751.934415	17365.944500	563.789063	168.643509
2751.934415	17365.944500	562.548828	259.270477
2751.934415	17365.944500	561.309570	490.908356
2751.934415	17365.944500	560.068359	158.754410
2751.934415	17365.944500	558.828125	118.570045
2751.934415	17365.944500	557.586914	100.311844
2751.934415	17365.944500	556.345703	228.944290
2751.934415	17365.944500	555.104492	254.458786
2751.934415	17365.944500	553.863281	299.869110
2751.934415	17365.944500	552.621094	129.234894
2751.934415	17365.944500	551.378906	297.698914
2751.934415	17365.944500	550.136719	228.353912
2751.934415	17365.944500	548.893555	529.621826
2751.934415	17365.944500	547.650391	494.078735
2751.934415	17365.944500	546.407227	407.128754
2751.934415	17365.944500	545.164063	381.666168
2751.934415	17365.944500	543.919922	378.062164
2751.934415	17365.944500	542.675781	687.239990
2751.934415	17365.944500	541.431641	531.337036
2751.934415	17365.944500	540.186523	751.456787
2751.934415	17365.944500	538.941406	763.861023
2751.934415	17365.944500	537.696289	529.132324
2751.934415	17365.944500	536.451172	844.192871
2751.934415	17365.944500	535.205078	775.708618
2751.934415	17365.944500	533.959961	653.946228
2751.934415	17365.944500	532.712891	295.202789
2751.934415	17365.944500	531.466797	396.925629
2751.934415	17365.944500	530.219727	518.410217
2751.934415	17365.944500	528.972656	290.397034
2751.934415	17365.944500	527.725586	129.648712
2751.934415	17365.944500	526.478516	-78.354454
2751.934415	17365.944500	525.230469	-144.145859
2751.934415	17365.944500	523.982422	78.166855
2751.934415	17365.944500	522.734375	-34.889313
2751.934415	17365.944500	521.485352	100.614975
2751.934415	17365.944500	520.236328	64.567886
2751.934415	17365.944500	518.987305	91.643646
2751.934415	17365.944500	517.737305	-98.040085
2751.934415	17365.944500	516.488281	-25.570211
2751.934415	17365.944500	515.238281	115.842796
2751.934415	17365.944500	513.988281	-101.226868
2751.934415	17365.944500	512.737305	61.842106
2751.934415	17365.944500	511.486328	98.864914
2751.934415	17365.944500	510.235352	-21.572649
2751.934415	17365.944500	508.984375	60.729397
2751.934415	17365.944500	507.732422	-63.564976
2751.934415	17365.944500	506.480469	46.259449
2751.934415	17365.944500	505.228516	262.225616
2751.934415	17365.944500	503.976563	362.094727
2751.934415	17365.944500	502.723633	680.104553
2751.934415	17365.944500	501.470703	616.710205
2751.934415	17365.944500	500.217773	869.659851
2751.934415	17365.944500	498.963867	1075.340454
2751.934415	17365.944500	497.709961	1249.485107
2751.934415	17365.944500	496.456055	1107.396484
2751.934415	17365.944500	495.202148	973.187683
2751.934415	17365.944500	493.947266	1196.216553
2751.934415	17365.944500	492.692383	1040.388184
2751.934415	17365.944500	491.437500	1155.317871
2751.934415	17365.944500	490.181641	1056.355713
2751.934415	17365.944500	488.926758	978.947388
2751.934415	17365.944500	487.670898	936.808533
2751.934415	17365.944500	486.414063	890.706665
2751.934415	17365.944500	485.158203	852.390137
2751.934415	17365.944500	483.901367	960.967590
2751.934415	17365.944500	482.644531	918.583496
2751.934415	17365.944500	481.386719	1152.280884
2751.934415	17365.944500	480.128906	1049.002075
2751.934415	17365.944500	478.871094	990.696411
2751.934415	17365.944500	477.613281	1180.878906
2751.934415	17365.944500	476.355469	1425.660889
2751.934415	17365.944500	475.096680	1466.765137
2751.934415	17365.944500	473.837891	1650.515503
2751.934415	17365.944500	472.578125	1648.289429
2751.934415	17365.944500	471.319336	1905.954956
2751.934415	17365.944500	470.059570	1963.997437
2751.934415	17365.944500	468.799805	2117.627441
2751.934415	17365.944500	467.539063	2093.242920
2751.934415	17365.944500	466.278320	1771.790527
2751.934415	17365.944500	465.017578	1712.010498
2751.934415	17365.944500	463.756836	1548.597168
2751.934415	17365.944500	462.495117	1677.897461
2751.934415	17365.944500	461.233398	1441.980347
2751.934415	17365.944500	459.971680	1531.837280
2751.934415	17365.944500	458.709961	1605.843506
2751.934415	17365.944500	457.447266	1465.058960
2751.934415	17365.944500	456.184570	1521.067993
2751.934415	17365.944500	454.921875	1756.189819
2751.934415	17365.944500	453.658203	1872.075195
2751.934415	17365.944500	452.394531	2106.540039
2751.934415	17365.944500	451.130859	2221.800293
2751.934415	17365.944500	449.867188	2241.299561
2751.934415	17365.944500	448.602539	2316.999023
2751.934415	17365.944500	447.337891	2400.173584
2751.934415	17365.944500	446.073242	2331.182129
2751.934415	17365.944500	444.807617	2086.759766
2751.934415	17365.944500	443.542969	2169.032715
2751.934415	17365.944500	442.276367	2262.623535
2751.934415	17365.944500	441.010742	2139.952881
2751.934415	17365.944500	439.744141	2081.166260
2751.934415	17365.944500	438.478516	2142.593750
2751.934415	17365.944500	437.210938	2176.421875
2751.934415	17365.944500	435.944336	2130.190918
2751.934415	17365.944500	434.676758	2058.339111
2751.934415	17365.944500	433.409180	1931.739136
2751.934415	17365.944500	432.141602	1948.501343
2751.934415	17365.944500	430.873047	1892.998413
2751.934415	17365.944500	429.604492	1732.270142
2751.934415	17365.944500	428.335938	1792.421509
2751.934415	17365.944500	427.067383	1749.258301
2751.934415	17365.944500	425.797852	1726.988037
2751.934415	17365.944500	424.528320	1770.196167
2751.934415	17365.944500	423.258789	1328.126465
2751.934415	17365.944500	421.988281	1283.171387
2751.934415	17365.944500	420.717773	1448.992920
2751.934415	17365.944500	419.447266	1581.272827
2751.934415	17365.944500	418.175781	1509.523682
2751.934415	17365.944500	416.905273	1324.913330
2751.934415	17365.944500	415.633789	1476.774170
2751.934415	17365.944500	414.362305	1413.076050
2751.934415	17365.944500	413.089844	1267.502686
2751.934415	17365.944500	411.817383	1342.009888
2751.934415	17365.944500	410.544922	1352.009155
2751.934415	17365.944500	409.272461	1405.860474
2751.934415	17365.944500	407.999023	1370.058350
2751.934415	17365.944500	406.725586	1196.315308
2751.934415	17365.944500	405.452148	1398.940674
2751.934415	17365.944500	404.177734	1536.985474
2751.934415	17365.944500	402.903320	1473.287109
2751.934415	17365.944500	401.628906	1318.083984
2751.934415	17365.944500	400.354492	1320.585693
2751.934415	17365.944500	399.079102	1521.212524
2751.934415	17365.944500	397.803711	1274.980713
2751.934415	17365.944500	396.528320	1278.993042
2751.934415	17365.944500	395.251953	1351.647461
2751.934415	17365.944500	393.976563	1267.168457
2751.934415	17365.944500	392.700195	1123.987793
2751.934415	17365.944500	391.422852	1249.987427
2751.934415	17365.944500	390.145508	1076.175415
2751.934415	17365.944500	388.869141	1059.628296
2751.934415	17365.944500	387.590820	1030.560059
2751.934415	17365.944500	386.313477	1145.100464
2751.934415	17365.944500	385.035156	1000.454773
2751.934415	17365.944500	383.756836	1047.498291
2751.934415	17365.944500	382.478516	937.539063
2751.934415	17365.944500	381.199219	934.395569
2751.934415	17365.944500	379.919922	1024.527466
2751.934415	17365.944500	378.640625	973.073425
2751.934415	17365.944500	377.360352	901.291748
2751.934415	17365.944500	376.080078	997.709351
2751.934415	17365.944500	374.799805	981.414124
2751.934415	17365.944500	373.519531	852.458496
2751.934415	17365.944500	372.238281	731.971619
2751.934415	17365.944500	370.957031	919.768677
2751.934415	17365.944500	369.675781	898.748108
2751.934415	17365.944500	368.394531	824.629395
2751.934415	17365.944500	367.112305	941.314148
2751.934415	17365.944500	365.830078	845.437500
2751.934415	17365.944500	364.546875	1114.942505
2751.934415	17365.944500	363.264648	1037.542236
2751.934415	17365.944500	361.981445	1047.055786
2751.934415	17365.944500	360.698242	755.888672
2751.934415	17365.944500	359.414063	977.464233
2751.934415	17365.944500	358.129883	739.175720
2751.934415	17365.944500	356.845703	710.437439
2751.934415	17365.944500	355.561523	639.974915
2751.934415	17365.944500	354.276367	863.126770
2751.934415	17365.944500	352.991211	728.261108
2751.934415	17365.944500	351.706055	668.517761
2751.934415	17365.944500	350.420898	519.112366
2751.934415	17365.944500	349.134766	668.733032
2751.934415	17365.944500	347.848633	472.056152
2751.934415	17365.944500	346.561523	505.332245
2751.934415	17365.944500	345.275391	557.995056
2751.934415	17365.944500	343.988281	622.246887
2751.934415	17365.944500	342.700195	305.942322
2751.934415	17365.944500	341.413086	102.782715
2751.934415	17365.944500	340.125000	154.030975
2751.934415	17365.944500	338.836914	147.979630
2751.934415	17365.944500	337.548828	237.519119
2751.934415	17365.944500	336.259766	34.638763
2751.934415	17365.944500	334.970703	68.686020
2751.934415	17365.944500	333.681641	150.405914
2751.934415	17365.944500	332.391602	-46.832825
2751.934415	17365.944500	331.101563	42.234711
2751.934415	17365.944500	329.811523	7.054773
2751.934415	17365.944500	328.521484	21.315525
2751.934415	17365.944500	327.230469	-62.014294
2751.934415	17365.944500	325.939453	43.259834
2751.934415	17365.944500	324.648438	-120.668999
2751.934415	17365.944500	323.356445	-208.664063
2751.934415	17365.944500	322.064453	-70.157890
2751.934415	17365.944500	320.772461	92.668655
2751.934415	17365.944500	319.480469	-221.303131
2751.934415	17365.944500	318.187500	-32.815739
2751.934415	17365.944500	316.894531	-62.007156
2751.934415	17365.944500	315.601563	-145.030212
2751.934415	17365.944500	314.307617	-42.127956
2751.934415	17365.944500	313.013672	-162.545349
2751.934415	17365.944500	311.719727	-47.615887
2751.934415	17365.944500	310.425781	-72.286598
2751.934415	17365.944500	309.130859	-223.284027
2751.934415	17365.944500	307.835938	134.617859
2751.934415	17365.944500	306.541016	18.207375
2751.934415	17365.944500	305.245117	22.549843
2751.934415	17365.944500	303.949219	83.022667
2751.934415	17365.944500	302.653320	347.731537
2751.934415	17365.944500	301.356445	237.084167
2751.934415	17365.944500	300.060547	457.918823
2751.934415	17365.944500	298.763672	407.917236
