#X		#Y		#Wave		#Intensity
2850.322287	17458.167500	2000.043945	-4.693278
2850.322287	17458.167500	1999.080078	106.907341
2850.322287	17458.167500	1998.116211	60.066795
2850.322287	17458.167500	1997.151367	25.593542
2850.322287	17458.167500	1996.186523	85.244156
2850.322287	17458.167500	1995.222656	127.489243
2850.322287	17458.167500	1994.256836	-28.458769
2850.322287	17458.167500	1993.291992	-15.999280
2850.322287	17458.167500	1992.327148	-70.429504
2850.322287	17458.167500	1991.361328	-48.135696
2850.322287	17458.167500	1990.395508	127.561691
2850.322287	17458.167500	1989.429688	122.523163
2850.322287	17458.167500	1988.463867	-147.266769
2850.322287	17458.167500	1987.497070	40.623798
2850.322287	17458.167500	1986.531250	181.424149
2850.322287	17458.167500	1985.564453	-160.021683
2850.322287	17458.167500	1984.597656	-145.374908
2850.322287	17458.167500	1983.630859	-91.212639
2850.322287	17458.167500	1982.664063	44.455353
2850.322287	17458.167500	1981.696289	88.629967
2850.322287	17458.167500	1980.728516	-94.509155
2850.322287	17458.167500	1979.761719	-220.798920
2850.322287	17458.167500	1978.792969	-142.097092
2850.322287	17458.167500	1977.825195	121.725357
2850.322287	17458.167500	1976.857422	-90.995842
2850.322287	17458.167500	1975.888672	-125.956360
2850.322287	17458.167500	1974.919922	-47.413074
2850.322287	17458.167500	1973.951172	31.082039
2850.322287	17458.167500	1972.982422	-87.805237
2850.322287	17458.167500	1972.013672	69.551804
2850.322287	17458.167500	1971.043945	59.163338
2850.322287	17458.167500	1970.075195	-111.484085
2850.322287	17458.167500	1969.105469	16.165308
2850.322287	17458.167500	1968.135742	64.891693
2850.322287	17458.167500	1967.165039	84.020561
2850.322287	17458.167500	1966.195313	-54.535755
2850.322287	17458.167500	1965.224609	-64.974609
2850.322287	17458.167500	1964.253906	-117.286362
2850.322287	17458.167500	1963.283203	47.075405
2850.322287	17458.167500	1962.312500	-39.723778
2850.322287	17458.167500	1961.341797	95.005035
2850.322287	17458.167500	1960.370117	40.198406
2850.322287	17458.167500	1959.399414	49.367332
2850.322287	17458.167500	1958.427734	97.882484
2850.322287	17458.167500	1957.455078	-20.865164
2850.322287	17458.167500	1956.483398	76.803352
2850.322287	17458.167500	1955.511719	130.176025
2850.322287	17458.167500	1954.539063	-113.895737
2850.322287	17458.167500	1953.566406	187.687454
2850.322287	17458.167500	1952.593750	118.132904
2850.322287	17458.167500	1951.621094	127.207451
2850.322287	17458.167500	1950.647461	-89.693649
2850.322287	17458.167500	1949.674805	83.934700
2850.322287	17458.167500	1948.701172	132.274307
2850.322287	17458.167500	1947.727539	241.958664
2850.322287	17458.167500	1946.753906	-104.909561
2850.322287	17458.167500	1945.780273	-22.227697
2850.322287	17458.167500	1944.805664	-91.693428
2850.322287	17458.167500	1943.831055	98.874519
2850.322287	17458.167500	1942.856445	88.259407
2850.322287	17458.167500	1941.881836	-108.713509
2850.322287	17458.167500	1940.907227	13.087627
2850.322287	17458.167500	1939.932617	142.190170
2850.322287	17458.167500	1938.957031	-0.785350
2850.322287	17458.167500	1937.981445	96.407669
2850.322287	17458.167500	1937.005859	44.122711
2850.322287	17458.167500	1936.030273	-64.484055
2850.322287	17458.167500	1935.054688	27.749414
2850.322287	17458.167500	1934.078125	85.666153
2850.322287	17458.167500	1933.101563	141.106476
2850.322287	17458.167500	1932.125000	59.459885
2850.322287	17458.167500	1931.148438	242.115875
2850.322287	17458.167500	1930.171875	47.923901
2850.322287	17458.167500	1929.194336	113.086235
2850.322287	17458.167500	1928.217773	136.640076
2850.322287	17458.167500	1927.240234	62.369083
2850.322287	17458.167500	1926.262695	-11.881637
2850.322287	17458.167500	1925.284180	-386.760468
2850.322287	17458.167500	1924.306641	-52.795654
2850.322287	17458.167500	1923.328125	-139.225159
2850.322287	17458.167500	1922.350586	138.363205
2850.322287	17458.167500	1921.372070	81.220657
2850.322287	17458.167500	1920.392578	19.207184
2850.322287	17458.167500	1919.414063	-50.119503
2850.322287	17458.167500	1918.434570	-19.345207
2850.322287	17458.167500	1917.456055	128.556549
2850.322287	17458.167500	1916.476563	193.426651
2850.322287	17458.167500	1915.497070	58.201935
2850.322287	17458.167500	1914.516602	-120.891266
2850.322287	17458.167500	1913.537109	-217.011017
2850.322287	17458.167500	1912.556641	-193.627121
2850.322287	17458.167500	1911.576172	15.016581
2850.322287	17458.167500	1910.595703	-27.490549
2850.322287	17458.167500	1909.615234	-67.560135
2850.322287	17458.167500	1908.633789	111.660927
2850.322287	17458.167500	1907.653320	-74.616196
2850.322287	17458.167500	1906.671875	75.279053
2850.322287	17458.167500	1905.690430	-276.546539
2850.322287	17458.167500	1904.708984	72.943527
2850.322287	17458.167500	1903.727539	-118.123344
2850.322287	17458.167500	1902.745117	104.612602
2850.322287	17458.167500	1901.762695	49.842140
2850.322287	17458.167500	1900.780273	-187.397263
2850.322287	17458.167500	1899.797852	142.195541
2850.322287	17458.167500	1898.815430	-41.509953
2850.322287	17458.167500	1897.832031	44.734528
2850.322287	17458.167500	1896.849609	-34.390820
2850.322287	17458.167500	1895.866211	-60.035320
2850.322287	17458.167500	1894.882813	-100.274734
2850.322287	17458.167500	1893.898438	73.293388
2850.322287	17458.167500	1892.915039	-93.328362
2850.322287	17458.167500	1891.930664	-17.031708
2850.322287	17458.167500	1890.947266	78.637199
2850.322287	17458.167500	1889.962891	-24.846300
2850.322287	17458.167500	1888.977539	318.334351
2850.322287	17458.167500	1887.993164	265.754272
2850.322287	17458.167500	1887.007813	169.487198
2850.322287	17458.167500	1886.023438	264.886658
2850.322287	17458.167500	1885.038086	231.661057
2850.322287	17458.167500	1884.051758	72.305618
2850.322287	17458.167500	1883.066406	-2.158009
2850.322287	17458.167500	1882.081055	-30.566019
2850.322287	17458.167500	1881.094727	23.413240
2850.322287	17458.167500	1880.108398	-17.174618
2850.322287	17458.167500	1879.122070	-31.132149
2850.322287	17458.167500	1878.135742	-103.259956
2850.322287	17458.167500	1877.148438	-37.343758
2850.322287	17458.167500	1876.162109	-240.284332
2850.322287	17458.167500	1875.174805	-2.547830
2850.322287	17458.167500	1874.187500	-227.283783
2850.322287	17458.167500	1873.199219	49.003159
2850.322287	17458.167500	1872.211914	68.651787
2850.322287	17458.167500	1871.223633	-35.133511
2850.322287	17458.167500	1870.236328	-39.752090
2850.322287	17458.167500	1869.248047	-17.811260
2850.322287	17458.167500	1868.258789	54.853039
2850.322287	17458.167500	1867.270508	42.830963
2850.322287	17458.167500	1866.282227	81.523926
2850.322287	17458.167500	1865.292969	-63.505718
2850.322287	17458.167500	1864.303711	62.074341
2850.322287	17458.167500	1863.314453	189.973206
2850.322287	17458.167500	1862.324219	117.310677
2850.322287	17458.167500	1861.334961	-124.409439
2850.322287	17458.167500	1860.344727	44.339451
2850.322287	17458.167500	1859.354492	-105.657005
2850.322287	17458.167500	1858.364258	-50.512955
2850.322287	17458.167500	1857.374023	158.982635
2850.322287	17458.167500	1856.383789	95.732201
2850.322287	17458.167500	1855.392578	-105.039345
2850.322287	17458.167500	1854.401367	82.471497
2850.322287	17458.167500	1853.410156	-17.072102
2850.322287	17458.167500	1852.418945	95.501839
2850.322287	17458.167500	1851.426758	12.742204
2850.322287	17458.167500	1850.435547	142.012390
2850.322287	17458.167500	1849.443359	30.239100
2850.322287	17458.167500	1848.451172	190.644165
2850.322287	17458.167500	1847.458984	52.282364
2850.322287	17458.167500	1846.466797	-117.396988
2850.322287	17458.167500	1845.473633	105.342133
2850.322287	17458.167500	1844.480469	106.481552
2850.322287	17458.167500	1843.487305	158.089737
2850.322287	17458.167500	1842.494141	110.957802
2850.322287	17458.167500	1841.500977	49.338787
2850.322287	17458.167500	1840.506836	139.200806
2850.322287	17458.167500	1839.513672	216.933090
2850.322287	17458.167500	1838.519531	246.475601
2850.322287	17458.167500	1837.525391	194.200287
2850.322287	17458.167500	1836.530273	55.344528
2850.322287	17458.167500	1835.536133	135.137985
2850.322287	17458.167500	1834.541016	176.382339
2850.322287	17458.167500	1833.545898	-89.931961
2850.322287	17458.167500	1832.550781	203.352417
2850.322287	17458.167500	1831.555664	61.836224
2850.322287	17458.167500	1830.560547	136.356506
2850.322287	17458.167500	1829.564453	45.147198
2850.322287	17458.167500	1828.568359	126.676659
2850.322287	17458.167500	1827.572266	-0.652601
2850.322287	17458.167500	1826.576172	159.851959
2850.322287	17458.167500	1825.580078	-5.979421
2850.322287	17458.167500	1824.583008	91.944244
2850.322287	17458.167500	1823.585938	-95.564522
2850.322287	17458.167500	1822.588867	-24.203764
2850.322287	17458.167500	1821.591797	-27.253574
2850.322287	17458.167500	1820.594727	223.604614
2850.322287	17458.167500	1819.596680	146.059021
2850.322287	17458.167500	1818.599609	-127.958664
2850.322287	17458.167500	1817.601563	12.338881
2850.322287	17458.167500	1816.603516	11.221857
2850.322287	17458.167500	1815.604492	86.614502
2850.322287	17458.167500	1814.606445	-29.589846
2850.322287	17458.167500	1813.607422	208.319290
2850.322287	17458.167500	1812.608398	99.119331
2850.322287	17458.167500	1811.609375	-79.507820
2850.322287	17458.167500	1810.610352	47.969337
2850.322287	17458.167500	1809.610352	17.475523
2850.322287	17458.167500	1808.611328	168.597610
2850.322287	17458.167500	1807.611328	-86.795807
2850.322287	17458.167500	1806.611328	171.628937
2850.322287	17458.167500	1805.610352	-83.873703
2850.322287	17458.167500	1804.610352	-119.593018
2850.322287	17458.167500	1803.609375	157.489243
2850.322287	17458.167500	1802.608398	143.020645
2850.322287	17458.167500	1801.607422	40.111893
2850.322287	17458.167500	1800.606445	190.175446
2850.322287	17458.167500	1799.605469	51.286873
2850.322287	17458.167500	1798.603516	127.101334
2850.322287	17458.167500	1797.601563	217.095062
2850.322287	17458.167500	1796.599609	27.862225
2850.322287	17458.167500	1795.597656	84.237190
2850.322287	17458.167500	1794.595703	107.100258
2850.322287	17458.167500	1793.592773	237.118835
2850.322287	17458.167500	1792.589844	-66.825996
2850.322287	17458.167500	1791.587891	60.578945
2850.322287	17458.167500	1790.583984	97.271919
2850.322287	17458.167500	1789.581055	-23.378759
2850.322287	17458.167500	1788.577148	-8.343101
2850.322287	17458.167500	1787.574219	-72.002457
2850.322287	17458.167500	1786.570313	-104.805763
2850.322287	17458.167500	1785.566406	-149.613297
2850.322287	17458.167500	1784.561523	-123.127647
2850.322287	17458.167500	1783.557617	36.491428
2850.322287	17458.167500	1782.552734	200.685791
2850.322287	17458.167500	1781.547852	38.835854
2850.322287	17458.167500	1780.542969	-39.834167
2850.322287	17458.167500	1779.538086	28.823763
2850.322287	17458.167500	1778.532227	-199.822250
2850.322287	17458.167500	1777.527344	-129.018463
2850.322287	17458.167500	1776.521484	96.094666
2850.322287	17458.167500	1775.515625	116.676636
2850.322287	17458.167500	1774.508789	-157.427322
2850.322287	17458.167500	1773.502930	-172.668564
2850.322287	17458.167500	1772.496094	-116.795807
2850.322287	17458.167500	1771.489258	-46.819984
2850.322287	17458.167500	1770.482422	27.754723
2850.322287	17458.167500	1769.475586	-170.734070
2850.322287	17458.167500	1768.467773	-229.287445
2850.322287	17458.167500	1767.460938	-72.055504
2850.322287	17458.167500	1766.453125	-47.836109
2850.322287	17458.167500	1765.445313	-0.033958
2850.322287	17458.167500	1764.437500	-158.643402
2850.322287	17458.167500	1763.428711	-54.203114
2850.322287	17458.167500	1762.420898	99.852829
2850.322287	17458.167500	1761.412109	57.043850
2850.322287	17458.167500	1760.403320	-4.825117
2850.322287	17458.167500	1759.393555	18.466599
2850.322287	17458.167500	1758.384766	74.789619
2850.322287	17458.167500	1757.375000	133.324600
2850.322287	17458.167500	1756.366211	-156.271194
2850.322287	17458.167500	1755.356445	60.615051
2850.322287	17458.167500	1754.345703	92.703629
2850.322287	17458.167500	1753.335938	-140.322098
2850.322287	17458.167500	1752.325195	-54.052078
2850.322287	17458.167500	1751.315430	-128.753616
2850.322287	17458.167500	1750.304688	-97.155807
2850.322287	17458.167500	1749.292969	-42.064655
2850.322287	17458.167500	1748.282227	126.348007
2850.322287	17458.167500	1747.270508	124.405167
2850.322287	17458.167500	1746.259766	91.631798
2850.322287	17458.167500	1745.248047	75.269379
2850.322287	17458.167500	1744.235352	179.233658
2850.322287	17458.167500	1743.223633	82.319862
2850.322287	17458.167500	1742.211914	193.084167
2850.322287	17458.167500	1741.199219	10.961246
2850.322287	17458.167500	1740.186523	137.953934
2850.322287	17458.167500	1739.173828	198.702988
2850.322287	17458.167500	1738.160156	230.979675
2850.322287	17458.167500	1737.147461	220.672501
2850.322287	17458.167500	1736.133789	-138.796387
2850.322287	17458.167500	1735.120117	-43.189106
2850.322287	17458.167500	1734.106445	158.338318
2850.322287	17458.167500	1733.091797	-41.030308
2850.322287	17458.167500	1732.078125	-35.419872
2850.322287	17458.167500	1731.063477	217.435410
2850.322287	17458.167500	1730.048828	81.395172
2850.322287	17458.167500	1729.034180	150.180405
2850.322287	17458.167500	1728.019531	-80.233032
2850.322287	17458.167500	1727.003906	-25.830832
2850.322287	17458.167500	1725.988281	68.440506
2850.322287	17458.167500	1724.972656	23.703386
2850.322287	17458.167500	1723.957031	-127.019371
2850.322287	17458.167500	1722.941406	138.574356
2850.322287	17458.167500	1721.924805	37.017906
2850.322287	17458.167500	1720.909180	34.156796
2850.322287	17458.167500	1719.892578	-102.851959
2850.322287	17458.167500	1718.875977	46.847790
2850.322287	17458.167500	1717.858398	-66.867256
2850.322287	17458.167500	1716.841797	73.126717
2850.322287	17458.167500	1715.824219	116.609909
2850.322287	17458.167500	1714.806641	-39.695782
2850.322287	17458.167500	1713.789063	156.197449
2850.322287	17458.167500	1712.770508	-84.837120
2850.322287	17458.167500	1711.752930	-187.382507
2850.322287	17458.167500	1710.734375	36.218418
2850.322287	17458.167500	1709.715820	-29.016933
2850.322287	17458.167500	1708.697266	-23.961031
2850.322287	17458.167500	1707.678711	58.383781
2850.322287	17458.167500	1706.659180	49.099216
2850.322287	17458.167500	1705.640625	-0.143448
2850.322287	17458.167500	1704.621094	-117.485161
2850.322287	17458.167500	1703.600586	79.169128
2850.322287	17458.167500	1702.581055	50.677898
2850.322287	17458.167500	1701.561523	221.237946
2850.322287	17458.167500	1700.541016	117.525192
2850.322287	17458.167500	1699.520508	114.448883
2850.322287	17458.167500	1698.500000	45.695278
2850.322287	17458.167500	1697.478516	339.726166
2850.322287	17458.167500	1696.458008	174.762619
2850.322287	17458.167500	1695.436523	232.063354
2850.322287	17458.167500	1694.415039	303.271606
2850.322287	17458.167500	1693.393555	421.131317
2850.322287	17458.167500	1692.372070	538.837646
2850.322287	17458.167500	1691.349609	492.678925
2850.322287	17458.167500	1690.327148	189.244217
2850.322287	17458.167500	1689.304688	304.252106
2850.322287	17458.167500	1688.282227	250.834290
2850.322287	17458.167500	1687.259766	503.440857
2850.322287	17458.167500	1686.236328	592.291443
2850.322287	17458.167500	1685.213867	732.410217
2850.322287	17458.167500	1684.190430	447.320557
2850.322287	17458.167500	1683.166016	605.853149
2850.322287	17458.167500	1682.142578	565.812988
2850.322287	17458.167500	1681.119141	710.075867
2850.322287	17458.167500	1680.094727	774.824890
2850.322287	17458.167500	1679.070313	904.778076
2850.322287	17458.167500	1678.045898	805.983337
2850.322287	17458.167500	1677.020508	613.824707
2850.322287	17458.167500	1675.996094	773.758606
2850.322287	17458.167500	1674.970703	865.909546
2850.322287	17458.167500	1673.945313	785.448181
2850.322287	17458.167500	1672.919922	760.856079
2850.322287	17458.167500	1671.893555	861.980774
2850.322287	17458.167500	1670.868164	841.859680
2850.322287	17458.167500	1669.841797	749.437866
2850.322287	17458.167500	1668.815430	701.206726
2850.322287	17458.167500	1667.789063	815.878357
2850.322287	17458.167500	1666.761719	751.166199
2850.322287	17458.167500	1665.735352	774.848694
2850.322287	17458.167500	1664.708008	1024.120239
2850.322287	17458.167500	1663.680664	1003.354492
2850.322287	17458.167500	1662.653320	980.187378
2850.322287	17458.167500	1661.625000	1068.552856
2850.322287	17458.167500	1660.597656	1238.197754
2850.322287	17458.167500	1659.569336	1154.302368
2850.322287	17458.167500	1658.541016	1030.850952
2850.322287	17458.167500	1657.512695	1323.307739
2850.322287	17458.167500	1656.483398	1411.113037
2850.322287	17458.167500	1655.455078	1271.198242
2850.322287	17458.167500	1654.425781	1247.360840
2850.322287	17458.167500	1653.396484	1462.615234
2850.322287	17458.167500	1652.366211	1438.586914
2850.322287	17458.167500	1651.336914	1317.039063
2850.322287	17458.167500	1650.306641	1362.527344
2850.322287	17458.167500	1649.276367	1493.773438
2850.322287	17458.167500	1648.246094	1634.182861
2850.322287	17458.167500	1647.215820	1586.619263
2850.322287	17458.167500	1646.185547	2000.438354
2850.322287	17458.167500	1645.154297	2045.408203
2850.322287	17458.167500	1644.123047	1893.283936
2850.322287	17458.167500	1643.091797	2077.179932
2850.322287	17458.167500	1642.060547	1975.964111
2850.322287	17458.167500	1641.028320	2185.118896
2850.322287	17458.167500	1639.997070	2324.677246
2850.322287	17458.167500	1638.964844	2552.098145
2850.322287	17458.167500	1637.931641	2443.662109
2850.322287	17458.167500	1636.899414	2777.345703
2850.322287	17458.167500	1635.867188	2893.309082
2850.322287	17458.167500	1634.833984	2743.070313
2850.322287	17458.167500	1633.800781	3041.633789
2850.322287	17458.167500	1632.767578	3018.541748
2850.322287	17458.167500	1631.734375	3004.665039
2850.322287	17458.167500	1630.700195	2960.673340
2850.322287	17458.167500	1629.666016	3027.610840
2850.322287	17458.167500	1628.631836	2898.037109
2850.322287	17458.167500	1627.597656	2962.571289
2850.322287	17458.167500	1626.563477	2842.226074
2850.322287	17458.167500	1625.528320	3045.236328
2850.322287	17458.167500	1624.493164	2987.182617
2850.322287	17458.167500	1623.458008	2977.603760
2850.322287	17458.167500	1622.422852	3060.331299
2850.322287	17458.167500	1621.387695	2711.411865
2850.322287	17458.167500	1620.351563	3013.291992
2850.322287	17458.167500	1619.315430	2902.067383
2850.322287	17458.167500	1618.279297	3157.610107
2850.322287	17458.167500	1617.243164	2801.894287
2850.322287	17458.167500	1616.207031	2875.158203
2850.322287	17458.167500	1615.169922	2922.994873
2850.322287	17458.167500	1614.132813	2712.652344
2850.322287	17458.167500	1613.095703	2612.983154
2850.322287	17458.167500	1612.058594	2695.344482
2850.322287	17458.167500	1611.020508	2768.425781
2850.322287	17458.167500	1609.983398	2758.577393
2850.322287	17458.167500	1608.945313	3077.967529
2850.322287	17458.167500	1607.907227	3010.464844
2850.322287	17458.167500	1606.868164	3064.947998
2850.322287	17458.167500	1605.830078	2914.613281
2850.322287	17458.167500	1604.791016	2826.431641
2850.322287	17458.167500	1603.751953	3221.351807
2850.322287	17458.167500	1602.712891	3213.632813
2850.322287	17458.167500	1601.673828	3268.002930
2850.322287	17458.167500	1600.633789	3262.556152
2850.322287	17458.167500	1599.594727	2976.714844
2850.322287	17458.167500	1598.554688	3047.171143
2850.322287	17458.167500	1597.513672	3147.451660
2850.322287	17458.167500	1596.473633	3371.770508
2850.322287	17458.167500	1595.433594	3074.650879
2850.322287	17458.167500	1594.392578	3083.042236
2850.322287	17458.167500	1593.351563	3208.529785
2850.322287	17458.167500	1592.310547	3127.396240
2850.322287	17458.167500	1591.268555	2963.671143
2850.322287	17458.167500	1590.227539	3125.866943
2850.322287	17458.167500	1589.185547	3168.704834
2850.322287	17458.167500	1588.143555	3372.098145
2850.322287	17458.167500	1587.100586	3346.097900
2850.322287	17458.167500	1586.058594	3372.884033
2850.322287	17458.167500	1585.015625	3493.645264
2850.322287	17458.167500	1583.972656	3364.579834
2850.322287	17458.167500	1582.929688	3483.058350
2850.322287	17458.167500	1581.886719	3010.467285
2850.322287	17458.167500	1580.843750	3248.134277
2850.322287	17458.167500	1579.799805	3272.749512
2850.322287	17458.167500	1578.755859	3068.432861
2850.322287	17458.167500	1577.711914	3399.887207
2850.322287	17458.167500	1576.666992	3211.700928
2850.322287	17458.167500	1575.623047	3103.735107
2850.322287	17458.167500	1574.578125	3160.553955
2850.322287	17458.167500	1573.533203	3208.242188
2850.322287	17458.167500	1572.488281	3061.572510
2850.322287	17458.167500	1571.443359	2871.564697
2850.322287	17458.167500	1570.397461	2987.978760
2850.322287	17458.167500	1569.351563	2903.272949
2850.322287	17458.167500	1568.305664	2649.553711
2850.322287	17458.167500	1567.259766	2523.926514
2850.322287	17458.167500	1566.213867	2393.833984
2850.322287	17458.167500	1565.166992	2382.582520
2850.322287	17458.167500	1564.120117	2538.074219
2850.322287	17458.167500	1563.073242	2597.686035
2850.322287	17458.167500	1562.026367	2292.151611
2850.322287	17458.167500	1560.978516	2440.886719
2850.322287	17458.167500	1559.930664	2286.190186
2850.322287	17458.167500	1558.883789	2432.737061
2850.322287	17458.167500	1557.834961	2709.249756
2850.322287	17458.167500	1556.787109	2461.308105
2850.322287	17458.167500	1555.739258	2628.438965
2850.322287	17458.167500	1554.690430	2549.400146
2850.322287	17458.167500	1553.641602	2370.197021
2850.322287	17458.167500	1552.592773	2473.656982
2850.322287	17458.167500	1551.542969	2574.856689
2850.322287	17458.167500	1550.494141	2377.767334
2850.322287	17458.167500	1549.444336	2820.659180
2850.322287	17458.167500	1548.394531	2557.722656
2850.322287	17458.167500	1547.344727	2338.219238
2850.322287	17458.167500	1546.293945	2457.944092
2850.322287	17458.167500	1545.244141	2247.820801
2850.322287	17458.167500	1544.193359	2090.169434
2850.322287	17458.167500	1543.142578	2137.359619
2850.322287	17458.167500	1542.090820	2250.546631
2850.322287	17458.167500	1541.040039	1868.194214
2850.322287	17458.167500	1539.988281	1536.074097
2850.322287	17458.167500	1538.936523	1954.118286
2850.322287	17458.167500	1537.884766	1797.257690
2850.322287	17458.167500	1536.833008	1690.535034
2850.322287	17458.167500	1535.780273	1388.615723
2850.322287	17458.167500	1534.727539	1663.687012
2850.322287	17458.167500	1533.674805	1507.396851
2850.322287	17458.167500	1532.622070	1546.483032
2850.322287	17458.167500	1531.569336	1397.300537
2850.322287	17458.167500	1530.515625	1327.681396
2850.322287	17458.167500	1529.461914	1503.197021
2850.322287	17458.167500	1528.408203	1195.663330
2850.322287	17458.167500	1527.354492	1169.544556
2850.322287	17458.167500	1526.299805	1338.511108
2850.322287	17458.167500	1525.246094	1067.802856
2850.322287	17458.167500	1524.191406	928.747314
2850.322287	17458.167500	1523.136719	923.546204
2850.322287	17458.167500	1522.081055	1000.006958
2850.322287	17458.167500	1521.026367	985.979736
2850.322287	17458.167500	1519.970703	1010.560791
2850.322287	17458.167500	1518.915039	795.273376
2850.322287	17458.167500	1517.859375	795.234070
2850.322287	17458.167500	1516.802734	774.942444
2850.322287	17458.167500	1515.747070	775.165283
2850.322287	17458.167500	1514.690430	515.349609
2850.322287	17458.167500	1513.633789	441.234802
2850.322287	17458.167500	1512.577148	582.109375
2850.322287	17458.167500	1511.519531	650.699951
2850.322287	17458.167500	1510.461914	744.265076
2850.322287	17458.167500	1509.405273	691.047241
2850.322287	17458.167500	1508.346680	384.892578
2850.322287	17458.167500	1507.289063	465.318726
2850.322287	17458.167500	1506.231445	701.700989
2850.322287	17458.167500	1505.172852	658.102844
2850.322287	17458.167500	1504.114258	772.709595
2850.322287	17458.167500	1503.055664	359.208038
2850.322287	17458.167500	1501.996094	532.786926
2850.322287	17458.167500	1500.937500	593.638916
2850.322287	17458.167500	1499.877930	573.388489
2850.322287	17458.167500	1498.818359	273.614777
2850.322287	17458.167500	1497.757813	235.684891
2850.322287	17458.167500	1496.698242	195.684723
2850.322287	17458.167500	1495.637695	70.183250
2850.322287	17458.167500	1494.577148	50.811810
2850.322287	17458.167500	1493.516602	139.764847
2850.322287	17458.167500	1492.456055	12.568859
2850.322287	17458.167500	1491.394531	-100.914169
2850.322287	17458.167500	1490.333008	-63.311359
2850.322287	17458.167500	1489.271484	-39.070885
2850.322287	17458.167500	1488.209961	-181.252243
2850.322287	17458.167500	1487.148438	-100.405212
2850.322287	17458.167500	1486.085938	-156.692429
2850.322287	17458.167500	1485.023438	113.412415
2850.322287	17458.167500	1483.960938	-223.716644
2850.322287	17458.167500	1482.898438	123.093262
2850.322287	17458.167500	1481.834961	6.767933
2850.322287	17458.167500	1480.772461	-28.394743
2850.322287	17458.167500	1479.708984	98.418938
2850.322287	17458.167500	1478.644531	-15.016167
2850.322287	17458.167500	1477.581055	179.475708
2850.322287	17458.167500	1476.517578	567.228821
2850.322287	17458.167500	1475.453125	523.906311
2850.322287	17458.167500	1474.388672	500.944733
2850.322287	17458.167500	1473.323242	397.441162
2850.322287	17458.167500	1472.258789	630.741455
2850.322287	17458.167500	1471.193359	691.345459
2850.322287	17458.167500	1470.127930	550.427429
2850.322287	17458.167500	1469.062500	788.372986
2850.322287	17458.167500	1467.997070	833.760925
2850.322287	17458.167500	1466.930664	778.572021
2850.322287	17458.167500	1465.865234	838.032837
2850.322287	17458.167500	1464.798828	850.324890
2850.322287	17458.167500	1463.731445	838.105774
2850.322287	17458.167500	1462.665039	1070.395752
2850.322287	17458.167500	1461.597656	1213.355957
2850.322287	17458.167500	1460.530273	1172.604248
2850.322287	17458.167500	1459.462891	1344.057251
2850.322287	17458.167500	1458.395508	1293.104370
2850.322287	17458.167500	1457.327148	1346.696411
2850.322287	17458.167500	1456.259766	1370.912354
2850.322287	17458.167500	1455.191406	1303.143555
2850.322287	17458.167500	1454.123047	1457.434448
2850.322287	17458.167500	1453.053711	1522.734985
2850.322287	17458.167500	1451.985352	1282.504761
2850.322287	17458.167500	1450.916016	1124.242676
2850.322287	17458.167500	1449.846680	1095.458862
2850.322287	17458.167500	1448.776367	1015.742432
2850.322287	17458.167500	1447.707031	941.592896
2850.322287	17458.167500	1446.636719	861.920288
2850.322287	17458.167500	1445.566406	785.746033
2850.322287	17458.167500	1444.496094	811.392700
2850.322287	17458.167500	1443.425781	603.005432
2850.322287	17458.167500	1442.354492	648.963196
2850.322287	17458.167500	1441.283203	816.852966
2850.322287	17458.167500	1440.211914	749.839233
2850.322287	17458.167500	1439.140625	632.978943
2850.322287	17458.167500	1438.069336	659.333130
2850.322287	17458.167500	1436.997070	820.646790
2850.322287	17458.167500	1435.924805	569.134949
2850.322287	17458.167500	1434.852539	658.754822
2850.322287	17458.167500	1433.780273	618.627869
2850.322287	17458.167500	1432.707031	385.697144
2850.322287	17458.167500	1431.633789	407.817383
2850.322287	17458.167500	1430.560547	513.027832
2850.322287	17458.167500	1429.487305	318.119781
2850.322287	17458.167500	1428.413086	400.931549
2850.322287	17458.167500	1427.339844	410.728668
2850.322287	17458.167500	1426.265625	265.152618
2850.322287	17458.167500	1425.191406	45.345890
2850.322287	17458.167500	1424.116211	90.424881
2850.322287	17458.167500	1423.041992	76.895668
2850.322287	17458.167500	1421.966797	239.190308
2850.322287	17458.167500	1420.891602	200.837143
2850.322287	17458.167500	1419.816406	97.920258
2850.322287	17458.167500	1418.740234	334.105743
2850.322287	17458.167500	1417.665039	45.942608
2850.322287	17458.167500	1416.588867	167.405746
2850.322287	17458.167500	1415.512695	-44.102535
2850.322287	17458.167500	1414.435547	-172.198608
2850.322287	17458.167500	1413.359375	65.207878
2850.322287	17458.167500	1412.282227	347.636261
2850.322287	17458.167500	1411.205078	31.706770
2850.322287	17458.167500	1410.127930	-20.809177
2850.322287	17458.167500	1409.049805	18.756109
2850.322287	17458.167500	1407.972656	468.322998
2850.322287	17458.167500	1406.894531	65.891212
2850.322287	17458.167500	1405.816406	102.601402
2850.322287	17458.167500	1404.737305	-24.973745
2850.322287	17458.167500	1403.659180	-126.727951
2850.322287	17458.167500	1402.580078	163.248169
2850.322287	17458.167500	1401.500977	348.795593
2850.322287	17458.167500	1400.421875	22.421932
2850.322287	17458.167500	1399.341797	394.685120
2850.322287	17458.167500	1398.262695	417.128876
2850.322287	17458.167500	1397.182617	290.199554
2850.322287	17458.167500	1396.102539	327.496918
2850.322287	17458.167500	1395.021484	378.315887
2850.322287	17458.167500	1393.941406	142.833389
2850.322287	17458.167500	1392.860352	217.247223
2850.322287	17458.167500	1391.779297	418.492218
2850.322287	17458.167500	1390.698242	382.689148
2850.322287	17458.167500	1389.616211	195.444321
2850.322287	17458.167500	1388.535156	280.221741
2850.322287	17458.167500	1387.453125	353.719116
2850.322287	17458.167500	1386.371094	493.545990
2850.322287	17458.167500	1385.288086	442.387543
2850.322287	17458.167500	1384.206055	484.022644
2850.322287	17458.167500	1383.123047	467.384735
2850.322287	17458.167500	1382.040039	238.369705
2850.322287	17458.167500	1380.957031	652.637207
2850.322287	17458.167500	1379.873047	422.451355
2850.322287	17458.167500	1378.789063	444.371521
2850.322287	17458.167500	1377.705078	409.250671
2850.322287	17458.167500	1376.621094	502.549072
2850.322287	17458.167500	1375.537109	373.606049
2850.322287	17458.167500	1374.452148	469.743195
2850.322287	17458.167500	1373.367188	556.983704
2850.322287	17458.167500	1372.282227	440.024170
2850.322287	17458.167500	1371.197266	396.457703
2850.322287	17458.167500	1370.112305	415.650757
2850.322287	17458.167500	1369.026367	554.224670
2850.322287	17458.167500	1367.940430	514.199707
2850.322287	17458.167500	1366.854492	582.465637
2850.322287	17458.167500	1365.767578	575.997864
2850.322287	17458.167500	1364.681641	452.707001
2850.322287	17458.167500	1363.594727	342.374542
2850.322287	17458.167500	1362.507813	612.209229
2850.322287	17458.167500	1361.419922	378.218292
2850.322287	17458.167500	1360.333008	351.246338
2850.322287	17458.167500	1359.245117	209.076340
2850.322287	17458.167500	1358.157227	471.373230
2850.322287	17458.167500	1357.069336	397.917419
2850.322287	17458.167500	1355.981445	454.332977
2850.322287	17458.167500	1354.892578	334.897644
2850.322287	17458.167500	1353.803711	491.769714
2850.322287	17458.167500	1352.714844	511.471741
2850.322287	17458.167500	1351.625000	656.258362
2850.322287	17458.167500	1350.536133	577.674194
2850.322287	17458.167500	1349.446289	570.745361
2850.322287	17458.167500	1348.356445	629.060852
2850.322287	17458.167500	1347.266602	815.936157
2850.322287	17458.167500	1346.175781	817.427429
2850.322287	17458.167500	1345.085938	795.868591
2850.322287	17458.167500	1343.995117	885.785339
2850.322287	17458.167500	1342.903320	1060.811890
2850.322287	17458.167500	1341.812500	1077.997803
2850.322287	17458.167500	1340.720703	1079.489014
2850.322287	17458.167500	1339.629883	1136.754272
2850.322287	17458.167500	1338.538086	1159.871582
2850.322287	17458.167500	1337.445313	1113.287720
2850.322287	17458.167500	1336.353516	1459.538818
2850.322287	17458.167500	1335.260742	1420.301514
2850.322287	17458.167500	1334.167969	1440.151001
2850.322287	17458.167500	1333.075195	1579.495972
2850.322287	17458.167500	1331.981445	1565.062744
2850.322287	17458.167500	1330.888672	1384.135864
2850.322287	17458.167500	1329.794922	1470.375854
2850.322287	17458.167500	1328.701172	1547.610840
2850.322287	17458.167500	1327.606445	1579.491333
2850.322287	17458.167500	1326.512695	1490.421631
2850.322287	17458.167500	1325.417969	1897.792114
2850.322287	17458.167500	1324.323242	1607.598022
2850.322287	17458.167500	1323.227539	1867.496338
2850.322287	17458.167500	1322.132813	1504.124756
2850.322287	17458.167500	1321.037109	1632.532593
2850.322287	17458.167500	1319.941406	1396.318359
2850.322287	17458.167500	1318.845703	1351.330078
2850.322287	17458.167500	1317.750000	1240.693604
2850.322287	17458.167500	1316.653320	1218.695313
2850.322287	17458.167500	1315.556641	1192.157471
2850.322287	17458.167500	1314.459961	1262.758545
2850.322287	17458.167500	1313.363281	1143.366211
2850.322287	17458.167500	1312.265625	1234.804565
2850.322287	17458.167500	1311.167969	971.014587
2850.322287	17458.167500	1310.070313	922.682190
2850.322287	17458.167500	1308.972656	855.862671
2850.322287	17458.167500	1307.874023	969.636414
2850.322287	17458.167500	1306.776367	911.258301
2850.322287	17458.167500	1305.677734	824.242249
2850.322287	17458.167500	1304.579102	944.030334
2850.322287	17458.167500	1303.479492	806.525635
2850.322287	17458.167500	1302.380859	963.106934
2850.322287	17458.167500	1301.281250	767.131042
2850.322287	17458.167500	1300.181641	569.840210
2850.322287	17458.167500	1299.081055	697.471924
2850.322287	17458.167500	1297.981445	584.511414
2850.322287	17458.167500	1296.880859	587.103455
2850.322287	17458.167500	1295.780273	315.052338
2850.322287	17458.167500	1294.679688	499.678680
2850.322287	17458.167500	1293.578125	270.079987
2850.322287	17458.167500	1292.476563	267.022034
2850.322287	17458.167500	1291.375000	99.907532
2850.322287	17458.167500	1290.273438	292.897003
2850.322287	17458.167500	1289.171875	78.070854
2850.322287	17458.167500	1288.069336	-50.786457
2850.322287	17458.167500	1286.966797	88.200661
2850.322287	17458.167500	1285.864258	-120.660843
2850.322287	17458.167500	1284.761719	-103.887253
2850.322287	17458.167500	1283.658203	115.471283
2850.322287	17458.167500	1282.554688	60.775280
2850.322287	17458.167500	1281.451172	114.841423
2850.322287	17458.167500	1280.347656	-53.400318
2850.322287	17458.167500	1279.244141	133.002487
2850.322287	17458.167500	1278.139648	160.195419
2850.322287	17458.167500	1277.035156	196.169357
2850.322287	17458.167500	1275.930664	177.851288
2850.322287	17458.167500	1274.825195	179.266953
2850.322287	17458.167500	1273.720703	152.136246
2850.322287	17458.167500	1272.615234	253.781906
2850.322287	17458.167500	1271.508789	289.824524
2850.322287	17458.167500	1270.403320	329.495209
2850.322287	17458.167500	1269.297852	409.530762
2850.322287	17458.167500	1268.191406	282.726868
2850.322287	17458.167500	1267.084961	351.154602
2850.322287	17458.167500	1265.977539	552.587402
2850.322287	17458.167500	1264.871094	607.976196
2850.322287	17458.167500	1263.763672	387.517059
2850.322287	17458.167500	1262.656250	355.643036
2850.322287	17458.167500	1261.548828	351.301636
2850.322287	17458.167500	1260.440430	515.022339
2850.322287	17458.167500	1259.333008	400.116821
2850.322287	17458.167500	1258.224609	293.821777
2850.322287	17458.167500	1257.115234	324.973480
2850.322287	17458.167500	1256.006836	414.768982
2850.322287	17458.167500	1254.897461	280.379852
2850.322287	17458.167500	1253.788086	223.059937
2850.322287	17458.167500	1252.678711	113.638481
2850.322287	17458.167500	1251.569336	145.477966
2850.322287	17458.167500	1250.458984	104.544930
2850.322287	17458.167500	1249.349609	145.541580
2850.322287	17458.167500	1248.239258	230.875473
2850.322287	17458.167500	1247.127930	178.829163
2850.322287	17458.167500	1246.017578	117.567429
2850.322287	17458.167500	1244.906250	193.190506
2850.322287	17458.167500	1243.794922	185.151932
2850.322287	17458.167500	1242.683594	85.681358
2850.322287	17458.167500	1241.571289	-185.702606
2850.322287	17458.167500	1240.459961	-149.778915
2850.322287	17458.167500	1239.347656	-168.103226
2850.322287	17458.167500	1238.234375	29.562050
2850.322287	17458.167500	1237.122070	-60.632618
2850.322287	17458.167500	1236.008789	-35.922337
2850.322287	17458.167500	1234.896484	-189.900879
2850.322287	17458.167500	1233.782227	-31.731787
2850.322287	17458.167500	1232.668945	17.065174
2850.322287	17458.167500	1231.555664	-159.593719
2850.322287	17458.167500	1230.441406	108.598549
2850.322287	17458.167500	1229.327148	-95.852203
2850.322287	17458.167500	1228.211914	-47.613533
2850.322287	17458.167500	1227.097656	-59.622326
2850.322287	17458.167500	1225.982422	60.211948
2850.322287	17458.167500	1224.867188	-30.172352
2850.322287	17458.167500	1223.751953	-38.574875
2850.322287	17458.167500	1222.635742	-74.214874
2850.322287	17458.167500	1221.520508	-34.692440
2850.322287	17458.167500	1220.404297	-166.900314
2850.322287	17458.167500	1219.287109	-82.578537
2850.322287	17458.167500	1218.170898	-4.510867
2850.322287	17458.167500	1217.053711	-205.901505
2850.322287	17458.167500	1215.936523	39.052109
2850.322287	17458.167500	1214.819336	-190.801239
2850.322287	17458.167500	1213.702148	-58.638119
2850.322287	17458.167500	1212.583984	-80.290039
2850.322287	17458.167500	1211.465820	-103.025742
2850.322287	17458.167500	1210.347656	-121.871391
2850.322287	17458.167500	1209.229492	-91.220367
2850.322287	17458.167500	1208.110352	-95.566292
2850.322287	17458.167500	1206.992188	-165.254349
2850.322287	17458.167500	1205.873047	-60.346203
2850.322287	17458.167500	1204.752930	-90.691292
2850.322287	17458.167500	1203.633789	135.054733
2850.322287	17458.167500	1202.513672	29.471748
2850.322287	17458.167500	1201.393555	48.236439
2850.322287	17458.167500	1200.273438	-3.575769
2850.322287	17458.167500	1199.152344	160.912506
2850.322287	17458.167500	1198.032227	80.142479
2850.322287	17458.167500	1196.911133	299.736847
2850.322287	17458.167500	1195.790039	44.765987
2850.322287	17458.167500	1194.667969	2.759522
2850.322287	17458.167500	1193.545898	77.288864
2850.322287	17458.167500	1192.424805	126.309319
2850.322287	17458.167500	1191.301758	45.487286
2850.322287	17458.167500	1190.179688	35.166687
2850.322287	17458.167500	1189.056641	-33.755730
2850.322287	17458.167500	1187.933594	-37.325573
2850.322287	17458.167500	1186.810547	-29.674377
2850.322287	17458.167500	1185.687500	-40.373119
2850.322287	17458.167500	1184.563477	-25.908030
2850.322287	17458.167500	1183.440430	-5.011776
2850.322287	17458.167500	1182.316406	98.676819
2850.322287	17458.167500	1181.191406	34.985115
2850.322287	17458.167500	1180.067383	95.287163
2850.322287	17458.167500	1178.942383	44.140202
2850.322287	17458.167500	1177.817383	-2.043928
2850.322287	17458.167500	1176.692383	-27.826372
2850.322287	17458.167500	1175.566406	86.161804
2850.322287	17458.167500	1174.440430	102.641205
2850.322287	17458.167500	1173.314453	23.397394
2850.322287	17458.167500	1172.188477	105.917114
2850.322287	17458.167500	1171.062500	59.663681
2850.322287	17458.167500	1169.935547	72.490158
2850.322287	17458.167500	1168.808594	90.827446
2850.322287	17458.167500	1167.681641	-14.895296
2850.322287	17458.167500	1166.553711	-62.806599
2850.322287	17458.167500	1165.426758	-106.109985
2850.322287	17458.167500	1164.298828	-98.806175
2850.322287	17458.167500	1163.170898	-75.038155
2850.322287	17458.167500	1162.041992	-18.566507
2850.322287	17458.167500	1160.914063	-70.335396
2850.322287	17458.167500	1159.785156	-117.738625
2850.322287	17458.167500	1158.656250	-89.778221
2850.322287	17458.167500	1157.526367	-125.537292
2850.322287	17458.167500	1156.397461	-174.244553
2850.322287	17458.167500	1155.267578	-60.687874
2850.322287	17458.167500	1154.137695	-59.110188
2850.322287	17458.167500	1153.006836	49.127827
2850.322287	17458.167500	1151.876953	89.477768
2850.322287	17458.167500	1150.746094	84.287933
2850.322287	17458.167500	1149.615234	-24.524107
2850.322287	17458.167500	1148.484375	173.972961
2850.322287	17458.167500	1147.352539	94.071419
2850.322287	17458.167500	1146.220703	209.197922
2850.322287	17458.167500	1145.088867	262.391205
2850.322287	17458.167500	1143.957031	140.424469
2850.322287	17458.167500	1142.825195	110.648987
2850.322287	17458.167500	1141.692383	25.256086
2850.322287	17458.167500	1140.559570	258.288147
2850.322287	17458.167500	1139.426758	156.724411
2850.322287	17458.167500	1138.292969	218.623184
2850.322287	17458.167500	1137.159180	92.323029
2850.322287	17458.167500	1136.025391	252.998566
2850.322287	17458.167500	1134.891602	347.513855
2850.322287	17458.167500	1133.757813	228.378555
2850.322287	17458.167500	1132.623047	58.588966
2850.322287	17458.167500	1131.488281	99.086761
2850.322287	17458.167500	1130.353516	187.762451
2850.322287	17458.167500	1129.217773	206.115051
2850.322287	17458.167500	1128.083008	193.545517
2850.322287	17458.167500	1126.947266	116.960159
2850.322287	17458.167500	1125.811523	85.250397
2850.322287	17458.167500	1124.674805	106.998901
2850.322287	17458.167500	1123.539063	231.153381
2850.322287	17458.167500	1122.402344	81.221931
2850.322287	17458.167500	1121.265625	74.722420
2850.322287	17458.167500	1120.127930	110.037926
2850.322287	17458.167500	1118.990234	363.655304
2850.322287	17458.167500	1117.853516	331.321655
2850.322287	17458.167500	1116.714844	372.273438
2850.322287	17458.167500	1115.577148	406.933502
2850.322287	17458.167500	1114.439453	509.047089
2850.322287	17458.167500	1113.300781	436.497681
2850.322287	17458.167500	1112.162109	248.712357
2850.322287	17458.167500	1111.022461	428.463074
2850.322287	17458.167500	1109.883789	546.249146
2850.322287	17458.167500	1108.744141	541.956177
2850.322287	17458.167500	1107.604492	543.905212
2850.322287	17458.167500	1106.463867	536.504578
2850.322287	17458.167500	1105.324219	446.659821
2850.322287	17458.167500	1104.183594	549.289856
2850.322287	17458.167500	1103.042969	502.540527
2850.322287	17458.167500	1101.902344	505.909149
2850.322287	17458.167500	1100.760742	560.044739
2850.322287	17458.167500	1099.619141	595.201965
2850.322287	17458.167500	1098.477539	689.525696
2850.322287	17458.167500	1097.335938	643.703674
2850.322287	17458.167500	1096.193359	952.820190
2850.322287	17458.167500	1095.051758	905.994873
2850.322287	17458.167500	1093.909180	915.642700
2850.322287	17458.167500	1092.765625	995.095703
2850.322287	17458.167500	1091.623047	1038.426636
2850.322287	17458.167500	1090.479492	944.415894
2850.322287	17458.167500	1089.335938	1073.494263
2850.322287	17458.167500	1088.192383	1046.764526
2850.322287	17458.167500	1087.047852	967.917664
2850.322287	17458.167500	1085.903320	884.609253
2850.322287	17458.167500	1084.758789	939.911133
2850.322287	17458.167500	1083.614258	1189.830688
2850.322287	17458.167500	1082.469727	1052.645752
2850.322287	17458.167500	1081.324219	1064.088623
2850.322287	17458.167500	1080.178711	945.399597
2850.322287	17458.167500	1079.033203	991.349792
2850.322287	17458.167500	1077.886719	978.397644
2850.322287	17458.167500	1076.740234	1013.771301
2850.322287	17458.167500	1075.593750	1062.642334
2850.322287	17458.167500	1074.447266	922.505493
2850.322287	17458.167500	1073.300781	1150.302002
2850.322287	17458.167500	1072.153320	1234.247314
2850.322287	17458.167500	1071.005859	1199.674072
2850.322287	17458.167500	1069.858398	1155.375854
2850.322287	17458.167500	1068.709961	1500.704712
2850.322287	17458.167500	1067.561523	1384.356812
2850.322287	17458.167500	1066.413086	1414.876831
2850.322287	17458.167500	1065.264648	1278.911133
2850.322287	17458.167500	1064.116211	1411.628418
2850.322287	17458.167500	1062.966797	1152.219116
2850.322287	17458.167500	1061.817383	1048.912354
2850.322287	17458.167500	1060.667969	860.244995
2850.322287	17458.167500	1059.517578	788.960876
2850.322287	17458.167500	1058.368164	802.683533
2850.322287	17458.167500	1057.217773	740.025269
2850.322287	17458.167500	1056.067383	664.517761
2850.322287	17458.167500	1054.916016	637.634705
2850.322287	17458.167500	1053.764648	754.548645
2850.322287	17458.167500	1052.613281	568.625671
2850.322287	17458.167500	1051.461914	689.647278
2850.322287	17458.167500	1050.310547	621.678772
2850.322287	17458.167500	1049.158203	661.302795
2850.322287	17458.167500	1048.005859	583.227722
2850.322287	17458.167500	1046.853516	654.714355
2850.322287	17458.167500	1045.700195	680.748230
2850.322287	17458.167500	1044.547852	895.888916
2850.322287	17458.167500	1043.394531	827.677429
2850.322287	17458.167500	1042.240234	927.673157
2850.322287	17458.167500	1041.086914	1013.437500
2850.322287	17458.167500	1039.932617	956.321289
2850.322287	17458.167500	1038.778320	892.020447
2850.322287	17458.167500	1037.624023	970.556763
2850.322287	17458.167500	1036.469727	987.988098
2850.322287	17458.167500	1035.314453	1038.054688
2850.322287	17458.167500	1034.159180	1348.965820
2850.322287	17458.167500	1033.003906	1308.149536
2850.322287	17458.167500	1031.847656	1246.299927
2850.322287	17458.167500	1030.692383	1167.636108
2850.322287	17458.167500	1029.536133	1250.470581
2850.322287	17458.167500	1028.378906	1127.926514
2850.322287	17458.167500	1027.222656	1172.268677
2850.322287	17458.167500	1026.065430	1017.299133
2850.322287	17458.167500	1024.908203	913.378662
2850.322287	17458.167500	1023.750977	685.885742
2850.322287	17458.167500	1022.593750	857.476929
2850.322287	17458.167500	1021.435547	683.460632
2850.322287	17458.167500	1020.277344	926.336731
2850.322287	17458.167500	1019.119141	880.501404
2850.322287	17458.167500	1017.959961	883.756653
2850.322287	17458.167500	1016.800781	1121.857788
2850.322287	17458.167500	1015.641602	839.679504
2850.322287	17458.167500	1014.482422	914.994690
2850.322287	17458.167500	1013.323242	958.777588
2850.322287	17458.167500	1012.163086	973.299500
2850.322287	17458.167500	1011.002930	829.369263
2850.322287	17458.167500	1009.842773	766.825256
2850.322287	17458.167500	1008.681641	666.355469
2850.322287	17458.167500	1007.520508	626.390259
2850.322287	17458.167500	1006.359375	767.019043
2850.322287	17458.167500	1005.198242	678.548279
2850.322287	17458.167500	1004.037109	717.142578
2850.322287	17458.167500	1002.875000	1015.805908
2850.322287	17458.167500	1001.712891	839.824585
2850.322287	17458.167500	1000.550781	906.680847
2850.322287	17458.167500	999.387695	836.241516
2850.322287	17458.167500	998.224609	883.223022
2850.322287	17458.167500	997.061523	699.783386
2850.322287	17458.167500	995.898438	711.255432
2850.322287	17458.167500	994.734375	448.565125
2850.322287	17458.167500	993.571289	561.760254
2850.322287	17458.167500	992.407227	701.778870
2850.322287	17458.167500	991.242188	600.281555
2850.322287	17458.167500	990.078125	445.246490
2850.322287	17458.167500	988.913086	672.187256
2850.322287	17458.167500	987.748047	587.388916
2850.322287	17458.167500	986.583008	576.394226
2850.322287	17458.167500	985.416992	498.635254
2850.322287	17458.167500	984.250977	511.863220
2850.322287	17458.167500	983.084961	505.431580
2850.322287	17458.167500	981.918945	422.935974
2850.322287	17458.167500	980.751953	522.703613
2850.322287	17458.167500	979.584961	648.700928
2850.322287	17458.167500	978.417969	706.630127
2850.322287	17458.167500	977.250977	601.310486
2850.322287	17458.167500	976.083008	587.104004
2850.322287	17458.167500	974.915039	540.310608
2850.322287	17458.167500	973.747070	653.251648
2850.322287	17458.167500	972.579102	608.755371
2850.322287	17458.167500	971.410156	570.358032
2850.322287	17458.167500	970.242188	787.351196
2850.322287	17458.167500	969.072266	595.394470
2850.322287	17458.167500	967.903320	801.131165
2850.322287	17458.167500	966.733398	786.860107
2850.322287	17458.167500	965.563477	871.915405
2850.322287	17458.167500	964.393555	691.598816
2850.322287	17458.167500	963.223633	841.167419
2850.322287	17458.167500	962.052734	812.385315
2850.322287	17458.167500	960.881836	925.817505
2850.322287	17458.167500	959.710938	952.394775
2850.322287	17458.167500	958.540039	935.027466
2850.322287	17458.167500	957.368164	731.236267
2850.322287	17458.167500	956.196289	779.612915
2850.322287	17458.167500	955.024414	795.997437
2850.322287	17458.167500	953.851563	654.268616
2850.322287	17458.167500	952.679688	601.964172
2850.322287	17458.167500	951.506836	703.822998
2850.322287	17458.167500	950.333984	440.794739
2850.322287	17458.167500	949.160156	541.462036
2850.322287	17458.167500	947.986328	617.857727
2850.322287	17458.167500	946.812500	659.214417
2850.322287	17458.167500	945.638672	502.045044
2850.322287	17458.167500	944.464844	613.821472
2850.322287	17458.167500	943.290039	726.641724
2850.322287	17458.167500	942.115234	779.488159
2850.322287	17458.167500	940.940430	720.363953
2850.322287	17458.167500	939.764648	641.244751
2850.322287	17458.167500	938.588867	848.255920
2850.322287	17458.167500	937.413086	753.612488
2850.322287	17458.167500	936.237305	797.746277
2850.322287	17458.167500	935.060547	867.415039
2850.322287	17458.167500	933.883789	697.875122
2850.322287	17458.167500	932.707031	806.503784
2850.322287	17458.167500	931.530273	636.787598
2850.322287	17458.167500	930.352539	565.048401
2850.322287	17458.167500	929.175781	634.267334
2850.322287	17458.167500	927.998047	642.693115
2850.322287	17458.167500	926.819336	572.638367
2850.322287	17458.167500	925.641602	439.905945
2850.322287	17458.167500	924.462891	851.530334
2850.322287	17458.167500	923.284180	704.921936
2850.322287	17458.167500	922.104492	628.772217
2850.322287	17458.167500	920.924805	626.951660
2850.322287	17458.167500	919.746094	625.438477
2850.322287	17458.167500	919.551758	503.491364
2850.322287	17458.167500	918.386719	699.175171
2850.322287	17458.167500	917.220703	429.176788
2850.322287	17458.167500	916.054688	409.544556
2850.322287	17458.167500	914.887695	427.002838
2850.322287	17458.167500	913.721680	387.704224
2850.322287	17458.167500	912.554688	344.448669
2850.322287	17458.167500	911.387695	416.439056
2850.322287	17458.167500	910.220703	453.174652
2850.322287	17458.167500	909.052734	556.246765
2850.322287	17458.167500	907.885742	272.557434
2850.322287	17458.167500	906.717773	285.699127
2850.322287	17458.167500	905.548828	558.401428
2850.322287	17458.167500	904.380859	561.613525
2850.322287	17458.167500	903.211914	299.398346
2850.322287	17458.167500	902.042969	534.709106
2850.322287	17458.167500	900.874023	182.784363
2850.322287	17458.167500	899.704102	439.372223
2850.322287	17458.167500	898.535156	535.937988
2850.322287	17458.167500	897.365234	232.814529
2850.322287	17458.167500	896.194336	438.423889
2850.322287	17458.167500	895.024414	334.099670
2850.322287	17458.167500	893.853516	350.553528
2850.322287	17458.167500	892.682617	466.290771
2850.322287	17458.167500	891.511719	319.055695
2850.322287	17458.167500	890.340820	292.549713
2850.322287	17458.167500	889.168945	429.517670
2850.322287	17458.167500	887.997070	297.832184
2850.322287	17458.167500	886.825195	240.100876
2850.322287	17458.167500	885.653320	209.592438
2850.322287	17458.167500	884.480469	371.604370
2850.322287	17458.167500	883.307617	204.897049
2850.322287	17458.167500	882.134766	125.709930
2850.322287	17458.167500	880.961914	132.048019
2850.322287	17458.167500	879.788086	113.089531
2850.322287	17458.167500	878.614258	144.624252
2850.322287	17458.167500	877.440430	164.464798
2850.322287	17458.167500	876.266602	56.090801
2850.322287	17458.167500	875.091797	209.865891
2850.322287	17458.167500	873.916992	216.013519
2850.322287	17458.167500	872.742188	103.737892
2850.322287	17458.167500	871.567383	175.836929
2850.322287	17458.167500	870.391602	141.176147
2850.322287	17458.167500	869.215820	-38.971172
2850.322287	17458.167500	868.040039	85.412621
2850.322287	17458.167500	866.864258	106.963318
2850.322287	17458.167500	865.687500	147.870560
2850.322287	17458.167500	864.510742	70.518974
2850.322287	17458.167500	863.333984	-86.264244
2850.322287	17458.167500	862.157227	41.794342
2850.322287	17458.167500	860.979492	-95.578583
2850.322287	17458.167500	859.802734	96.310127
2850.322287	17458.167500	858.625000	-11.998341
2850.322287	17458.167500	857.446289	-56.395622
2850.322287	17458.167500	856.268555	-64.007889
2850.322287	17458.167500	855.089844	-100.653397
2850.322287	17458.167500	853.911133	-170.178955
2850.322287	17458.167500	852.731445	-212.607025
2850.322287	17458.167500	851.552734	-80.979797
2850.322287	17458.167500	850.373047	-169.820679
2850.322287	17458.167500	849.193359	-11.206008
2850.322287	17458.167500	848.013672	-237.243301
2850.322287	17458.167500	846.833008	-252.584976
2850.322287	17458.167500	845.652344	-107.582787
2850.322287	17458.167500	844.471680	45.085400
2850.322287	17458.167500	843.291016	-86.165543
2850.322287	17458.167500	842.110352	-24.301611
2850.322287	17458.167500	840.928711	68.419281
2850.322287	17458.167500	839.747070	45.317184
2850.322287	17458.167500	838.564453	-99.327759
2850.322287	17458.167500	837.382813	-130.094040
2850.322287	17458.167500	836.200195	-52.843075
2850.322287	17458.167500	835.017578	66.802757
2850.322287	17458.167500	833.834961	-203.014221
2850.322287	17458.167500	832.651367	-166.255127
2850.322287	17458.167500	831.467773	-156.481857
2850.322287	17458.167500	830.284180	-348.999420
2850.322287	17458.167500	829.100586	-52.165508
2850.322287	17458.167500	827.916992	234.927704
2850.322287	17458.167500	826.732422	-51.871300
2850.322287	17458.167500	825.547852	15.666452
2850.322287	17458.167500	824.363281	110.134346
2850.322287	17458.167500	823.177734	104.511681
2850.322287	17458.167500	821.992188	0.788122
2850.322287	17458.167500	820.806641	162.557968
2850.322287	17458.167500	819.621094	176.198730
2850.322287	17458.167500	818.434570	120.631111
2850.322287	17458.167500	817.249023	101.626602
2850.322287	17458.167500	816.062500	90.330772
2850.322287	17458.167500	814.875000	111.718750
2850.322287	17458.167500	813.688477	204.196686
2850.322287	17458.167500	812.500977	404.208984
2850.322287	17458.167500	811.313477	273.868103
2850.322287	17458.167500	810.125977	245.352203
2850.322287	17458.167500	808.937500	180.394485
2850.322287	17458.167500	807.749023	240.223511
2850.322287	17458.167500	806.560547	148.470520
2850.322287	17458.167500	805.372070	175.709106
2850.322287	17458.167500	804.182617	222.133423
2850.322287	17458.167500	802.994141	117.077873
2850.322287	17458.167500	801.803711	117.522705
2850.322287	17458.167500	800.614258	315.412109
2850.322287	17458.167500	799.424805	231.542709
2850.322287	17458.167500	798.234375	36.604790
2850.322287	17458.167500	797.043945	121.435005
2850.322287	17458.167500	795.852539	47.293934
2850.322287	17458.167500	794.662109	132.131805
2850.322287	17458.167500	793.470703	216.953903
2850.322287	17458.167500	792.279297	-84.851486
2850.322287	17458.167500	791.087891	-59.293007
2850.322287	17458.167500	789.895508	4.538394
2850.322287	17458.167500	788.703125	-75.089249
2850.322287	17458.167500	787.510742	132.192337
2850.322287	17458.167500	786.318359	108.064880
2850.322287	17458.167500	785.125000	-74.690468
2850.322287	17458.167500	783.931641	-104.453293
2850.322287	17458.167500	782.738281	-92.143471
2850.322287	17458.167500	781.544922	-3.400622
2850.322287	17458.167500	780.350586	85.327896
2850.322287	17458.167500	779.156250	13.639886
2850.322287	17458.167500	777.961914	62.282406
2850.322287	17458.167500	776.767578	-15.050242
2850.322287	17458.167500	775.572266	-77.062248
2850.322287	17458.167500	774.376953	-118.035828
2850.322287	17458.167500	773.181641	-193.306030
2850.322287	17458.167500	771.986328	-81.616104
2850.322287	17458.167500	770.790039	-175.885086
2850.322287	17458.167500	769.593750	71.154480
2850.322287	17458.167500	768.397461	116.078613
2850.322287	17458.167500	767.201172	-27.648991
2850.322287	17458.167500	766.003906	89.718697
2850.322287	17458.167500	764.806641	58.485096
2850.322287	17458.167500	763.609375	-62.221100
2850.322287	17458.167500	762.412109	51.341091
2850.322287	17458.167500	761.213867	-78.788322
2850.322287	17458.167500	760.015625	38.578705
2850.322287	17458.167500	758.817383	45.554199
2850.322287	17458.167500	757.618164	4.984823
2850.322287	17458.167500	756.419922	-75.486702
2850.322287	17458.167500	755.220703	-77.938255
2850.322287	17458.167500	754.021484	109.756508
2850.322287	17458.167500	752.821289	12.263595
2850.322287	17458.167500	751.621094	78.270805
2850.322287	17458.167500	750.420898	-34.335518
2850.322287	17458.167500	749.220703	82.983292
2850.322287	17458.167500	748.020508	228.761002
2850.322287	17458.167500	746.819336	247.270065
2850.322287	17458.167500	745.618164	87.332924
2850.322287	17458.167500	744.416992	191.312378
2850.322287	17458.167500	743.214844	346.502411
2850.322287	17458.167500	742.012695	298.634460
2850.322287	17458.167500	740.810547	358.924896
2850.322287	17458.167500	739.608398	457.134918
2850.322287	17458.167500	738.406250	568.593079
2850.322287	17458.167500	737.203125	941.624634
2850.322287	17458.167500	736.000000	1134.460815
2850.322287	17458.167500	734.795898	1249.535400
2850.322287	17458.167500	733.592773	1529.400391
2850.322287	17458.167500	732.388672	1839.465454
2850.322287	17458.167500	731.184570	1685.448120
2850.322287	17458.167500	729.979492	1656.465698
2850.322287	17458.167500	728.775391	1549.896118
2850.322287	17458.167500	727.570313	1106.507813
2850.322287	17458.167500	726.365234	833.606812
2850.322287	17458.167500	725.160156	695.143921
2850.322287	17458.167500	723.954102	585.115051
2850.322287	17458.167500	722.748047	480.811920
2850.322287	17458.167500	721.541992	418.151855
2850.322287	17458.167500	720.334961	383.875977
2850.322287	17458.167500	719.128906	200.327988
2850.322287	17458.167500	717.921875	185.015366
2850.322287	17458.167500	716.714844	105.487480
2850.322287	17458.167500	715.506836	129.866379
2850.322287	17458.167500	714.298828	39.058838
2850.322287	17458.167500	713.090820	-217.835297
2850.322287	17458.167500	711.882813	-151.875381
2850.322287	17458.167500	710.674805	-2.915677
2850.322287	17458.167500	709.465820	230.877716
2850.322287	17458.167500	708.256836	228.795334
2850.322287	17458.167500	707.047852	179.565872
2850.322287	17458.167500	705.837891	137.895294
2850.322287	17458.167500	704.627930	328.095612
2850.322287	17458.167500	703.417969	320.326111
2850.322287	17458.167500	702.208008	278.637817
2850.322287	17458.167500	700.998047	316.082642
2850.322287	17458.167500	699.787109	391.172150
2850.322287	17458.167500	698.576172	379.602081
2850.322287	17458.167500	697.364258	298.368408
2850.322287	17458.167500	696.153320	343.272644
2850.322287	17458.167500	694.941406	386.263550
2850.322287	17458.167500	693.729492	493.196045
2850.322287	17458.167500	692.516602	686.599243
2850.322287	17458.167500	691.304688	851.698547
2850.322287	17458.167500	690.091797	672.623352
2850.322287	17458.167500	688.878906	580.083008
2850.322287	17458.167500	687.665039	418.024567
2850.322287	17458.167500	686.451172	712.636047
2850.322287	17458.167500	685.237305	526.160706
2850.322287	17458.167500	684.023438	567.020630
2850.322287	17458.167500	682.809570	329.914063
2850.322287	17458.167500	681.594727	571.651306
2850.322287	17458.167500	680.379883	599.275879
2850.322287	17458.167500	679.165039	604.345520
2850.322287	17458.167500	677.949219	459.283722
2850.322287	17458.167500	676.733398	663.182800
2850.322287	17458.167500	675.517578	574.388733
2850.322287	17458.167500	674.301758	538.110474
2850.322287	17458.167500	673.084961	535.565552
2850.322287	17458.167500	671.869141	547.992432
2850.322287	17458.167500	670.651367	802.122864
2850.322287	17458.167500	669.434570	681.408081
2850.322287	17458.167500	668.216797	839.814758
2850.322287	17458.167500	667.000000	848.304260
2850.322287	17458.167500	665.781250	836.160950
2850.322287	17458.167500	664.563477	835.223816
2850.322287	17458.167500	663.344727	753.774963
2850.322287	17458.167500	662.125977	743.432434
2850.322287	17458.167500	660.907227	794.796997
2850.322287	17458.167500	659.688477	662.805359
2850.322287	17458.167500	658.468750	676.692261
2850.322287	17458.167500	657.249023	744.755615
2850.322287	17458.167500	656.029297	829.576721
2850.322287	17458.167500	654.808594	861.994751
2850.322287	17458.167500	653.587891	978.439453
2850.322287	17458.167500	652.367188	973.374084
2850.322287	17458.167500	651.146484	794.580139
2850.322287	17458.167500	649.924805	750.259949
2850.322287	17458.167500	648.704102	705.918884
2850.322287	17458.167500	647.482422	695.148804
2850.322287	17458.167500	646.259766	671.275146
2850.322287	17458.167500	645.037109	990.650940
2850.322287	17458.167500	643.815430	640.217163
2850.322287	17458.167500	642.591797	756.101440
2850.322287	17458.167500	641.369141	737.651489
2850.322287	17458.167500	640.145508	489.876953
2850.322287	17458.167500	638.921875	564.580261
2850.322287	17458.167500	637.698242	605.664124
2850.322287	17458.167500	636.474609	469.707184
2850.322287	17458.167500	635.250000	471.583405
2850.322287	17458.167500	634.025391	397.062225
2850.322287	17458.167500	632.800781	508.695923
2850.322287	17458.167500	631.575195	372.672882
2850.322287	17458.167500	630.349609	312.955078
2850.322287	17458.167500	629.124023	286.701294
2850.322287	17458.167500	627.898438	414.798798
2850.322287	17458.167500	626.671875	410.745483
2850.322287	17458.167500	625.445313	337.846313
2850.322287	17458.167500	624.218750	463.833405
2850.322287	17458.167500	622.992188	206.849014
2850.322287	17458.167500	621.764648	362.431915
2850.322287	17458.167500	620.537109	372.988922
2850.322287	17458.167500	619.309570	197.749298
2850.322287	17458.167500	618.081055	120.946114
2850.322287	17458.167500	616.852539	109.102570
2850.322287	17458.167500	615.624023	173.313217
2850.322287	17458.167500	614.395508	33.303463
2850.322287	17458.167500	613.166992	-45.473709
2850.322287	17458.167500	611.937500	76.065269
2850.322287	17458.167500	610.708008	-2.801166
2850.322287	17458.167500	609.477539	-57.588120
2850.322287	17458.167500	608.248047	-123.528320
2850.322287	17458.167500	607.017578	-211.739777
2850.322287	17458.167500	605.787109	146.614807
2850.322287	17458.167500	604.555664	124.963623
2850.322287	17458.167500	603.325195	-81.956871
2850.322287	17458.167500	602.093750	172.266327
2850.322287	17458.167500	600.861328	54.176197
2850.322287	17458.167500	599.629883	-10.234641
2850.322287	17458.167500	598.397461	149.255264
2850.322287	17458.167500	597.165039	18.127230
2850.322287	17458.167500	595.932617	94.188126
2850.322287	17458.167500	594.699219	-3.696467
2850.322287	17458.167500	593.465820	223.850494
2850.322287	17458.167500	592.232422	264.524628
2850.322287	17458.167500	590.999023	42.666111
2850.322287	17458.167500	589.764648	44.443207
2850.322287	17458.167500	588.530273	22.148283
2850.322287	17458.167500	587.295898	105.097191
2850.322287	17458.167500	586.061523	42.064785
2850.322287	17458.167500	584.826172	108.246643
2850.322287	17458.167500	583.590820	26.672709
2850.322287	17458.167500	582.355469	46.587658
2850.322287	17458.167500	581.119141	127.330589
2850.322287	17458.167500	579.882813	36.423851
2850.322287	17458.167500	578.646484	161.298721
2850.322287	17458.167500	577.410156	234.440231
2850.322287	17458.167500	576.172852	316.715790
2850.322287	17458.167500	574.935547	339.925323
2850.322287	17458.167500	573.698242	346.492462
2850.322287	17458.167500	572.460938	435.919891
2850.322287	17458.167500	571.222656	571.309387
2850.322287	17458.167500	569.984375	367.736542
2850.322287	17458.167500	568.746094	357.536224
2850.322287	17458.167500	567.506836	601.329651
2850.322287	17458.167500	566.267578	620.440735
2850.322287	17458.167500	565.028320	435.256104
2850.322287	17458.167500	563.789063	391.764069
2850.322287	17458.167500	562.548828	489.871063
2850.322287	17458.167500	561.309570	348.848297
2850.322287	17458.167500	560.068359	531.412964
2850.322287	17458.167500	558.828125	471.238739
2850.322287	17458.167500	557.586914	409.212616
2850.322287	17458.167500	556.345703	420.671509
2850.322287	17458.167500	555.104492	64.709450
2850.322287	17458.167500	553.863281	276.352997
2850.322287	17458.167500	552.621094	230.813263
2850.322287	17458.167500	551.378906	262.363983
2850.322287	17458.167500	550.136719	292.037659
2850.322287	17458.167500	548.893555	560.211487
2850.322287	17458.167500	547.650391	463.167145
2850.322287	17458.167500	546.407227	345.963531
2850.322287	17458.167500	545.164063	527.693848
2850.322287	17458.167500	543.919922	338.975555
2850.322287	17458.167500	542.675781	357.445862
2850.322287	17458.167500	541.431641	234.780090
2850.322287	17458.167500	540.186523	366.821259
2850.322287	17458.167500	538.941406	392.544678
2850.322287	17458.167500	537.696289	423.736938
2850.322287	17458.167500	536.451172	363.350769
2850.322287	17458.167500	535.205078	169.338608
2850.322287	17458.167500	533.959961	407.342072
2850.322287	17458.167500	532.712891	367.088593
2850.322287	17458.167500	531.466797	213.423187
2850.322287	17458.167500	530.219727	156.754211
2850.322287	17458.167500	528.972656	268.344238
2850.322287	17458.167500	527.725586	228.137192
2850.322287	17458.167500	526.478516	240.956009
2850.322287	17458.167500	525.230469	193.457336
2850.322287	17458.167500	523.982422	29.048307
2850.322287	17458.167500	522.734375	-42.123951
2850.322287	17458.167500	521.485352	-142.485748
2850.322287	17458.167500	520.236328	21.962820
2850.322287	17458.167500	518.987305	162.618881
2850.322287	17458.167500	517.737305	-18.005350
2850.322287	17458.167500	516.488281	221.159470
2850.322287	17458.167500	515.238281	102.656662
2850.322287	17458.167500	513.988281	204.919647
2850.322287	17458.167500	512.737305	31.792685
2850.322287	17458.167500	511.486328	175.992386
2850.322287	17458.167500	510.235352	-325.117371
2850.322287	17458.167500	508.984375	-297.492981
2850.322287	17458.167500	507.732422	109.117088
2850.322287	17458.167500	506.480469	-54.588299
2850.322287	17458.167500	505.228516	-110.744316
2850.322287	17458.167500	503.976563	-44.850426
2850.322287	17458.167500	502.723633	-73.623817
2850.322287	17458.167500	501.470703	-122.372612
2850.322287	17458.167500	500.217773	-52.789722
2850.322287	17458.167500	498.963867	22.251436
2850.322287	17458.167500	497.709961	-97.324043
2850.322287	17458.167500	496.456055	72.328934
2850.322287	17458.167500	495.202148	112.863037
2850.322287	17458.167500	493.947266	13.451701
2850.322287	17458.167500	492.692383	8.625221
2850.322287	17458.167500	491.437500	-346.823242
2850.322287	17458.167500	490.181641	-122.605995
2850.322287	17458.167500	488.926758	110.645401
2850.322287	17458.167500	487.670898	-17.495876
2850.322287	17458.167500	486.414063	-80.187920
2850.322287	17458.167500	485.158203	-95.610519
2850.322287	17458.167500	483.901367	-234.373077
2850.322287	17458.167500	482.644531	-120.855194
2850.322287	17458.167500	481.386719	-130.677567
2850.322287	17458.167500	480.128906	77.163750
2850.322287	17458.167500	478.871094	192.503311
2850.322287	17458.167500	477.613281	164.648224
2850.322287	17458.167500	476.355469	178.538345
2850.322287	17458.167500	475.096680	237.768631
2850.322287	17458.167500	473.837891	76.028915
2850.322287	17458.167500	472.578125	211.422852
2850.322287	17458.167500	471.319336	-24.371786
2850.322287	17458.167500	470.059570	53.163540
2850.322287	17458.167500	468.799805	-131.715515
2850.322287	17458.167500	467.539063	-43.230732
2850.322287	17458.167500	466.278320	61.548996
2850.322287	17458.167500	465.017578	-132.100494
2850.322287	17458.167500	463.756836	25.199020
2850.322287	17458.167500	462.495117	-222.499161
2850.322287	17458.167500	461.233398	-0.079085
2850.322287	17458.167500	459.971680	-30.707819
2850.322287	17458.167500	458.709961	48.937630
2850.322287	17458.167500	457.447266	-171.266632
2850.322287	17458.167500	456.184570	224.508484
2850.322287	17458.167500	454.921875	-118.329529
2850.322287	17458.167500	453.658203	87.798187
2850.322287	17458.167500	452.394531	185.588257
2850.322287	17458.167500	451.130859	101.127365
2850.322287	17458.167500	449.867188	32.974640
2850.322287	17458.167500	448.602539	92.937813
2850.322287	17458.167500	447.337891	100.611099
2850.322287	17458.167500	446.073242	43.404606
2850.322287	17458.167500	444.807617	193.527863
2850.322287	17458.167500	443.542969	57.078453
2850.322287	17458.167500	442.276367	111.678238
2850.322287	17458.167500	441.010742	-3.053089
2850.322287	17458.167500	439.744141	103.783424
2850.322287	17458.167500	438.478516	55.736469
2850.322287	17458.167500	437.210938	29.305975
2850.322287	17458.167500	435.944336	53.277542
2850.322287	17458.167500	434.676758	-135.098312
2850.322287	17458.167500	433.409180	59.771797
2850.322287	17458.167500	432.141602	-27.840408
2850.322287	17458.167500	430.873047	-155.004517
2850.322287	17458.167500	429.604492	-46.635773
2850.322287	17458.167500	428.335938	36.482933
2850.322287	17458.167500	427.067383	88.969780
2850.322287	17458.167500	425.797852	211.444244
2850.322287	17458.167500	424.528320	64.369812
2850.322287	17458.167500	423.258789	197.441788
2850.322287	17458.167500	421.988281	247.784348
2850.322287	17458.167500	420.717773	30.553410
2850.322287	17458.167500	419.447266	337.368042
2850.322287	17458.167500	418.175781	100.272957
2850.322287	17458.167500	416.905273	64.086052
2850.322287	17458.167500	415.633789	126.430580
2850.322287	17458.167500	414.362305	219.096619
2850.322287	17458.167500	413.089844	218.350555
2850.322287	17458.167500	411.817383	70.474991
2850.322287	17458.167500	410.544922	159.034409
2850.322287	17458.167500	409.272461	96.880959
2850.322287	17458.167500	407.999023	145.610733
2850.322287	17458.167500	406.725586	2.497229
2850.322287	17458.167500	405.452148	-78.110779
2850.322287	17458.167500	404.177734	86.307640
2850.322287	17458.167500	402.903320	107.235886
2850.322287	17458.167500	401.628906	124.311287
2850.322287	17458.167500	400.354492	241.274155
2850.322287	17458.167500	399.079102	-48.096714
2850.322287	17458.167500	397.803711	-30.107384
2850.322287	17458.167500	396.528320	277.146851
2850.322287	17458.167500	395.251953	171.047775
2850.322287	17458.167500	393.976563	209.372467
2850.322287	17458.167500	392.700195	122.230865
2850.322287	17458.167500	391.422852	109.729469
2850.322287	17458.167500	390.145508	62.876598
2850.322287	17458.167500	388.869141	-62.951599
2850.322287	17458.167500	387.590820	69.606705
2850.322287	17458.167500	386.313477	41.011364
2850.322287	17458.167500	385.035156	135.012848
2850.322287	17458.167500	383.756836	80.376602
2850.322287	17458.167500	382.478516	100.103813
2850.322287	17458.167500	381.199219	42.550411
2850.322287	17458.167500	379.919922	57.494511
2850.322287	17458.167500	378.640625	39.707531
2850.322287	17458.167500	377.360352	88.955696
2850.322287	17458.167500	376.080078	123.231010
2850.322287	17458.167500	374.799805	110.452888
2850.322287	17458.167500	373.519531	55.965752
2850.322287	17458.167500	372.238281	-4.643549
2850.322287	17458.167500	370.957031	99.482971
2850.322287	17458.167500	369.675781	1.621714
2850.322287	17458.167500	368.394531	39.907578
2850.322287	17458.167500	367.112305	-15.258469
2850.322287	17458.167500	365.830078	40.676739
2850.322287	17458.167500	364.546875	-94.671471
2850.322287	17458.167500	363.264648	-72.771004
2850.322287	17458.167500	361.981445	-334.548523
2850.322287	17458.167500	360.698242	-106.920593
2850.322287	17458.167500	359.414063	-1.365158
2850.322287	17458.167500	358.129883	76.307159
2850.322287	17458.167500	356.845703	51.494823
2850.322287	17458.167500	355.561523	-102.409660
2850.322287	17458.167500	354.276367	-41.062271
2850.322287	17458.167500	352.991211	-37.901371
2850.322287	17458.167500	351.706055	-87.613029
2850.322287	17458.167500	350.420898	107.775688
2850.322287	17458.167500	349.134766	1.834142
2850.322287	17458.167500	347.848633	53.932957
2850.322287	17458.167500	346.561523	-97.721855
2850.322287	17458.167500	345.275391	-158.802017
2850.322287	17458.167500	343.988281	-39.127422
2850.322287	17458.167500	342.700195	-110.874313
2850.322287	17458.167500	341.413086	29.892952
2850.322287	17458.167500	340.125000	-192.556992
2850.322287	17458.167500	338.836914	-52.207531
2850.322287	17458.167500	337.548828	-152.881912
2850.322287	17458.167500	336.259766	34.545113
2850.322287	17458.167500	334.970703	18.053078
2850.322287	17458.167500	333.681641	38.252811
2850.322287	17458.167500	332.391602	-23.473408
2850.322287	17458.167500	331.101563	-158.258118
2850.322287	17458.167500	329.811523	-30.288092
2850.322287	17458.167500	328.521484	109.254166
2850.322287	17458.167500	327.230469	-47.189621
2850.322287	17458.167500	325.939453	-17.224964
2850.322287	17458.167500	324.648438	-111.867447
2850.322287	17458.167500	323.356445	29.008652
2850.322287	17458.167500	322.064453	-80.214142
2850.322287	17458.167500	320.772461	-82.956085
2850.322287	17458.167500	319.480469	-62.301292
2850.322287	17458.167500	318.187500	-138.380554
2850.322287	17458.167500	316.894531	16.893206
2850.322287	17458.167500	315.601563	-41.074646
2850.322287	17458.167500	314.307617	188.352081
2850.322287	17458.167500	313.013672	31.675877
2850.322287	17458.167500	311.719727	-70.408890
2850.322287	17458.167500	310.425781	10.571466
2850.322287	17458.167500	309.130859	89.359009
2850.322287	17458.167500	307.835938	-55.946705
2850.322287	17458.167500	306.541016	173.302338
2850.322287	17458.167500	305.245117	56.721325
2850.322287	17458.167500	303.949219	83.754700
2850.322287	17458.167500	302.653320	243.640488
2850.322287	17458.167500	301.356445	309.147186
2850.322287	17458.167500	300.060547	461.578278
2850.322287	17458.167500	298.763672	405.142731
