#X		#Y		#Wave		#Intensity
9921.522872	4365.018333	1999.946289	13.438082
9921.522872	4365.018333	1998.981445	43.539410
9921.522872	4365.018333	1998.017578	45.097347
9921.522872	4365.018333	1997.052734	175.556335
9921.522872	4365.018333	1996.088867	65.678246
9921.522872	4365.018333	1995.124023	62.399384
9921.522872	4365.018333	1994.159180	-12.662554
9921.522872	4365.018333	1993.193359	16.344482
9921.522872	4365.018333	1992.228516	206.310440
9921.522872	4365.018333	1991.262695	19.988853
9921.522872	4365.018333	1990.296875	61.465508
9921.522872	4365.018333	1989.331055	31.205652
9921.522872	4365.018333	1988.365234	-36.115005
9921.522872	4365.018333	1987.398438	40.088730
9921.522872	4365.018333	1986.432617	5.013943
9921.522872	4365.018333	1985.465820	-101.718666
9921.522872	4365.018333	1984.499023	-141.629013
9921.522872	4365.018333	1983.532227	1.415137
9921.522872	4365.018333	1982.565430	85.130508
9921.522872	4365.018333	1981.597656	-58.463413
9921.522872	4365.018333	1980.629883	-115.510223
9921.522872	4365.018333	1979.662109	84.361084
9921.522872	4365.018333	1978.694336	113.802284
9921.522872	4365.018333	1977.726563	9.941237
9921.522872	4365.018333	1976.758789	51.789574
9921.522872	4365.018333	1975.790039	157.820114
9921.522872	4365.018333	1974.821289	2.279680
9921.522872	4365.018333	1973.852539	-187.712677
9921.522872	4365.018333	1972.883789	-128.475372
9921.522872	4365.018333	1971.915039	-27.306852
9921.522872	4365.018333	1970.945313	96.042236
9921.522872	4365.018333	1969.975586	214.442093
9921.522872	4365.018333	1969.005859	34.582100
9921.522872	4365.018333	1968.036133	-93.433334
9921.522872	4365.018333	1967.066406	37.333225
9921.522872	4365.018333	1966.096680	72.001823
9921.522872	4365.018333	1965.125977	77.125168
9921.522872	4365.018333	1964.155273	-43.317795
9921.522872	4365.018333	1963.184570	43.120117
9921.522872	4365.018333	1962.213867	8.930054
9921.522872	4365.018333	1961.242188	132.287872
9921.522872	4365.018333	1960.271484	142.430069
9921.522872	4365.018333	1959.299805	36.957939
9921.522872	4365.018333	1958.328125	-112.730270
9921.522872	4365.018333	1957.356445	-100.027687
9921.522872	4365.018333	1956.384766	-40.592098
9921.522872	4365.018333	1955.412109	97.508362
9921.522872	4365.018333	1954.439453	164.295853
9921.522872	4365.018333	1953.467773	-63.821789
9921.522872	4365.018333	1952.495117	61.974838
9921.522872	4365.018333	1951.521484	-111.961243
9921.522872	4365.018333	1950.548828	62.952736
9921.522872	4365.018333	1949.575195	46.275543
9921.522872	4365.018333	1948.601563	-176.617249
9921.522872	4365.018333	1947.627930	12.984776
9921.522872	4365.018333	1946.654297	13.550308
9921.522872	4365.018333	1945.680664	55.844936
9921.522872	4365.018333	1944.706055	95.682541
9921.522872	4365.018333	1943.732422	-6.750785
9921.522872	4365.018333	1942.757813	-131.206619
9921.522872	4365.018333	1941.783203	-142.811890
9921.522872	4365.018333	1940.807617	156.944580
9921.522872	4365.018333	1939.833008	-36.069546
9921.522872	4365.018333	1938.857422	47.920128
9921.522872	4365.018333	1937.881836	36.331047
9921.522872	4365.018333	1936.906250	-14.440327
9921.522872	4365.018333	1935.930664	-38.242653
9921.522872	4365.018333	1934.955078	13.885480
9921.522872	4365.018333	1933.978516	-80.900116
9921.522872	4365.018333	1933.001953	162.167084
9921.522872	4365.018333	1932.025391	131.036301
9921.522872	4365.018333	1931.048828	53.430641
9921.522872	4365.018333	1930.072266	19.896984
9921.522872	4365.018333	1929.094727	57.316780
9921.522872	4365.018333	1928.118164	84.945183
9921.522872	4365.018333	1927.140625	17.205261
9921.522872	4365.018333	1926.163086	-43.171642
9921.522872	4365.018333	1925.184570	84.684227
9921.522872	4365.018333	1924.207031	-17.221031
9921.522872	4365.018333	1923.228516	183.887268
9921.522872	4365.018333	1922.250000	111.319557
9921.522872	4365.018333	1921.271484	26.567543
9921.522872	4365.018333	1920.292969	7.781637
9921.522872	4365.018333	1919.314453	-23.204647
9921.522872	4365.018333	1918.334961	224.101044
9921.522872	4365.018333	1917.355469	85.697601
9921.522872	4365.018333	1916.375977	8.349238
9921.522872	4365.018333	1915.396484	-39.695980
9921.522872	4365.018333	1914.416992	46.433079
9921.522872	4365.018333	1913.436523	-43.065670
9921.522872	4365.018333	1912.457031	-42.315002
9921.522872	4365.018333	1911.476563	-24.503099
9921.522872	4365.018333	1910.496094	76.170746
9921.522872	4365.018333	1909.515625	52.517113
9921.522872	4365.018333	1908.534180	-66.156685
9921.522872	4365.018333	1907.552734	-43.500149
9921.522872	4365.018333	1906.572266	91.181030
9921.522872	4365.018333	1905.590820	50.474518
9921.522872	4365.018333	1904.608398	158.292480
9921.522872	4365.018333	1903.626953	39.679699
9921.522872	4365.018333	1902.644531	-52.124790
9921.522872	4365.018333	1901.663086	6.964366
9921.522872	4365.018333	1900.680664	17.364876
9921.522872	4365.018333	1899.698242	-62.246010
9921.522872	4365.018333	1898.714844	30.833008
9921.522872	4365.018333	1897.732422	41.196648
9921.522872	4365.018333	1896.749023	22.373398
9921.522872	4365.018333	1895.765625	61.881866
9921.522872	4365.018333	1894.782227	145.107407
9921.522872	4365.018333	1893.798828	-53.552914
9921.522872	4365.018333	1892.814453	-116.113647
9921.522872	4365.018333	1891.831055	-96.083939
9921.522872	4365.018333	1890.846680	79.338516
9921.522872	4365.018333	1889.862305	135.717331
9921.522872	4365.018333	1888.877930	111.957413
9921.522872	4365.018333	1887.892578	-149.649689
9921.522872	4365.018333	1886.908203	64.423645
9921.522872	4365.018333	1885.922852	115.856560
9921.522872	4365.018333	1884.937500	-14.663714
9921.522872	4365.018333	1883.952148	27.034838
9921.522872	4365.018333	1882.965820	-6.462829
9921.522872	4365.018333	1881.980469	-22.993208
9921.522872	4365.018333	1880.994141	-71.042786
9921.522872	4365.018333	1880.007813	-7.617606
9921.522872	4365.018333	1879.021484	70.304451
9921.522872	4365.018333	1878.035156	56.128826
9921.522872	4365.018333	1877.047852	-18.608915
9921.522872	4365.018333	1876.061523	136.709045
9921.522872	4365.018333	1875.074219	52.264507
9921.522872	4365.018333	1874.086914	-78.157440
9921.522872	4365.018333	1873.098633	-58.500282
9921.522872	4365.018333	1872.111328	38.561459
9921.522872	4365.018333	1871.123047	46.055172
9921.522872	4365.018333	1870.135742	65.621368
9921.522872	4365.018333	1869.147461	-50.267323
9921.522872	4365.018333	1868.158203	34.550865
9921.522872	4365.018333	1867.169922	-74.076408
9921.522872	4365.018333	1866.180664	83.182762
9921.522872	4365.018333	1865.192383	-1.289200
9921.522872	4365.018333	1864.203125	-97.831856
9921.522872	4365.018333	1863.213867	-8.357625
9921.522872	4365.018333	1862.223633	35.172741
9921.522872	4365.018333	1861.234375	165.594955
9921.522872	4365.018333	1860.244141	-49.294441
9921.522872	4365.018333	1859.253906	13.462328
9921.522872	4365.018333	1858.263672	54.452419
9921.522872	4365.018333	1857.273438	-8.350778
9921.522872	4365.018333	1856.282227	-18.080975
9921.522872	4365.018333	1855.291992	17.997736
9921.522872	4365.018333	1854.300781	-66.539055
9921.522872	4365.018333	1853.309570	-20.869640
9921.522872	4365.018333	1852.317383	68.148567
9921.522872	4365.018333	1851.326172	118.547081
9921.522872	4365.018333	1850.333984	-21.468309
9921.522872	4365.018333	1849.342773	33.696518
9921.522872	4365.018333	1848.350586	43.046577
9921.522872	4365.018333	1847.357422	-31.926704
9921.522872	4365.018333	1846.365234	37.578465
9921.522872	4365.018333	1845.372070	-61.492115
9921.522872	4365.018333	1844.379883	72.929573
9921.522872	4365.018333	1843.386719	94.165222
9921.522872	4365.018333	1842.393555	60.025127
9921.522872	4365.018333	1841.399414	95.634071
9921.522872	4365.018333	1840.406250	-73.238060
9921.522872	4365.018333	1839.412109	-107.409897
9921.522872	4365.018333	1838.417969	50.747829
9921.522872	4365.018333	1837.423828	21.318443
9921.522872	4365.018333	1836.429688	-51.388645
9921.522872	4365.018333	1835.434570	-39.994881
9921.522872	4365.018333	1834.440430	-129.536667
9921.522872	4365.018333	1833.445313	81.179749
9921.522872	4365.018333	1832.450195	66.039688
9921.522872	4365.018333	1831.454102	101.298569
9921.522872	4365.018333	1830.458984	9.281524
9921.522872	4365.018333	1829.462891	-61.129875
9921.522872	4365.018333	1828.466797	72.436615
9921.522872	4365.018333	1827.470703	45.169827
9921.522872	4365.018333	1826.474609	80.253731
9921.522872	4365.018333	1825.478516	-42.999783
9921.522872	4365.018333	1824.481445	32.791988
9921.522872	4365.018333	1823.484375	137.295868
9921.522872	4365.018333	1822.487305	47.568405
9921.522872	4365.018333	1821.490234	-8.602425
9921.522872	4365.018333	1820.493164	-117.497475
9921.522872	4365.018333	1819.495117	87.452354
9921.522872	4365.018333	1818.498047	24.029461
9921.522872	4365.018333	1817.500000	-147.168411
9921.522872	4365.018333	1816.500977	83.915703
9921.522872	4365.018333	1815.502930	87.464294
9921.522872	4365.018333	1814.504883	167.570831
9921.522872	4365.018333	1813.505859	-63.474056
9921.522872	4365.018333	1812.506836	-4.966555
9921.522872	4365.018333	1811.507813	-11.097641
9921.522872	4365.018333	1810.508789	25.791321
9921.522872	4365.018333	1809.508789	79.371231
9921.522872	4365.018333	1808.508789	156.806961
9921.522872	4365.018333	1807.508789	14.276712
9921.522872	4365.018333	1806.508789	-49.367039
9921.522872	4365.018333	1805.508789	-29.389940
9921.522872	4365.018333	1804.508789	93.271446
9921.522872	4365.018333	1803.507813	117.925568
9921.522872	4365.018333	1802.506836	68.509964
9921.522872	4365.018333	1801.505859	-57.320599
9921.522872	4365.018333	1800.504883	-49.457256
9921.522872	4365.018333	1799.502930	134.982559
9921.522872	4365.018333	1798.501953	-86.333229
9921.522872	4365.018333	1797.500000	78.893692
9921.522872	4365.018333	1796.498047	103.293434
9921.522872	4365.018333	1795.496094	77.569633
9921.522872	4365.018333	1794.493164	42.283417
9921.522872	4365.018333	1793.491211	33.205082
9921.522872	4365.018333	1792.488281	33.629730
9921.522872	4365.018333	1791.485352	74.533844
9921.522872	4365.018333	1790.482422	60.591278
9921.522872	4365.018333	1789.478516	77.586678
9921.522872	4365.018333	1788.475586	54.058220
9921.522872	4365.018333	1787.471680	211.477982
9921.522872	4365.018333	1786.467773	123.584831
9921.522872	4365.018333	1785.463867	-16.674427
9921.522872	4365.018333	1784.459961	19.199764
9921.522872	4365.018333	1783.455078	185.894241
9921.522872	4365.018333	1782.450195	67.015678
9921.522872	4365.018333	1781.445313	-94.663902
9921.522872	4365.018333	1780.440430	-44.663494
9921.522872	4365.018333	1779.435547	-139.750122
9921.522872	4365.018333	1778.429688	112.234138
9921.522872	4365.018333	1777.424805	135.927734
9921.522872	4365.018333	1776.418945	123.933495
9921.522872	4365.018333	1775.413086	149.925705
9921.522872	4365.018333	1774.406250	-4.656107
9921.522872	4365.018333	1773.400391	28.412718
9921.522872	4365.018333	1772.393555	87.553146
9921.522872	4365.018333	1771.386719	-55.152214
9921.522872	4365.018333	1770.379883	65.632668
9921.522872	4365.018333	1769.373047	-86.568665
9921.522872	4365.018333	1768.365234	45.973690
9921.522872	4365.018333	1767.358398	-56.411236
9921.522872	4365.018333	1766.350586	23.834410
9921.522872	4365.018333	1765.342773	89.791473
9921.522872	4365.018333	1764.334961	-57.685932
9921.522872	4365.018333	1763.326172	-58.175625
9921.522872	4365.018333	1762.318359	-25.511862
9921.522872	4365.018333	1761.309570	35.539219
9921.522872	4365.018333	1760.300781	-95.357399
9921.522872	4365.018333	1759.291016	-119.650238
9921.522872	4365.018333	1758.282227	36.020527
9921.522872	4365.018333	1757.272461	94.522339
9921.522872	4365.018333	1756.262695	48.811806
9921.522872	4365.018333	1755.252930	-32.413166
9921.522872	4365.018333	1754.243164	-123.101654
9921.522872	4365.018333	1753.233398	-62.366787
9921.522872	4365.018333	1752.222656	38.524387
9921.522872	4365.018333	1751.211914	58.937809
9921.522872	4365.018333	1750.201172	-98.027733
9921.522872	4365.018333	1749.190430	-200.587402
9921.522872	4365.018333	1748.179688	84.503601
9921.522872	4365.018333	1747.167969	-32.292892
9921.522872	4365.018333	1746.156250	-7.307570
9921.522872	4365.018333	1745.144531	50.712673
9921.522872	4365.018333	1744.132813	-16.496143
9921.522872	4365.018333	1743.121094	46.170650
9921.522872	4365.018333	1742.108398	-49.403336
9921.522872	4365.018333	1741.095703	43.872734
9921.522872	4365.018333	1740.083008	-63.519508
9921.522872	4365.018333	1739.070313	10.792201
9921.522872	4365.018333	1738.057617	-70.656296
9921.522872	4365.018333	1737.043945	15.363223
9921.522872	4365.018333	1736.030273	44.725426
9921.522872	4365.018333	1735.016602	208.444672
9921.522872	4365.018333	1734.002930	-23.961248
9921.522872	4365.018333	1732.989258	-98.391548
9921.522872	4365.018333	1731.974609	-62.070240
9921.522872	4365.018333	1730.959961	92.011734
9921.522872	4365.018333	1729.945313	118.808701
9921.522872	4365.018333	1728.930664	110.244217
9921.522872	4365.018333	1727.916016	-67.877785
9921.522872	4365.018333	1726.900391	-97.646660
9921.522872	4365.018333	1725.885742	-106.239975
9921.522872	4365.018333	1724.870117	-53.673599
9921.522872	4365.018333	1723.853516	5.902733
9921.522872	4365.018333	1722.837891	65.436592
9921.522872	4365.018333	1721.822266	-37.361126
9921.522872	4365.018333	1720.805664	184.359573
9921.522872	4365.018333	1719.789063	-181.791382
9921.522872	4365.018333	1718.772461	-122.366478
9921.522872	4365.018333	1717.754883	14.563300
9921.522872	4365.018333	1716.738281	-109.394539
9921.522872	4365.018333	1715.720703	18.038223
9921.522872	4365.018333	1714.703125	105.470154
9921.522872	4365.018333	1713.685547	89.518700
9921.522872	4365.018333	1712.667969	-219.936981
9921.522872	4365.018333	1711.649414	3.572588
9921.522872	4365.018333	1710.630859	50.949017
9921.522872	4365.018333	1709.612305	201.535339
9921.522872	4365.018333	1708.593750	-30.372746
9921.522872	4365.018333	1707.575195	56.796783
9921.522872	4365.018333	1706.555664	-1.494980
9921.522872	4365.018333	1705.536133	19.937380
9921.522872	4365.018333	1704.516602	-7.889262
9921.522872	4365.018333	1703.497070	32.247540
9921.522872	4365.018333	1702.477539	-70.598236
9921.522872	4365.018333	1701.457031	-124.226791
9921.522872	4365.018333	1700.437500	-67.750748
9921.522872	4365.018333	1699.416992	-34.740074
9921.522872	4365.018333	1698.395508	73.165833
9921.522872	4365.018333	1697.375000	96.735802
9921.522872	4365.018333	1696.354492	-69.318687
9921.522872	4365.018333	1695.333008	57.201088
9921.522872	4365.018333	1694.311523	8.168733
9921.522872	4365.018333	1693.290039	-43.200615
9921.522872	4365.018333	1692.267578	-101.588638
9921.522872	4365.018333	1691.246094	80.896240
9921.522872	4365.018333	1690.223633	85.600319
9921.522872	4365.018333	1689.201172	123.012993
9921.522872	4365.018333	1688.178711	-12.550009
9921.522872	4365.018333	1687.155273	62.217869
9921.522872	4365.018333	1686.132813	-110.691086
9921.522872	4365.018333	1685.109375	-42.969757
9921.522872	4365.018333	1684.085938	-43.012459
9921.522872	4365.018333	1683.062500	10.632290
9921.522872	4365.018333	1682.039063	117.934517
9921.522872	4365.018333	1681.014648	276.523956
9921.522872	4365.018333	1679.990234	134.015625
9921.522872	4365.018333	1678.965820	-94.773766
9921.522872	4365.018333	1677.941406	84.720062
9921.522872	4365.018333	1676.916992	14.590684
9921.522872	4365.018333	1675.891602	165.984879
9921.522872	4365.018333	1674.866211	65.531883
9921.522872	4365.018333	1673.840820	69.992744
9921.522872	4365.018333	1672.815430	90.754013
9921.522872	4365.018333	1671.790039	153.435638
9921.522872	4365.018333	1670.763672	134.545227
9921.522872	4365.018333	1669.737305	99.349220
9921.522872	4365.018333	1668.710938	99.085762
9921.522872	4365.018333	1667.684570	164.000275
9921.522872	4365.018333	1666.658203	70.598961
9921.522872	4365.018333	1665.630859	223.905487
9921.522872	4365.018333	1664.603516	42.088711
9921.522872	4365.018333	1663.576172	160.430206
9921.522872	4365.018333	1662.548828	108.929329
9921.522872	4365.018333	1661.520508	52.784061
9921.522872	4365.018333	1660.493164	-49.840034
9921.522872	4365.018333	1659.464844	-75.727509
9921.522872	4365.018333	1658.436523	256.296875
9921.522872	4365.018333	1657.408203	279.143646
9921.522872	4365.018333	1656.378906	99.853958
9921.522872	4365.018333	1655.350586	127.356651
9921.522872	4365.018333	1654.321289	113.036575
9921.522872	4365.018333	1653.291992	94.073860
9921.522872	4365.018333	1652.261719	188.856415
9921.522872	4365.018333	1651.232422	248.790100
9921.522872	4365.018333	1650.202148	264.601074
9921.522872	4365.018333	1649.171875	124.960190
9921.522872	4365.018333	1648.141602	289.236938
9921.522872	4365.018333	1647.111328	383.872101
9921.522872	4365.018333	1646.080078	313.836060
9921.522872	4365.018333	1645.049805	408.426300
9921.522872	4365.018333	1644.018555	220.200546
9921.522872	4365.018333	1642.987305	358.792511
9921.522872	4365.018333	1641.955078	342.091614
9921.522872	4365.018333	1640.923828	404.161926
9921.522872	4365.018333	1639.891602	438.409729
9921.522872	4365.018333	1638.859375	512.007874
9921.522872	4365.018333	1637.827148	467.508514
9921.522872	4365.018333	1636.794922	543.388428
9921.522872	4365.018333	1635.761719	512.781311
9921.522872	4365.018333	1634.729492	387.328156
9921.522872	4365.018333	1633.696289	479.371033
9921.522872	4365.018333	1632.662109	559.809631
9921.522872	4365.018333	1631.628906	529.229492
9921.522872	4365.018333	1630.594727	556.456848
9921.522872	4365.018333	1629.561523	692.323364
9921.522872	4365.018333	1628.527344	601.651428
9921.522872	4365.018333	1627.493164	670.449829
9921.522872	4365.018333	1626.458008	644.503418
9921.522872	4365.018333	1625.423828	708.655457
9921.522872	4365.018333	1624.388672	534.927673
9921.522872	4365.018333	1623.353516	599.080750
9921.522872	4365.018333	1622.318359	626.279968
9921.522872	4365.018333	1621.282227	588.846497
9921.522872	4365.018333	1620.247070	782.185974
9921.522872	4365.018333	1619.210938	673.232361
9921.522872	4365.018333	1618.174805	658.896606
9921.522872	4365.018333	1617.137695	729.894348
9921.522872	4365.018333	1616.101563	586.449585
9921.522872	4365.018333	1615.064453	592.902466
9921.522872	4365.018333	1614.027344	758.390625
9921.522872	4365.018333	1612.990234	741.780518
9921.522872	4365.018333	1611.953125	819.644775
9921.522872	4365.018333	1610.916016	713.213257
9921.522872	4365.018333	1609.877930	597.614685
9921.522872	4365.018333	1608.839844	746.862610
9921.522872	4365.018333	1607.801758	573.770752
9921.522872	4365.018333	1606.763672	925.528992
9921.522872	4365.018333	1605.724609	915.869629
9921.522872	4365.018333	1604.685547	655.443787
9921.522872	4365.018333	1603.646484	825.285950
9921.522872	4365.018333	1602.607422	926.078186
9921.522872	4365.018333	1601.568359	750.915405
9921.522872	4365.018333	1600.528320	1014.926636
9921.522872	4365.018333	1599.489258	915.689941
9921.522872	4365.018333	1598.449219	945.191345
9921.522872	4365.018333	1597.408203	921.843323
9921.522872	4365.018333	1596.368164	937.575500
9921.522872	4365.018333	1595.327148	719.046753
9921.522872	4365.018333	1594.287109	783.062683
9921.522872	4365.018333	1593.246094	713.905334
9921.522872	4365.018333	1592.204102	938.590698
9921.522872	4365.018333	1591.163086	965.845947
9921.522872	4365.018333	1590.121094	704.000305
9921.522872	4365.018333	1589.079102	685.437988
9921.522872	4365.018333	1588.037109	556.807678
9921.522872	4365.018333	1586.995117	666.727905
9921.522872	4365.018333	1585.953125	616.135437
9921.522872	4365.018333	1584.910156	528.899780
9921.522872	4365.018333	1583.867188	730.479309
9921.522872	4365.018333	1582.824219	487.480652
9921.522872	4365.018333	1581.781250	727.969666
9921.522872	4365.018333	1580.737305	542.358765
9921.522872	4365.018333	1579.693359	665.986084
9921.522872	4365.018333	1578.649414	752.952576
9921.522872	4365.018333	1577.605469	714.004639
9921.522872	4365.018333	1576.561523	670.513611
9921.522872	4365.018333	1575.516602	663.666443
9921.522872	4365.018333	1574.472656	736.918274
9921.522872	4365.018333	1573.427734	716.377075
9921.522872	4365.018333	1572.381836	602.100952
9921.522872	4365.018333	1571.336914	657.088623
9921.522872	4365.018333	1570.291016	618.347839
9921.522872	4365.018333	1569.246094	691.637024
9921.522872	4365.018333	1568.200195	538.696350
9921.522872	4365.018333	1567.153320	662.269348
9921.522872	4365.018333	1566.107422	557.406372
9921.522872	4365.018333	1565.060547	587.341797
9921.522872	4365.018333	1564.013672	229.136139
9921.522872	4365.018333	1562.966797	439.512329
9921.522872	4365.018333	1561.919922	588.205994
9921.522872	4365.018333	1560.872070	549.744202
9921.522872	4365.018333	1559.825195	602.585327
9921.522872	4365.018333	1558.777344	529.970886
9921.522872	4365.018333	1557.729492	553.193542
9921.522872	4365.018333	1556.680664	514.865479
9921.522872	4365.018333	1555.632813	501.657776
9921.522872	4365.018333	1554.583984	351.724152
9921.522872	4365.018333	1553.535156	555.084839
9921.522872	4365.018333	1552.486328	699.156067
9921.522872	4365.018333	1551.436523	724.743530
9921.522872	4365.018333	1550.387695	638.758118
9921.522872	4365.018333	1549.337891	555.106934
9921.522872	4365.018333	1548.288086	653.638000
9921.522872	4365.018333	1547.238281	626.974731
9921.522872	4365.018333	1546.187500	695.921875
9921.522872	4365.018333	1545.136719	557.828491
9921.522872	4365.018333	1544.086914	585.878540
9921.522872	4365.018333	1543.035156	754.943054
9921.522872	4365.018333	1541.984375	535.148499
9921.522872	4365.018333	1540.933594	651.931580
9921.522872	4365.018333	1539.881836	664.138245
9921.522872	4365.018333	1538.830078	812.719910
9921.522872	4365.018333	1537.778320	629.555786
9921.522872	4365.018333	1536.725586	310.193970
9921.522872	4365.018333	1535.673828	386.172577
9921.522872	4365.018333	1534.621094	423.545898
9921.522872	4365.018333	1533.568359	569.907654
9921.522872	4365.018333	1532.515625	629.990601
9921.522872	4365.018333	1531.461914	547.109619
9921.522872	4365.018333	1530.409180	550.514404
9921.522872	4365.018333	1529.355469	454.133545
9921.522872	4365.018333	1528.301758	693.489319
9921.522872	4365.018333	1527.247070	554.097107
9921.522872	4365.018333	1526.193359	516.815674
9921.522872	4365.018333	1525.138672	404.778809
9921.522872	4365.018333	1524.083984	494.513702
9921.522872	4365.018333	1523.029297	239.848679
9921.522872	4365.018333	1521.974609	431.586670
9921.522872	4365.018333	1520.918945	276.753845
9921.522872	4365.018333	1519.863281	334.872345
9921.522872	4365.018333	1518.807617	257.164001
9921.522872	4365.018333	1517.751953	376.447388
9921.522872	4365.018333	1516.696289	341.829102
9921.522872	4365.018333	1515.639648	298.206635
9921.522872	4365.018333	1514.583008	245.587219
9921.522872	4365.018333	1513.526367	170.406601
9921.522872	4365.018333	1512.469727	156.345627
9921.522872	4365.018333	1511.412109	131.019623
9921.522872	4365.018333	1510.355469	325.001190
9921.522872	4365.018333	1509.297852	166.387070
9921.522872	4365.018333	1508.240234	227.043716
9921.522872	4365.018333	1507.181641	265.119812
9921.522872	4365.018333	1506.124023	199.324371
9921.522872	4365.018333	1505.065430	201.333527
9921.522872	4365.018333	1504.006836	-112.699333
9921.522872	4365.018333	1502.948242	-38.321915
9921.522872	4365.018333	1501.888672	-0.048427
9921.522872	4365.018333	1500.830078	2.149068
9921.522872	4365.018333	1499.770508	-70.064629
9921.522872	4365.018333	1498.710938	-81.313675
9921.522872	4365.018333	1497.650391	103.664215
9921.522872	4365.018333	1496.590820	245.772659
9921.522872	4365.018333	1495.530273	79.045868
9921.522872	4365.018333	1494.469727	65.673019
9921.522872	4365.018333	1493.409180	137.968689
9921.522872	4365.018333	1492.348633	180.987686
9921.522872	4365.018333	1491.287109	88.886063
9921.522872	4365.018333	1490.225586	188.270782
9921.522872	4365.018333	1489.164063	3.974985
9921.522872	4365.018333	1488.102539	103.415764
9921.522872	4365.018333	1487.041016	0.309055
9921.522872	4365.018333	1485.978516	117.790581
9921.522872	4365.018333	1484.916016	21.553038
9921.522872	4365.018333	1483.853516	-108.352684
9921.522872	4365.018333	1482.791016	184.600861
9921.522872	4365.018333	1481.727539	32.321030
9921.522872	4365.018333	1480.664063	89.192726
9921.522872	4365.018333	1479.600586	231.447510
9921.522872	4365.018333	1478.537109	119.871582
9921.522872	4365.018333	1477.473633	210.483612
9921.522872	4365.018333	1476.409180	218.008484
9921.522872	4365.018333	1475.344727	61.682503
9921.522872	4365.018333	1474.280273	179.330933
9921.522872	4365.018333	1473.215820	130.869858
9921.522872	4365.018333	1472.151367	44.301334
9921.522872	4365.018333	1471.085938	43.287933
9921.522872	4365.018333	1470.020508	-18.350283
9921.522872	4365.018333	1468.955078	-53.009731
9921.522872	4365.018333	1467.888672	-7.237668
9921.522872	4365.018333	1466.823242	175.674911
9921.522872	4365.018333	1465.756836	136.376633
9921.522872	4365.018333	1464.690430	-3.145678
9921.522872	4365.018333	1463.624023	101.000618
9921.522872	4365.018333	1462.556641	93.276260
9921.522872	4365.018333	1461.490234	74.883011
9921.522872	4365.018333	1460.422852	27.077301
9921.522872	4365.018333	1459.355469	124.958046
9921.522872	4365.018333	1458.287109	157.471497
9921.522872	4365.018333	1457.219727	-6.058848
9921.522872	4365.018333	1456.151367	106.794647
9921.522872	4365.018333	1455.083008	209.089722
9921.522872	4365.018333	1454.014648	94.886948
9921.522872	4365.018333	1452.945313	368.341736
9921.522872	4365.018333	1451.876953	-148.652481
9921.522872	4365.018333	1450.807617	15.991467
9921.522872	4365.018333	1449.738281	279.853577
9921.522872	4365.018333	1448.668945	195.431900
9921.522872	4365.018333	1447.598633	72.133049
9921.522872	4365.018333	1446.528320	-59.178959
9921.522872	4365.018333	1445.458008	85.453896
9921.522872	4365.018333	1444.387695	298.713257
9921.522872	4365.018333	1443.317383	177.893097
9921.522872	4365.018333	1442.246094	209.992935
9921.522872	4365.018333	1441.174805	269.805328
9921.522872	4365.018333	1440.103516	168.263840
9921.522872	4365.018333	1439.032227	206.589188
9921.522872	4365.018333	1437.960938	57.634888
9921.522872	4365.018333	1436.888672	67.298119
9921.522872	4365.018333	1435.816406	103.482536
9921.522872	4365.018333	1434.744141	-15.259148
9921.522872	4365.018333	1433.670898	122.319016
9921.522872	4365.018333	1432.598633	130.141144
9921.522872	4365.018333	1431.525391	6.877874
9921.522872	4365.018333	1430.452148	175.167023
9921.522872	4365.018333	1429.378906	124.306412
9921.522872	4365.018333	1428.304688	44.979671
9921.522872	4365.018333	1427.231445	4.048978
9921.522872	4365.018333	1426.157227	73.659981
9921.522872	4365.018333	1425.083008	0.438554
9921.522872	4365.018333	1424.007813	196.955200
9921.522872	4365.018333	1422.933594	13.012181
9921.522872	4365.018333	1421.858398	120.040627
9921.522872	4365.018333	1420.783203	-106.808372
9921.522872	4365.018333	1419.708008	111.647743
9921.522872	4365.018333	1418.631836	-53.001770
9921.522872	4365.018333	1417.555664	-33.394043
9921.522872	4365.018333	1416.479492	-228.660965
9921.522872	4365.018333	1415.403320	177.887817
9921.522872	4365.018333	1414.327148	-7.315121
9921.522872	4365.018333	1413.250000	26.125313
9921.522872	4365.018333	1412.173828	-79.752136
9921.522872	4365.018333	1411.096680	-15.271425
9921.522872	4365.018333	1410.018555	158.554794
9921.522872	4365.018333	1408.941406	-30.349224
9921.522872	4365.018333	1407.863281	18.802155
9921.522872	4365.018333	1406.785156	127.735641
9921.522872	4365.018333	1405.707031	-16.708998
9921.522872	4365.018333	1404.628906	-10.598256
9921.522872	4365.018333	1403.549805	-83.776932
9921.522872	4365.018333	1402.470703	-8.937427
9921.522872	4365.018333	1401.391602	-98.867920
9921.522872	4365.018333	1400.312500	-15.329252
9921.522872	4365.018333	1399.233398	-16.813700
9921.522872	4365.018333	1398.153320	-27.123884
9921.522872	4365.018333	1397.073242	246.225311
9921.522872	4365.018333	1395.993164	245.552155
9921.522872	4365.018333	1394.913086	63.451248
9921.522872	4365.018333	1393.832031	-74.508774
9921.522872	4365.018333	1392.750977	1.110170
9921.522872	4365.018333	1391.669922	112.070656
9921.522872	4365.018333	1390.588867	-57.265121
9921.522872	4365.018333	1389.506836	183.536835
9921.522872	4365.018333	1388.425781	162.535950
9921.522872	4365.018333	1387.343750	-26.596880
9921.522872	4365.018333	1386.261719	8.197259
9921.522872	4365.018333	1385.178711	215.834930
9921.522872	4365.018333	1384.096680	24.861591
9921.522872	4365.018333	1383.013672	28.840004
9921.522872	4365.018333	1381.930664	60.545742
9921.522872	4365.018333	1380.846680	80.183594
9921.522872	4365.018333	1379.763672	203.218613
9921.522872	4365.018333	1378.679688	85.576187
9921.522872	4365.018333	1377.595703	244.682098
9921.522872	4365.018333	1376.511719	181.714920
9921.522872	4365.018333	1375.427734	248.371765
9921.522872	4365.018333	1374.342773	37.837162
9921.522872	4365.018333	1373.257813	226.992783
9921.522872	4365.018333	1372.172852	192.689056
9921.522872	4365.018333	1371.087891	240.482483
9921.522872	4365.018333	1370.001953	244.390717
9921.522872	4365.018333	1368.916992	239.843857
9921.522872	4365.018333	1367.831055	41.742619
9921.522872	4365.018333	1366.744141	224.572296
9921.522872	4365.018333	1365.658203	62.026447
9921.522872	4365.018333	1364.571289	134.392715
9921.522872	4365.018333	1363.484375	169.540726
9921.522872	4365.018333	1362.397461	125.636330
9921.522872	4365.018333	1361.310547	-4.677083
9921.522872	4365.018333	1360.222656	30.175074
9921.522872	4365.018333	1359.135742	208.841980
9921.522872	4365.018333	1358.047852	97.501335
9921.522872	4365.018333	1356.958984	113.825912
9921.522872	4365.018333	1355.871094	120.639496
9921.522872	4365.018333	1354.782227	64.525246
9921.522872	4365.018333	1353.693359	212.328049
9921.522872	4365.018333	1352.604492	183.566284
9921.522872	4365.018333	1351.515625	126.148949
9921.522872	4365.018333	1350.425781	-133.346161
9921.522872	4365.018333	1349.335938	117.247986
9921.522872	4365.018333	1348.246094	144.074738
9921.522872	4365.018333	1347.156250	257.104614
9921.522872	4365.018333	1346.066406	274.383331
9921.522872	4365.018333	1344.975586	52.949772
9921.522872	4365.018333	1343.884766	248.081146
9921.522872	4365.018333	1342.793945	236.902237
9921.522872	4365.018333	1341.702148	488.515533
9921.522872	4365.018333	1340.611328	423.214569
9921.522872	4365.018333	1339.519531	310.975952
9921.522872	4365.018333	1338.427734	401.757416
9921.522872	4365.018333	1337.334961	411.296265
9921.522872	4365.018333	1336.243164	175.327225
9921.522872	4365.018333	1335.150391	285.838867
9921.522872	4365.018333	1334.057617	251.027054
9921.522872	4365.018333	1332.964844	182.691360
9921.522872	4365.018333	1331.871094	404.397430
9921.522872	4365.018333	1330.778320	175.386444
9921.522872	4365.018333	1329.684570	330.200073
9921.522872	4365.018333	1328.590820	354.680420
9921.522872	4365.018333	1327.496094	369.633545
9921.522872	4365.018333	1326.402344	231.402863
9921.522872	4365.018333	1325.307617	415.658234
9921.522872	4365.018333	1324.212891	238.339310
9921.522872	4365.018333	1323.117188	147.742447
9921.522872	4365.018333	1322.022461	195.464752
9921.522872	4365.018333	1320.926758	89.980042
9921.522872	4365.018333	1319.831055	196.152634
9921.522872	4365.018333	1318.735352	162.564362
9921.522872	4365.018333	1317.638672	272.312469
9921.522872	4365.018333	1316.542969	253.407852
9921.522872	4365.018333	1315.446289	283.784546
9921.522872	4365.018333	1314.349609	181.583099
9921.522872	4365.018333	1313.251953	55.644070
9921.522872	4365.018333	1312.155273	164.983002
9921.522872	4365.018333	1311.057617	209.684509
9921.522872	4365.018333	1309.959961	193.969131
9921.522872	4365.018333	1308.862305	149.844467
9921.522872	4365.018333	1307.763672	58.652149
9921.522872	4365.018333	1306.665039	66.365547
9921.522872	4365.018333	1305.566406	128.702209
9921.522872	4365.018333	1304.467773	165.529068
9921.522872	4365.018333	1303.369141	-59.313255
9921.522872	4365.018333	1302.269531	-48.252563
9921.522872	4365.018333	1301.169922	126.368980
9921.522872	4365.018333	1300.070313	87.446632
9921.522872	4365.018333	1298.970703	184.785828
9921.522872	4365.018333	1297.870117	-72.759872
9921.522872	4365.018333	1296.769531	-44.889179
9921.522872	4365.018333	1295.668945	46.189644
9921.522872	4365.018333	1294.568359	45.610149
9921.522872	4365.018333	1293.466797	-49.615791
9921.522872	4365.018333	1292.366211	-144.510666
9921.522872	4365.018333	1291.264648	18.621395
9921.522872	4365.018333	1290.162109	154.113235
9921.522872	4365.018333	1289.060547	122.407066
9921.522872	4365.018333	1287.958008	0.406905
9921.522872	4365.018333	1286.855469	-72.628181
9921.522872	4365.018333	1285.752930	-1.172084
9921.522872	4365.018333	1284.650391	-106.256287
9921.522872	4365.018333	1283.546875	-129.880447
9921.522872	4365.018333	1282.444336	-58.877037
9921.522872	4365.018333	1281.339844	31.968447
9921.522872	4365.018333	1280.236328	-102.450600
9921.522872	4365.018333	1279.132813	13.710928
9921.522872	4365.018333	1278.028320	-7.577768
9921.522872	4365.018333	1276.923828	-43.415257
9921.522872	4365.018333	1275.819336	-75.204132
9921.522872	4365.018333	1274.713867	53.137188
9921.522872	4365.018333	1273.608398	-89.954788
9921.522872	4365.018333	1272.503906	44.145844
9921.522872	4365.018333	1271.397461	-48.468903
9921.522872	4365.018333	1270.291992	-79.570251
9921.522872	4365.018333	1269.185547	-6.522024
9921.522872	4365.018333	1268.080078	-39.868168
9921.522872	4365.018333	1266.972656	-66.056473
9921.522872	4365.018333	1265.866211	-26.615248
9921.522872	4365.018333	1264.759766	-78.463768
9921.522872	4365.018333	1263.652344	-50.243908
9921.522872	4365.018333	1262.544922	-20.459776
9921.522872	4365.018333	1261.436523	44.542694
9921.522872	4365.018333	1260.329102	-121.164009
9921.522872	4365.018333	1259.220703	-100.149429
9921.522872	4365.018333	1258.112305	-148.616959
9921.522872	4365.018333	1257.003906	54.385315
9921.522872	4365.018333	1255.895508	-26.343565
9921.522872	4365.018333	1254.786133	-121.176773
9921.522872	4365.018333	1253.676758	-189.082901
9921.522872	4365.018333	1252.567383	-85.342476
9921.522872	4365.018333	1251.458008	-15.705753
9921.522872	4365.018333	1250.347656	-210.099564
9921.522872	4365.018333	1249.237305	-93.761597
9921.522872	4365.018333	1248.126953	14.151138
9921.522872	4365.018333	1247.016602	-6.574000
9921.522872	4365.018333	1245.905273	-124.148941
9921.522872	4365.018333	1244.793945	-99.210861
9921.522872	4365.018333	1243.682617	72.834717
9921.522872	4365.018333	1242.571289	-98.168221
9921.522872	4365.018333	1241.459961	-42.679886
9921.522872	4365.018333	1240.347656	-104.118675
9921.522872	4365.018333	1239.235352	19.671625
9921.522872	4365.018333	1238.123047	35.727867
9921.522872	4365.018333	1237.009766	-79.413712
9921.522872	4365.018333	1235.897461	68.852402
9921.522872	4365.018333	1234.784180	23.837704
9921.522872	4365.018333	1233.670898	-0.560940
9921.522872	4365.018333	1232.556641	-49.362911
9921.522872	4365.018333	1231.443359	109.687599
9921.522872	4365.018333	1230.329102	88.377769
9921.522872	4365.018333	1229.214844	2.267998
9921.522872	4365.018333	1228.099609	42.774006
9921.522872	4365.018333	1226.985352	45.047504
9921.522872	4365.018333	1225.870117	118.817177
9921.522872	4365.018333	1224.754883	4.768858
9921.522872	4365.018333	1223.639648	85.789513
9921.522872	4365.018333	1222.523438	5.224612
9921.522872	4365.018333	1221.408203	76.920586
9921.522872	4365.018333	1220.291992	26.999289
9921.522872	4365.018333	1219.174805	20.865782
9921.522872	4365.018333	1218.058594	91.251205
9921.522872	4365.018333	1216.941406	123.312149
9921.522872	4365.018333	1215.824219	150.822739
9921.522872	4365.018333	1214.707031	173.906769
9921.522872	4365.018333	1213.589844	174.010300
9921.522872	4365.018333	1212.471680	191.051605
9921.522872	4365.018333	1211.353516	103.700836
9921.522872	4365.018333	1210.235352	145.803421
9921.522872	4365.018333	1209.117188	123.640396
9921.522872	4365.018333	1207.998047	66.460175
9921.522872	4365.018333	1206.878906	115.216522
9921.522872	4365.018333	1205.759766	72.894554
9921.522872	4365.018333	1204.640625	221.867096
9921.522872	4365.018333	1203.520508	88.305931
9921.522872	4365.018333	1202.401367	143.501556
9921.522872	4365.018333	1201.281250	149.314407
9921.522872	4365.018333	1200.160156	69.219353
9921.522872	4365.018333	1199.040039	34.890659
9921.522872	4365.018333	1197.918945	117.245911
9921.522872	4365.018333	1196.797852	6.049861
9921.522872	4365.018333	1195.676758	106.984406
9921.522872	4365.018333	1194.555664	-73.085930
9921.522872	4365.018333	1193.433594	-14.506877
9921.522872	4365.018333	1192.311523	-48.376495
9921.522872	4365.018333	1191.189453	-11.546576
9921.522872	4365.018333	1190.066406	29.370573
9921.522872	4365.018333	1188.944336	38.095016
9921.522872	4365.018333	1187.821289	85.324715
9921.522872	4365.018333	1186.698242	-17.562340
9921.522872	4365.018333	1185.574219	8.580343
9921.522872	4365.018333	1184.451172	42.326324
9921.522872	4365.018333	1183.327148	-115.930122
9921.522872	4365.018333	1182.203125	69.743683
9921.522872	4365.018333	1181.078125	10.184669
9921.522872	4365.018333	1179.954102	41.051338
9921.522872	4365.018333	1178.829102	-9.556927
9921.522872	4365.018333	1177.704102	50.536190
9921.522872	4365.018333	1176.579102	-45.015713
9921.522872	4365.018333	1175.453125	-4.963566
9921.522872	4365.018333	1174.327148	-106.506554
9921.522872	4365.018333	1173.201172	-54.360706
9921.522872	4365.018333	1172.075195	-22.658056
9921.522872	4365.018333	1170.949219	-7.644413
9921.522872	4365.018333	1169.822266	-5.632712
9921.522872	4365.018333	1168.695313	-35.994011
9921.522872	4365.018333	1167.568359	-4.506343
9921.522872	4365.018333	1166.440430	-5.245819
9921.522872	4365.018333	1165.313477	-62.272232
9921.522872	4365.018333	1164.185547	105.412292
9921.522872	4365.018333	1163.057617	11.751647
9921.522872	4365.018333	1161.928711	57.058388
9921.522872	4365.018333	1160.800781	100.889427
9921.522872	4365.018333	1159.671875	103.877899
9921.522872	4365.018333	1158.541992	54.395199
9921.522872	4365.018333	1157.413086	34.758007
9921.522872	4365.018333	1156.283203	-18.828770
9921.522872	4365.018333	1155.154297	-79.376076
9921.522872	4365.018333	1154.023438	-142.445343
9921.522872	4365.018333	1152.893555	-118.384689
9921.522872	4365.018333	1151.763672	59.035931
9921.522872	4365.018333	1150.632813	89.781929
9921.522872	4365.018333	1149.501953	84.231277
9921.522872	4365.018333	1148.370117	68.387474
9921.522872	4365.018333	1147.239258	53.222008
9921.522872	4365.018333	1146.107422	-70.555336
9921.522872	4365.018333	1144.975586	8.972993
9921.522872	4365.018333	1143.843750	-57.708805
9921.522872	4365.018333	1142.710938	14.019447
9921.522872	4365.018333	1141.578125	63.877556
9921.522872	4365.018333	1140.445313	124.744255
9921.522872	4365.018333	1139.312500	-6.211681
9921.522872	4365.018333	1138.178711	78.751503
9921.522872	4365.018333	1137.045898	86.478409
9921.522872	4365.018333	1135.912109	54.949295
9921.522872	4365.018333	1134.777344	-42.330654
9921.522872	4365.018333	1133.643555	85.451469
9921.522872	4365.018333	1132.508789	40.175293
9921.522872	4365.018333	1131.374023	80.652473
9921.522872	4365.018333	1130.239258	59.043983
9921.522872	4365.018333	1129.104492	62.464409
9921.522872	4365.018333	1127.968750	93.546585
9921.522872	4365.018333	1126.833008	-24.781116
9921.522872	4365.018333	1125.697266	73.902039
9921.522872	4365.018333	1124.560547	91.925667
9921.522872	4365.018333	1123.424805	11.811244
9921.522872	4365.018333	1122.288086	13.924670
9921.522872	4365.018333	1121.151367	92.620613
9921.522872	4365.018333	1120.013672	98.246231
9921.522872	4365.018333	1118.876953	-21.643726
9921.522872	4365.018333	1117.739258	108.167664
9921.522872	4365.018333	1116.601563	137.505310
9921.522872	4365.018333	1115.462891	169.156784
9921.522872	4365.018333	1114.324219	27.737064
9921.522872	4365.018333	1113.186523	116.059853
9921.522872	4365.018333	1112.046875	177.397308
9921.522872	4365.018333	1110.908203	158.271423
9921.522872	4365.018333	1109.769531	63.182682
9921.522872	4365.018333	1108.629883	18.832182
9921.522872	4365.018333	1107.490234	46.649387
9921.522872	4365.018333	1106.349609	95.061478
9921.522872	4365.018333	1105.209961	49.116520
9921.522872	4365.018333	1104.069336	-15.277280
9921.522872	4365.018333	1102.928711	75.279778
9921.522872	4365.018333	1101.787109	-37.642082
9921.522872	4365.018333	1100.646484	-25.665621
9921.522872	4365.018333	1099.504883	95.055283
9921.522872	4365.018333	1098.363281	77.056610
9921.522872	4365.018333	1097.221680	32.049171
9921.522872	4365.018333	1096.079102	49.232552
9921.522872	4365.018333	1094.936523	12.404466
9921.522872	4365.018333	1093.793945	45.475441
9921.522872	4365.018333	1092.651367	208.823776
9921.522872	4365.018333	1091.507813	15.317976
9921.522872	4365.018333	1090.364258	27.591726
9921.522872	4365.018333	1089.220703	87.592667
9921.522872	4365.018333	1088.077148	109.550179
9921.522872	4365.018333	1086.933594	-85.415237
9921.522872	4365.018333	1085.789063	-36.386311
9921.522872	4365.018333	1084.644531	-24.922155
9921.522872	4365.018333	1083.499023	24.878870
9921.522872	4365.018333	1082.354492	51.435307
9921.522872	4365.018333	1081.208984	88.183853
9921.522872	4365.018333	1080.063477	165.460434
9921.522872	4365.018333	1078.917969	59.391411
9921.522872	4365.018333	1077.771484	39.215797
9921.522872	4365.018333	1076.625977	-18.490057
9921.522872	4365.018333	1075.479492	150.303223
9921.522872	4365.018333	1074.332031	171.121887
9921.522872	4365.018333	1073.185547	88.251823
9921.522872	4365.018333	1072.038086	13.602226
9921.522872	4365.018333	1070.890625	-107.455727
9921.522872	4365.018333	1069.743164	-34.872322
9921.522872	4365.018333	1068.594727	-45.538509
9921.522872	4365.018333	1067.447266	65.953773
9921.522872	4365.018333	1066.298828	58.851528
9921.522872	4365.018333	1065.149414	29.600431
9921.522872	4365.018333	1064.000977	118.650612
9921.522872	4365.018333	1062.851563	19.478001
9921.522872	4365.018333	1061.702148	184.469498
9921.522872	4365.018333	1060.552734	142.250992
9921.522872	4365.018333	1059.402344	113.214653
9921.522872	4365.018333	1058.252930	4.225268
9921.522872	4365.018333	1057.102539	43.475967
9921.522872	4365.018333	1055.951172	25.076492
9921.522872	4365.018333	1054.800781	-30.286036
9921.522872	4365.018333	1053.649414	43.550198
9921.522872	4365.018333	1052.498047	91.254883
9921.522872	4365.018333	1051.346680	188.264465
9921.522872	4365.018333	1050.194336	69.226906
9921.522872	4365.018333	1049.042969	90.828941
9921.522872	4365.018333	1047.890625	-46.380512
9921.522872	4365.018333	1046.738281	-113.801521
9921.522872	4365.018333	1045.584961	123.573196
9921.522872	4365.018333	1044.431641	137.766449
9921.522872	4365.018333	1043.278320	201.490097
9921.522872	4365.018333	1042.125000	244.184952
9921.522872	4365.018333	1040.971680	102.215691
9921.522872	4365.018333	1039.817383	-51.992474
9921.522872	4365.018333	1038.663086	136.664383
9921.522872	4365.018333	1037.508789	95.401512
9921.522872	4365.018333	1036.353516	139.663605
9921.522872	4365.018333	1035.198242	75.122520
9921.522872	4365.018333	1034.042969	206.446136
9921.522872	4365.018333	1032.887695	110.021103
9921.522872	4365.018333	1031.732422	89.458199
9921.522872	4365.018333	1030.576172	147.438873
9921.522872	4365.018333	1029.419922	63.220959
9921.522872	4365.018333	1028.263672	-46.040821
9921.522872	4365.018333	1027.106445	169.843735
9921.522872	4365.018333	1025.949219	-35.979298
9921.522872	4365.018333	1024.792969	-29.430227
9921.522872	4365.018333	1023.634766	93.873146
9921.522872	4365.018333	1022.477539	-57.171719
9921.522872	4365.018333	1021.319336	62.890762
9921.522872	4365.018333	1020.161133	-106.766426
9921.522872	4365.018333	1019.002930	5.861046
9921.522872	4365.018333	1017.843750	-6.916112
9921.522872	4365.018333	1016.684570	57.162041
9921.522872	4365.018333	1015.525391	31.576883
9921.522872	4365.018333	1014.366211	-17.270277
9921.522872	4365.018333	1013.207031	-56.799911
9921.522872	4365.018333	1012.046875	-154.609085
9921.522872	4365.018333	1010.886719	-75.411446
9921.522872	4365.018333	1009.726563	-15.157711
9921.522872	4365.018333	1008.565430	-67.441589
9921.522872	4365.018333	1007.404297	5.411526
9921.522872	4365.018333	1006.243164	20.014853
9921.522872	4365.018333	1005.082031	-91.370926
9921.522872	4365.018333	1003.920898	-9.349874
9921.522872	4365.018333	1002.758789	15.046261
9921.522872	4365.018333	1001.596680	-107.289589
9921.522872	4365.018333	1000.433594	-7.837938
9921.522872	4365.018333	999.271484	-65.007584
9921.522872	4365.018333	998.108398	-130.084686
9921.522872	4365.018333	996.945313	-94.801277
9921.522872	4365.018333	995.782227	98.644852
9921.522872	4365.018333	994.618164	31.540689
9921.522872	4365.018333	993.454102	99.893044
9921.522872	4365.018333	992.290039	1.080752
9921.522872	4365.018333	991.125977	-3.266838
9921.522872	4365.018333	989.960938	-5.444821
9921.522872	4365.018333	988.796875	-40.293381
9921.522872	4365.018333	987.630859	-9.895956
9921.522872	4365.018333	986.465820	78.584190
9921.522872	4365.018333	985.300781	-160.246674
9921.522872	4365.018333	984.134766	15.154185
9921.522872	4365.018333	982.968750	-17.395277
9921.522872	4365.018333	981.801758	30.082699
9921.522872	4365.018333	980.635742	1.976651
9921.522872	4365.018333	979.468750	-95.656792
9921.522872	4365.018333	978.301758	75.133698
9921.522872	4365.018333	977.133789	18.694956
9921.522872	4365.018333	975.966797	-65.610237
9921.522872	4365.018333	974.798828	13.037313
9921.522872	4365.018333	973.630859	-133.691757
9921.522872	4365.018333	972.461914	50.432129
9921.522872	4365.018333	971.293945	-60.492771
9921.522872	4365.018333	970.125000	102.574791
9921.522872	4365.018333	968.956055	-127.746750
9921.522872	4365.018333	967.786133	35.199867
9921.522872	4365.018333	966.617188	11.159008
9921.522872	4365.018333	965.447266	-75.565994
9921.522872	4365.018333	964.276367	-2.160301
9921.522872	4365.018333	963.106445	-104.958557
9921.522872	4365.018333	961.935547	115.849792
9921.522872	4365.018333	960.764648	-185.958008
9921.522872	4365.018333	959.593750	-59.939152
9921.522872	4365.018333	958.422852	37.693897
9921.522872	4365.018333	957.250977	19.717880
9921.522872	4365.018333	956.079102	38.211365
9921.522872	4365.018333	954.907227	52.372044
9921.522872	4365.018333	953.734375	-19.439409
9921.522872	4365.018333	952.562500	95.546165
9921.522872	4365.018333	951.389648	146.622925
9921.522872	4365.018333	950.215820	125.319084
9921.522872	4365.018333	949.042969	-48.615158
9921.522872	4365.018333	947.869141	-88.775879
9921.522872	4365.018333	946.695313	-66.276764
9921.522872	4365.018333	945.521484	-16.987516
9921.522872	4365.018333	944.346680	-42.585182
9921.522872	4365.018333	943.172852	-111.569878
9921.522872	4365.018333	941.998047	-117.491959
9921.522872	4365.018333	940.822266	-22.572241
9921.522872	4365.018333	939.647461	96.415337
9921.522872	4365.018333	938.471680	-1.236428
9921.522872	4365.018333	937.295898	-125.300751
9921.522872	4365.018333	936.119141	63.586197
9921.522872	4365.018333	934.943359	110.158424
9921.522872	4365.018333	933.766602	-103.373421
9921.522872	4365.018333	932.589844	24.174028
9921.522872	4365.018333	931.413086	-60.474686
9921.522872	4365.018333	930.235352	-24.843023
9921.522872	4365.018333	929.057617	-15.454097
9921.522872	4365.018333	927.879883	90.021606
9921.522872	4365.018333	926.702148	-27.360323
9921.522872	4365.018333	925.523438	75.911247
9921.522872	4365.018333	924.344727	-21.824903
9921.522872	4365.018333	923.166016	-123.921890
9921.522872	4365.018333	921.987305	-68.787506
9921.522872	4365.018333	920.807617	-39.883831
9921.522872	4365.018333	919.627930	-35.874466
9921.522872	4365.018333	919.497070	-32.390808
9921.522872	4365.018333	918.331055	-25.411747
9921.522872	4365.018333	917.165039	-51.180180
9921.522872	4365.018333	915.999023	14.650495
9921.522872	4365.018333	914.833008	-39.505741
9921.522872	4365.018333	913.666016	76.404053
9921.522872	4365.018333	912.499023	-134.727951
9921.522872	4365.018333	911.332031	26.879414
9921.522872	4365.018333	910.165039	109.958000
9921.522872	4365.018333	908.997070	-55.363155
9921.522872	4365.018333	907.830078	-5.014275
9921.522872	4365.018333	906.661133	-161.573471
9921.522872	4365.018333	905.493164	73.795998
9921.522872	4365.018333	904.325195	63.079094
9921.522872	4365.018333	903.156250	-126.106964
9921.522872	4365.018333	901.987305	-56.313198
9921.522872	4365.018333	900.818359	19.956396
9921.522872	4365.018333	899.648438	96.176399
9921.522872	4365.018333	898.478516	-58.154354
9921.522872	4365.018333	897.308594	-177.659485
9921.522872	4365.018333	896.138672	-116.727287
9921.522872	4365.018333	894.968750	54.989330
9921.522872	4365.018333	893.797852	120.152840
9921.522872	4365.018333	892.626953	-129.714401
9921.522872	4365.018333	891.456055	-71.100769
9921.522872	4365.018333	890.284180	111.239159
9921.522872	4365.018333	889.113281	69.870392
9921.522872	4365.018333	887.941406	113.148094
9921.522872	4365.018333	886.768555	119.496918
9921.522872	4365.018333	885.596680	47.710503
9921.522872	4365.018333	884.423828	38.839214
9921.522872	4365.018333	883.250977	-35.113976
9921.522872	4365.018333	882.078125	-28.833727
9921.522872	4365.018333	880.905273	-20.411942
9921.522872	4365.018333	879.731445	26.999151
9921.522872	4365.018333	878.557617	145.876740
9921.522872	4365.018333	877.383789	52.361820
9921.522872	4365.018333	876.209961	6.515336
9921.522872	4365.018333	875.035156	-0.353114
9921.522872	4365.018333	873.860352	5.748377
9921.522872	4365.018333	872.685547	35.635136
9921.522872	4365.018333	871.510742	26.527271
9921.522872	4365.018333	870.334961	69.333908
9921.522872	4365.018333	869.159180	21.234041
9921.522872	4365.018333	867.983398	57.485386
9921.522872	4365.018333	866.807617	-70.656311
9921.522872	4365.018333	865.630859	49.872280
9921.522872	4365.018333	864.454102	3.879155
9921.522872	4365.018333	863.277344	20.554144
9921.522872	4365.018333	862.100586	22.071455
9921.522872	4365.018333	860.922852	-93.092583
9921.522872	4365.018333	859.745117	16.392075
9921.522872	4365.018333	858.567383	188.429123
9921.522872	4365.018333	857.389648	27.884678
9921.522872	4365.018333	856.210938	40.066017
9921.522872	4365.018333	855.032227	28.476620
9921.522872	4365.018333	853.853516	-15.499839
9921.522872	4365.018333	852.674805	-31.440619
9921.522872	4365.018333	851.495117	6.519587
9921.522872	4365.018333	850.315430	-13.783629
9921.522872	4365.018333	849.135742	37.038292
9921.522872	4365.018333	847.956055	-76.001579
9921.522872	4365.018333	846.775391	-59.720161
9921.522872	4365.018333	845.595703	-73.638771
9921.522872	4365.018333	844.415039	-85.423378
9921.522872	4365.018333	843.233398	-79.999451
9921.522872	4365.018333	842.052734	-100.446289
9921.522872	4365.018333	840.871094	-56.327457
9921.522872	4365.018333	839.689453	63.077614
9921.522872	4365.018333	838.506836	-13.416816
9921.522872	4365.018333	837.325195	92.964165
9921.522872	4365.018333	836.142578	-37.337345
9921.522872	4365.018333	834.959961	-21.375099
9921.522872	4365.018333	833.777344	52.605667
9921.522872	4365.018333	832.593750	23.343414
9921.522872	4365.018333	831.410156	105.824989
9921.522872	4365.018333	830.226563	-15.893567
9921.522872	4365.018333	829.042969	-86.031128
9921.522872	4365.018333	827.858398	2.779097
9921.522872	4365.018333	826.673828	119.440056
9921.522872	4365.018333	825.489258	-23.768568
9921.522872	4365.018333	824.304688	86.349876
9921.522872	4365.018333	823.120117	31.139030
9921.522872	4365.018333	821.934570	83.207741
9921.522872	4365.018333	820.749023	-70.720604
9921.522872	4365.018333	819.562500	54.211823
9921.522872	4365.018333	818.376953	-41.810593
9921.522872	4365.018333	817.190430	98.010880
9921.522872	4365.018333	816.003906	214.164398
9921.522872	4365.018333	814.817383	19.496515
9921.522872	4365.018333	813.629883	114.131531
9921.522872	4365.018333	812.442383	103.730042
9921.522872	4365.018333	811.254883	14.057067
9921.522872	4365.018333	810.067383	-127.001274
9921.522872	4365.018333	808.878906	119.460464
9921.522872	4365.018333	807.690430	138.905716
9921.522872	4365.018333	806.501953	64.153214
9921.522872	4365.018333	805.313477	94.235077
9921.522872	4365.018333	804.124023	83.631355
9921.522872	4365.018333	802.934570	68.722092
9921.522872	4365.018333	801.745117	58.062851
9921.522872	4365.018333	800.555664	162.813187
9921.522872	4365.018333	799.365234	-59.518635
9921.522872	4365.018333	798.175781	83.610588
9921.522872	4365.018333	796.985352	74.962585
9921.522872	4365.018333	795.793945	70.558151
9921.522872	4365.018333	794.603516	147.271240
9921.522872	4365.018333	793.412109	142.786255
9921.522872	4365.018333	792.220703	-15.424724
9921.522872	4365.018333	791.028320	135.856354
9921.522872	4365.018333	789.836914	146.212158
9921.522872	4365.018333	788.644531	83.997261
9921.522872	4365.018333	787.452148	145.480774
9921.522872	4365.018333	786.258789	213.302963
9921.522872	4365.018333	785.066406	121.161987
9921.522872	4365.018333	783.873047	120.682709
9921.522872	4365.018333	782.679688	94.595276
9921.522872	4365.018333	781.485352	145.188797
9921.522872	4365.018333	780.291992	112.647476
9921.522872	4365.018333	779.097656	5.542757
9921.522872	4365.018333	777.903320	77.311928
9921.522872	4365.018333	776.708008	55.345074
9921.522872	4365.018333	775.512695	-32.629444
9921.522872	4365.018333	774.318359	-29.098963
9921.522872	4365.018333	773.122070	-36.242374
9921.522872	4365.018333	771.926758	71.446228
9921.522872	4365.018333	770.730469	-5.966981
9921.522872	4365.018333	769.534180	107.978455
9921.522872	4365.018333	768.337891	168.695557
9921.522872	4365.018333	767.141602	-10.814266
9921.522872	4365.018333	765.944336	241.073685
9921.522872	4365.018333	764.747070	208.140320
9921.522872	4365.018333	763.549805	194.301559
9921.522872	4365.018333	762.351563	129.465775
9921.522872	4365.018333	761.154297	204.748734
9921.522872	4365.018333	759.956055	82.552063
9921.522872	4365.018333	758.757813	200.186127
9921.522872	4365.018333	757.558594	139.501480
9921.522872	4365.018333	756.359375	127.597145
9921.522872	4365.018333	755.160156	71.121498
9921.522872	4365.018333	753.960938	14.633113
9921.522872	4365.018333	752.761719	74.734009
9921.522872	4365.018333	751.561523	136.892807
9921.522872	4365.018333	750.361328	169.320480
9921.522872	4365.018333	749.160156	87.286362
9921.522872	4365.018333	747.959961	89.980682
9921.522872	4365.018333	746.758789	166.761963
9921.522872	4365.018333	745.557617	71.963844
9921.522872	4365.018333	744.356445	184.630753
9921.522872	4365.018333	743.154297	24.181824
9921.522872	4365.018333	741.952148	60.558216
9921.522872	4365.018333	740.750000	18.604172
9921.522872	4365.018333	739.547852	-86.826294
9921.522872	4365.018333	738.344727	61.520798
9921.522872	4365.018333	737.142578	241.484177
9921.522872	4365.018333	735.939453	260.679657
9921.522872	4365.018333	734.735352	123.436317
9921.522872	4365.018333	733.532227	157.365021
9921.522872	4365.018333	732.328125	113.078011
9921.522872	4365.018333	731.124023	212.395187
9921.522872	4365.018333	729.918945	258.841339
9921.522872	4365.018333	728.714844	125.777611
9921.522872	4365.018333	727.509766	176.369736
9921.522872	4365.018333	726.303711	163.592789
9921.522872	4365.018333	725.098633	85.377426
9921.522872	4365.018333	723.892578	53.565495
9921.522872	4365.018333	722.686523	177.796448
9921.522872	4365.018333	721.480469	19.389221
9921.522872	4365.018333	720.274414	-8.284065
9921.522872	4365.018333	719.067383	54.647354
9921.522872	4365.018333	717.860352	3.723460
9921.522872	4365.018333	716.653320	43.376961
9921.522872	4365.018333	715.445313	30.316912
9921.522872	4365.018333	714.238281	-20.679739
9921.522872	4365.018333	713.030273	56.741547
9921.522872	4365.018333	711.821289	83.571510
9921.522872	4365.018333	710.613281	32.484734
9921.522872	4365.018333	709.404297	8.736003
9921.522872	4365.018333	708.195313	-21.350744
9921.522872	4365.018333	706.986328	9.534186
9921.522872	4365.018333	705.776367	-20.613222
9921.522872	4365.018333	704.566406	100.588203
9921.522872	4365.018333	703.356445	-9.512271
9921.522872	4365.018333	702.146484	-18.729450
9921.522872	4365.018333	700.935547	-48.990295
9921.522872	4365.018333	699.724609	55.165607
9921.522872	4365.018333	698.513672	39.531876
9921.522872	4365.018333	697.302734	23.869410
9921.522872	4365.018333	696.090820	-4.418759
9921.522872	4365.018333	694.878906	-106.190445
9921.522872	4365.018333	693.666992	-58.966469
9921.522872	4365.018333	692.455078	-51.658257
9921.522872	4365.018333	691.242188	91.951088
9921.522872	4365.018333	690.029297	-146.207535
9921.522872	4365.018333	688.816406	-17.383938
9921.522872	4365.018333	687.602539	-94.080009
9921.522872	4365.018333	686.389648	-34.550140
9921.522872	4365.018333	685.175781	66.825676
9921.522872	4365.018333	683.960938	-24.606234
9921.522872	4365.018333	682.747070	-38.537075
9921.522872	4365.018333	681.532227	-21.086256
9921.522872	4365.018333	680.317383	-20.424194
9921.522872	4365.018333	679.102539	59.744282
9921.522872	4365.018333	677.886719	1.726679
9921.522872	4365.018333	676.670898	108.989883
9921.522872	4365.018333	675.455078	59.289528
9921.522872	4365.018333	674.239258	72.319733
9921.522872	4365.018333	673.022461	-21.326414
9921.522872	4365.018333	671.805664	160.980682
9921.522872	4365.018333	670.588867	115.364357
9921.522872	4365.018333	669.372070	-76.535919
9921.522872	4365.018333	668.154297	-11.420121
9921.522872	4365.018333	666.936523	93.324394
9921.522872	4365.018333	665.718750	74.785828
9921.522872	4365.018333	664.500977	97.982559
9921.522872	4365.018333	663.282227	108.613998
9921.522872	4365.018333	662.063477	81.646393
9921.522872	4365.018333	660.844727	2.498542
9921.522872	4365.018333	659.625000	-76.646324
9921.522872	4365.018333	658.405273	34.008232
9921.522872	4365.018333	657.185547	84.117340
9921.522872	4365.018333	655.965820	-22.178986
9921.522872	4365.018333	654.745117	50.791691
9921.522872	4365.018333	653.525391	-22.164015
9921.522872	4365.018333	652.303711	-26.366014
9921.522872	4365.018333	651.083008	152.714386
9921.522872	4365.018333	649.861328	10.976771
9921.522872	4365.018333	648.640625	6.696706
9921.522872	4365.018333	647.417969	114.799667
9921.522872	4365.018333	646.196289	37.604160
9921.522872	4365.018333	644.973633	35.324585
9921.522872	4365.018333	643.750977	118.316772
9921.522872	4365.018333	642.528320	172.131927
9921.522872	4365.018333	641.305664	142.722626
9921.522872	4365.018333	640.082031	40.534599
9921.522872	4365.018333	638.858398	-49.160225
9921.522872	4365.018333	637.634766	-12.070868
9921.522872	4365.018333	636.410156	-155.781906
9921.522872	4365.018333	635.185547	-108.343140
9921.522872	4365.018333	633.960938	-56.790703
9921.522872	4365.018333	632.736328	50.783096
9921.522872	4365.018333	631.510742	27.504585
9921.522872	4365.018333	630.285156	114.219566
9921.522872	4365.018333	629.059570	68.074036
9921.522872	4365.018333	627.833984	144.335083
9921.522872	4365.018333	626.607422	-5.544808
9921.522872	4365.018333	625.380859	-22.656298
9921.522872	4365.018333	624.154297	61.815582
9921.522872	4365.018333	622.927734	84.049568
9921.522872	4365.018333	621.700195	29.575737
9921.522872	4365.018333	620.472656	-41.465530
9921.522872	4365.018333	619.245117	-58.629864
9921.522872	4365.018333	618.016602	-86.159164
9921.522872	4365.018333	616.788086	-12.226494
9921.522872	4365.018333	615.559570	-37.709236
9921.522872	4365.018333	614.331055	-3.168860
9921.522872	4365.018333	613.101563	23.064821
9921.522872	4365.018333	611.872070	-52.100632
9921.522872	4365.018333	610.642578	-96.217392
9921.522872	4365.018333	609.413086	-70.011467
9921.522872	4365.018333	608.182617	-78.978203
9921.522872	4365.018333	606.952148	-87.949753
9921.522872	4365.018333	605.721680	-123.793213
9921.522872	4365.018333	604.491211	-31.519238
9921.522872	4365.018333	603.259766	-44.652493
9921.522872	4365.018333	602.028320	59.941715
9921.522872	4365.018333	600.796875	-31.686716
9921.522872	4365.018333	599.564453	15.039604
9921.522872	4365.018333	598.332031	-4.309556
9921.522872	4365.018333	597.099609	-120.646698
9921.522872	4365.018333	595.867188	-102.828651
9921.522872	4365.018333	594.633789	-109.777534
9921.522872	4365.018333	593.400391	-195.094467
9921.522872	4365.018333	592.166992	-257.695862
9921.522872	4365.018333	590.933594	-50.221222
9921.522872	4365.018333	589.699219	47.928295
9921.522872	4365.018333	588.464844	-99.173599
9921.522872	4365.018333	587.230469	27.787153
9921.522872	4365.018333	585.995117	39.348419
9921.522872	4365.018333	584.760742	28.257551
9921.522872	4365.018333	583.525391	-77.534836
9921.522872	4365.018333	582.289063	14.322927
9921.522872	4365.018333	581.053711	-118.167915
9921.522872	4365.018333	579.817383	12.759679
9921.522872	4365.018333	578.581055	16.098310
9921.522872	4365.018333	577.343750	-91.620483
9921.522872	4365.018333	576.107422	26.896963
9921.522872	4365.018333	574.870117	-93.099854
9921.522872	4365.018333	573.631836	-26.007790
9921.522872	4365.018333	572.394531	-69.897003
9921.522872	4365.018333	571.156250	46.483990
9921.522872	4365.018333	569.917969	97.096481
9921.522872	4365.018333	568.679688	28.589958
9921.522872	4365.018333	567.440430	64.829483
9921.522872	4365.018333	566.202148	23.064627
9921.522872	4365.018333	564.961914	-30.990393
9921.522872	4365.018333	563.722656	36.048943
9921.522872	4365.018333	562.482422	-46.681030
9921.522872	4365.018333	561.243164	-8.355653
9921.522872	4365.018333	560.001953	126.334618
9921.522872	4365.018333	558.761719	45.728230
9921.522872	4365.018333	557.520508	157.831711
9921.522872	4365.018333	556.279297	91.623749
9921.522872	4365.018333	555.038086	99.213722
9921.522872	4365.018333	553.795898	102.717224
9921.522872	4365.018333	552.554688	253.683762
9921.522872	4365.018333	551.311523	199.855240
9921.522872	4365.018333	550.069336	199.290955
9921.522872	4365.018333	548.826172	127.112770
9921.522872	4365.018333	547.583984	1.787040
9921.522872	4365.018333	546.339844	-51.872440
9921.522872	4365.018333	545.096680	6.999553
9921.522872	4365.018333	543.852539	51.549873
9921.522872	4365.018333	542.608398	73.612389
9921.522872	4365.018333	541.364258	65.027298
9921.522872	4365.018333	540.119141	-72.275795
9921.522872	4365.018333	538.875000	148.035812
9921.522872	4365.018333	537.628906	25.111145
9921.522872	4365.018333	536.383789	61.552246
9921.522872	4365.018333	535.137695	20.411381
9921.522872	4365.018333	533.892578	-6.398879
9921.522872	4365.018333	532.645508	28.045525
9921.522872	4365.018333	531.399414	162.480148
9921.522872	4365.018333	530.152344	13.320592
9921.522872	4365.018333	528.905273	-48.052296
9921.522872	4365.018333	527.658203	12.970512
9921.522872	4365.018333	526.410156	63.794197
9921.522872	4365.018333	525.163086	-13.786274
9921.522872	4365.018333	523.914063	49.292564
9921.522872	4365.018333	522.666016	83.846756
9921.522872	4365.018333	521.416992	8.414080
9921.522872	4365.018333	520.167969	24.678785
9921.522872	4365.018333	518.918945	-40.482212
9921.522872	4365.018333	517.669922	36.900749
9921.522872	4365.018333	516.419922	75.603401
9921.522872	4365.018333	515.169922	61.409405
9921.522872	4365.018333	513.919922	37.072990
9921.522872	4365.018333	512.668945	-31.976820
9921.522872	4365.018333	511.417969	-78.606430
9921.522872	4365.018333	510.166992	-68.270676
9921.522872	4365.018333	508.916016	31.515001
9921.522872	4365.018333	507.664063	74.378777
9921.522872	4365.018333	506.412109	-12.781797
9921.522872	4365.018333	505.160156	103.240387
9921.522872	4365.018333	503.907227	-30.557423
9921.522872	4365.018333	502.655273	-83.060715
9921.522872	4365.018333	501.402344	24.840136
9921.522872	4365.018333	500.148438	-90.531662
9921.522872	4365.018333	498.895508	-96.264954
9921.522872	4365.018333	497.641602	-172.980621
9921.522872	4365.018333	496.387695	70.805817
9921.522872	4365.018333	495.132813	79.284271
9921.522872	4365.018333	493.878906	10.738653
9921.522872	4365.018333	492.624023	-15.200048
9921.522872	4365.018333	491.368164	-6.665503
9921.522872	4365.018333	490.113281	-133.861832
9921.522872	4365.018333	488.857422	-84.769440
9921.522872	4365.018333	487.601563	61.519016
9921.522872	4365.018333	486.344727	108.543289
9921.522872	4365.018333	485.088867	23.980780
9921.522872	4365.018333	483.832031	251.128754
9921.522872	4365.018333	482.575195	26.971468
9921.522872	4365.018333	481.317383	-4.906159
9921.522872	4365.018333	480.059570	-42.834473
9921.522872	4365.018333	478.801758	16.315428
9921.522872	4365.018333	477.543945	223.020035
9921.522872	4365.018333	476.285156	7.201913
9921.522872	4365.018333	475.027344	137.026199
9921.522872	4365.018333	473.767578	123.343719
9921.522872	4365.018333	472.508789	83.404091
9921.522872	4365.018333	471.249023	63.666061
9921.522872	4365.018333	469.989258	88.345100
9921.522872	4365.018333	468.729492	171.540253
9921.522872	4365.018333	467.469727	151.759644
9921.522872	4365.018333	466.208984	178.376877
9921.522872	4365.018333	464.948242	305.827332
9921.522872	4365.018333	463.686523	144.792023
9921.522872	4365.018333	462.425781	377.003326
9921.522872	4365.018333	461.164063	230.084213
9921.522872	4365.018333	459.901367	145.678970
9921.522872	4365.018333	458.639648	196.292770
9921.522872	4365.018333	457.376953	264.979828
9921.522872	4365.018333	456.114258	188.575897
9921.522872	4365.018333	454.851563	265.212769
9921.522872	4365.018333	453.587891	92.114937
9921.522872	4365.018333	452.324219	174.686325
9921.522872	4365.018333	451.060547	239.059860
9921.522872	4365.018333	449.796875	257.074432
9921.522872	4365.018333	448.532227	327.324554
9921.522872	4365.018333	447.267578	391.450256
9921.522872	4365.018333	446.002930	310.709473
9921.522872	4365.018333	444.737305	185.706512
9921.522872	4365.018333	443.471680	293.831146
9921.522872	4365.018333	442.206055	216.963593
9921.522872	4365.018333	440.940430	264.606964
9921.522872	4365.018333	439.673828	356.330719
9921.522872	4365.018333	438.407227	303.339691
9921.522872	4365.018333	437.140625	238.230972
9921.522872	4365.018333	435.873047	237.280838
9921.522872	4365.018333	434.605469	328.542175
9921.522872	4365.018333	433.337891	303.283447
9921.522872	4365.018333	432.070313	376.213959
9921.522872	4365.018333	430.801758	511.161865
9921.522872	4365.018333	429.533203	559.707153
9921.522872	4365.018333	428.264648	303.392120
9921.522872	4365.018333	426.996094	227.432343
9921.522872	4365.018333	425.726563	219.488495
9921.522872	4365.018333	424.457031	453.806824
9921.522872	4365.018333	423.186523	533.639771
9921.522872	4365.018333	421.916992	382.994110
9921.522872	4365.018333	420.646484	446.462402
9921.522872	4365.018333	419.375977	271.535858
9921.522872	4365.018333	418.104492	480.727905
9921.522872	4365.018333	416.833008	407.534027
9921.522872	4365.018333	415.561523	244.162018
9921.522872	4365.018333	414.290039	370.641144
9921.522872	4365.018333	413.017578	406.874695
9921.522872	4365.018333	411.746094	292.952362
9921.522872	4365.018333	410.472656	222.811310
9921.522872	4365.018333	409.200195	170.454575
9921.522872	4365.018333	407.926758	267.700836
9921.522872	4365.018333	406.653320	236.826630
9921.522872	4365.018333	405.379883	343.487854
9921.522872	4365.018333	404.105469	346.013367
9921.522872	4365.018333	402.831055	382.190399
9921.522872	4365.018333	401.556641	354.204956
9921.522872	4365.018333	400.282227	325.933899
9921.522872	4365.018333	399.006836	307.334167
9921.522872	4365.018333	397.731445	316.342834
9921.522872	4365.018333	396.456055	354.926910
9921.522872	4365.018333	395.179688	143.974014
9921.522872	4365.018333	393.903320	319.394928
9921.522872	4365.018333	392.626953	231.365829
9921.522872	4365.018333	391.350586	302.369843
9921.522872	4365.018333	390.073242	380.916626
9921.522872	4365.018333	388.795898	74.727524
9921.522872	4365.018333	387.518555	343.601318
9921.522872	4365.018333	386.240234	253.663651
9921.522872	4365.018333	384.961914	252.878662
9921.522872	4365.018333	383.683594	341.174744
9921.522872	4365.018333	382.405273	236.035156
9921.522872	4365.018333	381.125977	249.774460
9921.522872	4365.018333	379.846680	400.206696
9921.522872	4365.018333	378.567383	259.859711
9921.522872	4365.018333	377.287109	335.665710
9921.522872	4365.018333	376.006836	291.694763
9921.522872	4365.018333	374.726563	203.495895
9921.522872	4365.018333	373.446289	134.636276
9921.522872	4365.018333	372.165039	271.719543
9921.522872	4365.018333	370.883789	293.011536
9921.522872	4365.018333	369.602539	291.854919
9921.522872	4365.018333	368.320313	67.817757
9921.522872	4365.018333	367.039063	95.203178
9921.522872	4365.018333	365.755859	276.594604
9921.522872	4365.018333	364.473633	282.742523
9921.522872	4365.018333	363.190430	333.775818
9921.522872	4365.018333	361.907227	253.252762
9921.522872	4365.018333	360.624023	122.491211
9921.522872	4365.018333	359.340820	199.070877
9921.522872	4365.018333	358.056641	43.069477
9921.522872	4365.018333	356.772461	248.761795
9921.522872	4365.018333	355.487305	202.076614
9921.522872	4365.018333	354.202148	144.683151
9921.522872	4365.018333	352.916992	56.775925
9921.522872	4365.018333	351.631836	74.884079
9921.522872	4365.018333	350.346680	161.328339
9921.522872	4365.018333	349.060547	136.037125
9921.522872	4365.018333	347.774414	26.766296
9921.522872	4365.018333	346.487305	-4.366090
9921.522872	4365.018333	345.200195	32.706406
9921.522872	4365.018333	343.913086	21.325861
9921.522872	4365.018333	342.625977	204.507278
9921.522872	4365.018333	341.338867	137.669556
9921.522872	4365.018333	340.050781	46.050148
9921.522872	4365.018333	338.762695	-48.614937
9921.522872	4365.018333	337.473633	228.668915
9921.522872	4365.018333	336.184570	17.209160
9921.522872	4365.018333	334.895508	-106.561035
9921.522872	4365.018333	333.606445	-50.012184
9921.522872	4365.018333	332.317383	21.043322
9921.522872	4365.018333	331.027344	-35.437611
9921.522872	4365.018333	329.736328	-83.379669
9921.522872	4365.018333	328.446289	-59.675358
9921.522872	4365.018333	327.155273	43.405273
9921.522872	4365.018333	325.864258	64.270668
9921.522872	4365.018333	324.573242	-300.379974
9921.522872	4365.018333	323.281250	-67.733864
9921.522872	4365.018333	321.989258	-137.905502
9921.522872	4365.018333	320.697266	-113.125069
9921.522872	4365.018333	319.405273	20.289814
9921.522872	4365.018333	318.112305	-64.417412
9921.522872	4365.018333	316.819336	-52.364891
9921.522872	4365.018333	315.526367	34.715908
9921.522872	4365.018333	314.232422	-51.051327
9921.522872	4365.018333	312.938477	-55.957737
9921.522872	4365.018333	311.644531	-82.290298
9921.522872	4365.018333	310.349609	144.958496
9921.522872	4365.018333	309.054688	87.369591
9921.522872	4365.018333	307.759766	-19.224773
9921.522872	4365.018333	306.464844	212.003098
9921.522872	4365.018333	305.168945	70.053459
9921.522872	4365.018333	303.873047	191.123444
9921.522872	4365.018333	302.577148	353.255585
9921.522872	4365.018333	301.281250	330.760315
9921.522872	4365.018333	299.984375	427.678772
