#X		#Y		#Wave		#Intensity
9580.109574	4953.176667	1999.946289	9.273270
9580.109574	4953.176667	1998.981445	69.082016
9580.109574	4953.176667	1998.017578	128.352615
9580.109574	4953.176667	1997.052734	56.310654
9580.109574	4953.176667	1996.088867	-45.383762
9580.109574	4953.176667	1995.124023	75.954918
9580.109574	4953.176667	1994.159180	11.542544
9580.109574	4953.176667	1993.193359	23.964849
9580.109574	4953.176667	1992.228516	53.763142
9580.109574	4953.176667	1991.262695	-5.517711
9580.109574	4953.176667	1990.296875	-22.657141
9580.109574	4953.176667	1989.331055	93.875099
9580.109574	4953.176667	1988.365234	-49.359257
9580.109574	4953.176667	1987.398438	22.698023
9580.109574	4953.176667	1986.432617	20.581617
9580.109574	4953.176667	1985.465820	13.561854
9580.109574	4953.176667	1984.499023	60.973812
9580.109574	4953.176667	1983.532227	-27.533331
9580.109574	4953.176667	1982.565430	-83.841385
9580.109574	4953.176667	1981.597656	-85.733139
9580.109574	4953.176667	1980.629883	-60.411510
9580.109574	4953.176667	1979.662109	85.961685
9580.109574	4953.176667	1978.694336	44.644550
9580.109574	4953.176667	1977.726563	-26.247139
9580.109574	4953.176667	1976.758789	-13.147894
9580.109574	4953.176667	1975.790039	56.745705
9580.109574	4953.176667	1974.821289	-83.094154
9580.109574	4953.176667	1973.852539	110.211266
9580.109574	4953.176667	1972.883789	-22.117722
9580.109574	4953.176667	1971.915039	37.998070
9580.109574	4953.176667	1970.945313	-27.628704
9580.109574	4953.176667	1969.975586	32.529907
9580.109574	4953.176667	1969.005859	28.612442
9580.109574	4953.176667	1968.036133	29.656372
9580.109574	4953.176667	1967.066406	-28.403364
9580.109574	4953.176667	1966.096680	78.638687
9580.109574	4953.176667	1965.125977	15.723818
9580.109574	4953.176667	1964.155273	24.274111
9580.109574	4953.176667	1963.184570	67.318520
9580.109574	4953.176667	1962.213867	-57.015114
9580.109574	4953.176667	1961.242188	-48.373745
9580.109574	4953.176667	1960.271484	4.583673
9580.109574	4953.176667	1959.299805	37.864872
9580.109574	4953.176667	1958.328125	24.423294
9580.109574	4953.176667	1957.356445	1.174397
9580.109574	4953.176667	1956.384766	-49.089149
9580.109574	4953.176667	1955.412109	13.775932
9580.109574	4953.176667	1954.439453	27.482025
9580.109574	4953.176667	1953.467773	-5.486112
9580.109574	4953.176667	1952.495117	0.892341
9580.109574	4953.176667	1951.521484	53.964832
9580.109574	4953.176667	1950.548828	-42.783997
9580.109574	4953.176667	1949.575195	61.887524
9580.109574	4953.176667	1948.601563	31.504421
9580.109574	4953.176667	1947.627930	148.437042
9580.109574	4953.176667	1946.654297	-11.989183
9580.109574	4953.176667	1945.680664	144.207687
9580.109574	4953.176667	1944.706055	52.573296
9580.109574	4953.176667	1943.732422	10.049579
9580.109574	4953.176667	1942.757813	85.277191
9580.109574	4953.176667	1941.783203	-13.598842
9580.109574	4953.176667	1940.807617	149.894485
9580.109574	4953.176667	1939.833008	14.309318
9580.109574	4953.176667	1938.857422	87.094574
9580.109574	4953.176667	1937.881836	47.159397
9580.109574	4953.176667	1936.906250	-12.343829
9580.109574	4953.176667	1935.930664	11.464582
9580.109574	4953.176667	1934.955078	-3.903112
9580.109574	4953.176667	1933.978516	-26.596586
9580.109574	4953.176667	1933.001953	117.188515
9580.109574	4953.176667	1932.025391	84.716652
9580.109574	4953.176667	1931.048828	8.223495
9580.109574	4953.176667	1930.072266	12.505986
9580.109574	4953.176667	1929.094727	-29.677015
9580.109574	4953.176667	1928.118164	-22.921106
9580.109574	4953.176667	1927.140625	-50.389050
9580.109574	4953.176667	1926.163086	-80.281433
9580.109574	4953.176667	1925.184570	36.502205
9580.109574	4953.176667	1924.207031	62.831299
9580.109574	4953.176667	1923.228516	98.933311
9580.109574	4953.176667	1922.250000	49.529263
9580.109574	4953.176667	1921.271484	58.770386
9580.109574	4953.176667	1920.292969	141.275192
9580.109574	4953.176667	1919.314453	77.265488
9580.109574	4953.176667	1918.334961	52.344261
9580.109574	4953.176667	1917.355469	-26.254309
9580.109574	4953.176667	1916.375977	70.873711
9580.109574	4953.176667	1915.396484	58.185486
9580.109574	4953.176667	1914.416992	-8.155519
9580.109574	4953.176667	1913.436523	10.891235
9580.109574	4953.176667	1912.457031	-18.830837
9580.109574	4953.176667	1911.476563	-4.655084
9580.109574	4953.176667	1910.496094	50.955875
9580.109574	4953.176667	1909.515625	-22.608889
9580.109574	4953.176667	1908.534180	81.722946
9580.109574	4953.176667	1907.552734	78.832748
9580.109574	4953.176667	1906.572266	-4.428152
9580.109574	4953.176667	1905.590820	26.796915
9580.109574	4953.176667	1904.608398	-15.027762
9580.109574	4953.176667	1903.626953	21.060574
9580.109574	4953.176667	1902.644531	-59.683929
9580.109574	4953.176667	1901.663086	27.502514
9580.109574	4953.176667	1900.680664	-24.015827
9580.109574	4953.176667	1899.698242	46.107025
9580.109574	4953.176667	1898.714844	-19.985510
9580.109574	4953.176667	1897.732422	-137.114853
9580.109574	4953.176667	1896.749023	5.922403
9580.109574	4953.176667	1895.765625	-11.513356
9580.109574	4953.176667	1894.782227	-31.373341
9580.109574	4953.176667	1893.798828	16.804813
9580.109574	4953.176667	1892.814453	-20.059578
9580.109574	4953.176667	1891.831055	-32.623604
9580.109574	4953.176667	1890.846680	37.378647
9580.109574	4953.176667	1889.862305	12.665993
9580.109574	4953.176667	1888.877930	87.484253
9580.109574	4953.176667	1887.892578	-77.996750
9580.109574	4953.176667	1886.908203	-88.122322
9580.109574	4953.176667	1885.922852	54.594650
9580.109574	4953.176667	1884.937500	10.483596
9580.109574	4953.176667	1883.952148	46.415600
9580.109574	4953.176667	1882.965820	24.137867
9580.109574	4953.176667	1881.980469	-44.196072
9580.109574	4953.176667	1880.994141	-32.523685
9580.109574	4953.176667	1880.007813	49.416611
9580.109574	4953.176667	1879.021484	-72.200127
9580.109574	4953.176667	1878.035156	53.310932
9580.109574	4953.176667	1877.047852	47.983597
9580.109574	4953.176667	1876.061523	6.330122
9580.109574	4953.176667	1875.074219	63.950340
9580.109574	4953.176667	1874.086914	-132.620911
9580.109574	4953.176667	1873.098633	91.982430
9580.109574	4953.176667	1872.111328	-97.273460
9580.109574	4953.176667	1871.123047	-30.024626
9580.109574	4953.176667	1870.135742	66.217834
9580.109574	4953.176667	1869.147461	-120.528572
9580.109574	4953.176667	1868.158203	-43.662258
9580.109574	4953.176667	1867.169922	23.497852
9580.109574	4953.176667	1866.180664	22.950197
9580.109574	4953.176667	1865.192383	68.308754
9580.109574	4953.176667	1864.203125	-24.073572
9580.109574	4953.176667	1863.213867	30.923346
9580.109574	4953.176667	1862.223633	-59.018784
9580.109574	4953.176667	1861.234375	133.585663
9580.109574	4953.176667	1860.244141	53.298054
9580.109574	4953.176667	1859.253906	11.652603
9580.109574	4953.176667	1858.263672	117.227997
9580.109574	4953.176667	1857.273438	-11.296490
9580.109574	4953.176667	1856.282227	74.925354
9580.109574	4953.176667	1855.291992	47.741589
9580.109574	4953.176667	1854.300781	-32.495762
9580.109574	4953.176667	1853.309570	63.296436
9580.109574	4953.176667	1852.317383	36.100121
9580.109574	4953.176667	1851.326172	141.463867
9580.109574	4953.176667	1850.333984	8.214245
9580.109574	4953.176667	1849.342773	7.514633
9580.109574	4953.176667	1848.350586	-31.737150
9580.109574	4953.176667	1847.357422	-44.492943
9580.109574	4953.176667	1846.365234	67.956596
9580.109574	4953.176667	1845.372070	31.089798
9580.109574	4953.176667	1844.379883	11.074553
9580.109574	4953.176667	1843.386719	-69.108650
9580.109574	4953.176667	1842.393555	-45.810863
9580.109574	4953.176667	1841.399414	8.739545
9580.109574	4953.176667	1840.406250	-16.113897
9580.109574	4953.176667	1839.412109	16.743738
9580.109574	4953.176667	1838.417969	90.449493
9580.109574	4953.176667	1837.423828	7.865541
9580.109574	4953.176667	1836.429688	127.184883
9580.109574	4953.176667	1835.434570	-3.459098
9580.109574	4953.176667	1834.440430	77.352242
9580.109574	4953.176667	1833.445313	119.687309
9580.109574	4953.176667	1832.450195	46.717896
9580.109574	4953.176667	1831.454102	168.253387
9580.109574	4953.176667	1830.458984	140.888535
9580.109574	4953.176667	1829.462891	84.717567
9580.109574	4953.176667	1828.466797	129.344681
9580.109574	4953.176667	1827.470703	-1.208723
9580.109574	4953.176667	1826.474609	-52.564335
9580.109574	4953.176667	1825.478516	18.404701
9580.109574	4953.176667	1824.481445	72.546997
9580.109574	4953.176667	1823.484375	13.971985
9580.109574	4953.176667	1822.487305	65.669312
9580.109574	4953.176667	1821.490234	59.814674
9580.109574	4953.176667	1820.493164	13.213163
9580.109574	4953.176667	1819.495117	14.528272
9580.109574	4953.176667	1818.498047	25.410042
9580.109574	4953.176667	1817.500000	14.719232
9580.109574	4953.176667	1816.500977	104.579742
9580.109574	4953.176667	1815.502930	26.819685
9580.109574	4953.176667	1814.504883	54.385498
9580.109574	4953.176667	1813.505859	31.672537
9580.109574	4953.176667	1812.506836	-113.066040
9580.109574	4953.176667	1811.507813	53.205585
9580.109574	4953.176667	1810.508789	97.426079
9580.109574	4953.176667	1809.508789	24.446301
9580.109574	4953.176667	1808.508789	4.074661
9580.109574	4953.176667	1807.508789	36.281555
9580.109574	4953.176667	1806.508789	35.003208
9580.109574	4953.176667	1805.508789	-76.201591
9580.109574	4953.176667	1804.508789	32.400978
9580.109574	4953.176667	1803.507813	50.184433
9580.109574	4953.176667	1802.506836	75.109367
9580.109574	4953.176667	1801.505859	102.396683
9580.109574	4953.176667	1800.504883	-18.343315
9580.109574	4953.176667	1799.502930	121.091934
9580.109574	4953.176667	1798.501953	-11.568789
9580.109574	4953.176667	1797.500000	44.279121
9580.109574	4953.176667	1796.498047	28.530443
9580.109574	4953.176667	1795.496094	-15.846591
9580.109574	4953.176667	1794.493164	6.539469
9580.109574	4953.176667	1793.491211	-18.777250
9580.109574	4953.176667	1792.488281	17.869722
9580.109574	4953.176667	1791.485352	52.103283
9580.109574	4953.176667	1790.482422	-82.856873
9580.109574	4953.176667	1789.478516	27.578163
9580.109574	4953.176667	1788.475586	42.688030
9580.109574	4953.176667	1787.471680	55.393700
9580.109574	4953.176667	1786.467773	15.700722
9580.109574	4953.176667	1785.463867	11.711373
9580.109574	4953.176667	1784.459961	-8.952039
9580.109574	4953.176667	1783.455078	-8.210224
9580.109574	4953.176667	1782.450195	-5.106145
9580.109574	4953.176667	1781.445313	43.172447
9580.109574	4953.176667	1780.440430	79.525696
9580.109574	4953.176667	1779.435547	8.854959
9580.109574	4953.176667	1778.429688	-28.525909
9580.109574	4953.176667	1777.424805	0.640638
9580.109574	4953.176667	1776.418945	72.551369
9580.109574	4953.176667	1775.413086	37.505726
9580.109574	4953.176667	1774.406250	0.080196
9580.109574	4953.176667	1773.400391	-34.971447
9580.109574	4953.176667	1772.393555	-3.542152
9580.109574	4953.176667	1771.386719	-5.377816
9580.109574	4953.176667	1770.379883	-33.338776
9580.109574	4953.176667	1769.373047	14.634555
9580.109574	4953.176667	1768.365234	93.416428
9580.109574	4953.176667	1767.358398	27.447344
9580.109574	4953.176667	1766.350586	51.612988
9580.109574	4953.176667	1765.342773	75.752769
9580.109574	4953.176667	1764.334961	-54.239738
9580.109574	4953.176667	1763.326172	3.062639
9580.109574	4953.176667	1762.318359	88.767548
9580.109574	4953.176667	1761.309570	70.163116
9580.109574	4953.176667	1760.300781	42.073223
9580.109574	4953.176667	1759.291016	32.924969
9580.109574	4953.176667	1758.282227	-59.120644
9580.109574	4953.176667	1757.272461	28.797407
9580.109574	4953.176667	1756.262695	12.505980
9580.109574	4953.176667	1755.252930	60.108391
9580.109574	4953.176667	1754.243164	1.189887
9580.109574	4953.176667	1753.233398	55.841331
9580.109574	4953.176667	1752.222656	1.643062
9580.109574	4953.176667	1751.211914	18.399570
9580.109574	4953.176667	1750.201172	39.862614
9580.109574	4953.176667	1749.190430	-7.258044
9580.109574	4953.176667	1748.179688	-78.013374
9580.109574	4953.176667	1747.167969	-6.966653
9580.109574	4953.176667	1746.156250	-6.845788
9580.109574	4953.176667	1745.144531	73.577553
9580.109574	4953.176667	1744.132813	-70.422646
9580.109574	4953.176667	1743.121094	35.925896
9580.109574	4953.176667	1742.108398	57.221931
9580.109574	4953.176667	1741.095703	90.296486
9580.109574	4953.176667	1740.083008	-11.180691
9580.109574	4953.176667	1739.070313	5.345388
9580.109574	4953.176667	1738.057617	12.413125
9580.109574	4953.176667	1737.043945	-60.734985
9580.109574	4953.176667	1736.030273	19.415756
9580.109574	4953.176667	1735.016602	12.281678
9580.109574	4953.176667	1734.002930	-20.795837
9580.109574	4953.176667	1732.989258	-65.660706
9580.109574	4953.176667	1731.974609	26.148981
9580.109574	4953.176667	1730.959961	-6.959905
9580.109574	4953.176667	1729.945313	49.439957
9580.109574	4953.176667	1728.930664	-56.699203
9580.109574	4953.176667	1727.916016	-38.015976
9580.109574	4953.176667	1726.900391	93.645348
9580.109574	4953.176667	1725.885742	-101.928749
9580.109574	4953.176667	1724.870117	46.137981
9580.109574	4953.176667	1723.853516	67.077293
9580.109574	4953.176667	1722.837891	62.119347
9580.109574	4953.176667	1721.822266	61.852695
9580.109574	4953.176667	1720.805664	-46.599503
9580.109574	4953.176667	1719.789063	84.783310
9580.109574	4953.176667	1718.772461	16.299805
9580.109574	4953.176667	1717.754883	-9.870732
9580.109574	4953.176667	1716.738281	128.436111
9580.109574	4953.176667	1715.720703	41.145454
9580.109574	4953.176667	1714.703125	-24.986496
9580.109574	4953.176667	1713.685547	-23.004801
9580.109574	4953.176667	1712.667969	-18.689632
9580.109574	4953.176667	1711.649414	16.125286
9580.109574	4953.176667	1710.630859	3.973081
9580.109574	4953.176667	1709.612305	-33.999901
9580.109574	4953.176667	1708.593750	52.371731
9580.109574	4953.176667	1707.575195	-95.868706
9580.109574	4953.176667	1706.555664	86.606888
9580.109574	4953.176667	1705.536133	25.144436
9580.109574	4953.176667	1704.516602	-31.618734
9580.109574	4953.176667	1703.497070	33.507675
9580.109574	4953.176667	1702.477539	23.607271
9580.109574	4953.176667	1701.457031	-9.733603
9580.109574	4953.176667	1700.437500	-50.099892
9580.109574	4953.176667	1699.416992	75.821106
9580.109574	4953.176667	1698.395508	-2.040606
9580.109574	4953.176667	1697.375000	16.104866
9580.109574	4953.176667	1696.354492	3.802096
9580.109574	4953.176667	1695.333008	-36.593349
9580.109574	4953.176667	1694.311523	-44.227581
9580.109574	4953.176667	1693.290039	-65.906876
9580.109574	4953.176667	1692.267578	-59.524960
9580.109574	4953.176667	1691.246094	33.368584
9580.109574	4953.176667	1690.223633	42.044033
9580.109574	4953.176667	1689.201172	22.654400
9580.109574	4953.176667	1688.178711	-48.155655
9580.109574	4953.176667	1687.155273	-23.148554
9580.109574	4953.176667	1686.132813	81.271729
9580.109574	4953.176667	1685.109375	-24.580185
9580.109574	4953.176667	1684.085938	54.087685
9580.109574	4953.176667	1683.062500	-86.762375
9580.109574	4953.176667	1682.039063	-75.831635
9580.109574	4953.176667	1681.014648	-36.910156
9580.109574	4953.176667	1679.990234	13.653696
9580.109574	4953.176667	1678.965820	-45.466106
9580.109574	4953.176667	1677.941406	9.725202
9580.109574	4953.176667	1676.916992	-68.047874
9580.109574	4953.176667	1675.891602	68.714851
9580.109574	4953.176667	1674.866211	-60.349331
9580.109574	4953.176667	1673.840820	69.348091
9580.109574	4953.176667	1672.815430	52.172745
9580.109574	4953.176667	1671.790039	-48.882069
9580.109574	4953.176667	1670.763672	57.413551
9580.109574	4953.176667	1669.737305	-43.623634
9580.109574	4953.176667	1668.710938	27.684013
9580.109574	4953.176667	1667.684570	17.471165
9580.109574	4953.176667	1666.658203	11.909349
9580.109574	4953.176667	1665.630859	20.302162
9580.109574	4953.176667	1664.603516	-89.982079
9580.109574	4953.176667	1663.576172	57.990864
9580.109574	4953.176667	1662.548828	-1.104549
9580.109574	4953.176667	1661.520508	160.728607
9580.109574	4953.176667	1660.493164	31.871696
9580.109574	4953.176667	1659.464844	114.586960
9580.109574	4953.176667	1658.436523	125.216637
9580.109574	4953.176667	1657.408203	54.507710
9580.109574	4953.176667	1656.378906	99.975883
9580.109574	4953.176667	1655.350586	73.417603
9580.109574	4953.176667	1654.321289	162.974457
9580.109574	4953.176667	1653.291992	87.639862
9580.109574	4953.176667	1652.261719	84.288612
9580.109574	4953.176667	1651.232422	71.651039
9580.109574	4953.176667	1650.202148	35.805229
9580.109574	4953.176667	1649.171875	113.648903
9580.109574	4953.176667	1648.141602	-19.625658
9580.109574	4953.176667	1647.111328	162.548859
9580.109574	4953.176667	1646.080078	154.512070
9580.109574	4953.176667	1645.049805	111.701904
9580.109574	4953.176667	1644.018555	131.481293
9580.109574	4953.176667	1642.987305	144.295822
9580.109574	4953.176667	1641.955078	87.591324
9580.109574	4953.176667	1640.923828	70.286209
9580.109574	4953.176667	1639.891602	194.256577
9580.109574	4953.176667	1638.859375	144.508331
9580.109574	4953.176667	1637.827148	194.324600
9580.109574	4953.176667	1636.794922	200.139130
9580.109574	4953.176667	1635.761719	279.999329
9580.109574	4953.176667	1634.729492	186.295990
9580.109574	4953.176667	1633.696289	41.730179
9580.109574	4953.176667	1632.662109	186.321579
9580.109574	4953.176667	1631.628906	171.299896
9580.109574	4953.176667	1630.594727	267.252655
9580.109574	4953.176667	1629.561523	261.461334
9580.109574	4953.176667	1628.527344	209.445526
9580.109574	4953.176667	1627.493164	208.281021
9580.109574	4953.176667	1626.458008	193.251022
9580.109574	4953.176667	1625.423828	125.103577
9580.109574	4953.176667	1624.388672	241.719376
9580.109574	4953.176667	1623.353516	314.420288
9580.109574	4953.176667	1622.318359	287.831238
9580.109574	4953.176667	1621.282227	397.415558
9580.109574	4953.176667	1620.247070	336.206055
9580.109574	4953.176667	1619.210938	491.876068
9580.109574	4953.176667	1618.174805	338.403778
9580.109574	4953.176667	1617.137695	307.212250
9580.109574	4953.176667	1616.101563	416.680847
9580.109574	4953.176667	1615.064453	463.862457
9580.109574	4953.176667	1614.027344	564.035217
9580.109574	4953.176667	1612.990234	535.126282
9580.109574	4953.176667	1611.953125	476.278137
9580.109574	4953.176667	1610.916016	553.354980
9580.109574	4953.176667	1609.877930	501.432800
9580.109574	4953.176667	1608.839844	454.136353
9580.109574	4953.176667	1607.801758	501.244171
9580.109574	4953.176667	1606.763672	412.537628
9580.109574	4953.176667	1605.724609	346.876160
9580.109574	4953.176667	1604.685547	403.180237
9580.109574	4953.176667	1603.646484	277.740784
9580.109574	4953.176667	1602.607422	451.331207
9580.109574	4953.176667	1601.568359	369.622498
9580.109574	4953.176667	1600.528320	347.717499
9580.109574	4953.176667	1599.489258	341.915009
9580.109574	4953.176667	1598.449219	471.699036
9580.109574	4953.176667	1597.408203	424.517029
9580.109574	4953.176667	1596.368164	347.495392
9580.109574	4953.176667	1595.327148	458.833221
9580.109574	4953.176667	1594.287109	441.542938
9580.109574	4953.176667	1593.246094	405.893005
9580.109574	4953.176667	1592.204102	413.869385
9580.109574	4953.176667	1591.163086	410.373932
9580.109574	4953.176667	1590.121094	356.402588
9580.109574	4953.176667	1589.079102	341.453979
9580.109574	4953.176667	1588.037109	337.982605
9580.109574	4953.176667	1586.995117	290.947571
9580.109574	4953.176667	1585.953125	239.349579
9580.109574	4953.176667	1584.910156	270.293182
9580.109574	4953.176667	1583.867188	292.061829
9580.109574	4953.176667	1582.824219	309.244080
9580.109574	4953.176667	1581.781250	257.698212
9580.109574	4953.176667	1580.737305	428.345734
9580.109574	4953.176667	1579.693359	305.814819
9580.109574	4953.176667	1578.649414	295.523834
9580.109574	4953.176667	1577.605469	166.210449
9580.109574	4953.176667	1576.561523	348.206421
9580.109574	4953.176667	1575.516602	294.451782
9580.109574	4953.176667	1574.472656	140.066376
9580.109574	4953.176667	1573.427734	253.357224
9580.109574	4953.176667	1572.381836	327.731232
9580.109574	4953.176667	1571.336914	333.492981
9580.109574	4953.176667	1570.291016	275.250610
9580.109574	4953.176667	1569.246094	319.886993
9580.109574	4953.176667	1568.200195	257.113312
9580.109574	4953.176667	1567.153320	285.752686
9580.109574	4953.176667	1566.107422	193.330383
9580.109574	4953.176667	1565.060547	269.943085
9580.109574	4953.176667	1564.013672	312.284241
9580.109574	4953.176667	1562.966797	331.788330
9580.109574	4953.176667	1561.919922	369.551422
9580.109574	4953.176667	1560.872070	519.118530
9580.109574	4953.176667	1559.825195	429.084229
9580.109574	4953.176667	1558.777344	418.926727
9580.109574	4953.176667	1557.729492	388.256409
9580.109574	4953.176667	1556.680664	400.926331
9580.109574	4953.176667	1555.632813	393.085541
9580.109574	4953.176667	1554.583984	378.416382
9580.109574	4953.176667	1553.535156	457.191772
9580.109574	4953.176667	1552.486328	531.388184
9580.109574	4953.176667	1551.436523	564.561157
9580.109574	4953.176667	1550.387695	588.622559
9580.109574	4953.176667	1549.337891	403.200806
9580.109574	4953.176667	1548.288086	477.385284
9580.109574	4953.176667	1547.238281	494.648712
9580.109574	4953.176667	1546.187500	532.393860
9580.109574	4953.176667	1545.136719	533.730957
9580.109574	4953.176667	1544.086914	487.310791
9580.109574	4953.176667	1543.035156	554.629395
9580.109574	4953.176667	1541.984375	437.753479
9580.109574	4953.176667	1540.933594	505.078522
9580.109574	4953.176667	1539.881836	531.473083
9580.109574	4953.176667	1538.830078	505.601044
9580.109574	4953.176667	1537.778320	566.087585
9580.109574	4953.176667	1536.725586	565.226624
9580.109574	4953.176667	1535.673828	455.364777
9580.109574	4953.176667	1534.621094	529.481873
9580.109574	4953.176667	1533.568359	492.339417
9580.109574	4953.176667	1532.515625	509.698303
9580.109574	4953.176667	1531.461914	447.633240
9580.109574	4953.176667	1530.409180	299.388458
9580.109574	4953.176667	1529.355469	319.078186
9580.109574	4953.176667	1528.301758	470.317352
9580.109574	4953.176667	1527.247070	288.175385
9580.109574	4953.176667	1526.193359	287.489197
9580.109574	4953.176667	1525.138672	341.214111
9580.109574	4953.176667	1524.083984	268.022461
9580.109574	4953.176667	1523.029297	120.102554
9580.109574	4953.176667	1521.974609	264.480652
9580.109574	4953.176667	1520.918945	252.536789
9580.109574	4953.176667	1519.863281	299.486389
9580.109574	4953.176667	1518.807617	221.911865
9580.109574	4953.176667	1517.751953	219.078461
9580.109574	4953.176667	1516.696289	270.573669
9580.109574	4953.176667	1515.639648	204.403809
9580.109574	4953.176667	1514.583008	278.529633
9580.109574	4953.176667	1513.526367	201.103821
9580.109574	4953.176667	1512.469727	60.406750
9580.109574	4953.176667	1511.412109	145.862518
9580.109574	4953.176667	1510.355469	195.134262
9580.109574	4953.176667	1509.297852	126.882072
9580.109574	4953.176667	1508.240234	83.526314
9580.109574	4953.176667	1507.181641	150.894196
9580.109574	4953.176667	1506.124023	267.941498
9580.109574	4953.176667	1505.065430	186.238022
9580.109574	4953.176667	1504.006836	113.612823
9580.109574	4953.176667	1502.948242	230.641891
9580.109574	4953.176667	1501.888672	103.902283
9580.109574	4953.176667	1500.830078	137.432098
9580.109574	4953.176667	1499.770508	123.588470
9580.109574	4953.176667	1498.710938	78.189316
9580.109574	4953.176667	1497.650391	132.043427
9580.109574	4953.176667	1496.590820	208.439499
9580.109574	4953.176667	1495.530273	113.506050
9580.109574	4953.176667	1494.469727	153.847046
9580.109574	4953.176667	1493.409180	99.552902
9580.109574	4953.176667	1492.348633	29.526781
9580.109574	4953.176667	1491.287109	0.085616
9580.109574	4953.176667	1490.225586	99.030350
9580.109574	4953.176667	1489.164063	53.860077
9580.109574	4953.176667	1488.102539	103.266289
9580.109574	4953.176667	1487.041016	87.403854
9580.109574	4953.176667	1485.978516	28.811199
9580.109574	4953.176667	1484.916016	161.476196
9580.109574	4953.176667	1483.853516	-29.772957
9580.109574	4953.176667	1482.791016	-14.045806
9580.109574	4953.176667	1481.727539	78.134132
9580.109574	4953.176667	1480.664063	12.944359
9580.109574	4953.176667	1479.600586	57.924484
9580.109574	4953.176667	1478.537109	53.475216
9580.109574	4953.176667	1477.473633	62.511654
9580.109574	4953.176667	1476.409180	51.360214
9580.109574	4953.176667	1475.344727	51.435612
9580.109574	4953.176667	1474.280273	-47.191051
9580.109574	4953.176667	1473.215820	123.493706
9580.109574	4953.176667	1472.151367	33.858608
9580.109574	4953.176667	1471.085938	-33.170010
9580.109574	4953.176667	1470.020508	-109.182892
9580.109574	4953.176667	1468.955078	23.310978
9580.109574	4953.176667	1467.888672	25.734335
9580.109574	4953.176667	1466.823242	52.835144
9580.109574	4953.176667	1465.756836	19.607029
9580.109574	4953.176667	1464.690430	15.329507
9580.109574	4953.176667	1463.624023	-60.298893
9580.109574	4953.176667	1462.556641	-41.993290
9580.109574	4953.176667	1461.490234	-88.634567
9580.109574	4953.176667	1460.422852	-21.021902
9580.109574	4953.176667	1459.355469	32.662216
9580.109574	4953.176667	1458.287109	15.826262
9580.109574	4953.176667	1457.219727	4.547457
9580.109574	4953.176667	1456.151367	56.093174
9580.109574	4953.176667	1455.083008	112.468826
9580.109574	4953.176667	1454.014648	77.288948
9580.109574	4953.176667	1452.945313	39.591492
9580.109574	4953.176667	1451.876953	47.111946
9580.109574	4953.176667	1450.807617	136.490158
9580.109574	4953.176667	1449.738281	48.458027
9580.109574	4953.176667	1448.668945	4.340514
9580.109574	4953.176667	1447.598633	-21.894163
9580.109574	4953.176667	1446.528320	23.253885
9580.109574	4953.176667	1445.458008	47.888195
9580.109574	4953.176667	1444.387695	-83.594246
9580.109574	4953.176667	1443.317383	85.816605
9580.109574	4953.176667	1442.246094	1.576579
9580.109574	4953.176667	1441.174805	-32.276196
9580.109574	4953.176667	1440.103516	-81.084724
9580.109574	4953.176667	1439.032227	63.822147
9580.109574	4953.176667	1437.960938	-24.144926
9580.109574	4953.176667	1436.888672	80.697044
9580.109574	4953.176667	1435.816406	46.775715
9580.109574	4953.176667	1434.744141	68.905556
9580.109574	4953.176667	1433.670898	-2.876641
9580.109574	4953.176667	1432.598633	51.547951
9580.109574	4953.176667	1431.525391	180.737793
9580.109574	4953.176667	1430.452148	117.792328
9580.109574	4953.176667	1429.378906	28.104136
9580.109574	4953.176667	1428.304688	-11.504754
9580.109574	4953.176667	1427.231445	143.914871
9580.109574	4953.176667	1426.157227	-22.566404
9580.109574	4953.176667	1425.083008	-54.427593
9580.109574	4953.176667	1424.007813	28.805750
9580.109574	4953.176667	1422.933594	-20.962738
9580.109574	4953.176667	1421.858398	152.865524
9580.109574	4953.176667	1420.783203	-46.706898
9580.109574	4953.176667	1419.708008	-85.844551
9580.109574	4953.176667	1418.631836	18.375816
9580.109574	4953.176667	1417.555664	113.323189
9580.109574	4953.176667	1416.479492	108.908684
9580.109574	4953.176667	1415.403320	18.864700
9580.109574	4953.176667	1414.327148	23.946585
9580.109574	4953.176667	1413.250000	-27.839062
9580.109574	4953.176667	1412.173828	-67.306755
9580.109574	4953.176667	1411.096680	51.662205
9580.109574	4953.176667	1410.018555	-47.312767
9580.109574	4953.176667	1408.941406	19.363855
9580.109574	4953.176667	1407.863281	-34.943760
9580.109574	4953.176667	1406.785156	3.807972
9580.109574	4953.176667	1405.707031	51.338261
9580.109574	4953.176667	1404.628906	139.772064
9580.109574	4953.176667	1403.549805	28.372002
9580.109574	4953.176667	1402.470703	104.669609
9580.109574	4953.176667	1401.391602	33.010555
9580.109574	4953.176667	1400.312500	43.378445
9580.109574	4953.176667	1399.233398	-8.146203
9580.109574	4953.176667	1398.153320	29.053310
9580.109574	4953.176667	1397.073242	-17.460564
9580.109574	4953.176667	1395.993164	182.661011
9580.109574	4953.176667	1394.913086	-53.763905
9580.109574	4953.176667	1393.832031	192.084579
9580.109574	4953.176667	1392.750977	55.729046
9580.109574	4953.176667	1391.669922	145.557632
9580.109574	4953.176667	1390.588867	107.266068
9580.109574	4953.176667	1389.506836	147.246582
9580.109574	4953.176667	1388.425781	112.419930
9580.109574	4953.176667	1387.343750	151.962692
9580.109574	4953.176667	1386.261719	66.267441
9580.109574	4953.176667	1385.178711	80.422516
9580.109574	4953.176667	1384.096680	101.394173
9580.109574	4953.176667	1383.013672	17.210201
9580.109574	4953.176667	1381.930664	-32.558418
9580.109574	4953.176667	1380.846680	-73.377251
9580.109574	4953.176667	1379.763672	-9.915923
9580.109574	4953.176667	1378.679688	72.590790
9580.109574	4953.176667	1377.595703	20.558281
9580.109574	4953.176667	1376.511719	-16.530613
9580.109574	4953.176667	1375.427734	-12.805845
9580.109574	4953.176667	1374.342773	-54.769997
9580.109574	4953.176667	1373.257813	-42.581978
9580.109574	4953.176667	1372.172852	31.288412
9580.109574	4953.176667	1371.087891	-2.088587
9580.109574	4953.176667	1370.001953	-18.153002
9580.109574	4953.176667	1368.916992	18.499168
9580.109574	4953.176667	1367.831055	-15.363838
9580.109574	4953.176667	1366.744141	-67.020370
9580.109574	4953.176667	1365.658203	38.897327
9580.109574	4953.176667	1364.571289	57.011112
9580.109574	4953.176667	1363.484375	-3.939645
9580.109574	4953.176667	1362.397461	16.780807
9580.109574	4953.176667	1361.310547	16.418964
9580.109574	4953.176667	1360.222656	92.585724
9580.109574	4953.176667	1359.135742	36.656208
9580.109574	4953.176667	1358.047852	32.240986
9580.109574	4953.176667	1356.958984	-32.469315
9580.109574	4953.176667	1355.871094	40.256538
9580.109574	4953.176667	1354.782227	144.260406
9580.109574	4953.176667	1353.693359	-9.074472
9580.109574	4953.176667	1352.604492	75.250854
9580.109574	4953.176667	1351.515625	121.839546
9580.109574	4953.176667	1350.425781	85.366592
9580.109574	4953.176667	1349.335938	181.824570
9580.109574	4953.176667	1348.246094	138.012436
9580.109574	4953.176667	1347.156250	74.202820
9580.109574	4953.176667	1346.066406	85.523277
9580.109574	4953.176667	1344.975586	108.884964
9580.109574	4953.176667	1343.884766	139.283295
9580.109574	4953.176667	1342.793945	86.688377
9580.109574	4953.176667	1341.702148	106.678627
9580.109574	4953.176667	1340.611328	113.903557
9580.109574	4953.176667	1339.519531	137.103836
9580.109574	4953.176667	1338.427734	177.216980
9580.109574	4953.176667	1337.334961	173.572403
9580.109574	4953.176667	1336.243164	138.741852
9580.109574	4953.176667	1335.150391	77.502037
9580.109574	4953.176667	1334.057617	95.675377
9580.109574	4953.176667	1332.964844	202.049850
9580.109574	4953.176667	1331.871094	144.300903
9580.109574	4953.176667	1330.778320	153.459366
9580.109574	4953.176667	1329.684570	100.086746
9580.109574	4953.176667	1328.590820	69.122574
9580.109574	4953.176667	1327.496094	80.522873
9580.109574	4953.176667	1326.402344	41.938007
9580.109574	4953.176667	1325.307617	85.562370
9580.109574	4953.176667	1324.212891	132.355225
9580.109574	4953.176667	1323.117188	51.425247
9580.109574	4953.176667	1322.022461	26.404348
9580.109574	4953.176667	1320.926758	14.251452
9580.109574	4953.176667	1319.831055	-25.715351
9580.109574	4953.176667	1318.735352	-41.509617
9580.109574	4953.176667	1317.638672	2.379968
9580.109574	4953.176667	1316.542969	-59.663822
9580.109574	4953.176667	1315.446289	-19.958563
9580.109574	4953.176667	1314.349609	-64.088814
9580.109574	4953.176667	1313.251953	12.443339
9580.109574	4953.176667	1312.155273	-3.558024
9580.109574	4953.176667	1311.057617	-49.093990
9580.109574	4953.176667	1309.959961	16.156837
9580.109574	4953.176667	1308.862305	-87.517097
9580.109574	4953.176667	1307.763672	-37.040920
9580.109574	4953.176667	1306.665039	10.664795
9580.109574	4953.176667	1305.566406	-12.161077
9580.109574	4953.176667	1304.467773	-43.107048
9580.109574	4953.176667	1303.369141	-66.429848
9580.109574	4953.176667	1302.269531	-17.006441
9580.109574	4953.176667	1301.169922	-1.083402
9580.109574	4953.176667	1300.070313	-17.416239
9580.109574	4953.176667	1298.970703	17.136759
9580.109574	4953.176667	1297.870117	59.385429
9580.109574	4953.176667	1296.769531	27.184713
9580.109574	4953.176667	1295.668945	44.454159
9580.109574	4953.176667	1294.568359	2.270767
9580.109574	4953.176667	1293.466797	-51.681316
9580.109574	4953.176667	1292.366211	9.441864
9580.109574	4953.176667	1291.264648	73.898628
9580.109574	4953.176667	1290.162109	109.798729
9580.109574	4953.176667	1289.060547	163.206528
9580.109574	4953.176667	1287.958008	127.989029
9580.109574	4953.176667	1286.855469	14.237190
9580.109574	4953.176667	1285.752930	80.480888
9580.109574	4953.176667	1284.650391	47.766369
9580.109574	4953.176667	1283.546875	78.966324
9580.109574	4953.176667	1282.444336	107.392815
9580.109574	4953.176667	1281.339844	-2.134113
9580.109574	4953.176667	1280.236328	133.297379
9580.109574	4953.176667	1279.132813	228.122253
9580.109574	4953.176667	1278.028320	147.622650
9580.109574	4953.176667	1276.923828	189.512497
9580.109574	4953.176667	1275.819336	119.988655
9580.109574	4953.176667	1274.713867	154.226624
9580.109574	4953.176667	1273.608398	212.240829
9580.109574	4953.176667	1272.503906	276.126221
9580.109574	4953.176667	1271.397461	304.720123
9580.109574	4953.176667	1270.291992	221.546265
9580.109574	4953.176667	1269.185547	132.317368
9580.109574	4953.176667	1268.080078	146.486404
9580.109574	4953.176667	1266.972656	155.210876
9580.109574	4953.176667	1265.866211	46.275368
9580.109574	4953.176667	1264.759766	61.694031
9580.109574	4953.176667	1263.652344	-20.663731
9580.109574	4953.176667	1262.544922	138.735718
9580.109574	4953.176667	1261.436523	79.602631
9580.109574	4953.176667	1260.329102	-53.894081
9580.109574	4953.176667	1259.220703	-8.201699
9580.109574	4953.176667	1258.112305	7.876716
9580.109574	4953.176667	1257.003906	-121.844040
9580.109574	4953.176667	1255.895508	-57.519882
9580.109574	4953.176667	1254.786133	-128.381454
9580.109574	4953.176667	1253.676758	-15.017235
9580.109574	4953.176667	1252.567383	-65.577766
9580.109574	4953.176667	1251.458008	26.070595
9580.109574	4953.176667	1250.347656	-55.933395
9580.109574	4953.176667	1249.237305	-62.858902
9580.109574	4953.176667	1248.126953	-38.556412
9580.109574	4953.176667	1247.016602	14.037156
9580.109574	4953.176667	1245.905273	12.835970
9580.109574	4953.176667	1244.793945	48.904831
9580.109574	4953.176667	1243.682617	70.229187
9580.109574	4953.176667	1242.571289	56.173882
9580.109574	4953.176667	1241.459961	119.843018
9580.109574	4953.176667	1240.347656	127.344879
9580.109574	4953.176667	1239.235352	175.139496
9580.109574	4953.176667	1238.123047	184.842468
9580.109574	4953.176667	1237.009766	132.506897
9580.109574	4953.176667	1235.897461	188.161362
9580.109574	4953.176667	1234.784180	196.325836
9580.109574	4953.176667	1233.670898	129.012604
9580.109574	4953.176667	1232.556641	116.194183
9580.109574	4953.176667	1231.443359	159.870865
9580.109574	4953.176667	1230.329102	169.020370
9580.109574	4953.176667	1229.214844	80.289726
9580.109574	4953.176667	1228.099609	127.699608
9580.109574	4953.176667	1226.985352	177.574966
9580.109574	4953.176667	1225.870117	116.090553
9580.109574	4953.176667	1224.754883	158.511078
9580.109574	4953.176667	1223.639648	141.905014
9580.109574	4953.176667	1222.523438	207.468582
9580.109574	4953.176667	1221.408203	208.490051
9580.109574	4953.176667	1220.291992	257.154022
9580.109574	4953.176667	1219.174805	184.047516
9580.109574	4953.176667	1218.058594	175.821838
9580.109574	4953.176667	1216.941406	335.273651
9580.109574	4953.176667	1215.824219	261.804626
9580.109574	4953.176667	1214.707031	242.732437
9580.109574	4953.176667	1213.589844	166.176132
9580.109574	4953.176667	1212.471680	260.191772
9580.109574	4953.176667	1211.353516	152.209381
9580.109574	4953.176667	1210.235352	48.107193
9580.109574	4953.176667	1209.117188	182.679535
9580.109574	4953.176667	1207.998047	113.078911
9580.109574	4953.176667	1206.878906	125.372276
9580.109574	4953.176667	1205.759766	200.593918
9580.109574	4953.176667	1204.640625	159.954163
9580.109574	4953.176667	1203.520508	115.002975
9580.109574	4953.176667	1202.401367	107.764771
9580.109574	4953.176667	1201.281250	84.063530
9580.109574	4953.176667	1200.160156	113.382271
9580.109574	4953.176667	1199.040039	154.106720
9580.109574	4953.176667	1197.918945	90.013252
9580.109574	4953.176667	1196.797852	95.314079
9580.109574	4953.176667	1195.676758	158.983200
9580.109574	4953.176667	1194.555664	65.861542
9580.109574	4953.176667	1193.433594	78.105553
9580.109574	4953.176667	1192.311523	2.347607
9580.109574	4953.176667	1191.189453	92.430603
9580.109574	4953.176667	1190.066406	106.396225
9580.109574	4953.176667	1188.944336	59.146832
9580.109574	4953.176667	1187.821289	107.435822
9580.109574	4953.176667	1186.698242	44.645359
9580.109574	4953.176667	1185.574219	-2.152859
9580.109574	4953.176667	1184.451172	4.652531
9580.109574	4953.176667	1183.327148	-44.168476
9580.109574	4953.176667	1182.203125	0.980886
9580.109574	4953.176667	1181.078125	35.733109
9580.109574	4953.176667	1179.954102	10.026717
9580.109574	4953.176667	1178.829102	-91.026260
9580.109574	4953.176667	1177.704102	35.360893
9580.109574	4953.176667	1176.579102	16.537184
9580.109574	4953.176667	1175.453125	33.829189
9580.109574	4953.176667	1174.327148	-12.503457
9580.109574	4953.176667	1173.201172	-53.892265
9580.109574	4953.176667	1172.075195	58.436100
9580.109574	4953.176667	1170.949219	16.128263
9580.109574	4953.176667	1169.822266	-33.827103
9580.109574	4953.176667	1168.695313	77.384338
9580.109574	4953.176667	1167.568359	81.327667
9580.109574	4953.176667	1166.440430	30.718851
9580.109574	4953.176667	1165.313477	7.557790
9580.109574	4953.176667	1164.185547	32.884171
9580.109574	4953.176667	1163.057617	20.493309
9580.109574	4953.176667	1161.928711	83.746910
9580.109574	4953.176667	1160.800781	121.472786
9580.109574	4953.176667	1159.671875	125.240143
9580.109574	4953.176667	1158.541992	104.573532
9580.109574	4953.176667	1157.413086	138.826187
9580.109574	4953.176667	1156.283203	222.303375
9580.109574	4953.176667	1155.154297	203.819305
9580.109574	4953.176667	1154.023438	80.700874
9580.109574	4953.176667	1152.893555	223.555573
9580.109574	4953.176667	1151.763672	100.055145
9580.109574	4953.176667	1150.632813	228.123993
9580.109574	4953.176667	1149.501953	190.599976
9580.109574	4953.176667	1148.370117	160.195358
9580.109574	4953.176667	1147.239258	218.066437
9580.109574	4953.176667	1146.107422	227.763031
9580.109574	4953.176667	1144.975586	132.977264
9580.109574	4953.176667	1143.843750	118.227394
9580.109574	4953.176667	1142.710938	62.465614
9580.109574	4953.176667	1141.578125	110.884094
9580.109574	4953.176667	1140.445313	50.897541
9580.109574	4953.176667	1139.312500	203.870392
9580.109574	4953.176667	1138.178711	159.621292
9580.109574	4953.176667	1137.045898	143.857468
9580.109574	4953.176667	1135.912109	86.201370
9580.109574	4953.176667	1134.777344	118.450531
9580.109574	4953.176667	1133.643555	27.154245
9580.109574	4953.176667	1132.508789	52.152969
9580.109574	4953.176667	1131.374023	103.916504
9580.109574	4953.176667	1130.239258	26.576633
9580.109574	4953.176667	1129.104492	58.307362
9580.109574	4953.176667	1127.968750	93.502007
9580.109574	4953.176667	1126.833008	71.865028
9580.109574	4953.176667	1125.697266	111.960075
9580.109574	4953.176667	1124.560547	120.772751
9580.109574	4953.176667	1123.424805	164.918121
9580.109574	4953.176667	1122.288086	80.610580
9580.109574	4953.176667	1121.151367	99.293144
9580.109574	4953.176667	1120.013672	-8.814969
9580.109574	4953.176667	1118.876953	52.077389
9580.109574	4953.176667	1117.739258	3.711668
9580.109574	4953.176667	1116.601563	135.043121
9580.109574	4953.176667	1115.462891	31.613449
9580.109574	4953.176667	1114.324219	31.719713
9580.109574	4953.176667	1113.186523	45.241528
9580.109574	4953.176667	1112.046875	79.559906
9580.109574	4953.176667	1110.908203	72.060356
9580.109574	4953.176667	1109.769531	95.425674
9580.109574	4953.176667	1108.629883	34.153358
9580.109574	4953.176667	1107.490234	19.534399
9580.109574	4953.176667	1106.349609	55.038929
9580.109574	4953.176667	1105.209961	105.047882
9580.109574	4953.176667	1104.069336	-8.437683
9580.109574	4953.176667	1102.928711	-43.604988
9580.109574	4953.176667	1101.787109	-62.560837
9580.109574	4953.176667	1100.646484	71.844315
9580.109574	4953.176667	1099.504883	32.579994
9580.109574	4953.176667	1098.363281	-12.747782
9580.109574	4953.176667	1097.221680	-20.447878
9580.109574	4953.176667	1096.079102	43.690014
9580.109574	4953.176667	1094.936523	22.982138
9580.109574	4953.176667	1093.793945	86.115730
9580.109574	4953.176667	1092.651367	103.139122
9580.109574	4953.176667	1091.507813	101.796272
9580.109574	4953.176667	1090.364258	82.469147
9580.109574	4953.176667	1089.220703	-59.380363
9580.109574	4953.176667	1088.077148	4.752616
9580.109574	4953.176667	1086.933594	-15.636077
9580.109574	4953.176667	1085.789063	53.089836
9580.109574	4953.176667	1084.644531	90.376564
9580.109574	4953.176667	1083.499023	40.583019
9580.109574	4953.176667	1082.354492	108.005013
9580.109574	4953.176667	1081.208984	-99.855438
9580.109574	4953.176667	1080.063477	-37.143642
9580.109574	4953.176667	1078.917969	17.069109
9580.109574	4953.176667	1077.771484	86.105576
9580.109574	4953.176667	1076.625977	89.954018
9580.109574	4953.176667	1075.479492	-32.524715
9580.109574	4953.176667	1074.332031	104.387863
9580.109574	4953.176667	1073.185547	55.093136
9580.109574	4953.176667	1072.038086	-39.994366
9580.109574	4953.176667	1070.890625	-5.880972
9580.109574	4953.176667	1069.743164	-64.693878
9580.109574	4953.176667	1068.594727	19.975819
9580.109574	4953.176667	1067.447266	15.581828
9580.109574	4953.176667	1066.298828	-25.845915
9580.109574	4953.176667	1065.149414	1.714796
9580.109574	4953.176667	1064.000977	-21.033983
9580.109574	4953.176667	1062.851563	-62.485210
9580.109574	4953.176667	1061.702148	7.679317
9580.109574	4953.176667	1060.552734	24.391989
9580.109574	4953.176667	1059.402344	-42.051632
9580.109574	4953.176667	1058.252930	15.155819
9580.109574	4953.176667	1057.102539	56.068821
9580.109574	4953.176667	1055.951172	9.832393
9580.109574	4953.176667	1054.800781	49.260780
9580.109574	4953.176667	1053.649414	-5.249047
9580.109574	4953.176667	1052.498047	9.837737
9580.109574	4953.176667	1051.346680	142.916428
9580.109574	4953.176667	1050.194336	21.786678
9580.109574	4953.176667	1049.042969	-19.627562
9580.109574	4953.176667	1047.890625	38.830624
9580.109574	4953.176667	1046.738281	9.907766
9580.109574	4953.176667	1045.584961	35.425732
9580.109574	4953.176667	1044.431641	34.034630
9580.109574	4953.176667	1043.278320	-42.382446
9580.109574	4953.176667	1042.125000	-22.551537
9580.109574	4953.176667	1040.971680	-6.450140
9580.109574	4953.176667	1039.817383	169.285568
9580.109574	4953.176667	1038.663086	106.969063
9580.109574	4953.176667	1037.508789	27.760067
9580.109574	4953.176667	1036.353516	8.201332
9580.109574	4953.176667	1035.198242	48.998703
9580.109574	4953.176667	1034.042969	101.652473
9580.109574	4953.176667	1032.887695	147.770340
9580.109574	4953.176667	1031.732422	43.810120
9580.109574	4953.176667	1030.576172	-74.636383
9580.109574	4953.176667	1029.419922	-37.616947
9580.109574	4953.176667	1028.263672	86.811340
9580.109574	4953.176667	1027.106445	-4.500932
9580.109574	4953.176667	1025.949219	36.112335
9580.109574	4953.176667	1024.792969	-12.402936
9580.109574	4953.176667	1023.634766	29.496801
9580.109574	4953.176667	1022.477539	50.234901
9580.109574	4953.176667	1021.319336	-12.571551
9580.109574	4953.176667	1020.161133	-91.261787
9580.109574	4953.176667	1019.002930	-22.785938
9580.109574	4953.176667	1017.843750	-52.201435
9580.109574	4953.176667	1016.684570	-3.277655
9580.109574	4953.176667	1015.525391	-5.804584
9580.109574	4953.176667	1014.366211	-24.300472
9580.109574	4953.176667	1013.207031	28.911497
9580.109574	4953.176667	1012.046875	77.786324
9580.109574	4953.176667	1010.886719	119.536354
9580.109574	4953.176667	1009.726563	-47.032444
9580.109574	4953.176667	1008.565430	-132.649414
9580.109574	4953.176667	1007.404297	-19.127583
9580.109574	4953.176667	1006.243164	84.407135
9580.109574	4953.176667	1005.082031	135.441864
9580.109574	4953.176667	1003.920898	128.584839
9580.109574	4953.176667	1002.758789	-7.445335
9580.109574	4953.176667	1001.596680	117.836212
9580.109574	4953.176667	1000.433594	131.118561
9580.109574	4953.176667	999.271484	141.640442
9580.109574	4953.176667	998.108398	228.386887
9580.109574	4953.176667	996.945313	152.160629
9580.109574	4953.176667	995.782227	226.982498
9580.109574	4953.176667	994.618164	274.131409
9580.109574	4953.176667	993.454102	317.211151
9580.109574	4953.176667	992.290039	188.311615
9580.109574	4953.176667	991.125977	224.069122
9580.109574	4953.176667	989.960938	279.057953
9580.109574	4953.176667	988.796875	210.219345
9580.109574	4953.176667	987.630859	162.317780
9580.109574	4953.176667	986.465820	169.040543
9580.109574	4953.176667	985.300781	117.665825
9580.109574	4953.176667	984.134766	175.789352
9580.109574	4953.176667	982.968750	134.784531
9580.109574	4953.176667	981.801758	94.973885
9580.109574	4953.176667	980.635742	129.075821
9580.109574	4953.176667	979.468750	192.537842
9580.109574	4953.176667	978.301758	3.959921
9580.109574	4953.176667	977.133789	135.623337
9580.109574	4953.176667	975.966797	104.765053
9580.109574	4953.176667	974.798828	99.519829
9580.109574	4953.176667	973.630859	130.182449
9580.109574	4953.176667	972.461914	201.811295
9580.109574	4953.176667	971.293945	23.563026
9580.109574	4953.176667	970.125000	80.594841
9580.109574	4953.176667	968.956055	88.414688
9580.109574	4953.176667	967.786133	37.814304
9580.109574	4953.176667	966.617188	-19.006624
9580.109574	4953.176667	965.447266	61.956715
9580.109574	4953.176667	964.276367	31.362583
9580.109574	4953.176667	963.106445	24.087198
9580.109574	4953.176667	961.935547	62.342869
9580.109574	4953.176667	960.764648	10.617055
9580.109574	4953.176667	959.593750	-15.690264
9580.109574	4953.176667	958.422852	-4.305820
9580.109574	4953.176667	957.250977	-73.211815
9580.109574	4953.176667	956.079102	6.736200
9580.109574	4953.176667	954.907227	0.422096
9580.109574	4953.176667	953.734375	14.684704
9580.109574	4953.176667	952.562500	16.894184
9580.109574	4953.176667	951.389648	45.616798
9580.109574	4953.176667	950.215820	-94.392998
9580.109574	4953.176667	949.042969	-80.647835
9580.109574	4953.176667	947.869141	0.357985
9580.109574	4953.176667	946.695313	81.416885
9580.109574	4953.176667	945.521484	-32.847286
9580.109574	4953.176667	944.346680	77.018539
9580.109574	4953.176667	943.172852	7.866508
9580.109574	4953.176667	941.998047	57.650276
9580.109574	4953.176667	940.822266	19.654819
9580.109574	4953.176667	939.647461	-68.316048
9580.109574	4953.176667	938.471680	-11.151451
9580.109574	4953.176667	937.295898	45.947403
9580.109574	4953.176667	936.119141	-15.955601
9580.109574	4953.176667	934.943359	69.854744
9580.109574	4953.176667	933.766602	-53.873989
9580.109574	4953.176667	932.589844	95.975845
9580.109574	4953.176667	931.413086	-1.539042
9580.109574	4953.176667	930.235352	91.203331
9580.109574	4953.176667	929.057617	-37.181347
9580.109574	4953.176667	927.879883	-39.555553
9580.109574	4953.176667	926.702148	27.047329
9580.109574	4953.176667	925.523438	38.931400
9580.109574	4953.176667	924.344727	-34.723186
9580.109574	4953.176667	923.166016	55.583389
9580.109574	4953.176667	921.987305	12.820669
9580.109574	4953.176667	920.807617	-13.296365
9580.109574	4953.176667	919.627930	-12.614167
9580.109574	4953.176667	919.497070	48.542522
9580.109574	4953.176667	918.331055	74.655617
9580.109574	4953.176667	917.165039	15.295630
9580.109574	4953.176667	915.999023	155.327133
9580.109574	4953.176667	914.833008	-70.134834
9580.109574	4953.176667	913.666016	22.405697
9580.109574	4953.176667	912.499023	181.323227
9580.109574	4953.176667	911.332031	-91.439568
9580.109574	4953.176667	910.165039	167.017502
9580.109574	4953.176667	908.997070	-3.699716
9580.109574	4953.176667	907.830078	-10.814466
9580.109574	4953.176667	906.661133	1.030193
9580.109574	4953.176667	905.493164	-55.834835
9580.109574	4953.176667	904.325195	60.230942
9580.109574	4953.176667	903.156250	38.897797
9580.109574	4953.176667	901.987305	74.396187
9580.109574	4953.176667	900.818359	-36.884945
9580.109574	4953.176667	899.648438	5.713458
9580.109574	4953.176667	898.478516	76.688438
9580.109574	4953.176667	897.308594	26.982410
9580.109574	4953.176667	896.138672	19.870083
9580.109574	4953.176667	894.968750	83.703049
9580.109574	4953.176667	893.797852	29.296354
9580.109574	4953.176667	892.626953	123.830139
9580.109574	4953.176667	891.456055	128.519287
9580.109574	4953.176667	890.284180	19.791142
9580.109574	4953.176667	889.113281	26.861183
9580.109574	4953.176667	887.941406	88.251534
9580.109574	4953.176667	886.768555	22.102610
9580.109574	4953.176667	885.596680	168.460464
9580.109574	4953.176667	884.423828	125.925812
9580.109574	4953.176667	883.250977	38.569679
9580.109574	4953.176667	882.078125	170.677979
9580.109574	4953.176667	880.905273	137.604233
9580.109574	4953.176667	879.731445	128.129303
9580.109574	4953.176667	878.557617	-20.463890
9580.109574	4953.176667	877.383789	-25.187794
9580.109574	4953.176667	876.209961	76.157082
9580.109574	4953.176667	875.035156	-46.411861
9580.109574	4953.176667	873.860352	19.555042
9580.109574	4953.176667	872.685547	40.738716
9580.109574	4953.176667	871.510742	-32.290516
9580.109574	4953.176667	870.334961	68.953003
9580.109574	4953.176667	869.159180	54.801998
9580.109574	4953.176667	867.983398	54.778690
9580.109574	4953.176667	866.807617	66.521507
9580.109574	4953.176667	865.630859	66.496330
9580.109574	4953.176667	864.454102	-25.264904
9580.109574	4953.176667	863.277344	97.019051
9580.109574	4953.176667	862.100586	82.880417
9580.109574	4953.176667	860.922852	-46.439781
9580.109574	4953.176667	859.745117	40.519825
9580.109574	4953.176667	858.567383	136.842712
9580.109574	4953.176667	857.389648	24.036713
9580.109574	4953.176667	856.210938	-15.908647
9580.109574	4953.176667	855.032227	12.264876
9580.109574	4953.176667	853.853516	9.904191
9580.109574	4953.176667	852.674805	-41.750481
9580.109574	4953.176667	851.495117	42.737186
9580.109574	4953.176667	850.315430	-25.327713
9580.109574	4953.176667	849.135742	-55.829472
9580.109574	4953.176667	847.956055	59.100060
9580.109574	4953.176667	846.775391	2.798797
9580.109574	4953.176667	845.595703	-44.102043
9580.109574	4953.176667	844.415039	-41.758625
9580.109574	4953.176667	843.233398	-67.538406
9580.109574	4953.176667	842.052734	19.158567
9580.109574	4953.176667	840.871094	33.200054
9580.109574	4953.176667	839.689453	-48.790253
9580.109574	4953.176667	838.506836	-144.796219
9580.109574	4953.176667	837.325195	-23.038454
9580.109574	4953.176667	836.142578	-20.703650
9580.109574	4953.176667	834.959961	47.154388
9580.109574	4953.176667	833.777344	37.774143
9580.109574	4953.176667	832.593750	-83.883682
9580.109574	4953.176667	831.410156	-114.281822
9580.109574	4953.176667	830.226563	-18.403252
9580.109574	4953.176667	829.042969	-2.048544
9580.109574	4953.176667	827.858398	86.754715
9580.109574	4953.176667	826.673828	23.629215
9580.109574	4953.176667	825.489258	105.380089
9580.109574	4953.176667	824.304688	77.312447
9580.109574	4953.176667	823.120117	39.914036
9580.109574	4953.176667	821.934570	70.241478
9580.109574	4953.176667	820.749023	37.527332
9580.109574	4953.176667	819.562500	51.504002
9580.109574	4953.176667	818.376953	0.137397
9580.109574	4953.176667	817.190430	18.779345
9580.109574	4953.176667	816.003906	44.409962
9580.109574	4953.176667	814.817383	93.348022
9580.109574	4953.176667	813.629883	53.668442
9580.109574	4953.176667	812.442383	67.616722
9580.109574	4953.176667	811.254883	-37.299168
9580.109574	4953.176667	810.067383	-18.681101
9580.109574	4953.176667	808.878906	107.088547
9580.109574	4953.176667	807.690430	37.160786
9580.109574	4953.176667	806.501953	-9.453727
9580.109574	4953.176667	805.313477	4.480033
9580.109574	4953.176667	804.124023	-46.767483
9580.109574	4953.176667	802.934570	120.757217
9580.109574	4953.176667	801.745117	39.255459
9580.109574	4953.176667	800.555664	57.811874
9580.109574	4953.176667	799.365234	-70.161751
9580.109574	4953.176667	798.175781	27.462385
9580.109574	4953.176667	796.985352	-23.740343
9580.109574	4953.176667	795.793945	85.450661
9580.109574	4953.176667	794.603516	-7.576782
9580.109574	4953.176667	793.412109	22.567379
9580.109574	4953.176667	792.220703	78.247047
9580.109574	4953.176667	791.028320	80.487015
9580.109574	4953.176667	789.836914	64.147285
9580.109574	4953.176667	788.644531	-14.866006
9580.109574	4953.176667	787.452148	80.217789
9580.109574	4953.176667	786.258789	-49.821915
9580.109574	4953.176667	785.066406	89.301163
9580.109574	4953.176667	783.873047	-5.902365
9580.109574	4953.176667	782.679688	-8.311275
9580.109574	4953.176667	781.485352	70.424881
9580.109574	4953.176667	780.291992	21.632442
9580.109574	4953.176667	779.097656	77.145714
9580.109574	4953.176667	777.903320	53.851555
9580.109574	4953.176667	776.708008	-27.351513
9580.109574	4953.176667	775.512695	74.445839
9580.109574	4953.176667	774.318359	125.251831
9580.109574	4953.176667	773.122070	145.936325
9580.109574	4953.176667	771.926758	67.076454
9580.109574	4953.176667	770.730469	69.240608
9580.109574	4953.176667	769.534180	129.240463
9580.109574	4953.176667	768.337891	249.353226
9580.109574	4953.176667	767.141602	297.715973
9580.109574	4953.176667	765.944336	258.187866
9580.109574	4953.176667	764.747070	325.011261
9580.109574	4953.176667	763.549805	320.151123
9580.109574	4953.176667	762.351563	345.327423
9580.109574	4953.176667	761.154297	338.141998
9580.109574	4953.176667	759.956055	451.064972
9580.109574	4953.176667	758.757813	402.279175
9580.109574	4953.176667	757.558594	224.210098
9580.109574	4953.176667	756.359375	265.505676
9580.109574	4953.176667	755.160156	274.466309
9580.109574	4953.176667	753.960938	281.108398
9580.109574	4953.176667	752.761719	253.135681
9580.109574	4953.176667	751.561523	275.909943
9580.109574	4953.176667	750.361328	231.793198
9580.109574	4953.176667	749.160156	349.072998
9580.109574	4953.176667	747.959961	314.163269
9580.109574	4953.176667	746.758789	170.946411
9580.109574	4953.176667	745.557617	175.241226
9580.109574	4953.176667	744.356445	119.632538
9580.109574	4953.176667	743.154297	135.434692
9580.109574	4953.176667	741.952148	118.984863
9580.109574	4953.176667	740.750000	91.021912
9580.109574	4953.176667	739.547852	194.256119
9580.109574	4953.176667	738.344727	150.162445
9580.109574	4953.176667	737.142578	267.126678
9580.109574	4953.176667	735.939453	131.007797
9580.109574	4953.176667	734.735352	176.615936
9580.109574	4953.176667	733.532227	130.223862
9580.109574	4953.176667	732.328125	122.920776
9580.109574	4953.176667	731.124023	205.243851
9580.109574	4953.176667	729.918945	207.098419
9580.109574	4953.176667	728.714844	169.886459
9580.109574	4953.176667	727.509766	107.413895
9580.109574	4953.176667	726.303711	258.519623
9580.109574	4953.176667	725.098633	92.716560
9580.109574	4953.176667	723.892578	181.763184
9580.109574	4953.176667	722.686523	103.230164
9580.109574	4953.176667	721.480469	4.068051
9580.109574	4953.176667	720.274414	150.391159
9580.109574	4953.176667	719.067383	26.008299
9580.109574	4953.176667	717.860352	91.985306
9580.109574	4953.176667	716.653320	86.853760
9580.109574	4953.176667	715.445313	3.781551
9580.109574	4953.176667	714.238281	-49.478275
9580.109574	4953.176667	713.030273	119.507652
9580.109574	4953.176667	711.821289	54.766476
9580.109574	4953.176667	710.613281	19.811068
9580.109574	4953.176667	709.404297	-54.067848
9580.109574	4953.176667	708.195313	16.288673
9580.109574	4953.176667	706.986328	93.467873
9580.109574	4953.176667	705.776367	51.613384
9580.109574	4953.176667	704.566406	-13.115560
9580.109574	4953.176667	703.356445	79.988876
9580.109574	4953.176667	702.146484	-41.917221
9580.109574	4953.176667	700.935547	96.850517
9580.109574	4953.176667	699.724609	54.965767
9580.109574	4953.176667	698.513672	58.789688
9580.109574	4953.176667	697.302734	39.748390
9580.109574	4953.176667	696.090820	-91.235275
9580.109574	4953.176667	694.878906	1.642291
9580.109574	4953.176667	693.666992	-6.005540
9580.109574	4953.176667	692.455078	13.729026
9580.109574	4953.176667	691.242188	-28.187262
9580.109574	4953.176667	690.029297	110.173523
9580.109574	4953.176667	688.816406	170.888855
9580.109574	4953.176667	687.602539	12.583908
9580.109574	4953.176667	686.389648	139.395798
9580.109574	4953.176667	685.175781	147.574280
9580.109574	4953.176667	683.960938	112.419678
9580.109574	4953.176667	682.747070	143.356323
9580.109574	4953.176667	681.532227	89.953461
9580.109574	4953.176667	680.317383	104.899139
9580.109574	4953.176667	679.102539	-7.727941
9580.109574	4953.176667	677.886719	32.244644
9580.109574	4953.176667	676.670898	147.313339
9580.109574	4953.176667	675.455078	128.018051
9580.109574	4953.176667	674.239258	92.782211
9580.109574	4953.176667	673.022461	66.642929
9580.109574	4953.176667	671.805664	174.708054
9580.109574	4953.176667	670.588867	116.684464
9580.109574	4953.176667	669.372070	54.118427
9580.109574	4953.176667	668.154297	148.419556
9580.109574	4953.176667	666.936523	101.744080
9580.109574	4953.176667	665.718750	86.881927
9580.109574	4953.176667	664.500977	-14.326215
9580.109574	4953.176667	663.282227	150.244553
9580.109574	4953.176667	662.063477	-5.477259
9580.109574	4953.176667	660.844727	140.818069
9580.109574	4953.176667	659.625000	-30.767096
9580.109574	4953.176667	658.405273	6.494191
9580.109574	4953.176667	657.185547	125.404053
9580.109574	4953.176667	655.965820	42.342010
9580.109574	4953.176667	654.745117	79.501472
9580.109574	4953.176667	653.525391	48.596836
9580.109574	4953.176667	652.303711	83.429443
9580.109574	4953.176667	651.083008	38.894283
9580.109574	4953.176667	649.861328	26.082052
9580.109574	4953.176667	648.640625	83.490257
9580.109574	4953.176667	647.417969	-53.955437
9580.109574	4953.176667	646.196289	21.519064
9580.109574	4953.176667	644.973633	105.996284
9580.109574	4953.176667	643.750977	-6.531491
9580.109574	4953.176667	642.528320	-12.659316
9580.109574	4953.176667	641.305664	49.077080
9580.109574	4953.176667	640.082031	101.715164
9580.109574	4953.176667	638.858398	7.288812
9580.109574	4953.176667	637.634766	75.698090
9580.109574	4953.176667	636.410156	-20.989542
9580.109574	4953.176667	635.185547	11.184158
9580.109574	4953.176667	633.960938	-71.934677
9580.109574	4953.176667	632.736328	16.677073
9580.109574	4953.176667	631.510742	143.629776
9580.109574	4953.176667	630.285156	-16.322567
9580.109574	4953.176667	629.059570	115.053612
9580.109574	4953.176667	627.833984	-38.098412
9580.109574	4953.176667	626.607422	16.439323
9580.109574	4953.176667	625.380859	91.239983
9580.109574	4953.176667	624.154297	87.022285
9580.109574	4953.176667	622.927734	105.339157
9580.109574	4953.176667	621.700195	24.397532
9580.109574	4953.176667	620.472656	-18.203705
9580.109574	4953.176667	619.245117	76.694595
9580.109574	4953.176667	618.016602	4.753912
9580.109574	4953.176667	616.788086	-1.836238
9580.109574	4953.176667	615.559570	74.904602
9580.109574	4953.176667	614.331055	34.470795
9580.109574	4953.176667	613.101563	-10.474033
9580.109574	4953.176667	611.872070	0.859573
9580.109574	4953.176667	610.642578	86.442070
9580.109574	4953.176667	609.413086	7.688260
9580.109574	4953.176667	608.182617	-86.806175
9580.109574	4953.176667	606.952148	16.663105
9580.109574	4953.176667	605.721680	50.348072
9580.109574	4953.176667	604.491211	-82.389931
9580.109574	4953.176667	603.259766	59.155319
9580.109574	4953.176667	602.028320	27.559834
9580.109574	4953.176667	600.796875	85.834633
9580.109574	4953.176667	599.564453	11.514258
9580.109574	4953.176667	598.332031	40.520008
9580.109574	4953.176667	597.099609	71.735466
9580.109574	4953.176667	595.867188	-25.056849
9580.109574	4953.176667	594.633789	-20.824890
9580.109574	4953.176667	593.400391	-104.140198
9580.109574	4953.176667	592.166992	90.771210
9580.109574	4953.176667	590.933594	5.177213
9580.109574	4953.176667	589.699219	27.245062
9580.109574	4953.176667	588.464844	71.702377
9580.109574	4953.176667	587.230469	75.765541
9580.109574	4953.176667	585.995117	1.357609
9580.109574	4953.176667	584.760742	86.056252
9580.109574	4953.176667	583.525391	49.716785
9580.109574	4953.176667	582.289063	-4.550888
9580.109574	4953.176667	581.053711	71.066360
9580.109574	4953.176667	579.817383	23.487963
9580.109574	4953.176667	578.581055	63.204655
9580.109574	4953.176667	577.343750	55.883553
9580.109574	4953.176667	576.107422	82.106232
9580.109574	4953.176667	574.870117	-23.688440
9580.109574	4953.176667	573.631836	47.221264
9580.109574	4953.176667	572.394531	10.750786
9580.109574	4953.176667	571.156250	162.057632
9580.109574	4953.176667	569.917969	20.483522
9580.109574	4953.176667	568.679688	-18.261232
9580.109574	4953.176667	567.440430	68.097313
9580.109574	4953.176667	566.202148	76.221359
9580.109574	4953.176667	564.961914	30.720524
9580.109574	4953.176667	563.722656	36.570908
9580.109574	4953.176667	562.482422	75.878548
9580.109574	4953.176667	561.243164	37.038944
9580.109574	4953.176667	560.001953	56.203510
9580.109574	4953.176667	558.761719	6.186462
9580.109574	4953.176667	557.520508	-12.607953
9580.109574	4953.176667	556.279297	100.144119
9580.109574	4953.176667	555.038086	-105.969528
9580.109574	4953.176667	553.795898	60.203815
9580.109574	4953.176667	552.554688	54.700996
9580.109574	4953.176667	551.311523	-75.587120
9580.109574	4953.176667	550.069336	-12.050347
9580.109574	4953.176667	548.826172	73.706352
9580.109574	4953.176667	547.583984	25.819561
9580.109574	4953.176667	546.339844	11.319373
9580.109574	4953.176667	545.096680	-7.643300
9580.109574	4953.176667	543.852539	60.157757
9580.109574	4953.176667	542.608398	-21.136284
9580.109574	4953.176667	541.364258	-62.380959
9580.109574	4953.176667	540.119141	-39.143921
9580.109574	4953.176667	538.875000	-22.603067
9580.109574	4953.176667	537.628906	65.033363
9580.109574	4953.176667	536.383789	-38.493317
9580.109574	4953.176667	535.137695	-57.570614
9580.109574	4953.176667	533.892578	-30.009615
9580.109574	4953.176667	532.645508	81.906342
9580.109574	4953.176667	531.399414	-72.676750
9580.109574	4953.176667	530.152344	-3.011722
9580.109574	4953.176667	528.905273	-17.729216
9580.109574	4953.176667	527.658203	9.700730
9580.109574	4953.176667	526.410156	32.662472
9580.109574	4953.176667	525.163086	-41.988407
9580.109574	4953.176667	523.914063	-32.366322
9580.109574	4953.176667	522.666016	57.048038
9580.109574	4953.176667	521.416992	-46.429260
9580.109574	4953.176667	520.167969	42.914238
9580.109574	4953.176667	518.918945	154.358246
9580.109574	4953.176667	517.669922	35.372402
9580.109574	4953.176667	516.419922	-17.143169
9580.109574	4953.176667	515.169922	3.413664
9580.109574	4953.176667	513.919922	1.809415
9580.109574	4953.176667	512.668945	9.040594
9580.109574	4953.176667	511.417969	-65.615837
9580.109574	4953.176667	510.166992	-38.494198
9580.109574	4953.176667	508.916016	-40.151730
9580.109574	4953.176667	507.664063	82.003967
9580.109574	4953.176667	506.412109	100.185913
9580.109574	4953.176667	505.160156	-5.431684
9580.109574	4953.176667	503.907227	-126.490128
9580.109574	4953.176667	502.655273	-26.573175
9580.109574	4953.176667	501.402344	-6.235783
9580.109574	4953.176667	500.148438	16.284578
9580.109574	4953.176667	498.895508	45.406860
9580.109574	4953.176667	497.641602	100.989616
9580.109574	4953.176667	496.387695	-101.682327
9580.109574	4953.176667	495.132813	53.169792
9580.109574	4953.176667	493.878906	-96.487907
9580.109574	4953.176667	492.624023	-27.748409
9580.109574	4953.176667	491.368164	-0.951288
9580.109574	4953.176667	490.113281	14.799778
9580.109574	4953.176667	488.857422	107.671982
9580.109574	4953.176667	487.601563	-105.817184
9580.109574	4953.176667	486.344727	39.886787
9580.109574	4953.176667	485.088867	-10.524096
9580.109574	4953.176667	483.832031	-96.165230
9580.109574	4953.176667	482.575195	89.031898
9580.109574	4953.176667	481.317383	-91.279671
9580.109574	4953.176667	480.059570	-14.033620
9580.109574	4953.176667	478.801758	36.760700
9580.109574	4953.176667	477.543945	118.317062
9580.109574	4953.176667	476.285156	94.250580
9580.109574	4953.176667	475.027344	100.967178
9580.109574	4953.176667	473.767578	32.914124
9580.109574	4953.176667	472.508789	83.567932
9580.109574	4953.176667	471.249023	55.072617
9580.109574	4953.176667	469.989258	24.377262
9580.109574	4953.176667	468.729492	57.379120
9580.109574	4953.176667	467.469727	-32.628338
9580.109574	4953.176667	466.208984	0.337207
9580.109574	4953.176667	464.948242	116.686218
9580.109574	4953.176667	463.686523	2.528876
9580.109574	4953.176667	462.425781	50.774544
9580.109574	4953.176667	461.164063	20.006603
9580.109574	4953.176667	459.901367	101.085503
9580.109574	4953.176667	458.639648	85.633751
9580.109574	4953.176667	457.376953	13.167924
9580.109574	4953.176667	456.114258	-11.065650
9580.109574	4953.176667	454.851563	39.196735
9580.109574	4953.176667	453.587891	181.430435
9580.109574	4953.176667	452.324219	152.732819
9580.109574	4953.176667	451.060547	56.139706
9580.109574	4953.176667	449.796875	14.302648
9580.109574	4953.176667	448.532227	108.173874
9580.109574	4953.176667	447.267578	-10.300933
9580.109574	4953.176667	446.002930	122.872932
9580.109574	4953.176667	444.737305	153.147797
9580.109574	4953.176667	443.471680	63.096260
9580.109574	4953.176667	442.206055	126.119408
9580.109574	4953.176667	440.940430	127.877335
9580.109574	4953.176667	439.673828	171.131500
9580.109574	4953.176667	438.407227	-60.992626
9580.109574	4953.176667	437.140625	63.059734
9580.109574	4953.176667	435.873047	40.682407
9580.109574	4953.176667	434.605469	96.898781
9580.109574	4953.176667	433.337891	187.990784
9580.109574	4953.176667	432.070313	93.471756
9580.109574	4953.176667	430.801758	90.613937
9580.109574	4953.176667	429.533203	98.631294
9580.109574	4953.176667	428.264648	78.249924
9580.109574	4953.176667	426.996094	1.135824
9580.109574	4953.176667	425.726563	74.462784
9580.109574	4953.176667	424.457031	62.698360
9580.109574	4953.176667	423.186523	109.739578
9580.109574	4953.176667	421.916992	130.572052
9580.109574	4953.176667	420.646484	81.633202
9580.109574	4953.176667	419.375977	91.476646
9580.109574	4953.176667	418.104492	149.171204
9580.109574	4953.176667	416.833008	69.631050
9580.109574	4953.176667	415.561523	-33.869648
9580.109574	4953.176667	414.290039	12.777693
9580.109574	4953.176667	413.017578	96.332634
9580.109574	4953.176667	411.746094	55.808758
9580.109574	4953.176667	410.472656	82.652977
9580.109574	4953.176667	409.200195	26.804537
9580.109574	4953.176667	407.926758	23.084217
9580.109574	4953.176667	406.653320	117.100861
9580.109574	4953.176667	405.379883	69.770691
9580.109574	4953.176667	404.105469	59.317337
9580.109574	4953.176667	402.831055	126.985306
9580.109574	4953.176667	401.556641	-29.113102
9580.109574	4953.176667	400.282227	114.376053
9580.109574	4953.176667	399.006836	49.346992
9580.109574	4953.176667	397.731445	75.405243
9580.109574	4953.176667	396.456055	55.804150
9580.109574	4953.176667	395.179688	33.948986
9580.109574	4953.176667	393.903320	64.058243
9580.109574	4953.176667	392.626953	-25.190413
9580.109574	4953.176667	391.350586	156.463852
9580.109574	4953.176667	390.073242	-6.656850
9580.109574	4953.176667	388.795898	49.030891
9580.109574	4953.176667	387.518555	-142.371048
9580.109574	4953.176667	386.240234	-8.934397
9580.109574	4953.176667	384.961914	81.021622
9580.109574	4953.176667	383.683594	40.926228
9580.109574	4953.176667	382.405273	-3.603472
9580.109574	4953.176667	381.125977	20.999210
9580.109574	4953.176667	379.846680	49.786812
9580.109574	4953.176667	378.567383	-64.330902
9580.109574	4953.176667	377.287109	29.057350
9580.109574	4953.176667	376.006836	33.616859
9580.109574	4953.176667	374.726563	83.418686
9580.109574	4953.176667	373.446289	113.595787
9580.109574	4953.176667	372.165039	20.439148
9580.109574	4953.176667	370.883789	-49.078098
9580.109574	4953.176667	369.602539	164.187881
9580.109574	4953.176667	368.320313	-5.002466
9580.109574	4953.176667	367.039063	95.554298
9580.109574	4953.176667	365.755859	3.782612
9580.109574	4953.176667	364.473633	-8.292091
9580.109574	4953.176667	363.190430	63.573120
9580.109574	4953.176667	361.907227	12.264460
9580.109574	4953.176667	360.624023	126.814987
9580.109574	4953.176667	359.340820	75.095764
9580.109574	4953.176667	358.056641	189.144028
9580.109574	4953.176667	356.772461	-20.332422
9580.109574	4953.176667	355.487305	19.967894
9580.109574	4953.176667	354.202148	23.393408
9580.109574	4953.176667	352.916992	-27.267843
9580.109574	4953.176667	351.631836	109.162407
9580.109574	4953.176667	350.346680	-81.929466
9580.109574	4953.176667	349.060547	56.070751
9580.109574	4953.176667	347.774414	-60.165638
9580.109574	4953.176667	346.487305	19.120340
9580.109574	4953.176667	345.200195	-56.773750
9580.109574	4953.176667	343.913086	-36.168930
9580.109574	4953.176667	342.625977	104.511803
9580.109574	4953.176667	341.338867	12.685120
9580.109574	4953.176667	340.050781	4.372617
9580.109574	4953.176667	338.762695	38.699947
9580.109574	4953.176667	337.473633	-131.395432
9580.109574	4953.176667	336.184570	97.666573
9580.109574	4953.176667	334.895508	21.392248
9580.109574	4953.176667	333.606445	-7.994042
9580.109574	4953.176667	332.317383	-76.375305
9580.109574	4953.176667	331.027344	-50.720520
9580.109574	4953.176667	329.736328	13.124101
9580.109574	4953.176667	328.446289	3.624939
9580.109574	4953.176667	327.155273	-12.736206
9580.109574	4953.176667	325.864258	-16.658730
9580.109574	4953.176667	324.573242	6.841231
9580.109574	4953.176667	323.281250	-17.278839
9580.109574	4953.176667	321.989258	-71.846489
9580.109574	4953.176667	320.697266	40.198601
9580.109574	4953.176667	319.405273	-4.616692
9580.109574	4953.176667	318.112305	-118.439812
9580.109574	4953.176667	316.819336	-35.803452
9580.109574	4953.176667	315.526367	-20.070629
9580.109574	4953.176667	314.232422	37.889053
9580.109574	4953.176667	312.938477	56.766903
9580.109574	4953.176667	311.644531	53.682518
9580.109574	4953.176667	310.349609	176.150467
9580.109574	4953.176667	309.054688	13.659319
9580.109574	4953.176667	307.759766	51.525631
9580.109574	4953.176667	306.464844	137.895737
9580.109574	4953.176667	305.168945	157.343750
9580.109574	4953.176667	303.873047	208.164566
9580.109574	4953.176667	302.577148	251.886459
9580.109574	4953.176667	301.281250	177.484222
9580.109574	4953.176667	299.984375	98.121017
