#X		#Y		#Wave		#Intensity
9464.424468	5016.833333	1999.946289	48.558308
9464.424468	5016.833333	1998.981445	101.835571
9464.424468	5016.833333	1998.017578	90.108391
9464.424468	5016.833333	1997.052734	19.005133
9464.424468	5016.833333	1996.088867	-91.615196
9464.424468	5016.833333	1995.124023	23.319155
9464.424468	5016.833333	1994.159180	49.138531
9464.424468	5016.833333	1993.193359	-98.306747
9464.424468	5016.833333	1992.228516	-47.544441
9464.424468	5016.833333	1991.262695	87.440285
9464.424468	5016.833333	1990.296875	-15.135668
9464.424468	5016.833333	1989.331055	30.869959
9464.424468	5016.833333	1988.365234	47.245472
9464.424468	5016.833333	1987.398438	43.896423
9464.424468	5016.833333	1986.432617	43.094437
9464.424468	5016.833333	1985.465820	-16.984505
9464.424468	5016.833333	1984.499023	172.710785
9464.424468	5016.833333	1983.532227	-3.410038
9464.424468	5016.833333	1982.565430	-23.717087
9464.424468	5016.833333	1981.597656	-53.842709
9464.424468	5016.833333	1980.629883	-12.261196
9464.424468	5016.833333	1979.662109	76.287376
9464.424468	5016.833333	1978.694336	-79.613800
9464.424468	5016.833333	1977.726563	43.583855
9464.424468	5016.833333	1976.758789	-97.341782
9464.424468	5016.833333	1975.790039	43.184525
9464.424468	5016.833333	1974.821289	45.520935
9464.424468	5016.833333	1973.852539	-85.322884
9464.424468	5016.833333	1972.883789	-28.611137
9464.424468	5016.833333	1971.915039	92.240883
9464.424468	5016.833333	1970.945313	18.292961
9464.424468	5016.833333	1969.975586	-55.590443
9464.424468	5016.833333	1969.005859	-43.142139
9464.424468	5016.833333	1968.036133	43.266178
9464.424468	5016.833333	1967.066406	38.510910
9464.424468	5016.833333	1966.096680	16.544655
9464.424468	5016.833333	1965.125977	-32.478142
9464.424468	5016.833333	1964.155273	88.459557
9464.424468	5016.833333	1963.184570	-7.282087
9464.424468	5016.833333	1962.213867	49.656654
9464.424468	5016.833333	1961.242188	72.141151
9464.424468	5016.833333	1960.271484	52.810001
9464.424468	5016.833333	1959.299805	26.125595
9464.424468	5016.833333	1958.328125	4.391367
9464.424468	5016.833333	1957.356445	44.167389
9464.424468	5016.833333	1956.384766	71.652428
9464.424468	5016.833333	1955.412109	35.224365
9464.424468	5016.833333	1954.439453	-25.753759
9464.424468	5016.833333	1953.467773	-42.458008
9464.424468	5016.833333	1952.495117	63.707779
9464.424468	5016.833333	1951.521484	-36.506668
9464.424468	5016.833333	1950.548828	25.432924
9464.424468	5016.833333	1949.575195	77.536201
9464.424468	5016.833333	1948.601563	90.346687
9464.424468	5016.833333	1947.627930	-85.854332
9464.424468	5016.833333	1946.654297	32.533306
9464.424468	5016.833333	1945.680664	47.822678
9464.424468	5016.833333	1944.706055	-88.998062
9464.424468	5016.833333	1943.732422	127.459145
9464.424468	5016.833333	1942.757813	-82.889259
9464.424468	5016.833333	1941.783203	50.125114
9464.424468	5016.833333	1940.807617	-27.741417
9464.424468	5016.833333	1939.833008	105.218361
9464.424468	5016.833333	1938.857422	-11.836075
9464.424468	5016.833333	1937.881836	64.718315
9464.424468	5016.833333	1936.906250	11.408662
9464.424468	5016.833333	1935.930664	34.045826
9464.424468	5016.833333	1934.955078	22.389654
9464.424468	5016.833333	1933.978516	22.976892
9464.424468	5016.833333	1933.001953	18.665293
9464.424468	5016.833333	1932.025391	38.826817
9464.424468	5016.833333	1931.048828	-14.432421
9464.424468	5016.833333	1930.072266	-57.890083
9464.424468	5016.833333	1929.094727	-67.092354
9464.424468	5016.833333	1928.118164	-22.491686
9464.424468	5016.833333	1927.140625	-36.598587
9464.424468	5016.833333	1926.163086	-33.593491
9464.424468	5016.833333	1925.184570	13.398845
9464.424468	5016.833333	1924.207031	38.373585
9464.424468	5016.833333	1923.228516	-24.630445
9464.424468	5016.833333	1922.250000	27.196640
9464.424468	5016.833333	1921.271484	-94.416573
9464.424468	5016.833333	1920.292969	45.297581
9464.424468	5016.833333	1919.314453	67.757660
9464.424468	5016.833333	1918.334961	97.521080
9464.424468	5016.833333	1917.355469	-33.816521
9464.424468	5016.833333	1916.375977	-60.189087
9464.424468	5016.833333	1915.396484	-37.768829
9464.424468	5016.833333	1914.416992	-20.246496
9464.424468	5016.833333	1913.436523	-119.805382
9464.424468	5016.833333	1912.457031	83.015625
9464.424468	5016.833333	1911.476563	7.829762
9464.424468	5016.833333	1910.496094	27.718655
9464.424468	5016.833333	1909.515625	32.965973
9464.424468	5016.833333	1908.534180	-37.334961
9464.424468	5016.833333	1907.552734	-46.721104
9464.424468	5016.833333	1906.572266	-41.502541
9464.424468	5016.833333	1905.590820	80.586220
9464.424468	5016.833333	1904.608398	71.140877
9464.424468	5016.833333	1903.626953	-25.946241
9464.424468	5016.833333	1902.644531	-59.734386
9464.424468	5016.833333	1901.663086	76.809952
9464.424468	5016.833333	1900.680664	-42.164516
9464.424468	5016.833333	1899.698242	26.186789
9464.424468	5016.833333	1898.714844	99.359970
9464.424468	5016.833333	1897.732422	60.642849
9464.424468	5016.833333	1896.749023	72.975555
9464.424468	5016.833333	1895.765625	141.191757
9464.424468	5016.833333	1894.782227	41.686848
9464.424468	5016.833333	1893.798828	-6.772942
9464.424468	5016.833333	1892.814453	-26.081436
9464.424468	5016.833333	1891.831055	-89.114906
9464.424468	5016.833333	1890.846680	-11.299565
9464.424468	5016.833333	1889.862305	64.042389
9464.424468	5016.833333	1888.877930	15.541486
9464.424468	5016.833333	1887.892578	30.141991
9464.424468	5016.833333	1886.908203	90.825722
9464.424468	5016.833333	1885.922852	122.356056
9464.424468	5016.833333	1884.937500	132.027344
9464.424468	5016.833333	1883.952148	-59.608967
9464.424468	5016.833333	1882.965820	54.319336
9464.424468	5016.833333	1881.980469	-83.930847
9464.424468	5016.833333	1880.994141	88.096588
9464.424468	5016.833333	1880.007813	95.255920
9464.424468	5016.833333	1879.021484	5.480713
9464.424468	5016.833333	1878.035156	0.506778
9464.424468	5016.833333	1877.047852	-45.657528
9464.424468	5016.833333	1876.061523	104.323044
9464.424468	5016.833333	1875.074219	87.174950
9464.424468	5016.833333	1874.086914	2.239393
9464.424468	5016.833333	1873.098633	33.483677
9464.424468	5016.833333	1872.111328	-17.568571
9464.424468	5016.833333	1871.123047	103.145653
9464.424468	5016.833333	1870.135742	-47.105576
9464.424468	5016.833333	1869.147461	-15.944115
9464.424468	5016.833333	1868.158203	-23.499645
9464.424468	5016.833333	1867.169922	92.221359
9464.424468	5016.833333	1866.180664	58.027130
9464.424468	5016.833333	1865.192383	-77.663452
9464.424468	5016.833333	1864.203125	76.606216
9464.424468	5016.833333	1863.213867	-34.917404
9464.424468	5016.833333	1862.223633	-1.508378
9464.424468	5016.833333	1861.234375	24.629034
9464.424468	5016.833333	1860.244141	7.280415
9464.424468	5016.833333	1859.253906	9.231844
9464.424468	5016.833333	1858.263672	-15.381637
9464.424468	5016.833333	1857.273438	-25.525324
9464.424468	5016.833333	1856.282227	-64.634003
9464.424468	5016.833333	1855.291992	31.328737
9464.424468	5016.833333	1854.300781	57.301628
9464.424468	5016.833333	1853.309570	-87.939156
9464.424468	5016.833333	1852.317383	58.541653
9464.424468	5016.833333	1851.326172	-11.963043
9464.424468	5016.833333	1850.333984	76.581306
9464.424468	5016.833333	1849.342773	-68.621689
9464.424468	5016.833333	1848.350586	-95.757027
9464.424468	5016.833333	1847.357422	45.684338
9464.424468	5016.833333	1846.365234	-99.483543
9464.424468	5016.833333	1845.372070	63.539108
9464.424468	5016.833333	1844.379883	67.623543
9464.424468	5016.833333	1843.386719	-22.168068
9464.424468	5016.833333	1842.393555	-51.790321
9464.424468	5016.833333	1841.399414	-23.684326
9464.424468	5016.833333	1840.406250	38.069382
9464.424468	5016.833333	1839.412109	58.900539
9464.424468	5016.833333	1838.417969	22.004261
9464.424468	5016.833333	1837.423828	57.220692
9464.424468	5016.833333	1836.429688	-20.551678
9464.424468	5016.833333	1835.434570	50.668320
9464.424468	5016.833333	1834.440430	13.736128
9464.424468	5016.833333	1833.445313	-66.437500
9464.424468	5016.833333	1832.450195	57.537220
9464.424468	5016.833333	1831.454102	114.214645
9464.424468	5016.833333	1830.458984	70.029198
9464.424468	5016.833333	1829.462891	64.245262
9464.424468	5016.833333	1828.466797	-80.739250
9464.424468	5016.833333	1827.470703	-115.316376
9464.424468	5016.833333	1826.474609	-49.144264
9464.424468	5016.833333	1825.478516	-6.996781
9464.424468	5016.833333	1824.481445	128.636368
9464.424468	5016.833333	1823.484375	-9.112932
9464.424468	5016.833333	1822.487305	140.820297
9464.424468	5016.833333	1821.490234	77.383858
9464.424468	5016.833333	1820.493164	54.689873
9464.424468	5016.833333	1819.495117	12.820840
9464.424468	5016.833333	1818.498047	-43.416904
9464.424468	5016.833333	1817.500000	60.799526
9464.424468	5016.833333	1816.500977	21.298023
9464.424468	5016.833333	1815.502930	53.615231
9464.424468	5016.833333	1814.504883	-17.013063
9464.424468	5016.833333	1813.505859	-39.773247
9464.424468	5016.833333	1812.506836	-5.119239
9464.424468	5016.833333	1811.507813	39.074738
9464.424468	5016.833333	1810.508789	140.635880
9464.424468	5016.833333	1809.508789	65.193169
9464.424468	5016.833333	1808.508789	-53.269272
9464.424468	5016.833333	1807.508789	79.276924
9464.424468	5016.833333	1806.508789	144.842545
9464.424468	5016.833333	1805.508789	38.333626
9464.424468	5016.833333	1804.508789	8.295394
9464.424468	5016.833333	1803.507813	107.227837
9464.424468	5016.833333	1802.506836	77.154709
9464.424468	5016.833333	1801.505859	80.504013
9464.424468	5016.833333	1800.504883	5.062427
9464.424468	5016.833333	1799.502930	48.964405
9464.424468	5016.833333	1798.501953	26.023893
9464.424468	5016.833333	1797.500000	155.763184
9464.424468	5016.833333	1796.498047	61.219273
9464.424468	5016.833333	1795.496094	152.714951
9464.424468	5016.833333	1794.493164	110.631691
9464.424468	5016.833333	1793.491211	39.945187
9464.424468	5016.833333	1792.488281	88.442719
9464.424468	5016.833333	1791.485352	-120.462425
9464.424468	5016.833333	1790.482422	-17.182316
9464.424468	5016.833333	1789.478516	-9.245229
9464.424468	5016.833333	1788.475586	15.349072
9464.424468	5016.833333	1787.471680	25.628952
9464.424468	5016.833333	1786.467773	-9.344779
9464.424468	5016.833333	1785.463867	-18.136301
9464.424468	5016.833333	1784.459961	-100.715309
9464.424468	5016.833333	1783.455078	-95.241753
9464.424468	5016.833333	1782.450195	29.164812
9464.424468	5016.833333	1781.445313	89.289078
9464.424468	5016.833333	1780.440430	16.203085
9464.424468	5016.833333	1779.435547	-44.981560
9464.424468	5016.833333	1778.429688	-34.845032
9464.424468	5016.833333	1777.424805	48.955208
9464.424468	5016.833333	1776.418945	-100.169937
9464.424468	5016.833333	1775.413086	104.746231
9464.424468	5016.833333	1774.406250	7.893505
9464.424468	5016.833333	1773.400391	13.188258
9464.424468	5016.833333	1772.393555	27.961205
9464.424468	5016.833333	1771.386719	168.537735
9464.424468	5016.833333	1770.379883	14.723058
9464.424468	5016.833333	1769.373047	57.921722
9464.424468	5016.833333	1768.365234	70.241417
9464.424468	5016.833333	1767.358398	16.123318
9464.424468	5016.833333	1766.350586	66.366013
9464.424468	5016.833333	1765.342773	12.237092
9464.424468	5016.833333	1764.334961	-34.772938
9464.424468	5016.833333	1763.326172	-39.115295
9464.424468	5016.833333	1762.318359	20.522413
9464.424468	5016.833333	1761.309570	-21.769855
9464.424468	5016.833333	1760.300781	68.607841
9464.424468	5016.833333	1759.291016	109.192017
9464.424468	5016.833333	1758.282227	40.814465
9464.424468	5016.833333	1757.272461	74.256935
9464.424468	5016.833333	1756.262695	-43.832497
9464.424468	5016.833333	1755.252930	39.287891
9464.424468	5016.833333	1754.243164	-19.619432
9464.424468	5016.833333	1753.233398	-2.809337
9464.424468	5016.833333	1752.222656	113.326149
9464.424468	5016.833333	1751.211914	165.547714
9464.424468	5016.833333	1750.201172	49.851223
9464.424468	5016.833333	1749.190430	50.026001
9464.424468	5016.833333	1748.179688	-20.723345
9464.424468	5016.833333	1747.167969	128.315338
9464.424468	5016.833333	1746.156250	85.898903
9464.424468	5016.833333	1745.144531	71.832283
9464.424468	5016.833333	1744.132813	8.157992
9464.424468	5016.833333	1743.121094	-8.278017
9464.424468	5016.833333	1742.108398	53.185818
9464.424468	5016.833333	1741.095703	79.204353
9464.424468	5016.833333	1740.083008	-78.885483
9464.424468	5016.833333	1739.070313	34.425365
9464.424468	5016.833333	1738.057617	-41.053520
9464.424468	5016.833333	1737.043945	41.511971
9464.424468	5016.833333	1736.030273	1.402244
9464.424468	5016.833333	1735.016602	-116.514030
9464.424468	5016.833333	1734.002930	20.195538
9464.424468	5016.833333	1732.989258	20.137659
9464.424468	5016.833333	1731.974609	22.418600
9464.424468	5016.833333	1730.959961	-126.099876
9464.424468	5016.833333	1729.945313	-41.375511
9464.424468	5016.833333	1728.930664	-27.350908
9464.424468	5016.833333	1727.916016	-3.927176
9464.424468	5016.833333	1726.900391	38.303658
9464.424468	5016.833333	1725.885742	-18.349777
9464.424468	5016.833333	1724.870117	9.719436
9464.424468	5016.833333	1723.853516	21.290094
9464.424468	5016.833333	1722.837891	-82.421875
9464.424468	5016.833333	1721.822266	-28.526827
9464.424468	5016.833333	1720.805664	70.008369
9464.424468	5016.833333	1719.789063	-21.944115
9464.424468	5016.833333	1718.772461	-19.850571
9464.424468	5016.833333	1717.754883	59.779148
9464.424468	5016.833333	1716.738281	66.527321
9464.424468	5016.833333	1715.720703	-91.192688
9464.424468	5016.833333	1714.703125	-23.380735
9464.424468	5016.833333	1713.685547	-40.149586
9464.424468	5016.833333	1712.667969	-14.663267
9464.424468	5016.833333	1711.649414	-36.153866
9464.424468	5016.833333	1710.630859	-83.466888
9464.424468	5016.833333	1709.612305	-11.101331
9464.424468	5016.833333	1708.593750	-114.735374
9464.424468	5016.833333	1707.575195	-30.690756
9464.424468	5016.833333	1706.555664	-70.992104
9464.424468	5016.833333	1705.536133	29.394054
9464.424468	5016.833333	1704.516602	64.086891
9464.424468	5016.833333	1703.497070	-6.720197
9464.424468	5016.833333	1702.477539	18.565613
9464.424468	5016.833333	1701.457031	-3.034941
9464.424468	5016.833333	1700.437500	-38.691639
9464.424468	5016.833333	1699.416992	75.539291
9464.424468	5016.833333	1698.395508	-126.408058
9464.424468	5016.833333	1697.375000	-28.618914
9464.424468	5016.833333	1696.354492	38.690132
9464.424468	5016.833333	1695.333008	-29.779078
9464.424468	5016.833333	1694.311523	-65.478302
9464.424468	5016.833333	1693.290039	83.632553
9464.424468	5016.833333	1692.267578	12.811440
9464.424468	5016.833333	1691.246094	58.931274
9464.424468	5016.833333	1690.223633	-16.560448
9464.424468	5016.833333	1689.201172	-59.310249
9464.424468	5016.833333	1688.178711	14.799121
9464.424468	5016.833333	1687.155273	28.109070
9464.424468	5016.833333	1686.132813	67.103943
9464.424468	5016.833333	1685.109375	115.409859
9464.424468	5016.833333	1684.085938	-60.505875
9464.424468	5016.833333	1683.062500	-58.917122
9464.424468	5016.833333	1682.039063	45.372967
9464.424468	5016.833333	1681.014648	-16.105774
9464.424468	5016.833333	1679.990234	20.434326
9464.424468	5016.833333	1678.965820	150.270691
9464.424468	5016.833333	1677.941406	11.793514
9464.424468	5016.833333	1676.916992	73.923790
9464.424468	5016.833333	1675.891602	7.768938
9464.424468	5016.833333	1674.866211	-132.973648
9464.424468	5016.833333	1673.840820	1.363125
9464.424468	5016.833333	1672.815430	12.126488
9464.424468	5016.833333	1671.790039	41.512821
9464.424468	5016.833333	1670.763672	26.611450
9464.424468	5016.833333	1669.737305	32.665726
9464.424468	5016.833333	1668.710938	-5.537639
9464.424468	5016.833333	1667.684570	70.340805
9464.424468	5016.833333	1666.658203	-56.329720
9464.424468	5016.833333	1665.630859	100.954155
9464.424468	5016.833333	1664.603516	211.630646
9464.424468	5016.833333	1663.576172	187.325836
9464.424468	5016.833333	1662.548828	146.738556
9464.424468	5016.833333	1661.520508	82.896538
9464.424468	5016.833333	1660.493164	49.297348
9464.424468	5016.833333	1659.464844	190.035904
9464.424468	5016.833333	1658.436523	142.458221
9464.424468	5016.833333	1657.408203	55.386658
9464.424468	5016.833333	1656.378906	235.499817
9464.424468	5016.833333	1655.350586	46.222092
9464.424468	5016.833333	1654.321289	149.611237
9464.424468	5016.833333	1653.291992	257.593384
9464.424468	5016.833333	1652.261719	3.382239
9464.424468	5016.833333	1651.232422	187.921829
9464.424468	5016.833333	1650.202148	177.453903
9464.424468	5016.833333	1649.171875	125.220093
9464.424468	5016.833333	1648.141602	121.707809
9464.424468	5016.833333	1647.111328	271.250671
9464.424468	5016.833333	1646.080078	181.895889
9464.424468	5016.833333	1645.049805	254.848785
9464.424468	5016.833333	1644.018555	288.356415
9464.424468	5016.833333	1642.987305	340.380676
9464.424468	5016.833333	1641.955078	218.604446
9464.424468	5016.833333	1640.923828	268.287842
9464.424468	5016.833333	1639.891602	285.514771
9464.424468	5016.833333	1638.859375	170.740326
9464.424468	5016.833333	1637.827148	363.910461
9464.424468	5016.833333	1636.794922	302.385651
9464.424468	5016.833333	1635.761719	307.983551
9464.424468	5016.833333	1634.729492	348.282227
9464.424468	5016.833333	1633.696289	291.394318
9464.424468	5016.833333	1632.662109	266.895691
9464.424468	5016.833333	1631.628906	300.214020
9464.424468	5016.833333	1630.594727	326.571838
9464.424468	5016.833333	1629.561523	401.458374
9464.424468	5016.833333	1628.527344	342.262634
9464.424468	5016.833333	1627.493164	243.802567
9464.424468	5016.833333	1626.458008	341.732727
9464.424468	5016.833333	1625.423828	368.022339
9464.424468	5016.833333	1624.388672	278.827026
9464.424468	5016.833333	1623.353516	187.351456
9464.424468	5016.833333	1622.318359	497.561157
9464.424468	5016.833333	1621.282227	279.126740
9464.424468	5016.833333	1620.247070	335.364716
9464.424468	5016.833333	1619.210938	391.570801
9464.424468	5016.833333	1618.174805	320.888123
9464.424468	5016.833333	1617.137695	367.835510
9464.424468	5016.833333	1616.101563	398.624481
9464.424468	5016.833333	1615.064453	392.508240
9464.424468	5016.833333	1614.027344	390.999664
9464.424468	5016.833333	1612.990234	387.182861
9464.424468	5016.833333	1611.953125	422.528778
9464.424468	5016.833333	1610.916016	614.490723
9464.424468	5016.833333	1609.877930	354.984436
9464.424468	5016.833333	1608.839844	353.459839
9464.424468	5016.833333	1607.801758	432.505005
9464.424468	5016.833333	1606.763672	518.420898
9464.424468	5016.833333	1605.724609	408.695099
9464.424468	5016.833333	1604.685547	588.901978
9464.424468	5016.833333	1603.646484	532.106140
9464.424468	5016.833333	1602.607422	551.224426
9464.424468	5016.833333	1601.568359	584.130066
9464.424468	5016.833333	1600.528320	442.295868
9464.424468	5016.833333	1599.489258	449.922760
9464.424468	5016.833333	1598.449219	558.654053
9464.424468	5016.833333	1597.408203	467.446075
9464.424468	5016.833333	1596.368164	461.271606
9464.424468	5016.833333	1595.327148	558.445374
9464.424468	5016.833333	1594.287109	492.551514
9464.424468	5016.833333	1593.246094	440.453156
9464.424468	5016.833333	1592.204102	351.644684
9464.424468	5016.833333	1591.163086	446.467987
9464.424468	5016.833333	1590.121094	552.721802
9464.424468	5016.833333	1589.079102	500.648438
9464.424468	5016.833333	1588.037109	501.347778
9464.424468	5016.833333	1586.995117	364.461151
9464.424468	5016.833333	1585.953125	454.603088
9464.424468	5016.833333	1584.910156	363.621552
9464.424468	5016.833333	1583.867188	621.025940
9464.424468	5016.833333	1582.824219	475.059265
9464.424468	5016.833333	1581.781250	558.238770
9464.424468	5016.833333	1580.737305	471.892487
9464.424468	5016.833333	1579.693359	394.742737
9464.424468	5016.833333	1578.649414	443.550018
9464.424468	5016.833333	1577.605469	448.848785
9464.424468	5016.833333	1576.561523	515.942505
9464.424468	5016.833333	1575.516602	427.412079
9464.424468	5016.833333	1574.472656	579.136963
9464.424468	5016.833333	1573.427734	447.179169
9464.424468	5016.833333	1572.381836	596.553101
9464.424468	5016.833333	1571.336914	755.023499
9464.424468	5016.833333	1570.291016	531.680664
9464.424468	5016.833333	1569.246094	552.983032
9464.424468	5016.833333	1568.200195	576.562622
9464.424468	5016.833333	1567.153320	625.264893
9464.424468	5016.833333	1566.107422	562.035522
9464.424468	5016.833333	1565.060547	546.790710
9464.424468	5016.833333	1564.013672	574.939697
9464.424468	5016.833333	1562.966797	603.085388
9464.424468	5016.833333	1561.919922	715.673706
9464.424468	5016.833333	1560.872070	718.689148
9464.424468	5016.833333	1559.825195	587.109985
9464.424468	5016.833333	1558.777344	567.355469
9464.424468	5016.833333	1557.729492	643.400757
9464.424468	5016.833333	1556.680664	628.215515
9464.424468	5016.833333	1555.632813	578.854797
9464.424468	5016.833333	1554.583984	552.310059
9464.424468	5016.833333	1553.535156	448.307465
9464.424468	5016.833333	1552.486328	383.087006
9464.424468	5016.833333	1551.436523	520.627747
9464.424468	5016.833333	1550.387695	555.645264
9464.424468	5016.833333	1549.337891	458.591064
9464.424468	5016.833333	1548.288086	536.878296
9464.424468	5016.833333	1547.238281	555.967590
9464.424468	5016.833333	1546.187500	422.589661
9464.424468	5016.833333	1545.136719	521.344055
9464.424468	5016.833333	1544.086914	394.878021
9464.424468	5016.833333	1543.035156	429.939270
9464.424468	5016.833333	1541.984375	574.147888
9464.424468	5016.833333	1540.933594	331.837128
9464.424468	5016.833333	1539.881836	471.484283
9464.424468	5016.833333	1538.830078	333.846039
9464.424468	5016.833333	1537.778320	455.288879
9464.424468	5016.833333	1536.725586	444.941101
9464.424468	5016.833333	1535.673828	432.345398
9464.424468	5016.833333	1534.621094	506.050934
9464.424468	5016.833333	1533.568359	373.150299
9464.424468	5016.833333	1532.515625	553.549988
9464.424468	5016.833333	1531.461914	559.149841
9464.424468	5016.833333	1530.409180	548.885071
9464.424468	5016.833333	1529.355469	525.026062
9464.424468	5016.833333	1528.301758	548.820740
9464.424468	5016.833333	1527.247070	409.354370
9464.424468	5016.833333	1526.193359	512.545959
9464.424468	5016.833333	1525.138672	606.643188
9464.424468	5016.833333	1524.083984	682.591492
9464.424468	5016.833333	1523.029297	461.711975
9464.424468	5016.833333	1521.974609	539.960510
9464.424468	5016.833333	1520.918945	532.127625
9464.424468	5016.833333	1519.863281	562.812134
9464.424468	5016.833333	1518.807617	462.193420
9464.424468	5016.833333	1517.751953	415.958344
9464.424468	5016.833333	1516.696289	428.601807
9464.424468	5016.833333	1515.639648	445.782227
9464.424468	5016.833333	1514.583008	657.523926
9464.424468	5016.833333	1513.526367	328.647491
9464.424468	5016.833333	1512.469727	418.260681
9464.424468	5016.833333	1511.412109	311.163055
9464.424468	5016.833333	1510.355469	276.466309
9464.424468	5016.833333	1509.297852	433.896790
9464.424468	5016.833333	1508.240234	315.628601
9464.424468	5016.833333	1507.181641	321.673828
9464.424468	5016.833333	1506.124023	223.847610
9464.424468	5016.833333	1505.065430	263.827606
9464.424468	5016.833333	1504.006836	172.867966
9464.424468	5016.833333	1502.948242	138.399628
9464.424468	5016.833333	1501.888672	110.736526
9464.424468	5016.833333	1500.830078	139.521667
9464.424468	5016.833333	1499.770508	312.694702
9464.424468	5016.833333	1498.710938	267.044312
9464.424468	5016.833333	1497.650391	165.057861
9464.424468	5016.833333	1496.590820	153.324448
9464.424468	5016.833333	1495.530273	69.486053
9464.424468	5016.833333	1494.469727	152.479691
9464.424468	5016.833333	1493.409180	61.968220
9464.424468	5016.833333	1492.348633	5.311309
9464.424468	5016.833333	1491.287109	61.317291
9464.424468	5016.833333	1490.225586	11.490443
9464.424468	5016.833333	1489.164063	58.522442
9464.424468	5016.833333	1488.102539	119.070305
9464.424468	5016.833333	1487.041016	-0.420883
9464.424468	5016.833333	1485.978516	96.169853
9464.424468	5016.833333	1484.916016	242.247543
9464.424468	5016.833333	1483.853516	17.170822
9464.424468	5016.833333	1482.791016	-106.582481
9464.424468	5016.833333	1481.727539	129.462708
9464.424468	5016.833333	1480.664063	-7.686654
9464.424468	5016.833333	1479.600586	-48.123573
9464.424468	5016.833333	1478.537109	-137.927872
9464.424468	5016.833333	1477.473633	-27.732090
9464.424468	5016.833333	1476.409180	-77.015602
9464.424468	5016.833333	1475.344727	-4.976684
9464.424468	5016.833333	1474.280273	46.844875
9464.424468	5016.833333	1473.215820	58.254013
9464.424468	5016.833333	1472.151367	67.393074
9464.424468	5016.833333	1471.085938	18.394665
9464.424468	5016.833333	1470.020508	7.408477
9464.424468	5016.833333	1468.955078	88.451851
9464.424468	5016.833333	1467.888672	-85.873772
9464.424468	5016.833333	1466.823242	24.383291
9464.424468	5016.833333	1465.756836	-11.211977
9464.424468	5016.833333	1464.690430	34.145714
9464.424468	5016.833333	1463.624023	-34.510201
9464.424468	5016.833333	1462.556641	-60.886219
9464.424468	5016.833333	1461.490234	67.089119
9464.424468	5016.833333	1460.422852	-3.578458
9464.424468	5016.833333	1459.355469	68.487457
9464.424468	5016.833333	1458.287109	-40.214928
9464.424468	5016.833333	1457.219727	2.977376
9464.424468	5016.833333	1456.151367	83.973190
9464.424468	5016.833333	1455.083008	-40.027985
9464.424468	5016.833333	1454.014648	54.142044
9464.424468	5016.833333	1452.945313	92.914757
9464.424468	5016.833333	1451.876953	116.287254
9464.424468	5016.833333	1450.807617	57.509510
9464.424468	5016.833333	1449.738281	-15.225496
9464.424468	5016.833333	1448.668945	111.436928
9464.424468	5016.833333	1447.598633	100.429420
9464.424468	5016.833333	1446.528320	64.938484
9464.424468	5016.833333	1445.458008	-95.436562
9464.424468	5016.833333	1444.387695	12.420204
9464.424468	5016.833333	1443.317383	64.894234
9464.424468	5016.833333	1442.246094	23.382198
9464.424468	5016.833333	1441.174805	77.693939
9464.424468	5016.833333	1440.103516	62.904358
9464.424468	5016.833333	1439.032227	61.595665
9464.424468	5016.833333	1437.960938	5.840315
9464.424468	5016.833333	1436.888672	26.561031
9464.424468	5016.833333	1435.816406	118.327713
9464.424468	5016.833333	1434.744141	42.184479
9464.424468	5016.833333	1433.670898	193.240204
9464.424468	5016.833333	1432.598633	27.895369
9464.424468	5016.833333	1431.525391	-52.514740
9464.424468	5016.833333	1430.452148	3.908664
9464.424468	5016.833333	1429.378906	94.679909
9464.424468	5016.833333	1428.304688	-26.038250
9464.424468	5016.833333	1427.231445	68.433578
9464.424468	5016.833333	1426.157227	62.375870
9464.424468	5016.833333	1425.083008	-156.254211
9464.424468	5016.833333	1424.007813	-32.612579
9464.424468	5016.833333	1422.933594	-185.737976
9464.424468	5016.833333	1421.858398	-125.417465
9464.424468	5016.833333	1420.783203	-50.876675
9464.424468	5016.833333	1419.708008	-94.215569
9464.424468	5016.833333	1418.631836	7.256795
9464.424468	5016.833333	1417.555664	45.170620
9464.424468	5016.833333	1416.479492	-54.049152
9464.424468	5016.833333	1415.403320	-37.408264
9464.424468	5016.833333	1414.327148	-42.003273
9464.424468	5016.833333	1413.250000	65.208496
9464.424468	5016.833333	1412.173828	6.541010
9464.424468	5016.833333	1411.096680	-60.415581
9464.424468	5016.833333	1410.018555	53.776951
9464.424468	5016.833333	1408.941406	-33.747879
9464.424468	5016.833333	1407.863281	30.733631
9464.424468	5016.833333	1406.785156	-102.940247
9464.424468	5016.833333	1405.707031	32.164665
9464.424468	5016.833333	1404.628906	97.928825
9464.424468	5016.833333	1403.549805	34.295162
9464.424468	5016.833333	1402.470703	-125.798134
9464.424468	5016.833333	1401.391602	-30.983791
9464.424468	5016.833333	1400.312500	-65.748558
9464.424468	5016.833333	1399.233398	89.110283
9464.424468	5016.833333	1398.153320	154.960663
9464.424468	5016.833333	1397.073242	40.304501
9464.424468	5016.833333	1395.993164	64.908463
9464.424468	5016.833333	1394.913086	10.106589
9464.424468	5016.833333	1393.832031	84.745491
9464.424468	5016.833333	1392.750977	-68.808846
9464.424468	5016.833333	1391.669922	34.575474
9464.424468	5016.833333	1390.588867	69.840385
9464.424468	5016.833333	1389.506836	9.279920
9464.424468	5016.833333	1388.425781	75.595734
9464.424468	5016.833333	1387.343750	53.355377
9464.424468	5016.833333	1386.261719	56.654537
9464.424468	5016.833333	1385.178711	85.469040
9464.424468	5016.833333	1384.096680	107.374222
9464.424468	5016.833333	1383.013672	138.757278
9464.424468	5016.833333	1381.930664	-8.869274
9464.424468	5016.833333	1380.846680	-57.184254
9464.424468	5016.833333	1379.763672	180.554794
9464.424468	5016.833333	1378.679688	92.015198
9464.424468	5016.833333	1377.595703	-3.313681
9464.424468	5016.833333	1376.511719	117.707314
9464.424468	5016.833333	1375.427734	-31.083933
9464.424468	5016.833333	1374.342773	-79.426041
9464.424468	5016.833333	1373.257813	90.913330
9464.424468	5016.833333	1372.172852	-35.555580
9464.424468	5016.833333	1371.087891	25.995331
9464.424468	5016.833333	1370.001953	67.286095
9464.424468	5016.833333	1368.916992	155.649567
9464.424468	5016.833333	1367.831055	83.382324
9464.424468	5016.833333	1366.744141	35.968334
9464.424468	5016.833333	1365.658203	131.047806
9464.424468	5016.833333	1364.571289	112.256905
9464.424468	5016.833333	1363.484375	-25.402420
9464.424468	5016.833333	1362.397461	178.973083
9464.424468	5016.833333	1361.310547	80.616783
9464.424468	5016.833333	1360.222656	23.769066
9464.424468	5016.833333	1359.135742	49.296650
9464.424468	5016.833333	1358.047852	-20.075420
9464.424468	5016.833333	1356.958984	48.236412
9464.424468	5016.833333	1355.871094	29.366653
9464.424468	5016.833333	1354.782227	61.483467
9464.424468	5016.833333	1353.693359	-10.003429
9464.424468	5016.833333	1352.604492	14.468868
9464.424468	5016.833333	1351.515625	0.914433
9464.424468	5016.833333	1350.425781	76.469528
9464.424468	5016.833333	1349.335938	139.427963
9464.424468	5016.833333	1348.246094	-10.928624
9464.424468	5016.833333	1347.156250	-26.379147
9464.424468	5016.833333	1346.066406	-62.936405
9464.424468	5016.833333	1344.975586	-9.632399
9464.424468	5016.833333	1343.884766	76.810822
9464.424468	5016.833333	1342.793945	57.462479
9464.424468	5016.833333	1341.702148	63.838039
9464.424468	5016.833333	1340.611328	180.810532
9464.424468	5016.833333	1339.519531	67.981361
9464.424468	5016.833333	1338.427734	95.908539
9464.424468	5016.833333	1337.334961	-32.708229
9464.424468	5016.833333	1336.243164	-7.359071
9464.424468	5016.833333	1335.150391	8.827284
9464.424468	5016.833333	1334.057617	10.881307
9464.424468	5016.833333	1332.964844	84.423943
9464.424468	5016.833333	1331.871094	103.388481
9464.424468	5016.833333	1330.778320	59.088562
9464.424468	5016.833333	1329.684570	89.582870
9464.424468	5016.833333	1328.590820	-60.652557
9464.424468	5016.833333	1327.496094	14.564750
9464.424468	5016.833333	1326.402344	84.993896
9464.424468	5016.833333	1325.307617	118.226578
9464.424468	5016.833333	1324.212891	53.108780
9464.424468	5016.833333	1323.117188	0.110715
9464.424468	5016.833333	1322.022461	89.047791
9464.424468	5016.833333	1320.926758	138.091110
9464.424468	5016.833333	1319.831055	-23.731873
9464.424468	5016.833333	1318.735352	17.907257
9464.424468	5016.833333	1317.638672	-22.060673
9464.424468	5016.833333	1316.542969	-5.609229
9464.424468	5016.833333	1315.446289	42.471142
9464.424468	5016.833333	1314.349609	-3.399733
9464.424468	5016.833333	1313.251953	-57.253292
9464.424468	5016.833333	1312.155273	101.519096
9464.424468	5016.833333	1311.057617	-60.878090
9464.424468	5016.833333	1309.959961	-122.967583
9464.424468	5016.833333	1308.862305	11.685444
9464.424468	5016.833333	1307.763672	-6.340896
9464.424468	5016.833333	1306.665039	45.272831
9464.424468	5016.833333	1305.566406	-1.168442
9464.424468	5016.833333	1304.467773	17.209549
9464.424468	5016.833333	1303.369141	80.225891
9464.424468	5016.833333	1302.269531	67.719109
9464.424468	5016.833333	1301.169922	98.379051
9464.424468	5016.833333	1300.070313	38.009651
9464.424468	5016.833333	1298.970703	55.123341
9464.424468	5016.833333	1297.870117	117.678406
9464.424468	5016.833333	1296.769531	20.316679
9464.424468	5016.833333	1295.668945	86.212692
9464.424468	5016.833333	1294.568359	106.378860
9464.424468	5016.833333	1293.466797	65.815590
9464.424468	5016.833333	1292.366211	109.392365
9464.424468	5016.833333	1291.264648	161.121521
9464.424468	5016.833333	1290.162109	174.378830
9464.424468	5016.833333	1289.060547	140.012115
9464.424468	5016.833333	1287.958008	92.753601
9464.424468	5016.833333	1286.855469	82.987473
9464.424468	5016.833333	1285.752930	71.981491
9464.424468	5016.833333	1284.650391	224.268066
9464.424468	5016.833333	1283.546875	64.786346
9464.424468	5016.833333	1282.444336	219.173264
9464.424468	5016.833333	1281.339844	176.718628
9464.424468	5016.833333	1280.236328	228.310684
9464.424468	5016.833333	1279.132813	191.391083
9464.424468	5016.833333	1278.028320	156.110489
9464.424468	5016.833333	1276.923828	274.614014
9464.424468	5016.833333	1275.819336	210.392059
9464.424468	5016.833333	1274.713867	154.077332
9464.424468	5016.833333	1273.608398	158.046753
9464.424468	5016.833333	1272.503906	236.682999
9464.424468	5016.833333	1271.397461	131.050598
9464.424468	5016.833333	1270.291992	20.981779
9464.424468	5016.833333	1269.185547	110.836281
9464.424468	5016.833333	1268.080078	111.758026
9464.424468	5016.833333	1266.972656	9.816262
9464.424468	5016.833333	1265.866211	-56.044315
9464.424468	5016.833333	1264.759766	63.004478
9464.424468	5016.833333	1263.652344	57.206951
9464.424468	5016.833333	1262.544922	-31.339588
9464.424468	5016.833333	1261.436523	-5.026038
9464.424468	5016.833333	1260.329102	-14.602910
9464.424468	5016.833333	1259.220703	1.582946
9464.424468	5016.833333	1258.112305	-68.723808
9464.424468	5016.833333	1257.003906	-28.874624
9464.424468	5016.833333	1255.895508	-90.402588
9464.424468	5016.833333	1254.786133	-60.075413
9464.424468	5016.833333	1253.676758	-125.576782
9464.424468	5016.833333	1252.567383	-39.346519
9464.424468	5016.833333	1251.458008	-96.459724
9464.424468	5016.833333	1250.347656	-8.081483
9464.424468	5016.833333	1249.237305	-65.737381
9464.424468	5016.833333	1248.126953	-103.398499
9464.424468	5016.833333	1247.016602	-61.741501
9464.424468	5016.833333	1245.905273	-11.492930
9464.424468	5016.833333	1244.793945	15.675058
9464.424468	5016.833333	1243.682617	115.752304
9464.424468	5016.833333	1242.571289	91.911255
9464.424468	5016.833333	1241.459961	72.712067
9464.424468	5016.833333	1240.347656	105.191956
9464.424468	5016.833333	1239.235352	229.785095
9464.424468	5016.833333	1238.123047	136.254272
9464.424468	5016.833333	1237.009766	155.650925
9464.424468	5016.833333	1235.897461	136.162460
9464.424468	5016.833333	1234.784180	223.044052
9464.424468	5016.833333	1233.670898	139.846451
9464.424468	5016.833333	1232.556641	141.680252
9464.424468	5016.833333	1231.443359	260.873840
9464.424468	5016.833333	1230.329102	204.692780
9464.424468	5016.833333	1229.214844	232.571991
9464.424468	5016.833333	1228.099609	213.208588
9464.424468	5016.833333	1226.985352	177.469864
9464.424468	5016.833333	1225.870117	131.323135
9464.424468	5016.833333	1224.754883	105.353714
9464.424468	5016.833333	1223.639648	166.185196
9464.424468	5016.833333	1222.523438	201.886276
9464.424468	5016.833333	1221.408203	272.180115
9464.424468	5016.833333	1220.291992	258.092224
9464.424468	5016.833333	1219.174805	271.778992
9464.424468	5016.833333	1218.058594	224.810638
9464.424468	5016.833333	1216.941406	162.598495
9464.424468	5016.833333	1215.824219	211.866440
9464.424468	5016.833333	1214.707031	92.763451
9464.424468	5016.833333	1213.589844	91.525421
9464.424468	5016.833333	1212.471680	46.985809
9464.424468	5016.833333	1211.353516	102.847420
9464.424468	5016.833333	1210.235352	48.576130
9464.424468	5016.833333	1209.117188	180.051392
9464.424468	5016.833333	1207.998047	109.715561
9464.424468	5016.833333	1206.878906	128.017029
9464.424468	5016.833333	1205.759766	90.958778
9464.424468	5016.833333	1204.640625	74.011551
9464.424468	5016.833333	1203.520508	166.792084
9464.424468	5016.833333	1202.401367	76.302422
9464.424468	5016.833333	1201.281250	77.021591
9464.424468	5016.833333	1200.160156	142.072205
9464.424468	5016.833333	1199.040039	107.211678
9464.424468	5016.833333	1197.918945	107.569427
9464.424468	5016.833333	1196.797852	167.498535
9464.424468	5016.833333	1195.676758	165.970261
9464.424468	5016.833333	1194.555664	80.888939
9464.424468	5016.833333	1193.433594	34.374271
9464.424468	5016.833333	1192.311523	14.074244
9464.424468	5016.833333	1191.189453	45.947399
9464.424468	5016.833333	1190.066406	81.451828
9464.424468	5016.833333	1188.944336	38.762325
9464.424468	5016.833333	1187.821289	-35.681538
9464.424468	5016.833333	1186.698242	-19.161484
9464.424468	5016.833333	1185.574219	-120.852226
9464.424468	5016.833333	1184.451172	-33.249886
9464.424468	5016.833333	1183.327148	88.063156
9464.424468	5016.833333	1182.203125	-124.569351
9464.424468	5016.833333	1181.078125	-78.130211
9464.424468	5016.833333	1179.954102	-62.036938
9464.424468	5016.833333	1178.829102	65.928375
9464.424468	5016.833333	1177.704102	-58.832401
9464.424468	5016.833333	1176.579102	-98.397820
9464.424468	5016.833333	1175.453125	-13.943094
9464.424468	5016.833333	1174.327148	-23.024349
9464.424468	5016.833333	1173.201172	-21.251881
9464.424468	5016.833333	1172.075195	15.273296
9464.424468	5016.833333	1170.949219	-26.725126
9464.424468	5016.833333	1169.822266	-4.054687
9464.424468	5016.833333	1168.695313	39.513165
9464.424468	5016.833333	1167.568359	-79.189468
9464.424468	5016.833333	1166.440430	-69.205017
9464.424468	5016.833333	1165.313477	-0.827356
9464.424468	5016.833333	1164.185547	-45.639919
9464.424468	5016.833333	1163.057617	0.529717
9464.424468	5016.833333	1161.928711	3.467248
9464.424468	5016.833333	1160.800781	85.300713
9464.424468	5016.833333	1159.671875	4.423684
9464.424468	5016.833333	1158.541992	142.821564
9464.424468	5016.833333	1157.413086	94.022339
9464.424468	5016.833333	1156.283203	100.743767
9464.424468	5016.833333	1155.154297	160.460159
9464.424468	5016.833333	1154.023438	67.581543
9464.424468	5016.833333	1152.893555	122.555466
9464.424468	5016.833333	1151.763672	40.177357
9464.424468	5016.833333	1150.632813	112.705986
9464.424468	5016.833333	1149.501953	130.891037
9464.424468	5016.833333	1148.370117	153.992706
9464.424468	5016.833333	1147.239258	29.617319
9464.424468	5016.833333	1146.107422	76.458527
9464.424468	5016.833333	1144.975586	71.366653
9464.424468	5016.833333	1143.843750	69.804192
9464.424468	5016.833333	1142.710938	105.034241
9464.424468	5016.833333	1141.578125	92.083923
9464.424468	5016.833333	1140.445313	-29.580359
9464.424468	5016.833333	1139.312500	145.265137
9464.424468	5016.833333	1138.178711	-51.636562
9464.424468	5016.833333	1137.045898	-50.087608
9464.424468	5016.833333	1135.912109	-26.997570
9464.424468	5016.833333	1134.777344	-0.255543
9464.424468	5016.833333	1133.643555	-77.928719
9464.424468	5016.833333	1132.508789	-61.914051
9464.424468	5016.833333	1131.374023	-41.602249
9464.424468	5016.833333	1130.239258	-36.987820
9464.424468	5016.833333	1129.104492	-16.871412
9464.424468	5016.833333	1127.968750	38.063118
9464.424468	5016.833333	1126.833008	-50.132961
9464.424468	5016.833333	1125.697266	46.647903
9464.424468	5016.833333	1124.560547	-16.394880
9464.424468	5016.833333	1123.424805	-20.625063
9464.424468	5016.833333	1122.288086	1.214905
9464.424468	5016.833333	1121.151367	-28.045780
9464.424468	5016.833333	1120.013672	-65.330338
9464.424468	5016.833333	1118.876953	-11.375884
9464.424468	5016.833333	1117.739258	34.636993
9464.424468	5016.833333	1116.601563	40.769516
9464.424468	5016.833333	1115.462891	2.561291
9464.424468	5016.833333	1114.324219	20.755215
9464.424468	5016.833333	1113.186523	83.963905
9464.424468	5016.833333	1112.046875	53.620205
9464.424468	5016.833333	1110.908203	-0.596577
9464.424468	5016.833333	1109.769531	-16.653688
9464.424468	5016.833333	1108.629883	53.493740
9464.424468	5016.833333	1107.490234	-21.437128
9464.424468	5016.833333	1106.349609	0.071199
9464.424468	5016.833333	1105.209961	-23.707621
9464.424468	5016.833333	1104.069336	37.801231
9464.424468	5016.833333	1102.928711	-123.911049
9464.424468	5016.833333	1101.787109	-13.929109
9464.424468	5016.833333	1100.646484	-12.265709
9464.424468	5016.833333	1099.504883	20.612295
9464.424468	5016.833333	1098.363281	12.041901
9464.424468	5016.833333	1097.221680	-85.480095
9464.424468	5016.833333	1096.079102	-41.478870
9464.424468	5016.833333	1094.936523	-27.240387
9464.424468	5016.833333	1093.793945	28.343002
9464.424468	5016.833333	1092.651367	9.964878
9464.424468	5016.833333	1091.507813	63.946667
9464.424468	5016.833333	1090.364258	91.603096
9464.424468	5016.833333	1089.220703	-8.028477
9464.424468	5016.833333	1088.077148	52.202084
9464.424468	5016.833333	1086.933594	-17.958397
9464.424468	5016.833333	1085.789063	2.942744
9464.424468	5016.833333	1084.644531	-17.706860
9464.424468	5016.833333	1083.499023	26.310051
9464.424468	5016.833333	1082.354492	-63.110706
9464.424468	5016.833333	1081.208984	75.654564
9464.424468	5016.833333	1080.063477	33.657681
9464.424468	5016.833333	1078.917969	158.132324
9464.424468	5016.833333	1077.771484	179.474335
9464.424468	5016.833333	1076.625977	39.427475
9464.424468	5016.833333	1075.479492	108.733360
9464.424468	5016.833333	1074.332031	73.091904
9464.424468	5016.833333	1073.185547	112.685532
9464.424468	5016.833333	1072.038086	90.579895
9464.424468	5016.833333	1070.890625	35.805103
9464.424468	5016.833333	1069.743164	42.849743
9464.424468	5016.833333	1068.594727	7.487158
9464.424468	5016.833333	1067.447266	15.940603
9464.424468	5016.833333	1066.298828	131.727142
9464.424468	5016.833333	1065.149414	89.384109
9464.424468	5016.833333	1064.000977	73.372993
9464.424468	5016.833333	1062.851563	138.114487
9464.424468	5016.833333	1061.702148	120.031563
9464.424468	5016.833333	1060.552734	8.929462
9464.424468	5016.833333	1059.402344	22.558140
9464.424468	5016.833333	1058.252930	26.191656
9464.424468	5016.833333	1057.102539	137.916946
9464.424468	5016.833333	1055.951172	59.104610
9464.424468	5016.833333	1054.800781	168.169556
9464.424468	5016.833333	1053.649414	67.012733
9464.424468	5016.833333	1052.498047	175.622070
9464.424468	5016.833333	1051.346680	85.172493
9464.424468	5016.833333	1050.194336	170.819244
9464.424468	5016.833333	1049.042969	38.222435
9464.424468	5016.833333	1047.890625	144.100586
9464.424468	5016.833333	1046.738281	-40.670258
9464.424468	5016.833333	1045.584961	76.035744
9464.424468	5016.833333	1044.431641	62.212624
9464.424468	5016.833333	1043.278320	35.422058
9464.424468	5016.833333	1042.125000	58.429836
9464.424468	5016.833333	1040.971680	89.608437
9464.424468	5016.833333	1039.817383	138.772049
9464.424468	5016.833333	1038.663086	23.716389
9464.424468	5016.833333	1037.508789	-5.766614
9464.424468	5016.833333	1036.353516	85.469414
9464.424468	5016.833333	1035.198242	119.427086
9464.424468	5016.833333	1034.042969	93.857826
9464.424468	5016.833333	1032.887695	62.804058
9464.424468	5016.833333	1031.732422	191.948853
9464.424468	5016.833333	1030.576172	147.759491
9464.424468	5016.833333	1029.419922	174.941391
9464.424468	5016.833333	1028.263672	36.760914
9464.424468	5016.833333	1027.106445	181.061203
9464.424468	5016.833333	1025.949219	106.395966
9464.424468	5016.833333	1024.792969	85.285820
9464.424468	5016.833333	1023.634766	22.889544
9464.424468	5016.833333	1022.477539	145.598633
9464.424468	5016.833333	1021.319336	1.139531
9464.424468	5016.833333	1020.161133	10.106401
9464.424468	5016.833333	1019.002930	129.332016
9464.424468	5016.833333	1017.843750	133.058243
9464.424468	5016.833333	1016.684570	-8.773491
9464.424468	5016.833333	1015.525391	-55.597473
9464.424468	5016.833333	1014.366211	42.034550
9464.424468	5016.833333	1013.207031	58.427788
9464.424468	5016.833333	1012.046875	56.845940
9464.424468	5016.833333	1010.886719	72.139565
9464.424468	5016.833333	1009.726563	34.363632
9464.424468	5016.833333	1008.565430	83.559593
9464.424468	5016.833333	1007.404297	67.346680
9464.424468	5016.833333	1006.243164	227.088943
9464.424468	5016.833333	1005.082031	34.273022
9464.424468	5016.833333	1003.920898	20.736378
9464.424468	5016.833333	1002.758789	-65.697945
9464.424468	5016.833333	1001.596680	-16.810190
9464.424468	5016.833333	1000.433594	151.211884
9464.424468	5016.833333	999.271484	-28.633713
9464.424468	5016.833333	998.108398	47.549885
9464.424468	5016.833333	996.945313	24.552387
9464.424468	5016.833333	995.782227	96.509880
9464.424468	5016.833333	994.618164	181.932465
9464.424468	5016.833333	993.454102	184.128510
9464.424468	5016.833333	992.290039	151.012939
9464.424468	5016.833333	991.125977	143.937881
9464.424468	5016.833333	989.960938	156.901627
9464.424468	5016.833333	988.796875	205.728485
9464.424468	5016.833333	987.630859	233.030884
9464.424468	5016.833333	986.465820	223.643906
9464.424468	5016.833333	985.300781	201.542831
9464.424468	5016.833333	984.134766	204.268066
9464.424468	5016.833333	982.968750	331.568481
9464.424468	5016.833333	981.801758	176.927765
9464.424468	5016.833333	980.635742	111.608162
9464.424468	5016.833333	979.468750	237.059326
9464.424468	5016.833333	978.301758	134.397934
9464.424468	5016.833333	977.133789	150.580231
9464.424468	5016.833333	975.966797	137.481293
9464.424468	5016.833333	974.798828	186.760208
9464.424468	5016.833333	973.630859	137.611221
9464.424468	5016.833333	972.461914	4.014886
9464.424468	5016.833333	971.293945	29.784735
9464.424468	5016.833333	970.125000	53.271072
9464.424468	5016.833333	968.956055	-3.585155
9464.424468	5016.833333	967.786133	20.922802
9464.424468	5016.833333	966.617188	-28.616594
9464.424468	5016.833333	965.447266	-47.835197
9464.424468	5016.833333	964.276367	-100.496582
9464.424468	5016.833333	963.106445	-18.072891
9464.424468	5016.833333	961.935547	23.346579
9464.424468	5016.833333	960.764648	-57.752331
9464.424468	5016.833333	959.593750	76.918671
9464.424468	5016.833333	958.422852	5.903975
9464.424468	5016.833333	957.250977	36.098827
9464.424468	5016.833333	956.079102	0.188657
9464.424468	5016.833333	954.907227	172.682709
9464.424468	5016.833333	953.734375	-15.384183
9464.424468	5016.833333	952.562500	89.958488
9464.424468	5016.833333	951.389648	-12.915170
9464.424468	5016.833333	950.215820	2.448348
9464.424468	5016.833333	949.042969	-67.158241
9464.424468	5016.833333	947.869141	-42.603676
9464.424468	5016.833333	946.695313	-20.112432
9464.424468	5016.833333	945.521484	10.959273
9464.424468	5016.833333	944.346680	-25.326828
9464.424468	5016.833333	943.172852	-178.181168
9464.424468	5016.833333	941.998047	3.072691
9464.424468	5016.833333	940.822266	-44.321198
9464.424468	5016.833333	939.647461	4.834125
9464.424468	5016.833333	938.471680	67.313087
9464.424468	5016.833333	937.295898	118.531570
9464.424468	5016.833333	936.119141	-79.412720
9464.424468	5016.833333	934.943359	-124.819206
9464.424468	5016.833333	933.766602	-78.144119
9464.424468	5016.833333	932.589844	-27.000517
9464.424468	5016.833333	931.413086	113.905060
9464.424468	5016.833333	930.235352	-39.321243
9464.424468	5016.833333	929.057617	65.575989
9464.424468	5016.833333	927.879883	134.522079
9464.424468	5016.833333	926.702148	35.120781
9464.424468	5016.833333	925.523438	63.580711
9464.424468	5016.833333	924.344727	103.250641
9464.424468	5016.833333	923.166016	174.257309
9464.424468	5016.833333	921.987305	12.052631
9464.424468	5016.833333	920.807617	56.103436
9464.424468	5016.833333	919.627930	56.075237
9464.424468	5016.833333	919.497070	10.462473
9464.424468	5016.833333	918.331055	56.683338
9464.424468	5016.833333	917.165039	111.820747
9464.424468	5016.833333	915.999023	-12.266381
9464.424468	5016.833333	914.833008	-33.321930
9464.424468	5016.833333	913.666016	-5.139467
9464.424468	5016.833333	912.499023	34.199100
9464.424468	5016.833333	911.332031	-69.727837
9464.424468	5016.833333	910.165039	25.496254
9464.424468	5016.833333	908.997070	-89.618561
9464.424468	5016.833333	907.830078	41.308529
9464.424468	5016.833333	906.661133	-8.962900
9464.424468	5016.833333	905.493164	-128.540512
9464.424468	5016.833333	904.325195	-49.162308
9464.424468	5016.833333	903.156250	-50.288280
9464.424468	5016.833333	901.987305	-78.246742
9464.424468	5016.833333	900.818359	-66.007141
9464.424468	5016.833333	899.648438	-35.927486
9464.424468	5016.833333	898.478516	0.817541
9464.424468	5016.833333	897.308594	64.315613
9464.424468	5016.833333	896.138672	-117.749886
9464.424468	5016.833333	894.968750	-85.535667
9464.424468	5016.833333	893.797852	38.118748
9464.424468	5016.833333	892.626953	-23.438059
9464.424468	5016.833333	891.456055	55.510742
9464.424468	5016.833333	890.284180	-10.523108
9464.424468	5016.833333	889.113281	-18.588167
9464.424468	5016.833333	887.941406	75.855118
9464.424468	5016.833333	886.768555	112.304047
9464.424468	5016.833333	885.596680	39.554146
9464.424468	5016.833333	884.423828	49.230076
9464.424468	5016.833333	883.250977	110.104622
9464.424468	5016.833333	882.078125	159.804276
9464.424468	5016.833333	880.905273	40.285854
9464.424468	5016.833333	879.731445	101.072433
9464.424468	5016.833333	878.557617	204.095306
9464.424468	5016.833333	877.383789	102.387680
9464.424468	5016.833333	876.209961	45.190319
9464.424468	5016.833333	875.035156	39.146599
9464.424468	5016.833333	873.860352	50.876091
9464.424468	5016.833333	872.685547	82.591209
9464.424468	5016.833333	871.510742	138.724838
9464.424468	5016.833333	870.334961	-22.932707
9464.424468	5016.833333	869.159180	-84.570915
9464.424468	5016.833333	867.983398	-1.829897
9464.424468	5016.833333	866.807617	69.759834
9464.424468	5016.833333	865.630859	-14.104482
9464.424468	5016.833333	864.454102	46.331573
9464.424468	5016.833333	863.277344	13.521619
9464.424468	5016.833333	862.100586	-17.069742
9464.424468	5016.833333	860.922852	-7.732377
9464.424468	5016.833333	859.745117	1.588214
9464.424468	5016.833333	858.567383	-31.238342
9464.424468	5016.833333	857.389648	-37.460339
9464.424468	5016.833333	856.210938	20.585924
9464.424468	5016.833333	855.032227	-47.718605
9464.424468	5016.833333	853.853516	8.066733
9464.424468	5016.833333	852.674805	-0.421348
9464.424468	5016.833333	851.495117	121.748138
9464.424468	5016.833333	850.315430	86.646347
9464.424468	5016.833333	849.135742	0.631180
9464.424468	5016.833333	847.956055	7.600316
9464.424468	5016.833333	846.775391	-25.276285
9464.424468	5016.833333	845.595703	8.223634
9464.424468	5016.833333	844.415039	26.215147
9464.424468	5016.833333	843.233398	-57.540325
9464.424468	5016.833333	842.052734	35.613594
9464.424468	5016.833333	840.871094	33.663513
9464.424468	5016.833333	839.689453	-3.657010
9464.424468	5016.833333	838.506836	-25.504498
9464.424468	5016.833333	837.325195	-69.442986
9464.424468	5016.833333	836.142578	30.197403
9464.424468	5016.833333	834.959961	-95.460335
9464.424468	5016.833333	833.777344	-17.950924
9464.424468	5016.833333	832.593750	48.480434
9464.424468	5016.833333	831.410156	37.633255
9464.424468	5016.833333	830.226563	95.184471
9464.424468	5016.833333	829.042969	49.020000
9464.424468	5016.833333	827.858398	93.295738
9464.424468	5016.833333	826.673828	-56.506184
9464.424468	5016.833333	825.489258	-3.422704
9464.424468	5016.833333	824.304688	100.329544
9464.424468	5016.833333	823.120117	27.730204
9464.424468	5016.833333	821.934570	67.522530
9464.424468	5016.833333	820.749023	27.988968
9464.424468	5016.833333	819.562500	23.702824
9464.424468	5016.833333	818.376953	-11.413735
9464.424468	5016.833333	817.190430	-22.306524
9464.424468	5016.833333	816.003906	19.624281
9464.424468	5016.833333	814.817383	35.125149
9464.424468	5016.833333	813.629883	0.009833
9464.424468	5016.833333	812.442383	17.695786
9464.424468	5016.833333	811.254883	0.181417
9464.424468	5016.833333	810.067383	39.837208
9464.424468	5016.833333	808.878906	-78.808769
9464.424468	5016.833333	807.690430	9.188778
9464.424468	5016.833333	806.501953	11.445911
9464.424468	5016.833333	805.313477	119.150970
9464.424468	5016.833333	804.124023	-27.988316
9464.424468	5016.833333	802.934570	-100.405815
9464.424468	5016.833333	801.745117	64.326057
9464.424468	5016.833333	800.555664	7.276223
9464.424468	5016.833333	799.365234	-91.454544
9464.424468	5016.833333	798.175781	-141.874435
9464.424468	5016.833333	796.985352	-71.621361
9464.424468	5016.833333	795.793945	-45.268986
9464.424468	5016.833333	794.603516	11.769462
9464.424468	5016.833333	793.412109	16.161224
9464.424468	5016.833333	792.220703	27.122812
9464.424468	5016.833333	791.028320	42.457829
9464.424468	5016.833333	789.836914	5.198607
9464.424468	5016.833333	788.644531	-40.812840
9464.424468	5016.833333	787.452148	119.064301
9464.424468	5016.833333	786.258789	-71.479919
9464.424468	5016.833333	785.066406	35.788006
9464.424468	5016.833333	783.873047	-113.080719
9464.424468	5016.833333	782.679688	-80.260475
9464.424468	5016.833333	781.485352	2.862106
9464.424468	5016.833333	780.291992	55.323746
9464.424468	5016.833333	779.097656	26.841141
9464.424468	5016.833333	777.903320	81.453766
9464.424468	5016.833333	776.708008	63.898743
9464.424468	5016.833333	775.512695	46.347370
9464.424468	5016.833333	774.318359	37.541286
9464.424468	5016.833333	773.122070	131.412994
9464.424468	5016.833333	771.926758	9.003338
9464.424468	5016.833333	770.730469	6.747675
9464.424468	5016.833333	769.534180	157.321945
9464.424468	5016.833333	768.337891	137.565720
9464.424468	5016.833333	767.141602	222.569519
9464.424468	5016.833333	765.944336	287.894836
9464.424468	5016.833333	764.747070	508.076294
9464.424468	5016.833333	763.549805	370.468262
9464.424468	5016.833333	762.351563	457.514374
9464.424468	5016.833333	761.154297	383.189545
9464.424468	5016.833333	759.956055	289.272583
9464.424468	5016.833333	758.757813	284.739197
9464.424468	5016.833333	757.558594	306.347412
9464.424468	5016.833333	756.359375	382.400543
9464.424468	5016.833333	755.160156	423.570892
9464.424468	5016.833333	753.960938	432.057587
9464.424468	5016.833333	752.761719	434.005005
9464.424468	5016.833333	751.561523	455.533478
9464.424468	5016.833333	750.361328	250.736816
9464.424468	5016.833333	749.160156	359.307556
9464.424468	5016.833333	747.959961	374.296844
9464.424468	5016.833333	746.758789	302.284607
9464.424468	5016.833333	745.557617	360.751495
9464.424468	5016.833333	744.356445	340.931671
9464.424468	5016.833333	743.154297	364.579651
9464.424468	5016.833333	741.952148	227.417709
9464.424468	5016.833333	740.750000	279.308502
9464.424468	5016.833333	739.547852	274.699615
9464.424468	5016.833333	738.344727	267.913391
9464.424468	5016.833333	737.142578	315.401367
9464.424468	5016.833333	735.939453	241.305923
9464.424468	5016.833333	734.735352	199.785507
9464.424468	5016.833333	733.532227	344.872803
9464.424468	5016.833333	732.328125	294.655914
9464.424468	5016.833333	731.124023	363.737457
9464.424468	5016.833333	729.918945	209.440170
9464.424468	5016.833333	728.714844	224.296768
9464.424468	5016.833333	727.509766	156.774628
9464.424468	5016.833333	726.303711	277.799347
9464.424468	5016.833333	725.098633	134.448044
9464.424468	5016.833333	723.892578	207.755463
9464.424468	5016.833333	722.686523	138.090897
9464.424468	5016.833333	721.480469	74.941681
9464.424468	5016.833333	720.274414	76.751190
9464.424468	5016.833333	719.067383	121.834503
9464.424468	5016.833333	717.860352	-23.527716
9464.424468	5016.833333	716.653320	47.497803
9464.424468	5016.833333	715.445313	75.223412
9464.424468	5016.833333	714.238281	89.952911
9464.424468	5016.833333	713.030273	104.664238
9464.424468	5016.833333	711.821289	6.955772
9464.424468	5016.833333	710.613281	82.166496
9464.424468	5016.833333	709.404297	38.496475
9464.424468	5016.833333	708.195313	16.434898
9464.424468	5016.833333	706.986328	87.239571
9464.424468	5016.833333	705.776367	-36.336075
9464.424468	5016.833333	704.566406	-97.266220
9464.424468	5016.833333	703.356445	-134.441498
9464.424468	5016.833333	702.146484	-50.770359
9464.424468	5016.833333	700.935547	30.693422
9464.424468	5016.833333	699.724609	64.654427
9464.424468	5016.833333	698.513672	8.010571
9464.424468	5016.833333	697.302734	35.464962
9464.424468	5016.833333	696.090820	-23.335037
9464.424468	5016.833333	694.878906	107.533440
9464.424468	5016.833333	693.666992	46.557907
9464.424468	5016.833333	692.455078	-23.024847
9464.424468	5016.833333	691.242188	-23.672501
9464.424468	5016.833333	690.029297	-41.563221
9464.424468	5016.833333	688.816406	117.079323
9464.424468	5016.833333	687.602539	84.064018
9464.424468	5016.833333	686.389648	96.240486
9464.424468	5016.833333	685.175781	125.605179
9464.424468	5016.833333	683.960938	58.137272
9464.424468	5016.833333	682.747070	46.599052
9464.424468	5016.833333	681.532227	-53.114174
9464.424468	5016.833333	680.317383	55.725521
9464.424468	5016.833333	679.102539	89.273613
9464.424468	5016.833333	677.886719	41.129143
9464.424468	5016.833333	676.670898	141.227127
9464.424468	5016.833333	675.455078	35.057495
9464.424468	5016.833333	674.239258	12.665861
9464.424468	5016.833333	673.022461	41.790859
9464.424468	5016.833333	671.805664	188.947144
9464.424468	5016.833333	670.588867	76.334129
9464.424468	5016.833333	669.372070	186.901215
9464.424468	5016.833333	668.154297	80.727341
9464.424468	5016.833333	666.936523	148.305222
9464.424468	5016.833333	665.718750	136.491501
9464.424468	5016.833333	664.500977	161.106216
9464.424468	5016.833333	663.282227	232.841965
9464.424468	5016.833333	662.063477	156.657394
9464.424468	5016.833333	660.844727	114.761681
9464.424468	5016.833333	659.625000	152.115448
9464.424468	5016.833333	658.405273	118.755531
9464.424468	5016.833333	657.185547	44.702618
9464.424468	5016.833333	655.965820	24.174212
9464.424468	5016.833333	654.745117	123.483414
9464.424468	5016.833333	653.525391	42.981689
9464.424468	5016.833333	652.303711	39.501907
9464.424468	5016.833333	651.083008	46.694534
9464.424468	5016.833333	649.861328	13.224539
9464.424468	5016.833333	648.640625	56.713078
9464.424468	5016.833333	647.417969	70.226196
9464.424468	5016.833333	646.196289	79.434631
9464.424468	5016.833333	644.973633	35.193134
9464.424468	5016.833333	643.750977	-9.057898
9464.424468	5016.833333	642.528320	-91.761345
9464.424468	5016.833333	641.305664	-35.662815
9464.424468	5016.833333	640.082031	-18.046345
9464.424468	5016.833333	638.858398	14.475089
9464.424468	5016.833333	637.634766	-34.136837
9464.424468	5016.833333	636.410156	-20.887646
9464.424468	5016.833333	635.185547	15.789692
9464.424468	5016.833333	633.960938	28.963310
9464.424468	5016.833333	632.736328	-34.656071
9464.424468	5016.833333	631.510742	25.357105
9464.424468	5016.833333	630.285156	-4.197603
9464.424468	5016.833333	629.059570	70.638580
9464.424468	5016.833333	627.833984	-22.885515
9464.424468	5016.833333	626.607422	24.169750
9464.424468	5016.833333	625.380859	-7.615678
9464.424468	5016.833333	624.154297	-33.032021
9464.424468	5016.833333	622.927734	130.970337
9464.424468	5016.833333	621.700195	-75.418030
9464.424468	5016.833333	620.472656	-32.818260
9464.424468	5016.833333	619.245117	37.384735
9464.424468	5016.833333	618.016602	64.987892
9464.424468	5016.833333	616.788086	77.663162
9464.424468	5016.833333	615.559570	-7.488524
9464.424468	5016.833333	614.331055	-33.125992
9464.424468	5016.833333	613.101563	87.831322
9464.424468	5016.833333	611.872070	102.479797
9464.424468	5016.833333	610.642578	-95.312988
9464.424468	5016.833333	609.413086	42.468479
9464.424468	5016.833333	608.182617	82.491600
9464.424468	5016.833333	606.952148	96.991562
9464.424468	5016.833333	605.721680	35.051785
9464.424468	5016.833333	604.491211	-35.382492
9464.424468	5016.833333	603.259766	25.696875
9464.424468	5016.833333	602.028320	65.508125
9464.424468	5016.833333	600.796875	3.488225
9464.424468	5016.833333	599.564453	-33.103756
9464.424468	5016.833333	598.332031	10.827472
9464.424468	5016.833333	597.099609	97.086578
9464.424468	5016.833333	595.867188	-7.400677
9464.424468	5016.833333	594.633789	72.399132
9464.424468	5016.833333	593.400391	-23.639765
9464.424468	5016.833333	592.166992	53.942616
9464.424468	5016.833333	590.933594	-1.901076
9464.424468	5016.833333	589.699219	9.964568
9464.424468	5016.833333	588.464844	-28.991346
9464.424468	5016.833333	587.230469	50.500275
9464.424468	5016.833333	585.995117	26.284744
9464.424468	5016.833333	584.760742	-2.180457
9464.424468	5016.833333	583.525391	-72.953293
9464.424468	5016.833333	582.289063	86.653740
9464.424468	5016.833333	581.053711	-87.723465
9464.424468	5016.833333	579.817383	-16.984800
9464.424468	5016.833333	578.581055	207.886490
9464.424468	5016.833333	577.343750	63.051544
9464.424468	5016.833333	576.107422	72.379875
9464.424468	5016.833333	574.870117	-23.880117
9464.424468	5016.833333	573.631836	50.813644
9464.424468	5016.833333	572.394531	-24.367865
9464.424468	5016.833333	571.156250	223.213776
9464.424468	5016.833333	569.917969	88.901726
9464.424468	5016.833333	568.679688	28.417883
9464.424468	5016.833333	567.440430	193.505295
9464.424468	5016.833333	566.202148	-4.046597
9464.424468	5016.833333	564.961914	-35.074558
9464.424468	5016.833333	563.722656	85.578972
9464.424468	5016.833333	562.482422	130.313385
9464.424468	5016.833333	561.243164	-56.658813
9464.424468	5016.833333	560.001953	-49.880169
9464.424468	5016.833333	558.761719	-43.131767
9464.424468	5016.833333	557.520508	-6.955768
9464.424468	5016.833333	556.279297	56.528008
9464.424468	5016.833333	555.038086	27.390198
9464.424468	5016.833333	553.795898	17.160351
9464.424468	5016.833333	552.554688	109.948349
9464.424468	5016.833333	551.311523	42.877750
9464.424468	5016.833333	550.069336	76.703667
9464.424468	5016.833333	548.826172	5.408113
9464.424468	5016.833333	547.583984	-28.062376
9464.424468	5016.833333	546.339844	-4.838842
9464.424468	5016.833333	545.096680	-105.557007
9464.424468	5016.833333	543.852539	-57.184658
9464.424468	5016.833333	542.608398	7.933633
9464.424468	5016.833333	541.364258	-36.139179
9464.424468	5016.833333	540.119141	18.399298
9464.424468	5016.833333	538.875000	-69.763832
9464.424468	5016.833333	537.628906	-34.173012
9464.424468	5016.833333	536.383789	102.037971
9464.424468	5016.833333	535.137695	11.735123
9464.424468	5016.833333	533.892578	-61.779037
9464.424468	5016.833333	532.645508	-126.910927
9464.424468	5016.833333	531.399414	180.912445
9464.424468	5016.833333	530.152344	92.670273
9464.424468	5016.833333	528.905273	46.329830
9464.424468	5016.833333	527.658203	-39.794361
9464.424468	5016.833333	526.410156	24.818777
9464.424468	5016.833333	525.163086	108.225456
9464.424468	5016.833333	523.914063	1.149877
9464.424468	5016.833333	522.666016	99.128288
9464.424468	5016.833333	521.416992	-83.233772
9464.424468	5016.833333	520.167969	-25.051401
9464.424468	5016.833333	518.918945	-37.994888
9464.424468	5016.833333	517.669922	47.292839
9464.424468	5016.833333	516.419922	-57.648613
9464.424468	5016.833333	515.169922	-14.215521
9464.424468	5016.833333	513.919922	6.206531
9464.424468	5016.833333	512.668945	-113.325279
9464.424468	5016.833333	511.417969	5.214694
9464.424468	5016.833333	510.166992	-47.488804
9464.424468	5016.833333	508.916016	-112.704155
9464.424468	5016.833333	507.664063	-75.660324
9464.424468	5016.833333	506.412109	17.684999
9464.424468	5016.833333	505.160156	-72.567421
9464.424468	5016.833333	503.907227	-68.955139
9464.424468	5016.833333	502.655273	-36.160286
9464.424468	5016.833333	501.402344	-34.658066
9464.424468	5016.833333	500.148438	58.526806
9464.424468	5016.833333	498.895508	5.823068
9464.424468	5016.833333	497.641602	101.030403
9464.424468	5016.833333	496.387695	100.390373
9464.424468	5016.833333	495.132813	51.851753
9464.424468	5016.833333	493.878906	-127.814423
9464.424468	5016.833333	492.624023	106.765244
9464.424468	5016.833333	491.368164	-45.798706
9464.424468	5016.833333	490.113281	55.513306
9464.424468	5016.833333	488.857422	71.498978
9464.424468	5016.833333	487.601563	89.556618
9464.424468	5016.833333	486.344727	9.887410
9464.424468	5016.833333	485.088867	7.166177
9464.424468	5016.833333	483.832031	79.257019
9464.424468	5016.833333	482.575195	138.852646
9464.424468	5016.833333	481.317383	67.554138
9464.424468	5016.833333	480.059570	-20.324728
9464.424468	5016.833333	478.801758	-16.801399
9464.424468	5016.833333	477.543945	46.926987
9464.424468	5016.833333	476.285156	37.987862
9464.424468	5016.833333	475.027344	230.339096
9464.424468	5016.833333	473.767578	-10.979038
9464.424468	5016.833333	472.508789	-21.954403
9464.424468	5016.833333	471.249023	54.172623
9464.424468	5016.833333	469.989258	24.540859
9464.424468	5016.833333	468.729492	127.588814
9464.424468	5016.833333	467.469727	108.333572
9464.424468	5016.833333	466.208984	103.595894
9464.424468	5016.833333	464.948242	38.798656
9464.424468	5016.833333	463.686523	-83.952263
9464.424468	5016.833333	462.425781	-38.920044
9464.424468	5016.833333	461.164063	59.922016
9464.424468	5016.833333	459.901367	75.943459
9464.424468	5016.833333	458.639648	-7.347063
9464.424468	5016.833333	457.376953	19.050283
9464.424468	5016.833333	456.114258	-78.648880
9464.424468	5016.833333	454.851563	34.629421
9464.424468	5016.833333	453.587891	63.103745
9464.424468	5016.833333	452.324219	15.101877
9464.424468	5016.833333	451.060547	-30.799368
9464.424468	5016.833333	449.796875	47.298080
9464.424468	5016.833333	448.532227	104.715225
9464.424468	5016.833333	447.267578	176.577988
9464.424468	5016.833333	446.002930	25.432289
9464.424468	5016.833333	444.737305	120.012604
9464.424468	5016.833333	443.471680	165.033096
9464.424468	5016.833333	442.206055	-54.065468
9464.424468	5016.833333	440.940430	-25.501989
9464.424468	5016.833333	439.673828	17.495483
9464.424468	5016.833333	438.407227	23.371321
9464.424468	5016.833333	437.140625	115.844925
9464.424468	5016.833333	435.873047	22.782373
9464.424468	5016.833333	434.605469	86.387115
9464.424468	5016.833333	433.337891	104.649864
9464.424468	5016.833333	432.070313	26.104250
9464.424468	5016.833333	430.801758	-50.341358
9464.424468	5016.833333	429.533203	-23.797285
9464.424468	5016.833333	428.264648	68.615616
9464.424468	5016.833333	426.996094	272.131378
9464.424468	5016.833333	425.726563	99.022903
9464.424468	5016.833333	424.457031	76.167824
9464.424468	5016.833333	423.186523	127.365242
9464.424468	5016.833333	421.916992	137.423950
9464.424468	5016.833333	420.646484	50.854164
9464.424468	5016.833333	419.375977	5.431629
9464.424468	5016.833333	418.104492	58.661194
9464.424468	5016.833333	416.833008	99.540100
9464.424468	5016.833333	415.561523	91.102463
9464.424468	5016.833333	414.290039	-28.228537
9464.424468	5016.833333	413.017578	70.114571
9464.424468	5016.833333	411.746094	37.039440
9464.424468	5016.833333	410.472656	28.588135
9464.424468	5016.833333	409.200195	-29.110052
9464.424468	5016.833333	407.926758	69.102097
9464.424468	5016.833333	406.653320	56.506691
9464.424468	5016.833333	405.379883	13.141897
9464.424468	5016.833333	404.105469	90.721848
9464.424468	5016.833333	402.831055	28.874506
9464.424468	5016.833333	401.556641	71.533211
9464.424468	5016.833333	400.282227	36.294739
9464.424468	5016.833333	399.006836	48.144619
9464.424468	5016.833333	397.731445	98.863213
9464.424468	5016.833333	396.456055	-20.408663
9464.424468	5016.833333	395.179688	36.359440
9464.424468	5016.833333	393.903320	-15.405007
9464.424468	5016.833333	392.626953	-20.136803
9464.424468	5016.833333	391.350586	18.037701
9464.424468	5016.833333	390.073242	47.953869
9464.424468	5016.833333	388.795898	-42.839710
9464.424468	5016.833333	387.518555	33.968609
9464.424468	5016.833333	386.240234	110.669136
9464.424468	5016.833333	384.961914	13.577661
9464.424468	5016.833333	383.683594	79.881798
9464.424468	5016.833333	382.405273	52.119568
9464.424468	5016.833333	381.125977	40.611580
9464.424468	5016.833333	379.846680	-24.066612
9464.424468	5016.833333	378.567383	9.157125
9464.424468	5016.833333	377.287109	32.051823
9464.424468	5016.833333	376.006836	-87.992409
9464.424468	5016.833333	374.726563	71.349388
9464.424468	5016.833333	373.446289	-38.696667
9464.424468	5016.833333	372.165039	48.941948
9464.424468	5016.833333	370.883789	-24.633728
9464.424468	5016.833333	369.602539	46.376472
9464.424468	5016.833333	368.320313	-88.597031
9464.424468	5016.833333	367.039063	116.534225
9464.424468	5016.833333	365.755859	-67.610046
9464.424468	5016.833333	364.473633	-13.604071
9464.424468	5016.833333	363.190430	-47.350971
9464.424468	5016.833333	361.907227	-54.816521
9464.424468	5016.833333	360.624023	-206.959076
9464.424468	5016.833333	359.340820	-56.110310
9464.424468	5016.833333	358.056641	-31.662785
9464.424468	5016.833333	356.772461	-37.959709
9464.424468	5016.833333	355.487305	61.222126
9464.424468	5016.833333	354.202148	70.672569
9464.424468	5016.833333	352.916992	-40.044510
9464.424468	5016.833333	351.631836	62.355190
9464.424468	5016.833333	350.346680	8.013084
9464.424468	5016.833333	349.060547	-32.391148
9464.424468	5016.833333	347.774414	8.135862
9464.424468	5016.833333	346.487305	28.018270
9464.424468	5016.833333	345.200195	90.182816
9464.424468	5016.833333	343.913086	44.431866
9464.424468	5016.833333	342.625977	-36.143478
9464.424468	5016.833333	341.338867	-80.544746
9464.424468	5016.833333	340.050781	0.404515
9464.424468	5016.833333	338.762695	91.057800
9464.424468	5016.833333	337.473633	-11.312157
9464.424468	5016.833333	336.184570	70.346184
9464.424468	5016.833333	334.895508	-32.846565
9464.424468	5016.833333	333.606445	-128.350754
9464.424468	5016.833333	332.317383	-50.124203
9464.424468	5016.833333	331.027344	35.662678
9464.424468	5016.833333	329.736328	45.991020
9464.424468	5016.833333	328.446289	19.370493
9464.424468	5016.833333	327.155273	16.483845
9464.424468	5016.833333	325.864258	-39.562290
9464.424468	5016.833333	324.573242	-7.176573
9464.424468	5016.833333	323.281250	-64.392998
9464.424468	5016.833333	321.989258	19.307028
9464.424468	5016.833333	320.697266	43.713135
9464.424468	5016.833333	319.405273	67.444565
9464.424468	5016.833333	318.112305	-190.359818
9464.424468	5016.833333	316.819336	-4.386630
9464.424468	5016.833333	315.526367	-71.653877
9464.424468	5016.833333	314.232422	126.843712
9464.424468	5016.833333	312.938477	76.196365
9464.424468	5016.833333	311.644531	-3.483715
9464.424468	5016.833333	310.349609	33.049927
9464.424468	5016.833333	309.054688	211.938828
9464.424468	5016.833333	307.759766	111.556175
9464.424468	5016.833333	306.464844	-5.816709
9464.424468	5016.833333	305.168945	117.816513
9464.424468	5016.833333	303.873047	32.844143
9464.424468	5016.833333	302.577148	-32.927963
9464.424468	5016.833333	301.281250	129.975372
9464.424468	5016.833333	299.984375	164.844772
