#X		#Y		#Wave		#Intensity
10118.855851	5315.833333	1999.946289	290.614716
10118.855851	5315.833333	1998.981445	-136.447815
10118.855851	5315.833333	1998.017578	14.014424
10118.855851	5315.833333	1997.052734	171.925949
10118.855851	5315.833333	1996.088867	163.848602
10118.855851	5315.833333	1995.124023	-195.922562
10118.855851	5315.833333	1994.159180	-55.195835
10118.855851	5315.833333	1993.193359	115.252914
10118.855851	5315.833333	1992.228516	-167.374146
10118.855851	5315.833333	1991.262695	18.001001
10118.855851	5315.833333	1990.296875	-227.269821
10118.855851	5315.833333	1989.331055	10.117599
10118.855851	5315.833333	1988.365234	-133.525604
10118.855851	5315.833333	1987.398438	51.907166
10118.855851	5315.833333	1986.432617	106.246643
10118.855851	5315.833333	1985.465820	56.757336
10118.855851	5315.833333	1984.499023	61.714874
10118.855851	5315.833333	1983.532227	-89.005905
10118.855851	5315.833333	1982.565430	106.337074
10118.855851	5315.833333	1981.597656	-217.221313
10118.855851	5315.833333	1980.629883	0.370956
10118.855851	5315.833333	1979.662109	15.386352
10118.855851	5315.833333	1978.694336	-127.615494
10118.855851	5315.833333	1977.726563	-38.457714
10118.855851	5315.833333	1976.758789	139.558090
10118.855851	5315.833333	1975.790039	-40.333565
10118.855851	5315.833333	1974.821289	-138.706573
10118.855851	5315.833333	1973.852539	81.233269
10118.855851	5315.833333	1972.883789	-170.017624
10118.855851	5315.833333	1971.915039	79.476616
10118.855851	5315.833333	1970.945313	111.907867
10118.855851	5315.833333	1969.975586	-15.900248
10118.855851	5315.833333	1969.005859	-202.804703
10118.855851	5315.833333	1968.036133	132.814133
10118.855851	5315.833333	1967.066406	-61.418217
10118.855851	5315.833333	1966.096680	8.016389
10118.855851	5315.833333	1965.125977	146.394058
10118.855851	5315.833333	1964.155273	-101.889175
10118.855851	5315.833333	1963.184570	-177.731125
10118.855851	5315.833333	1962.213867	-96.000221
10118.855851	5315.833333	1961.242188	81.686226
10118.855851	5315.833333	1960.271484	-99.951614
10118.855851	5315.833333	1959.299805	112.111771
10118.855851	5315.833333	1958.328125	122.394585
10118.855851	5315.833333	1957.356445	-68.993919
10118.855851	5315.833333	1956.384766	157.691238
10118.855851	5315.833333	1955.412109	-65.602600
10118.855851	5315.833333	1954.439453	178.189758
10118.855851	5315.833333	1953.467773	95.041771
10118.855851	5315.833333	1952.495117	-51.969147
10118.855851	5315.833333	1951.521484	66.373795
10118.855851	5315.833333	1950.548828	7.825265
10118.855851	5315.833333	1949.575195	-43.347851
10118.855851	5315.833333	1948.601563	-25.768642
10118.855851	5315.833333	1947.627930	-130.944809
10118.855851	5315.833333	1946.654297	51.055397
10118.855851	5315.833333	1945.680664	245.243851
10118.855851	5315.833333	1944.706055	51.708656
10118.855851	5315.833333	1943.732422	150.129593
10118.855851	5315.833333	1942.757813	147.943451
10118.855851	5315.833333	1941.783203	81.989281
10118.855851	5315.833333	1940.807617	30.747787
10118.855851	5315.833333	1939.833008	246.678238
10118.855851	5315.833333	1938.857422	36.096291
10118.855851	5315.833333	1937.881836	-20.067076
10118.855851	5315.833333	1936.906250	122.197250
10118.855851	5315.833333	1935.930664	183.560501
10118.855851	5315.833333	1934.955078	440.784729
10118.855851	5315.833333	1933.978516	173.938538
10118.855851	5315.833333	1933.001953	-16.946354
10118.855851	5315.833333	1932.025391	237.650970
10118.855851	5315.833333	1931.048828	34.541473
10118.855851	5315.833333	1930.072266	41.883781
10118.855851	5315.833333	1929.094727	80.994461
10118.855851	5315.833333	1928.118164	-175.854004
10118.855851	5315.833333	1927.140625	-80.531853
10118.855851	5315.833333	1926.163086	-78.171135
10118.855851	5315.833333	1925.184570	-185.834244
10118.855851	5315.833333	1924.207031	-61.321678
10118.855851	5315.833333	1923.228516	65.556702
10118.855851	5315.833333	1922.250000	-51.931580
10118.855851	5315.833333	1921.271484	209.172028
10118.855851	5315.833333	1920.292969	84.315338
10118.855851	5315.833333	1919.314453	-279.794037
10118.855851	5315.833333	1918.334961	-206.850479
10118.855851	5315.833333	1917.355469	185.752625
10118.855851	5315.833333	1916.375977	-73.342552
10118.855851	5315.833333	1915.396484	67.736687
10118.855851	5315.833333	1914.416992	42.862030
10118.855851	5315.833333	1913.436523	-152.753738
10118.855851	5315.833333	1912.457031	-38.660297
10118.855851	5315.833333	1911.476563	-12.409301
10118.855851	5315.833333	1910.496094	196.605133
10118.855851	5315.833333	1909.515625	-25.837053
10118.855851	5315.833333	1908.534180	17.345949
10118.855851	5315.833333	1907.552734	-71.068970
10118.855851	5315.833333	1906.572266	3.701084
10118.855851	5315.833333	1905.590820	19.961540
10118.855851	5315.833333	1904.608398	9.394629
10118.855851	5315.833333	1903.626953	108.339027
10118.855851	5315.833333	1902.644531	117.156609
10118.855851	5315.833333	1901.663086	-93.062820
10118.855851	5315.833333	1900.680664	-8.866682
10118.855851	5315.833333	1899.698242	-68.252174
10118.855851	5315.833333	1898.714844	-164.135834
10118.855851	5315.833333	1897.732422	58.508987
10118.855851	5315.833333	1896.749023	54.940250
10118.855851	5315.833333	1895.765625	-26.444544
10118.855851	5315.833333	1894.782227	64.702042
10118.855851	5315.833333	1893.798828	82.884659
10118.855851	5315.833333	1892.814453	18.423899
10118.855851	5315.833333	1891.831055	-101.911926
10118.855851	5315.833333	1890.846680	234.280243
10118.855851	5315.833333	1889.862305	89.587624
10118.855851	5315.833333	1888.877930	248.335190
10118.855851	5315.833333	1887.892578	25.945921
10118.855851	5315.833333	1886.908203	-55.659149
10118.855851	5315.833333	1885.922852	-30.532387
10118.855851	5315.833333	1884.937500	-92.777786
10118.855851	5315.833333	1883.952148	-235.071304
10118.855851	5315.833333	1882.965820	134.252975
10118.855851	5315.833333	1881.980469	115.521820
10118.855851	5315.833333	1880.994141	-89.879059
10118.855851	5315.833333	1880.007813	90.064713
10118.855851	5315.833333	1879.021484	25.186960
10118.855851	5315.833333	1878.035156	-139.027130
10118.855851	5315.833333	1877.047852	-298.383514
10118.855851	5315.833333	1876.061523	-184.088181
10118.855851	5315.833333	1875.074219	-118.304688
10118.855851	5315.833333	1874.086914	20.029459
10118.855851	5315.833333	1873.098633	-129.734634
10118.855851	5315.833333	1872.111328	175.421005
10118.855851	5315.833333	1871.123047	20.757334
10118.855851	5315.833333	1870.135742	-129.050278
10118.855851	5315.833333	1869.147461	-153.096542
10118.855851	5315.833333	1868.158203	6.575315
10118.855851	5315.833333	1867.169922	-70.760429
10118.855851	5315.833333	1866.180664	13.820801
10118.855851	5315.833333	1865.192383	286.818054
10118.855851	5315.833333	1864.203125	151.348160
10118.855851	5315.833333	1863.213867	11.051192
10118.855851	5315.833333	1862.223633	-37.466305
10118.855851	5315.833333	1861.234375	-124.642441
10118.855851	5315.833333	1860.244141	-13.867579
10118.855851	5315.833333	1859.253906	-84.215309
10118.855851	5315.833333	1858.263672	-243.877151
10118.855851	5315.833333	1857.273438	57.338154
10118.855851	5315.833333	1856.282227	-17.952358
10118.855851	5315.833333	1855.291992	-59.489006
10118.855851	5315.833333	1854.300781	-21.481028
10118.855851	5315.833333	1853.309570	197.298065
10118.855851	5315.833333	1852.317383	153.182892
10118.855851	5315.833333	1851.326172	-23.518660
10118.855851	5315.833333	1850.333984	238.364700
10118.855851	5315.833333	1849.342773	283.272858
10118.855851	5315.833333	1848.350586	12.554661
10118.855851	5315.833333	1847.357422	-5.235449
10118.855851	5315.833333	1846.365234	82.885666
10118.855851	5315.833333	1845.372070	-12.046895
10118.855851	5315.833333	1844.379883	179.447266
10118.855851	5315.833333	1843.386719	17.051485
10118.855851	5315.833333	1842.393555	42.345306
10118.855851	5315.833333	1841.399414	84.413841
10118.855851	5315.833333	1840.406250	18.189013
10118.855851	5315.833333	1839.412109	38.505196
10118.855851	5315.833333	1838.417969	215.043655
10118.855851	5315.833333	1837.423828	38.102135
10118.855851	5315.833333	1836.429688	-64.318489
10118.855851	5315.833333	1835.434570	143.224060
10118.855851	5315.833333	1834.440430	62.345840
10118.855851	5315.833333	1833.445313	-61.795090
10118.855851	5315.833333	1832.450195	116.660553
10118.855851	5315.833333	1831.454102	107.703682
10118.855851	5315.833333	1830.458984	-62.138123
10118.855851	5315.833333	1829.462891	312.876801
10118.855851	5315.833333	1828.466797	234.144073
10118.855851	5315.833333	1827.470703	227.369629
10118.855851	5315.833333	1826.474609	117.395172
10118.855851	5315.833333	1825.478516	172.901291
10118.855851	5315.833333	1824.481445	-52.231770
10118.855851	5315.833333	1823.484375	199.772690
10118.855851	5315.833333	1822.487305	101.660660
10118.855851	5315.833333	1821.490234	-34.812065
10118.855851	5315.833333	1820.493164	307.945221
10118.855851	5315.833333	1819.495117	101.899498
10118.855851	5315.833333	1818.498047	85.111664
10118.855851	5315.833333	1817.500000	123.350616
10118.855851	5315.833333	1816.500977	228.558502
10118.855851	5315.833333	1815.502930	276.228210
10118.855851	5315.833333	1814.504883	113.203514
10118.855851	5315.833333	1813.505859	-33.067463
10118.855851	5315.833333	1812.506836	81.450325
10118.855851	5315.833333	1811.507813	21.250948
10118.855851	5315.833333	1810.508789	-41.371731
10118.855851	5315.833333	1809.508789	58.570251
10118.855851	5315.833333	1808.508789	-114.121262
10118.855851	5315.833333	1807.508789	64.569283
10118.855851	5315.833333	1806.508789	140.376205
10118.855851	5315.833333	1805.508789	328.401978
10118.855851	5315.833333	1804.508789	327.578186
10118.855851	5315.833333	1803.507813	73.516502
10118.855851	5315.833333	1802.506836	127.550354
10118.855851	5315.833333	1801.505859	-198.112320
10118.855851	5315.833333	1800.504883	-20.024307
10118.855851	5315.833333	1799.502930	81.561653
10118.855851	5315.833333	1798.501953	70.909630
10118.855851	5315.833333	1797.500000	210.503403
10118.855851	5315.833333	1796.498047	-179.547928
10118.855851	5315.833333	1795.496094	176.953812
10118.855851	5315.833333	1794.493164	-46.152531
10118.855851	5315.833333	1793.491211	-45.128757
10118.855851	5315.833333	1792.488281	175.113892
10118.855851	5315.833333	1791.485352	-24.198032
10118.855851	5315.833333	1790.482422	164.873901
10118.855851	5315.833333	1789.478516	-24.949873
10118.855851	5315.833333	1788.475586	125.834000
10118.855851	5315.833333	1787.471680	83.616539
10118.855851	5315.833333	1786.467773	143.734894
10118.855851	5315.833333	1785.463867	122.843346
10118.855851	5315.833333	1784.459961	51.927231
10118.855851	5315.833333	1783.455078	-64.235695
10118.855851	5315.833333	1782.450195	-101.902802
10118.855851	5315.833333	1781.445313	-144.368042
10118.855851	5315.833333	1780.440430	319.660583
10118.855851	5315.833333	1779.435547	158.139130
10118.855851	5315.833333	1778.429688	105.966187
10118.855851	5315.833333	1777.424805	127.444130
10118.855851	5315.833333	1776.418945	1.520509
10118.855851	5315.833333	1775.413086	-257.457153
10118.855851	5315.833333	1774.406250	1.431988
10118.855851	5315.833333	1773.400391	-62.813961
10118.855851	5315.833333	1772.393555	5.870340
10118.855851	5315.833333	1771.386719	121.953690
10118.855851	5315.833333	1770.379883	-208.295319
10118.855851	5315.833333	1769.373047	142.613571
10118.855851	5315.833333	1768.365234	275.037506
10118.855851	5315.833333	1767.358398	167.770096
10118.855851	5315.833333	1766.350586	50.992306
10118.855851	5315.833333	1765.342773	107.309021
10118.855851	5315.833333	1764.334961	-52.200603
10118.855851	5315.833333	1763.326172	177.035172
10118.855851	5315.833333	1762.318359	31.682543
10118.855851	5315.833333	1761.309570	66.403473
10118.855851	5315.833333	1760.300781	-5.553361
10118.855851	5315.833333	1759.291016	29.040846
10118.855851	5315.833333	1758.282227	279.079254
10118.855851	5315.833333	1757.272461	-48.764839
10118.855851	5315.833333	1756.262695	99.279938
10118.855851	5315.833333	1755.252930	-51.005093
10118.855851	5315.833333	1754.243164	9.318651
10118.855851	5315.833333	1753.233398	74.295204
10118.855851	5315.833333	1752.222656	-0.380139
10118.855851	5315.833333	1751.211914	95.198997
10118.855851	5315.833333	1750.201172	131.572784
10118.855851	5315.833333	1749.190430	-156.005768
10118.855851	5315.833333	1748.179688	-53.524788
10118.855851	5315.833333	1747.167969	18.129721
10118.855851	5315.833333	1746.156250	-127.671715
10118.855851	5315.833333	1745.144531	-105.747330
10118.855851	5315.833333	1744.132813	71.996773
10118.855851	5315.833333	1743.121094	-149.459778
10118.855851	5315.833333	1742.108398	-47.445557
10118.855851	5315.833333	1741.095703	-162.690384
10118.855851	5315.833333	1740.083008	-89.141342
10118.855851	5315.833333	1739.070313	-147.811966
10118.855851	5315.833333	1738.057617	34.120197
10118.855851	5315.833333	1737.043945	-88.354324
10118.855851	5315.833333	1736.030273	-15.099830
10118.855851	5315.833333	1735.016602	-3.230399
10118.855851	5315.833333	1734.002930	-102.214592
10118.855851	5315.833333	1732.989258	-59.799286
10118.855851	5315.833333	1731.974609	-140.000015
10118.855851	5315.833333	1730.959961	133.178574
10118.855851	5315.833333	1729.945313	-22.511387
10118.855851	5315.833333	1728.930664	-22.757168
10118.855851	5315.833333	1727.916016	35.810589
10118.855851	5315.833333	1726.900391	120.189827
10118.855851	5315.833333	1725.885742	-28.525843
10118.855851	5315.833333	1724.870117	-160.773407
10118.855851	5315.833333	1723.853516	-205.978531
10118.855851	5315.833333	1722.837891	-147.699677
10118.855851	5315.833333	1721.822266	-40.103985
10118.855851	5315.833333	1720.805664	-54.889069
10118.855851	5315.833333	1719.789063	45.481976
10118.855851	5315.833333	1718.772461	84.649063
10118.855851	5315.833333	1717.754883	29.733822
10118.855851	5315.833333	1716.738281	59.389290
10118.855851	5315.833333	1715.720703	-228.176743
10118.855851	5315.833333	1714.703125	-57.664429
10118.855851	5315.833333	1713.685547	-65.741455
10118.855851	5315.833333	1712.667969	-163.085251
10118.855851	5315.833333	1711.649414	-246.367371
10118.855851	5315.833333	1710.630859	-97.311218
10118.855851	5315.833333	1709.612305	4.707535
10118.855851	5315.833333	1708.593750	69.102303
10118.855851	5315.833333	1707.575195	-237.189087
10118.855851	5315.833333	1706.555664	169.521027
10118.855851	5315.833333	1705.536133	-143.811844
10118.855851	5315.833333	1704.516602	-4.619951
10118.855851	5315.833333	1703.497070	-90.538696
10118.855851	5315.833333	1702.477539	158.637360
10118.855851	5315.833333	1701.457031	-201.507813
10118.855851	5315.833333	1700.437500	-245.310028
10118.855851	5315.833333	1699.416992	-99.446480
10118.855851	5315.833333	1698.395508	1.814560
10118.855851	5315.833333	1697.375000	30.429504
10118.855851	5315.833333	1696.354492	28.559422
10118.855851	5315.833333	1695.333008	117.905281
10118.855851	5315.833333	1694.311523	99.542244
10118.855851	5315.833333	1693.290039	-47.521469
10118.855851	5315.833333	1692.267578	-131.432632
10118.855851	5315.833333	1691.246094	83.981453
10118.855851	5315.833333	1690.223633	91.176796
10118.855851	5315.833333	1689.201172	-205.555405
10118.855851	5315.833333	1688.178711	-182.030151
10118.855851	5315.833333	1687.155273	318.113464
10118.855851	5315.833333	1686.132813	-44.025726
10118.855851	5315.833333	1685.109375	-125.785942
10118.855851	5315.833333	1684.085938	-200.548660
10118.855851	5315.833333	1683.062500	-202.939377
10118.855851	5315.833333	1682.039063	287.193726
10118.855851	5315.833333	1681.014648	65.229973
10118.855851	5315.833333	1679.990234	18.327097
10118.855851	5315.833333	1678.965820	239.707275
10118.855851	5315.833333	1677.941406	-5.556745
10118.855851	5315.833333	1676.916992	103.727943
10118.855851	5315.833333	1675.891602	103.331154
10118.855851	5315.833333	1674.866211	-9.001317
10118.855851	5315.833333	1673.840820	-84.031639
10118.855851	5315.833333	1672.815430	118.247559
10118.855851	5315.833333	1671.790039	108.392456
10118.855851	5315.833333	1670.763672	-76.214905
10118.855851	5315.833333	1669.737305	181.731979
10118.855851	5315.833333	1668.710938	1.774664
10118.855851	5315.833333	1667.684570	29.058250
10118.855851	5315.833333	1666.658203	242.514938
10118.855851	5315.833333	1665.630859	155.634079
10118.855851	5315.833333	1664.603516	247.919601
10118.855851	5315.833333	1663.576172	172.643570
10118.855851	5315.833333	1662.548828	276.462830
10118.855851	5315.833333	1661.520508	54.640079
10118.855851	5315.833333	1660.493164	230.458282
10118.855851	5315.833333	1659.464844	357.356354
10118.855851	5315.833333	1658.436523	165.777817
10118.855851	5315.833333	1657.408203	383.209625
10118.855851	5315.833333	1656.378906	17.398853
10118.855851	5315.833333	1655.350586	18.710627
10118.855851	5315.833333	1654.321289	131.452881
10118.855851	5315.833333	1653.291992	174.475525
10118.855851	5315.833333	1652.261719	259.228668
10118.855851	5315.833333	1651.232422	457.667511
10118.855851	5315.833333	1650.202148	444.832245
10118.855851	5315.833333	1649.171875	313.656891
10118.855851	5315.833333	1648.141602	282.255371
10118.855851	5315.833333	1647.111328	603.356812
10118.855851	5315.833333	1646.080078	395.639893
10118.855851	5315.833333	1645.049805	331.727905
10118.855851	5315.833333	1644.018555	460.188293
10118.855851	5315.833333	1642.987305	495.888733
10118.855851	5315.833333	1641.955078	380.947235
10118.855851	5315.833333	1640.923828	439.782196
10118.855851	5315.833333	1639.891602	222.962936
10118.855851	5315.833333	1638.859375	497.109161
10118.855851	5315.833333	1637.827148	442.393402
10118.855851	5315.833333	1636.794922	628.408264
10118.855851	5315.833333	1635.761719	555.134949
10118.855851	5315.833333	1634.729492	669.308350
10118.855851	5315.833333	1633.696289	540.515320
10118.855851	5315.833333	1632.662109	460.317200
10118.855851	5315.833333	1631.628906	262.224243
10118.855851	5315.833333	1630.594727	452.594788
10118.855851	5315.833333	1629.561523	349.335632
10118.855851	5315.833333	1628.527344	394.004364
10118.855851	5315.833333	1627.493164	461.755951
10118.855851	5315.833333	1626.458008	494.809967
10118.855851	5315.833333	1625.423828	585.602539
10118.855851	5315.833333	1624.388672	438.488129
10118.855851	5315.833333	1623.353516	566.178345
10118.855851	5315.833333	1622.318359	506.838013
10118.855851	5315.833333	1621.282227	652.909424
10118.855851	5315.833333	1620.247070	609.725159
10118.855851	5315.833333	1619.210938	218.184723
10118.855851	5315.833333	1618.174805	465.718384
10118.855851	5315.833333	1617.137695	713.143555
10118.855851	5315.833333	1616.101563	460.156006
10118.855851	5315.833333	1615.064453	746.680664
10118.855851	5315.833333	1614.027344	832.581482
10118.855851	5315.833333	1612.990234	849.324158
10118.855851	5315.833333	1611.953125	720.921082
10118.855851	5315.833333	1610.916016	776.849670
10118.855851	5315.833333	1609.877930	961.716492
10118.855851	5315.833333	1608.839844	706.736938
10118.855851	5315.833333	1607.801758	781.062256
10118.855851	5315.833333	1606.763672	933.624878
10118.855851	5315.833333	1605.724609	872.113403
10118.855851	5315.833333	1604.685547	971.690552
10118.855851	5315.833333	1603.646484	986.130554
10118.855851	5315.833333	1602.607422	945.381470
10118.855851	5315.833333	1601.568359	883.967651
10118.855851	5315.833333	1600.528320	1103.050415
10118.855851	5315.833333	1599.489258	970.405212
10118.855851	5315.833333	1598.449219	982.594299
10118.855851	5315.833333	1597.408203	877.604858
10118.855851	5315.833333	1596.368164	1112.665405
10118.855851	5315.833333	1595.327148	1202.947632
10118.855851	5315.833333	1594.287109	859.234497
10118.855851	5315.833333	1593.246094	919.727234
10118.855851	5315.833333	1592.204102	998.567322
10118.855851	5315.833333	1591.163086	1171.502563
10118.855851	5315.833333	1590.121094	793.710815
10118.855851	5315.833333	1589.079102	1037.768433
10118.855851	5315.833333	1588.037109	1029.463501
10118.855851	5315.833333	1586.995117	1009.720581
10118.855851	5315.833333	1585.953125	898.308167
10118.855851	5315.833333	1584.910156	1027.636108
10118.855851	5315.833333	1583.867188	643.585510
10118.855851	5315.833333	1582.824219	928.780090
10118.855851	5315.833333	1581.781250	991.679749
10118.855851	5315.833333	1580.737305	456.772736
10118.855851	5315.833333	1579.693359	680.090149
10118.855851	5315.833333	1578.649414	768.269714
10118.855851	5315.833333	1577.605469	611.517273
10118.855851	5315.833333	1576.561523	681.435303
10118.855851	5315.833333	1575.516602	762.791382
10118.855851	5315.833333	1574.472656	732.064697
10118.855851	5315.833333	1573.427734	552.703735
10118.855851	5315.833333	1572.381836	915.416443
10118.855851	5315.833333	1571.336914	596.697327
10118.855851	5315.833333	1570.291016	735.319458
10118.855851	5315.833333	1569.246094	691.099304
10118.855851	5315.833333	1568.200195	713.194763
10118.855851	5315.833333	1567.153320	472.583527
10118.855851	5315.833333	1566.107422	755.191162
10118.855851	5315.833333	1565.060547	706.586060
10118.855851	5315.833333	1564.013672	527.900391
10118.855851	5315.833333	1562.966797	438.359680
10118.855851	5315.833333	1561.919922	846.455017
10118.855851	5315.833333	1560.872070	416.968292
10118.855851	5315.833333	1559.825195	626.518005
10118.855851	5315.833333	1558.777344	845.149719
10118.855851	5315.833333	1557.729492	502.727600
10118.855851	5315.833333	1556.680664	643.864014
10118.855851	5315.833333	1555.632813	755.376099
10118.855851	5315.833333	1554.583984	705.059875
10118.855851	5315.833333	1553.535156	757.363403
10118.855851	5315.833333	1552.486328	764.137146
10118.855851	5315.833333	1551.436523	755.007263
10118.855851	5315.833333	1550.387695	809.718140
10118.855851	5315.833333	1549.337891	675.464783
10118.855851	5315.833333	1548.288086	657.427368
10118.855851	5315.833333	1547.238281	773.747437
10118.855851	5315.833333	1546.187500	783.115784
10118.855851	5315.833333	1545.136719	881.273132
10118.855851	5315.833333	1544.086914	663.279968
10118.855851	5315.833333	1543.035156	766.086853
10118.855851	5315.833333	1541.984375	964.432434
10118.855851	5315.833333	1540.933594	612.603577
10118.855851	5315.833333	1539.881836	792.838440
10118.855851	5315.833333	1538.830078	923.074402
10118.855851	5315.833333	1537.778320	857.931519
10118.855851	5315.833333	1536.725586	690.652100
10118.855851	5315.833333	1535.673828	836.935669
10118.855851	5315.833333	1534.621094	635.807129
10118.855851	5315.833333	1533.568359	552.881348
10118.855851	5315.833333	1532.515625	554.043823
10118.855851	5315.833333	1531.461914	646.045044
10118.855851	5315.833333	1530.409180	561.119019
10118.855851	5315.833333	1529.355469	576.103821
10118.855851	5315.833333	1528.301758	411.985046
10118.855851	5315.833333	1527.247070	653.894226
10118.855851	5315.833333	1526.193359	528.521851
10118.855851	5315.833333	1525.138672	493.935059
10118.855851	5315.833333	1524.083984	509.298767
10118.855851	5315.833333	1523.029297	527.000488
10118.855851	5315.833333	1521.974609	442.839874
10118.855851	5315.833333	1520.918945	503.736053
10118.855851	5315.833333	1519.863281	639.418030
10118.855851	5315.833333	1518.807617	489.869110
10118.855851	5315.833333	1517.751953	356.308685
10118.855851	5315.833333	1516.696289	204.780563
10118.855851	5315.833333	1515.639648	234.403534
10118.855851	5315.833333	1514.583008	318.392487
10118.855851	5315.833333	1513.526367	397.912292
10118.855851	5315.833333	1512.469727	233.272232
10118.855851	5315.833333	1511.412109	328.773102
10118.855851	5315.833333	1510.355469	216.380142
10118.855851	5315.833333	1509.297852	284.911011
10118.855851	5315.833333	1508.240234	251.828110
10118.855851	5315.833333	1507.181641	209.807571
10118.855851	5315.833333	1506.124023	260.509216
10118.855851	5315.833333	1505.065430	383.536530
10118.855851	5315.833333	1504.006836	5.400408
10118.855851	5315.833333	1502.948242	209.882797
10118.855851	5315.833333	1501.888672	366.980591
10118.855851	5315.833333	1500.830078	27.719759
10118.855851	5315.833333	1499.770508	142.124710
10118.855851	5315.833333	1498.710938	35.547611
10118.855851	5315.833333	1497.650391	335.011078
10118.855851	5315.833333	1496.590820	217.364548
10118.855851	5315.833333	1495.530273	217.074570
10118.855851	5315.833333	1494.469727	266.467499
10118.855851	5315.833333	1493.409180	167.231491
10118.855851	5315.833333	1492.348633	83.908226
10118.855851	5315.833333	1491.287109	23.237648
10118.855851	5315.833333	1490.225586	178.877747
10118.855851	5315.833333	1489.164063	98.161201
10118.855851	5315.833333	1488.102539	55.850334
10118.855851	5315.833333	1487.041016	103.684044
10118.855851	5315.833333	1485.978516	270.855896
10118.855851	5315.833333	1484.916016	366.103424
10118.855851	5315.833333	1483.853516	288.190918
10118.855851	5315.833333	1482.791016	91.259560
10118.855851	5315.833333	1481.727539	-100.971291
10118.855851	5315.833333	1480.664063	-113.198128
10118.855851	5315.833333	1479.600586	196.063980
10118.855851	5315.833333	1478.537109	-31.676588
10118.855851	5315.833333	1477.473633	311.301422
10118.855851	5315.833333	1476.409180	79.475670
10118.855851	5315.833333	1475.344727	96.932304
10118.855851	5315.833333	1474.280273	22.542936
10118.855851	5315.833333	1473.215820	-51.744640
10118.855851	5315.833333	1472.151367	-121.090065
10118.855851	5315.833333	1471.085938	-58.333519
10118.855851	5315.833333	1470.020508	-35.651169
10118.855851	5315.833333	1468.955078	-44.411667
10118.855851	5315.833333	1467.888672	133.179901
10118.855851	5315.833333	1466.823242	-182.365112
10118.855851	5315.833333	1465.756836	44.439190
10118.855851	5315.833333	1464.690430	-90.830040
10118.855851	5315.833333	1463.624023	14.784686
10118.855851	5315.833333	1462.556641	52.113941
10118.855851	5315.833333	1461.490234	260.734344
10118.855851	5315.833333	1460.422852	14.068414
10118.855851	5315.833333	1459.355469	223.054031
10118.855851	5315.833333	1458.287109	-52.298115
10118.855851	5315.833333	1457.219727	110.626694
10118.855851	5315.833333	1456.151367	102.658142
10118.855851	5315.833333	1455.083008	155.977737
10118.855851	5315.833333	1454.014648	104.449127
10118.855851	5315.833333	1452.945313	36.743729
10118.855851	5315.833333	1451.876953	22.719177
10118.855851	5315.833333	1450.807617	-113.287849
10118.855851	5315.833333	1449.738281	192.159378
10118.855851	5315.833333	1448.668945	176.567062
10118.855851	5315.833333	1447.598633	209.122772
10118.855851	5315.833333	1446.528320	227.579285
10118.855851	5315.833333	1445.458008	142.526733
10118.855851	5315.833333	1444.387695	130.539658
10118.855851	5315.833333	1443.317383	-61.104298
10118.855851	5315.833333	1442.246094	-98.281479
10118.855851	5315.833333	1441.174805	212.785645
10118.855851	5315.833333	1440.103516	-0.408527
10118.855851	5315.833333	1439.032227	70.517120
10118.855851	5315.833333	1437.960938	93.428070
10118.855851	5315.833333	1436.888672	76.491539
10118.855851	5315.833333	1435.816406	106.046875
10118.855851	5315.833333	1434.744141	115.145088
10118.855851	5315.833333	1433.670898	160.568970
10118.855851	5315.833333	1432.598633	92.267349
10118.855851	5315.833333	1431.525391	-179.348602
10118.855851	5315.833333	1430.452148	-211.516342
10118.855851	5315.833333	1429.378906	-13.909532
10118.855851	5315.833333	1428.304688	-218.041687
10118.855851	5315.833333	1427.231445	148.560120
10118.855851	5315.833333	1426.157227	65.978210
10118.855851	5315.833333	1425.083008	13.210744
10118.855851	5315.833333	1424.007813	-57.972122
10118.855851	5315.833333	1422.933594	-115.856277
10118.855851	5315.833333	1421.858398	-217.672943
10118.855851	5315.833333	1420.783203	-422.426422
10118.855851	5315.833333	1419.708008	-138.544357
10118.855851	5315.833333	1418.631836	28.579905
10118.855851	5315.833333	1417.555664	-79.765358
10118.855851	5315.833333	1416.479492	-395.464874
10118.855851	5315.833333	1415.403320	-204.167007
10118.855851	5315.833333	1414.327148	-213.688141
10118.855851	5315.833333	1413.250000	16.940275
10118.855851	5315.833333	1412.173828	-167.171799
10118.855851	5315.833333	1411.096680	-193.145752
10118.855851	5315.833333	1410.018555	-116.321053
10118.855851	5315.833333	1408.941406	-275.744781
10118.855851	5315.833333	1407.863281	-186.584518
10118.855851	5315.833333	1406.785156	24.474045
10118.855851	5315.833333	1405.707031	53.208183
10118.855851	5315.833333	1404.628906	122.174492
10118.855851	5315.833333	1403.549805	54.932415
10118.855851	5315.833333	1402.470703	216.266373
10118.855851	5315.833333	1401.391602	-33.888176
10118.855851	5315.833333	1400.312500	-24.586002
10118.855851	5315.833333	1399.233398	-155.012756
10118.855851	5315.833333	1398.153320	-56.563503
10118.855851	5315.833333	1397.073242	133.559174
10118.855851	5315.833333	1395.993164	-146.193665
10118.855851	5315.833333	1394.913086	63.697334
10118.855851	5315.833333	1393.832031	82.417671
10118.855851	5315.833333	1392.750977	45.535706
10118.855851	5315.833333	1391.669922	258.150879
10118.855851	5315.833333	1390.588867	108.206345
10118.855851	5315.833333	1389.506836	-178.215454
10118.855851	5315.833333	1388.425781	-55.102104
10118.855851	5315.833333	1387.343750	167.078735
10118.855851	5315.833333	1386.261719	151.236389
10118.855851	5315.833333	1385.178711	27.945955
10118.855851	5315.833333	1384.096680	187.377014
10118.855851	5315.833333	1383.013672	38.931969
10118.855851	5315.833333	1381.930664	195.113403
10118.855851	5315.833333	1380.846680	-170.645752
10118.855851	5315.833333	1379.763672	49.961746
10118.855851	5315.833333	1378.679688	-171.727142
10118.855851	5315.833333	1377.595703	104.633347
10118.855851	5315.833333	1376.511719	248.912064
10118.855851	5315.833333	1375.427734	162.614532
10118.855851	5315.833333	1374.342773	-152.722122
10118.855851	5315.833333	1373.257813	-55.543659
10118.855851	5315.833333	1372.172852	118.417137
10118.855851	5315.833333	1371.087891	172.665771
10118.855851	5315.833333	1370.001953	181.702698
10118.855851	5315.833333	1368.916992	185.016235
10118.855851	5315.833333	1367.831055	-56.271152
10118.855851	5315.833333	1366.744141	-70.934891
10118.855851	5315.833333	1365.658203	105.711807
10118.855851	5315.833333	1364.571289	37.899517
10118.855851	5315.833333	1363.484375	13.671553
10118.855851	5315.833333	1362.397461	65.084106
10118.855851	5315.833333	1361.310547	261.054688
10118.855851	5315.833333	1360.222656	434.408966
10118.855851	5315.833333	1359.135742	156.986557
10118.855851	5315.833333	1358.047852	228.261566
10118.855851	5315.833333	1356.958984	256.827606
10118.855851	5315.833333	1355.871094	279.841919
10118.855851	5315.833333	1354.782227	295.587891
10118.855851	5315.833333	1353.693359	80.379166
10118.855851	5315.833333	1352.604492	-73.733994
10118.855851	5315.833333	1351.515625	173.712708
10118.855851	5315.833333	1350.425781	54.809559
10118.855851	5315.833333	1349.335938	161.115784
10118.855851	5315.833333	1348.246094	285.464813
10118.855851	5315.833333	1347.156250	233.912720
10118.855851	5315.833333	1346.066406	127.755775
10118.855851	5315.833333	1344.975586	273.905090
10118.855851	5315.833333	1343.884766	156.196640
10118.855851	5315.833333	1342.793945	279.319275
10118.855851	5315.833333	1341.702148	498.053497
10118.855851	5315.833333	1340.611328	207.738876
10118.855851	5315.833333	1339.519531	148.366837
10118.855851	5315.833333	1338.427734	167.323563
10118.855851	5315.833333	1337.334961	461.751312
10118.855851	5315.833333	1336.243164	277.629333
10118.855851	5315.833333	1335.150391	274.602234
10118.855851	5315.833333	1334.057617	26.721781
10118.855851	5315.833333	1332.964844	464.510681
10118.855851	5315.833333	1331.871094	218.269882
10118.855851	5315.833333	1330.778320	277.895538
10118.855851	5315.833333	1329.684570	346.988312
10118.855851	5315.833333	1328.590820	310.751709
10118.855851	5315.833333	1327.496094	54.408951
10118.855851	5315.833333	1326.402344	280.365051
10118.855851	5315.833333	1325.307617	249.444183
10118.855851	5315.833333	1324.212891	166.822021
10118.855851	5315.833333	1323.117188	143.284637
10118.855851	5315.833333	1322.022461	203.347580
10118.855851	5315.833333	1320.926758	154.550568
10118.855851	5315.833333	1319.831055	48.805248
10118.855851	5315.833333	1318.735352	-50.596218
10118.855851	5315.833333	1317.638672	-26.179846
10118.855851	5315.833333	1316.542969	75.791573
10118.855851	5315.833333	1315.446289	95.692680
10118.855851	5315.833333	1314.349609	116.217773
10118.855851	5315.833333	1313.251953	140.196655
10118.855851	5315.833333	1312.155273	59.027863
10118.855851	5315.833333	1311.057617	-82.549973
10118.855851	5315.833333	1309.959961	42.131660
10118.855851	5315.833333	1308.862305	242.710571
10118.855851	5315.833333	1307.763672	148.630264
10118.855851	5315.833333	1306.665039	91.199570
10118.855851	5315.833333	1305.566406	116.517220
10118.855851	5315.833333	1304.467773	-109.683289
10118.855851	5315.833333	1303.369141	72.886192
10118.855851	5315.833333	1302.269531	155.745728
10118.855851	5315.833333	1301.169922	275.477142
10118.855851	5315.833333	1300.070313	95.905685
10118.855851	5315.833333	1298.970703	350.924957
10118.855851	5315.833333	1297.870117	135.569016
10118.855851	5315.833333	1296.769531	205.638046
10118.855851	5315.833333	1295.668945	260.789307
10118.855851	5315.833333	1294.568359	448.293335
10118.855851	5315.833333	1293.466797	171.121964
10118.855851	5315.833333	1292.366211	131.059235
10118.855851	5315.833333	1291.264648	1.782226
10118.855851	5315.833333	1290.162109	197.405426
10118.855851	5315.833333	1289.060547	179.313965
10118.855851	5315.833333	1287.958008	81.771301
10118.855851	5315.833333	1286.855469	120.244843
10118.855851	5315.833333	1285.752930	72.481651
10118.855851	5315.833333	1284.650391	-163.351303
10118.855851	5315.833333	1283.546875	161.773102
10118.855851	5315.833333	1282.444336	-22.803892
10118.855851	5315.833333	1281.339844	45.520832
10118.855851	5315.833333	1280.236328	-17.504353
10118.855851	5315.833333	1279.132813	85.626244
10118.855851	5315.833333	1278.028320	-42.306030
10118.855851	5315.833333	1276.923828	-69.809059
10118.855851	5315.833333	1275.819336	-85.274498
10118.855851	5315.833333	1274.713867	-38.325127
10118.855851	5315.833333	1273.608398	-261.633087
10118.855851	5315.833333	1272.503906	-353.456757
10118.855851	5315.833333	1271.397461	-119.724495
10118.855851	5315.833333	1270.291992	-44.642841
10118.855851	5315.833333	1269.185547	-145.725433
10118.855851	5315.833333	1268.080078	-323.980408
10118.855851	5315.833333	1266.972656	-190.233902
10118.855851	5315.833333	1265.866211	8.394708
10118.855851	5315.833333	1264.759766	-227.111542
10118.855851	5315.833333	1263.652344	-237.173721
10118.855851	5315.833333	1262.544922	-279.564240
10118.855851	5315.833333	1261.436523	-6.715754
10118.855851	5315.833333	1260.329102	-205.463394
10118.855851	5315.833333	1259.220703	81.820801
10118.855851	5315.833333	1258.112305	-357.276428
10118.855851	5315.833333	1257.003906	-174.013962
10118.855851	5315.833333	1255.895508	-208.578476
10118.855851	5315.833333	1254.786133	-334.167999
10118.855851	5315.833333	1253.676758	-235.801453
10118.855851	5315.833333	1252.567383	-108.749466
10118.855851	5315.833333	1251.458008	-196.567856
10118.855851	5315.833333	1250.347656	-123.970100
10118.855851	5315.833333	1249.237305	-178.268295
10118.855851	5315.833333	1248.126953	-74.063148
10118.855851	5315.833333	1247.016602	-52.545246
10118.855851	5315.833333	1245.905273	-196.283401
10118.855851	5315.833333	1244.793945	-148.628922
10118.855851	5315.833333	1243.682617	-1.270436
10118.855851	5315.833333	1242.571289	54.380772
10118.855851	5315.833333	1241.459961	20.313816
10118.855851	5315.833333	1240.347656	33.204193
10118.855851	5315.833333	1239.235352	-29.297653
10118.855851	5315.833333	1238.123047	168.926285
10118.855851	5315.833333	1237.009766	182.996918
10118.855851	5315.833333	1235.897461	183.036270
10118.855851	5315.833333	1234.784180	219.879089
10118.855851	5315.833333	1233.670898	8.351441
10118.855851	5315.833333	1232.556641	10.834104
10118.855851	5315.833333	1231.443359	56.159809
10118.855851	5315.833333	1230.329102	132.950653
10118.855851	5315.833333	1229.214844	137.690765
10118.855851	5315.833333	1228.099609	230.178986
10118.855851	5315.833333	1226.985352	260.497864
10118.855851	5315.833333	1225.870117	137.402512
10118.855851	5315.833333	1224.754883	-8.363297
10118.855851	5315.833333	1223.639648	78.673935
10118.855851	5315.833333	1222.523438	260.069000
10118.855851	5315.833333	1221.408203	35.376934
10118.855851	5315.833333	1220.291992	264.071716
10118.855851	5315.833333	1219.174805	74.373001
10118.855851	5315.833333	1218.058594	108.232170
10118.855851	5315.833333	1216.941406	119.301079
10118.855851	5315.833333	1215.824219	102.694496
10118.855851	5315.833333	1214.707031	116.835136
10118.855851	5315.833333	1213.589844	272.161346
10118.855851	5315.833333	1212.471680	37.161602
10118.855851	5315.833333	1211.353516	-43.217289
10118.855851	5315.833333	1210.235352	-59.912979
10118.855851	5315.833333	1209.117188	76.543144
10118.855851	5315.833333	1207.998047	73.566391
10118.855851	5315.833333	1206.878906	204.274399
10118.855851	5315.833333	1205.759766	63.744186
10118.855851	5315.833333	1204.640625	94.640663
10118.855851	5315.833333	1203.520508	9.687764
10118.855851	5315.833333	1202.401367	-34.150631
10118.855851	5315.833333	1201.281250	-24.493917
10118.855851	5315.833333	1200.160156	56.374577
10118.855851	5315.833333	1199.040039	75.536919
10118.855851	5315.833333	1197.918945	-91.201485
10118.855851	5315.833333	1196.797852	-3.462254
10118.855851	5315.833333	1195.676758	35.990837
10118.855851	5315.833333	1194.555664	40.635227
10118.855851	5315.833333	1193.433594	-111.148911
10118.855851	5315.833333	1192.311523	-44.855232
10118.855851	5315.833333	1191.189453	-286.346130
10118.855851	5315.833333	1190.066406	-138.671143
10118.855851	5315.833333	1188.944336	-245.388687
10118.855851	5315.833333	1187.821289	-198.901459
10118.855851	5315.833333	1186.698242	-217.506760
10118.855851	5315.833333	1185.574219	-150.636978
10118.855851	5315.833333	1184.451172	-201.214661
10118.855851	5315.833333	1183.327148	-104.218781
10118.855851	5315.833333	1182.203125	-49.295204
10118.855851	5315.833333	1181.078125	-127.498421
10118.855851	5315.833333	1179.954102	-193.823120
10118.855851	5315.833333	1178.829102	-131.531570
10118.855851	5315.833333	1177.704102	-89.866234
10118.855851	5315.833333	1176.579102	-38.552731
10118.855851	5315.833333	1175.453125	-222.525513
10118.855851	5315.833333	1174.327148	-93.901009
10118.855851	5315.833333	1173.201172	-113.711441
10118.855851	5315.833333	1172.075195	-29.051552
10118.855851	5315.833333	1170.949219	-56.786579
10118.855851	5315.833333	1169.822266	-22.436026
10118.855851	5315.833333	1168.695313	-14.824178
10118.855851	5315.833333	1167.568359	-128.157074
10118.855851	5315.833333	1166.440430	50.316223
10118.855851	5315.833333	1165.313477	-157.850449
10118.855851	5315.833333	1164.185547	-173.460938
10118.855851	5315.833333	1163.057617	-57.088360
10118.855851	5315.833333	1161.928711	-148.816864
10118.855851	5315.833333	1160.800781	-56.062042
10118.855851	5315.833333	1159.671875	10.961865
10118.855851	5315.833333	1158.541992	-172.225632
10118.855851	5315.833333	1157.413086	-50.097561
10118.855851	5315.833333	1156.283203	103.226410
10118.855851	5315.833333	1155.154297	57.751942
10118.855851	5315.833333	1154.023438	25.198631
10118.855851	5315.833333	1152.893555	131.214264
10118.855851	5315.833333	1151.763672	180.874710
10118.855851	5315.833333	1150.632813	92.516457
10118.855851	5315.833333	1149.501953	139.569794
10118.855851	5315.833333	1148.370117	118.763710
10118.855851	5315.833333	1147.239258	25.917923
10118.855851	5315.833333	1146.107422	83.260765
10118.855851	5315.833333	1144.975586	180.426804
10118.855851	5315.833333	1143.843750	50.318565
10118.855851	5315.833333	1142.710938	81.246872
10118.855851	5315.833333	1141.578125	81.790802
10118.855851	5315.833333	1140.445313	-45.341457
10118.855851	5315.833333	1139.312500	-77.099907
10118.855851	5315.833333	1138.178711	29.241184
10118.855851	5315.833333	1137.045898	-65.037628
10118.855851	5315.833333	1135.912109	-159.066177
10118.855851	5315.833333	1134.777344	-113.313126
10118.855851	5315.833333	1133.643555	107.512161
10118.855851	5315.833333	1132.508789	-205.748734
10118.855851	5315.833333	1131.374023	-99.768211
10118.855851	5315.833333	1130.239258	-100.729591
10118.855851	5315.833333	1129.104492	183.771683
10118.855851	5315.833333	1127.968750	-186.728485
10118.855851	5315.833333	1126.833008	-78.465714
10118.855851	5315.833333	1125.697266	130.102280
10118.855851	5315.833333	1124.560547	-2.394025
10118.855851	5315.833333	1123.424805	-136.558472
10118.855851	5315.833333	1122.288086	34.983845
10118.855851	5315.833333	1121.151367	-174.956512
10118.855851	5315.833333	1120.013672	-2.538295
10118.855851	5315.833333	1118.876953	60.450562
10118.855851	5315.833333	1117.739258	97.324966
10118.855851	5315.833333	1116.601563	164.918213
10118.855851	5315.833333	1115.462891	43.634842
10118.855851	5315.833333	1114.324219	196.297531
10118.855851	5315.833333	1113.186523	118.124763
10118.855851	5315.833333	1112.046875	183.520386
10118.855851	5315.833333	1110.908203	146.701492
10118.855851	5315.833333	1109.769531	98.719978
10118.855851	5315.833333	1108.629883	8.527925
10118.855851	5315.833333	1107.490234	-7.784954
10118.855851	5315.833333	1106.349609	11.881738
10118.855851	5315.833333	1105.209961	173.826599
10118.855851	5315.833333	1104.069336	179.680557
10118.855851	5315.833333	1102.928711	171.898880
10118.855851	5315.833333	1101.787109	239.763382
10118.855851	5315.833333	1100.646484	214.939407
10118.855851	5315.833333	1099.504883	231.674622
10118.855851	5315.833333	1098.363281	114.203880
10118.855851	5315.833333	1097.221680	154.622437
10118.855851	5315.833333	1096.079102	272.340759
10118.855851	5315.833333	1094.936523	265.046997
10118.855851	5315.833333	1093.793945	160.964432
10118.855851	5315.833333	1092.651367	121.514526
10118.855851	5315.833333	1091.507813	42.409252
10118.855851	5315.833333	1090.364258	77.166222
10118.855851	5315.833333	1089.220703	21.977463
10118.855851	5315.833333	1088.077148	346.247894
10118.855851	5315.833333	1086.933594	96.163704
10118.855851	5315.833333	1085.789063	182.713913
10118.855851	5315.833333	1084.644531	65.162636
10118.855851	5315.833333	1083.499023	-33.200466
10118.855851	5315.833333	1082.354492	227.099930
10118.855851	5315.833333	1081.208984	32.300694
10118.855851	5315.833333	1080.063477	28.226780
10118.855851	5315.833333	1078.917969	104.094719
10118.855851	5315.833333	1077.771484	220.412659
10118.855851	5315.833333	1076.625977	90.034592
10118.855851	5315.833333	1075.479492	-117.153854
10118.855851	5315.833333	1074.332031	152.358582
10118.855851	5315.833333	1073.185547	165.195923
10118.855851	5315.833333	1072.038086	38.984581
10118.855851	5315.833333	1070.890625	152.378311
10118.855851	5315.833333	1069.743164	19.162085
10118.855851	5315.833333	1068.594727	95.858200
10118.855851	5315.833333	1067.447266	113.629517
10118.855851	5315.833333	1066.298828	-16.009539
10118.855851	5315.833333	1065.149414	22.468998
10118.855851	5315.833333	1064.000977	1.043899
10118.855851	5315.833333	1062.851563	103.121750
10118.855851	5315.833333	1061.702148	-12.283650
10118.855851	5315.833333	1060.552734	-2.775909
10118.855851	5315.833333	1059.402344	5.979259
10118.855851	5315.833333	1058.252930	253.538559
10118.855851	5315.833333	1057.102539	-80.777046
10118.855851	5315.833333	1055.951172	-36.357502
10118.855851	5315.833333	1054.800781	64.505760
10118.855851	5315.833333	1053.649414	119.027809
10118.855851	5315.833333	1052.498047	248.853958
10118.855851	5315.833333	1051.346680	269.289886
10118.855851	5315.833333	1050.194336	332.656647
10118.855851	5315.833333	1049.042969	353.540558
10118.855851	5315.833333	1047.890625	367.842529
10118.855851	5315.833333	1046.738281	307.469055
10118.855851	5315.833333	1045.584961	220.088608
10118.855851	5315.833333	1044.431641	184.414490
10118.855851	5315.833333	1043.278320	276.451660
10118.855851	5315.833333	1042.125000	99.576172
10118.855851	5315.833333	1040.971680	206.609406
10118.855851	5315.833333	1039.817383	120.141396
10118.855851	5315.833333	1038.663086	64.364395
10118.855851	5315.833333	1037.508789	244.003128
10118.855851	5315.833333	1036.353516	59.855446
10118.855851	5315.833333	1035.198242	183.906830
10118.855851	5315.833333	1034.042969	288.261902
10118.855851	5315.833333	1032.887695	369.397400
10118.855851	5315.833333	1031.732422	324.302734
10118.855851	5315.833333	1030.576172	341.137787
10118.855851	5315.833333	1029.419922	176.995804
10118.855851	5315.833333	1028.263672	311.200287
10118.855851	5315.833333	1027.106445	210.173538
10118.855851	5315.833333	1025.949219	206.390976
10118.855851	5315.833333	1024.792969	167.970856
10118.855851	5315.833333	1023.634766	150.361053
10118.855851	5315.833333	1022.477539	91.732346
10118.855851	5315.833333	1021.319336	246.108459
10118.855851	5315.833333	1020.161133	38.179047
10118.855851	5315.833333	1019.002930	249.077209
10118.855851	5315.833333	1017.843750	43.325382
10118.855851	5315.833333	1016.684570	63.763863
10118.855851	5315.833333	1015.525391	78.012093
10118.855851	5315.833333	1014.366211	-25.685480
10118.855851	5315.833333	1013.207031	222.882401
10118.855851	5315.833333	1012.046875	191.156830
10118.855851	5315.833333	1010.886719	40.327110
10118.855851	5315.833333	1009.726563	-65.248001
10118.855851	5315.833333	1008.565430	59.038406
10118.855851	5315.833333	1007.404297	117.736252
10118.855851	5315.833333	1006.243164	203.384964
10118.855851	5315.833333	1005.082031	124.853081
10118.855851	5315.833333	1003.920898	3.807015
10118.855851	5315.833333	1002.758789	69.749855
10118.855851	5315.833333	1001.596680	134.351044
10118.855851	5315.833333	1000.433594	274.448547
10118.855851	5315.833333	999.271484	-34.112869
10118.855851	5315.833333	998.108398	34.318825
10118.855851	5315.833333	996.945313	-22.839577
10118.855851	5315.833333	995.782227	55.555923
10118.855851	5315.833333	994.618164	237.355667
10118.855851	5315.833333	993.454102	-31.230328
10118.855851	5315.833333	992.290039	167.477097
10118.855851	5315.833333	991.125977	316.315308
10118.855851	5315.833333	989.960938	170.448914
10118.855851	5315.833333	988.796875	291.728851
10118.855851	5315.833333	987.630859	243.742401
10118.855851	5315.833333	986.465820	340.514587
10118.855851	5315.833333	985.300781	202.961899
10118.855851	5315.833333	984.134766	148.029877
10118.855851	5315.833333	982.968750	334.009247
10118.855851	5315.833333	981.801758	114.471405
10118.855851	5315.833333	980.635742	-5.889999
10118.855851	5315.833333	979.468750	203.712799
10118.855851	5315.833333	978.301758	12.435049
10118.855851	5315.833333	977.133789	11.637973
10118.855851	5315.833333	975.966797	215.004990
10118.855851	5315.833333	974.798828	121.290192
10118.855851	5315.833333	973.630859	135.364914
10118.855851	5315.833333	972.461914	3.266926
10118.855851	5315.833333	971.293945	117.249474
10118.855851	5315.833333	970.125000	49.423634
10118.855851	5315.833333	968.956055	-221.106598
10118.855851	5315.833333	967.786133	-208.213791
10118.855851	5315.833333	966.617188	-226.699921
10118.855851	5315.833333	965.447266	-176.557846
10118.855851	5315.833333	964.276367	-216.432617
10118.855851	5315.833333	963.106445	166.409286
10118.855851	5315.833333	961.935547	120.373131
10118.855851	5315.833333	960.764648	30.817236
10118.855851	5315.833333	959.593750	-108.399384
10118.855851	5315.833333	958.422852	61.079361
10118.855851	5315.833333	957.250977	-250.131256
10118.855851	5315.833333	956.079102	-188.279160
10118.855851	5315.833333	954.907227	64.678284
10118.855851	5315.833333	953.734375	-134.076401
10118.855851	5315.833333	952.562500	36.133617
10118.855851	5315.833333	951.389648	-77.483528
10118.855851	5315.833333	950.215820	-212.240829
10118.855851	5315.833333	949.042969	-104.650581
10118.855851	5315.833333	947.869141	-180.145584
10118.855851	5315.833333	946.695313	-55.399109
10118.855851	5315.833333	945.521484	66.235001
10118.855851	5315.833333	944.346680	98.056091
10118.855851	5315.833333	943.172852	-146.485748
10118.855851	5315.833333	941.998047	-134.545456
10118.855851	5315.833333	940.822266	-48.321697
10118.855851	5315.833333	939.647461	-86.040894
10118.855851	5315.833333	938.471680	-171.169739
10118.855851	5315.833333	937.295898	-149.687790
10118.855851	5315.833333	936.119141	36.438385
10118.855851	5315.833333	934.943359	-27.562183
10118.855851	5315.833333	933.766602	-172.715134
10118.855851	5315.833333	932.589844	3.702310
10118.855851	5315.833333	931.413086	-39.131458
10118.855851	5315.833333	930.235352	65.762108
10118.855851	5315.833333	929.057617	-3.293510
10118.855851	5315.833333	927.879883	-41.404099
10118.855851	5315.833333	926.702148	18.017918
10118.855851	5315.833333	925.523438	39.296642
10118.855851	5315.833333	924.344727	65.329918
10118.855851	5315.833333	923.166016	136.522705
10118.855851	5315.833333	921.987305	141.054367
10118.855851	5315.833333	920.807617	0.482254
10118.855851	5315.833333	919.627930	5.254167
10118.855851	5315.833333	919.497070	-172.828033
10118.855851	5315.833333	918.331055	-204.062439
10118.855851	5315.833333	917.165039	4.719372
10118.855851	5315.833333	915.999023	-183.439987
10118.855851	5315.833333	914.833008	110.705231
10118.855851	5315.833333	913.666016	-20.462648
10118.855851	5315.833333	912.499023	-66.123611
10118.855851	5315.833333	911.332031	85.262032
10118.855851	5315.833333	910.165039	212.815002
10118.855851	5315.833333	908.997070	-15.705535
10118.855851	5315.833333	907.830078	-187.221375
10118.855851	5315.833333	906.661133	-2.847964
10118.855851	5315.833333	905.493164	17.759871
10118.855851	5315.833333	904.325195	-229.632904
10118.855851	5315.833333	903.156250	-142.661804
10118.855851	5315.833333	901.987305	-46.274174
10118.855851	5315.833333	900.818359	-111.108086
10118.855851	5315.833333	899.648438	-45.623379
10118.855851	5315.833333	898.478516	-74.950905
10118.855851	5315.833333	897.308594	80.444092
10118.855851	5315.833333	896.138672	15.528976
10118.855851	5315.833333	894.968750	99.764275
10118.855851	5315.833333	893.797852	134.234924
10118.855851	5315.833333	892.626953	-1.722041
10118.855851	5315.833333	891.456055	44.535522
10118.855851	5315.833333	890.284180	133.331741
10118.855851	5315.833333	889.113281	125.097115
10118.855851	5315.833333	887.941406	105.023262
10118.855851	5315.833333	886.768555	80.209297
10118.855851	5315.833333	885.596680	168.832886
10118.855851	5315.833333	884.423828	162.876526
10118.855851	5315.833333	883.250977	-3.758174
10118.855851	5315.833333	882.078125	120.198814
10118.855851	5315.833333	880.905273	0.831965
10118.855851	5315.833333	879.731445	-99.612930
10118.855851	5315.833333	878.557617	2.984510
10118.855851	5315.833333	877.383789	-62.055893
10118.855851	5315.833333	876.209961	-122.368439
10118.855851	5315.833333	875.035156	-182.671310
10118.855851	5315.833333	873.860352	-49.548172
10118.855851	5315.833333	872.685547	-190.059128
10118.855851	5315.833333	871.510742	-278.656860
10118.855851	5315.833333	870.334961	-129.141663
10118.855851	5315.833333	869.159180	-17.413588
10118.855851	5315.833333	867.983398	-44.772999
10118.855851	5315.833333	866.807617	31.522699
10118.855851	5315.833333	865.630859	13.558867
10118.855851	5315.833333	864.454102	42.686459
10118.855851	5315.833333	863.277344	-15.326566
10118.855851	5315.833333	862.100586	-120.408539
10118.855851	5315.833333	860.922852	-133.673416
10118.855851	5315.833333	859.745117	-205.770203
10118.855851	5315.833333	858.567383	67.968422
10118.855851	5315.833333	857.389648	17.003735
10118.855851	5315.833333	856.210938	-200.910110
10118.855851	5315.833333	855.032227	117.295624
10118.855851	5315.833333	853.853516	94.525558
10118.855851	5315.833333	852.674805	-172.656525
10118.855851	5315.833333	851.495117	-258.815918
10118.855851	5315.833333	850.315430	-140.577209
10118.855851	5315.833333	849.135742	-109.297546
10118.855851	5315.833333	847.956055	18.233282
10118.855851	5315.833333	846.775391	-67.933853
10118.855851	5315.833333	845.595703	-86.008339
10118.855851	5315.833333	844.415039	-45.415100
10118.855851	5315.833333	843.233398	28.002312
10118.855851	5315.833333	842.052734	115.451515
10118.855851	5315.833333	840.871094	-94.989563
10118.855851	5315.833333	839.689453	-70.874237
10118.855851	5315.833333	838.506836	-274.173279
10118.855851	5315.833333	837.325195	-3.946600
10118.855851	5315.833333	836.142578	-143.921082
10118.855851	5315.833333	834.959961	-110.475258
10118.855851	5315.833333	833.777344	-105.158798
10118.855851	5315.833333	832.593750	-53.011871
10118.855851	5315.833333	831.410156	-5.578076
10118.855851	5315.833333	830.226563	-33.079964
10118.855851	5315.833333	829.042969	37.719856
10118.855851	5315.833333	827.858398	57.006729
10118.855851	5315.833333	826.673828	-124.916283
10118.855851	5315.833333	825.489258	-129.009079
10118.855851	5315.833333	824.304688	72.682472
10118.855851	5315.833333	823.120117	38.142792
10118.855851	5315.833333	821.934570	-134.304214
10118.855851	5315.833333	820.749023	71.918922
10118.855851	5315.833333	819.562500	16.353859
10118.855851	5315.833333	818.376953	-188.708740
10118.855851	5315.833333	817.190430	-216.183624
10118.855851	5315.833333	816.003906	78.594513
10118.855851	5315.833333	814.817383	111.761383
10118.855851	5315.833333	813.629883	-86.173683
10118.855851	5315.833333	812.442383	-43.664516
10118.855851	5315.833333	811.254883	-162.171173
10118.855851	5315.833333	810.067383	-38.033615
10118.855851	5315.833333	808.878906	18.411741
10118.855851	5315.833333	807.690430	-225.971588
10118.855851	5315.833333	806.501953	-132.225739
10118.855851	5315.833333	805.313477	89.666702
10118.855851	5315.833333	804.124023	8.519631
10118.855851	5315.833333	802.934570	55.538330
10118.855851	5315.833333	801.745117	7.025350
10118.855851	5315.833333	800.555664	184.423843
10118.855851	5315.833333	799.365234	5.497791
10118.855851	5315.833333	798.175781	92.015427
10118.855851	5315.833333	796.985352	69.101601
10118.855851	5315.833333	795.793945	99.708168
10118.855851	5315.833333	794.603516	2.334817
10118.855851	5315.833333	793.412109	91.071144
10118.855851	5315.833333	792.220703	103.018890
10118.855851	5315.833333	791.028320	-71.049316
10118.855851	5315.833333	789.836914	201.251968
10118.855851	5315.833333	788.644531	-140.120605
10118.855851	5315.833333	787.452148	22.852682
10118.855851	5315.833333	786.258789	-53.531239
10118.855851	5315.833333	785.066406	-16.090981
10118.855851	5315.833333	783.873047	-217.855377
10118.855851	5315.833333	782.679688	26.205032
10118.855851	5315.833333	781.485352	5.539442
10118.855851	5315.833333	780.291992	33.599777
10118.855851	5315.833333	779.097656	43.073872
10118.855851	5315.833333	777.903320	173.154251
10118.855851	5315.833333	776.708008	-70.230476
10118.855851	5315.833333	775.512695	48.195221
10118.855851	5315.833333	774.318359	236.100479
10118.855851	5315.833333	773.122070	129.555069
10118.855851	5315.833333	771.926758	-34.898491
10118.855851	5315.833333	770.730469	305.767212
10118.855851	5315.833333	769.534180	32.440998
10118.855851	5315.833333	768.337891	152.906525
10118.855851	5315.833333	767.141602	111.223770
10118.855851	5315.833333	765.944336	460.758606
10118.855851	5315.833333	764.747070	317.154755
10118.855851	5315.833333	763.549805	495.226105
10118.855851	5315.833333	762.351563	527.455566
10118.855851	5315.833333	761.154297	571.210449
10118.855851	5315.833333	759.956055	457.675873
10118.855851	5315.833333	758.757813	321.044525
10118.855851	5315.833333	757.558594	498.814789
10118.855851	5315.833333	756.359375	320.583588
10118.855851	5315.833333	755.160156	440.462616
10118.855851	5315.833333	753.960938	229.922806
10118.855851	5315.833333	752.761719	169.567062
10118.855851	5315.833333	751.561523	247.756912
10118.855851	5315.833333	750.361328	286.638184
10118.855851	5315.833333	749.160156	466.272522
10118.855851	5315.833333	747.959961	214.263916
10118.855851	5315.833333	746.758789	315.331146
10118.855851	5315.833333	745.557617	314.829010
10118.855851	5315.833333	744.356445	344.274384
10118.855851	5315.833333	743.154297	288.363525
10118.855851	5315.833333	741.952148	211.692535
10118.855851	5315.833333	740.750000	167.286041
10118.855851	5315.833333	739.547852	344.075867
10118.855851	5315.833333	738.344727	377.918304
10118.855851	5315.833333	737.142578	275.809326
10118.855851	5315.833333	735.939453	275.032532
10118.855851	5315.833333	734.735352	285.730621
10118.855851	5315.833333	733.532227	197.398697
10118.855851	5315.833333	732.328125	231.040894
10118.855851	5315.833333	731.124023	499.322845
10118.855851	5315.833333	729.918945	160.127914
10118.855851	5315.833333	728.714844	129.227829
10118.855851	5315.833333	727.509766	233.967239
10118.855851	5315.833333	726.303711	166.192841
10118.855851	5315.833333	725.098633	222.519348
10118.855851	5315.833333	723.892578	221.324371
10118.855851	5315.833333	722.686523	217.784470
10118.855851	5315.833333	721.480469	99.341164
10118.855851	5315.833333	720.274414	334.576569
10118.855851	5315.833333	719.067383	335.457611
10118.855851	5315.833333	717.860352	338.581909
10118.855851	5315.833333	716.653320	171.808884
10118.855851	5315.833333	715.445313	37.177631
10118.855851	5315.833333	714.238281	274.209808
10118.855851	5315.833333	713.030273	256.483398
10118.855851	5315.833333	711.821289	236.415298
10118.855851	5315.833333	710.613281	218.589981
10118.855851	5315.833333	709.404297	88.391769
10118.855851	5315.833333	708.195313	-30.352901
10118.855851	5315.833333	706.986328	-39.125412
10118.855851	5315.833333	705.776367	-169.369537
10118.855851	5315.833333	704.566406	117.224716
10118.855851	5315.833333	703.356445	101.370270
10118.855851	5315.833333	702.146484	181.613068
10118.855851	5315.833333	700.935547	225.133179
10118.855851	5315.833333	699.724609	23.705601
10118.855851	5315.833333	698.513672	277.599915
10118.855851	5315.833333	697.302734	-148.063705
10118.855851	5315.833333	696.090820	-20.164036
10118.855851	5315.833333	694.878906	-6.713925
10118.855851	5315.833333	693.666992	-20.773870
10118.855851	5315.833333	692.455078	-2.902417
10118.855851	5315.833333	691.242188	140.566376
10118.855851	5315.833333	690.029297	137.687256
10118.855851	5315.833333	688.816406	-86.826828
10118.855851	5315.833333	687.602539	181.943802
10118.855851	5315.833333	686.389648	162.845474
10118.855851	5315.833333	685.175781	114.001602
10118.855851	5315.833333	683.960938	277.343689
10118.855851	5315.833333	682.747070	95.996780
10118.855851	5315.833333	681.532227	172.424728
10118.855851	5315.833333	680.317383	123.296097
10118.855851	5315.833333	679.102539	302.133423
10118.855851	5315.833333	677.886719	-80.020050
10118.855851	5315.833333	676.670898	171.551285
10118.855851	5315.833333	675.455078	252.019424
10118.855851	5315.833333	674.239258	181.993866
10118.855851	5315.833333	673.022461	285.028290
10118.855851	5315.833333	671.805664	201.183380
10118.855851	5315.833333	670.588867	260.729767
10118.855851	5315.833333	669.372070	342.925446
10118.855851	5315.833333	668.154297	245.191986
10118.855851	5315.833333	666.936523	434.117737
10118.855851	5315.833333	665.718750	72.321022
10118.855851	5315.833333	664.500977	122.270782
10118.855851	5315.833333	663.282227	294.900085
10118.855851	5315.833333	662.063477	244.552475
10118.855851	5315.833333	660.844727	141.848282
10118.855851	5315.833333	659.625000	291.346344
10118.855851	5315.833333	658.405273	365.702972
10118.855851	5315.833333	657.185547	53.750458
10118.855851	5315.833333	655.965820	102.944115
10118.855851	5315.833333	654.745117	245.111099
10118.855851	5315.833333	653.525391	135.127167
10118.855851	5315.833333	652.303711	4.654635
10118.855851	5315.833333	651.083008	128.291565
10118.855851	5315.833333	649.861328	188.245346
10118.855851	5315.833333	648.640625	238.997894
10118.855851	5315.833333	647.417969	271.476227
10118.855851	5315.833333	646.196289	86.174011
10118.855851	5315.833333	644.973633	48.186657
10118.855851	5315.833333	643.750977	232.210663
10118.855851	5315.833333	642.528320	205.321655
10118.855851	5315.833333	641.305664	-18.754362
10118.855851	5315.833333	640.082031	-0.500613
10118.855851	5315.833333	638.858398	266.724121
10118.855851	5315.833333	637.634766	74.140053
10118.855851	5315.833333	636.410156	116.926834
10118.855851	5315.833333	635.185547	250.102951
10118.855851	5315.833333	633.960938	55.044907
10118.855851	5315.833333	632.736328	129.139999
10118.855851	5315.833333	631.510742	130.718002
10118.855851	5315.833333	630.285156	28.170862
10118.855851	5315.833333	629.059570	185.523621
10118.855851	5315.833333	627.833984	116.682182
10118.855851	5315.833333	626.607422	40.972157
10118.855851	5315.833333	625.380859	285.981232
10118.855851	5315.833333	624.154297	146.794113
10118.855851	5315.833333	622.927734	3.032622
10118.855851	5315.833333	621.700195	136.913681
10118.855851	5315.833333	620.472656	225.476593
10118.855851	5315.833333	619.245117	56.611843
10118.855851	5315.833333	618.016602	2.768538
10118.855851	5315.833333	616.788086	-8.308569
10118.855851	5315.833333	615.559570	-57.838333
10118.855851	5315.833333	614.331055	-226.973175
10118.855851	5315.833333	613.101563	50.209396
10118.855851	5315.833333	611.872070	16.116707
10118.855851	5315.833333	610.642578	-18.078403
10118.855851	5315.833333	609.413086	46.752018
10118.855851	5315.833333	608.182617	52.868099
10118.855851	5315.833333	606.952148	-8.697381
10118.855851	5315.833333	605.721680	-14.066395
10118.855851	5315.833333	604.491211	135.769974
10118.855851	5315.833333	603.259766	-108.427429
10118.855851	5315.833333	602.028320	-73.630241
10118.855851	5315.833333	600.796875	-68.210320
10118.855851	5315.833333	599.564453	22.550022
10118.855851	5315.833333	598.332031	-48.747257
10118.855851	5315.833333	597.099609	-72.921204
10118.855851	5315.833333	595.867188	26.421070
10118.855851	5315.833333	594.633789	-267.662170
10118.855851	5315.833333	593.400391	65.098518
10118.855851	5315.833333	592.166992	-184.176376
10118.855851	5315.833333	590.933594	38.150311
10118.855851	5315.833333	589.699219	87.372925
10118.855851	5315.833333	588.464844	-130.673203
10118.855851	5315.833333	587.230469	104.613983
10118.855851	5315.833333	585.995117	92.854858
10118.855851	5315.833333	584.760742	-168.019791
10118.855851	5315.833333	583.525391	73.504562
10118.855851	5315.833333	582.289063	77.109947
10118.855851	5315.833333	581.053711	-181.698029
10118.855851	5315.833333	579.817383	-158.090790
10118.855851	5315.833333	578.581055	69.324554
10118.855851	5315.833333	577.343750	-46.272476
10118.855851	5315.833333	576.107422	283.844238
10118.855851	5315.833333	574.870117	15.742980
10118.855851	5315.833333	573.631836	85.739746
10118.855851	5315.833333	572.394531	57.109089
10118.855851	5315.833333	571.156250	-7.434643
10118.855851	5315.833333	569.917969	86.816666
10118.855851	5315.833333	568.679688	131.704773
10118.855851	5315.833333	567.440430	-206.012085
10118.855851	5315.833333	566.202148	-62.894375
10118.855851	5315.833333	564.961914	37.564846
10118.855851	5315.833333	563.722656	220.591187
10118.855851	5315.833333	562.482422	121.850266
10118.855851	5315.833333	561.243164	168.289154
10118.855851	5315.833333	560.001953	-178.558624
10118.855851	5315.833333	558.761719	-36.245785
10118.855851	5315.833333	557.520508	155.025635
10118.855851	5315.833333	556.279297	24.655306
10118.855851	5315.833333	555.038086	39.322208
10118.855851	5315.833333	553.795898	-35.376099
10118.855851	5315.833333	552.554688	-170.360489
10118.855851	5315.833333	551.311523	-358.926849
10118.855851	5315.833333	550.069336	-23.442692
10118.855851	5315.833333	548.826172	-29.315893
10118.855851	5315.833333	547.583984	20.463938
10118.855851	5315.833333	546.339844	-166.110733
10118.855851	5315.833333	545.096680	12.728271
10118.855851	5315.833333	543.852539	-185.069000
10118.855851	5315.833333	542.608398	-77.743469
10118.855851	5315.833333	541.364258	-199.889374
10118.855851	5315.833333	540.119141	-97.225975
10118.855851	5315.833333	538.875000	-12.479205
10118.855851	5315.833333	537.628906	-145.936005
10118.855851	5315.833333	536.383789	-246.027039
10118.855851	5315.833333	535.137695	-83.693542
10118.855851	5315.833333	533.892578	-112.736153
10118.855851	5315.833333	532.645508	-1.786117
10118.855851	5315.833333	531.399414	-231.036133
10118.855851	5315.833333	530.152344	-171.355499
10118.855851	5315.833333	528.905273	-120.653351
10118.855851	5315.833333	527.658203	-121.127258
10118.855851	5315.833333	526.410156	-210.509583
10118.855851	5315.833333	525.163086	-219.966446
10118.855851	5315.833333	523.914063	-411.536224
10118.855851	5315.833333	522.666016	-159.167435
10118.855851	5315.833333	521.416992	-244.266083
10118.855851	5315.833333	520.167969	-236.200897
10118.855851	5315.833333	518.918945	-143.902847
10118.855851	5315.833333	517.669922	-164.793106
10118.855851	5315.833333	516.419922	-349.799591
10118.855851	5315.833333	515.169922	-109.175690
10118.855851	5315.833333	513.919922	-276.477356
10118.855851	5315.833333	512.668945	-144.640427
10118.855851	5315.833333	511.417969	-52.776623
10118.855851	5315.833333	510.166992	-217.901855
10118.855851	5315.833333	508.916016	-188.139542
10118.855851	5315.833333	507.664063	-142.940277
10118.855851	5315.833333	506.412109	108.042267
10118.855851	5315.833333	505.160156	-92.536003
10118.855851	5315.833333	503.907227	-51.923717
10118.855851	5315.833333	502.655273	99.246208
10118.855851	5315.833333	501.402344	117.626305
10118.855851	5315.833333	500.148438	235.452377
10118.855851	5315.833333	498.895508	125.533928
10118.855851	5315.833333	497.641602	53.197117
10118.855851	5315.833333	496.387695	51.572468
10118.855851	5315.833333	495.132813	160.368118
10118.855851	5315.833333	493.878906	163.094681
10118.855851	5315.833333	492.624023	172.415009
10118.855851	5315.833333	491.368164	-81.004631
10118.855851	5315.833333	490.113281	321.198853
10118.855851	5315.833333	488.857422	295.109039
10118.855851	5315.833333	487.601563	205.036880
10118.855851	5315.833333	486.344727	381.869812
10118.855851	5315.833333	485.088867	223.428833
10118.855851	5315.833333	483.832031	558.898743
10118.855851	5315.833333	482.575195	279.217346
10118.855851	5315.833333	481.317383	175.940689
10118.855851	5315.833333	480.059570	147.611893
10118.855851	5315.833333	478.801758	209.604630
10118.855851	5315.833333	477.543945	245.132401
10118.855851	5315.833333	476.285156	135.300873
10118.855851	5315.833333	475.027344	29.922632
10118.855851	5315.833333	473.767578	131.452148
10118.855851	5315.833333	472.508789	-48.720684
10118.855851	5315.833333	471.249023	-50.633442
10118.855851	5315.833333	469.989258	174.001373
10118.855851	5315.833333	468.729492	22.493319
10118.855851	5315.833333	467.469727	326.150848
10118.855851	5315.833333	466.208984	104.311279
10118.855851	5315.833333	464.948242	216.600586
10118.855851	5315.833333	463.686523	203.584366
10118.855851	5315.833333	462.425781	142.249023
10118.855851	5315.833333	461.164063	304.934998
10118.855851	5315.833333	459.901367	81.078911
10118.855851	5315.833333	458.639648	81.236145
10118.855851	5315.833333	457.376953	226.227173
10118.855851	5315.833333	456.114258	63.937798
10118.855851	5315.833333	454.851563	452.358795
10118.855851	5315.833333	453.587891	397.523407
10118.855851	5315.833333	452.324219	173.842377
10118.855851	5315.833333	451.060547	48.895863
10118.855851	5315.833333	449.796875	191.399582
10118.855851	5315.833333	448.532227	143.147781
10118.855851	5315.833333	447.267578	373.147217
10118.855851	5315.833333	446.002930	405.870941
10118.855851	5315.833333	444.737305	554.609619
10118.855851	5315.833333	443.471680	493.050110
10118.855851	5315.833333	442.206055	210.379761
10118.855851	5315.833333	440.940430	175.104889
10118.855851	5315.833333	439.673828	100.402016
10118.855851	5315.833333	438.407227	89.125244
10118.855851	5315.833333	437.140625	180.599640
10118.855851	5315.833333	435.873047	219.483307
10118.855851	5315.833333	434.605469	387.277222
10118.855851	5315.833333	433.337891	358.211914
10118.855851	5315.833333	432.070313	374.977753
10118.855851	5315.833333	430.801758	306.438629
10118.855851	5315.833333	429.533203	216.002869
10118.855851	5315.833333	428.264648	254.367752
10118.855851	5315.833333	426.996094	155.065262
10118.855851	5315.833333	425.726563	29.497011
10118.855851	5315.833333	424.457031	172.319427
10118.855851	5315.833333	423.186523	18.199942
10118.855851	5315.833333	421.916992	169.450195
10118.855851	5315.833333	420.646484	34.774643
10118.855851	5315.833333	419.375977	72.284798
10118.855851	5315.833333	418.104492	246.966705
10118.855851	5315.833333	416.833008	271.021210
10118.855851	5315.833333	415.561523	42.117004
10118.855851	5315.833333	414.290039	113.797424
10118.855851	5315.833333	413.017578	211.387421
10118.855851	5315.833333	411.746094	-0.486063
10118.855851	5315.833333	410.472656	331.819489
10118.855851	5315.833333	409.200195	195.764114
10118.855851	5315.833333	407.926758	288.041199
10118.855851	5315.833333	406.653320	229.904129
10118.855851	5315.833333	405.379883	393.428619
10118.855851	5315.833333	404.105469	171.642532
10118.855851	5315.833333	402.831055	147.549438
10118.855851	5315.833333	401.556641	105.781265
10118.855851	5315.833333	400.282227	322.370850
10118.855851	5315.833333	399.006836	234.306137
10118.855851	5315.833333	397.731445	211.119919
10118.855851	5315.833333	396.456055	113.739037
10118.855851	5315.833333	395.179688	52.933289
10118.855851	5315.833333	393.903320	78.613533
10118.855851	5315.833333	392.626953	71.319267
10118.855851	5315.833333	391.350586	141.733002
10118.855851	5315.833333	390.073242	12.044920
10118.855851	5315.833333	388.795898	77.186272
10118.855851	5315.833333	387.518555	135.313416
10118.855851	5315.833333	386.240234	147.362671
10118.855851	5315.833333	384.961914	152.383606
10118.855851	5315.833333	383.683594	154.690887
10118.855851	5315.833333	382.405273	275.612183
10118.855851	5315.833333	381.125977	73.076668
10118.855851	5315.833333	379.846680	162.419968
10118.855851	5315.833333	378.567383	142.814438
10118.855851	5315.833333	377.287109	232.950348
10118.855851	5315.833333	376.006836	250.930161
10118.855851	5315.833333	374.726563	497.577393
10118.855851	5315.833333	373.446289	416.674774
10118.855851	5315.833333	372.165039	300.403503
10118.855851	5315.833333	370.883789	-30.718893
10118.855851	5315.833333	369.602539	-42.522350
10118.855851	5315.833333	368.320313	-204.363144
10118.855851	5315.833333	367.039063	65.249046
10118.855851	5315.833333	365.755859	-109.189613
10118.855851	5315.833333	364.473633	-72.772636
10118.855851	5315.833333	363.190430	-48.190502
10118.855851	5315.833333	361.907227	-72.149818
10118.855851	5315.833333	360.624023	-148.974823
10118.855851	5315.833333	359.340820	-23.973064
10118.855851	5315.833333	358.056641	2.697893
10118.855851	5315.833333	356.772461	-10.652607
10118.855851	5315.833333	355.487305	-59.758179
10118.855851	5315.833333	354.202148	6.351332
10118.855851	5315.833333	352.916992	-51.762581
10118.855851	5315.833333	351.631836	141.011353
10118.855851	5315.833333	350.346680	9.046066
10118.855851	5315.833333	349.060547	-3.669896
10118.855851	5315.833333	347.774414	-50.172714
10118.855851	5315.833333	346.487305	-195.138550
10118.855851	5315.833333	345.200195	-322.237518
10118.855851	5315.833333	343.913086	89.438652
10118.855851	5315.833333	342.625977	-148.584747
10118.855851	5315.833333	341.338867	-166.593140
10118.855851	5315.833333	340.050781	-218.692886
10118.855851	5315.833333	338.762695	-154.308029
10118.855851	5315.833333	337.473633	-188.664581
10118.855851	5315.833333	336.184570	-156.162125
10118.855851	5315.833333	334.895508	-190.170670
10118.855851	5315.833333	333.606445	53.137691
10118.855851	5315.833333	332.317383	-215.000290
10118.855851	5315.833333	331.027344	-171.653244
10118.855851	5315.833333	329.736328	13.241680
10118.855851	5315.833333	328.446289	90.575508
10118.855851	5315.833333	327.155273	-227.424667
10118.855851	5315.833333	325.864258	-234.405304
10118.855851	5315.833333	324.573242	-280.396240
10118.855851	5315.833333	323.281250	-35.144238
10118.855851	5315.833333	321.989258	-22.175865
10118.855851	5315.833333	320.697266	-219.976852
10118.855851	5315.833333	319.405273	160.461548
10118.855851	5315.833333	318.112305	-135.286362
10118.855851	5315.833333	316.819336	39.684013
10118.855851	5315.833333	315.526367	95.806061
10118.855851	5315.833333	314.232422	62.973949
10118.855851	5315.833333	312.938477	127.554588
10118.855851	5315.833333	311.644531	85.993584
10118.855851	5315.833333	310.349609	139.398712
10118.855851	5315.833333	309.054688	525.253723
10118.855851	5315.833333	307.759766	344.590454
10118.855851	5315.833333	306.464844	250.139954
10118.855851	5315.833333	305.168945	508.983582
10118.855851	5315.833333	303.873047	599.156616
10118.855851	5315.833333	302.577148	640.378418
10118.855851	5315.833333	301.281250	874.098511
10118.855851	5315.833333	299.984375	868.325256
