#X		#Y		#Wave		#Intensity
-15295.626596	5340.335000	1999.946289	56.775932
-15295.626596	5340.335000	1998.981445	-73.719872
-15295.626596	5340.335000	1998.017578	53.063023
-15295.626596	5340.335000	1997.052734	58.487724
-15295.626596	5340.335000	1996.088867	143.316193
-15295.626596	5340.335000	1995.124023	39.956829
-15295.626596	5340.335000	1994.159180	107.641884
-15295.626596	5340.335000	1993.193359	98.642174
-15295.626596	5340.335000	1992.228516	13.004826
-15295.626596	5340.335000	1991.262695	19.086870
-15295.626596	5340.335000	1990.296875	-24.231247
-15295.626596	5340.335000	1989.331055	11.746473
-15295.626596	5340.335000	1988.365234	30.487812
-15295.626596	5340.335000	1987.398438	-86.731842
-15295.626596	5340.335000	1986.432617	184.455017
-15295.626596	5340.335000	1985.465820	131.715271
-15295.626596	5340.335000	1984.499023	145.827744
-15295.626596	5340.335000	1983.532227	130.357376
-15295.626596	5340.335000	1982.565430	124.857948
-15295.626596	5340.335000	1981.597656	-1.631426
-15295.626596	5340.335000	1980.629883	-46.477833
-15295.626596	5340.335000	1979.662109	86.595039
-15295.626596	5340.335000	1978.694336	4.853055
-15295.626596	5340.335000	1977.726563	39.250347
-15295.626596	5340.335000	1976.758789	11.990369
-15295.626596	5340.335000	1975.790039	53.908096
-15295.626596	5340.335000	1974.821289	7.041525
-15295.626596	5340.335000	1973.852539	98.411369
-15295.626596	5340.335000	1972.883789	-44.524616
-15295.626596	5340.335000	1971.915039	-27.048119
-15295.626596	5340.335000	1970.945313	-46.509697
-15295.626596	5340.335000	1969.975586	-41.257710
-15295.626596	5340.335000	1969.005859	-85.251709
-15295.626596	5340.335000	1968.036133	16.217966
-15295.626596	5340.335000	1967.066406	31.462093
-15295.626596	5340.335000	1966.096680	118.187241
-15295.626596	5340.335000	1965.125977	66.997475
-15295.626596	5340.335000	1964.155273	-72.779869
-15295.626596	5340.335000	1963.184570	21.432730
-15295.626596	5340.335000	1962.213867	12.263850
-15295.626596	5340.335000	1961.242188	96.660149
-15295.626596	5340.335000	1960.271484	72.793434
-15295.626596	5340.335000	1959.299805	-78.960899
-15295.626596	5340.335000	1958.328125	17.813532
-15295.626596	5340.335000	1957.356445	-47.729382
-15295.626596	5340.335000	1956.384766	-46.826096
-15295.626596	5340.335000	1955.412109	-72.935562
-15295.626596	5340.335000	1954.439453	11.601997
-15295.626596	5340.335000	1953.467773	29.785366
-15295.626596	5340.335000	1952.495117	-42.921730
-15295.626596	5340.335000	1951.521484	-32.052887
-15295.626596	5340.335000	1950.548828	86.907112
-15295.626596	5340.335000	1949.575195	-10.252331
-15295.626596	5340.335000	1948.601563	108.705208
-15295.626596	5340.335000	1947.627930	97.538651
-15295.626596	5340.335000	1946.654297	39.765244
-15295.626596	5340.335000	1945.680664	99.817047
-15295.626596	5340.335000	1944.706055	-70.753090
-15295.626596	5340.335000	1943.732422	16.315281
-15295.626596	5340.335000	1942.757813	130.344513
-15295.626596	5340.335000	1941.783203	38.378437
-15295.626596	5340.335000	1940.807617	5.298186
-15295.626596	5340.335000	1939.833008	65.386383
-15295.626596	5340.335000	1938.857422	-26.474823
-15295.626596	5340.335000	1937.881836	4.219602
-15295.626596	5340.335000	1936.906250	61.860924
-15295.626596	5340.335000	1935.930664	121.941010
-15295.626596	5340.335000	1934.955078	-60.424217
-15295.626596	5340.335000	1933.978516	82.918831
-15295.626596	5340.335000	1933.001953	13.249645
-15295.626596	5340.335000	1932.025391	73.328499
-15295.626596	5340.335000	1931.048828	18.383444
-15295.626596	5340.335000	1930.072266	61.326645
-15295.626596	5340.335000	1929.094727	-0.922307
-15295.626596	5340.335000	1928.118164	-50.914516
-15295.626596	5340.335000	1927.140625	104.509720
-15295.626596	5340.335000	1926.163086	32.522083
-15295.626596	5340.335000	1925.184570	-66.322746
-15295.626596	5340.335000	1924.207031	-16.056057
-15295.626596	5340.335000	1923.228516	-63.540257
-15295.626596	5340.335000	1922.250000	-10.846792
-15295.626596	5340.335000	1921.271484	17.403944
-15295.626596	5340.335000	1920.292969	160.417252
-15295.626596	5340.335000	1919.314453	93.406769
-15295.626596	5340.335000	1918.334961	82.564743
-15295.626596	5340.335000	1917.355469	52.201149
-15295.626596	5340.335000	1916.375977	-12.314576
-15295.626596	5340.335000	1915.396484	15.900433
-15295.626596	5340.335000	1914.416992	0.196345
-15295.626596	5340.335000	1913.436523	-5.749645
-15295.626596	5340.335000	1912.457031	2.933933
-15295.626596	5340.335000	1911.476563	50.616295
-15295.626596	5340.335000	1910.496094	95.839943
-15295.626596	5340.335000	1909.515625	-109.964813
-15295.626596	5340.335000	1908.534180	-72.046509
-15295.626596	5340.335000	1907.552734	-48.763474
-15295.626596	5340.335000	1906.572266	54.880966
-15295.626596	5340.335000	1905.590820	97.602257
-15295.626596	5340.335000	1904.608398	81.869072
-15295.626596	5340.335000	1903.626953	97.781105
-15295.626596	5340.335000	1902.644531	111.246895
-15295.626596	5340.335000	1901.663086	71.168427
-15295.626596	5340.335000	1900.680664	160.039932
-15295.626596	5340.335000	1899.698242	139.412399
-15295.626596	5340.335000	1898.714844	21.506561
-15295.626596	5340.335000	1897.732422	71.411751
-15295.626596	5340.335000	1896.749023	38.634159
-15295.626596	5340.335000	1895.765625	-96.223907
-15295.626596	5340.335000	1894.782227	-0.175816
-15295.626596	5340.335000	1893.798828	13.218435
-15295.626596	5340.335000	1892.814453	-53.565754
-15295.626596	5340.335000	1891.831055	-25.610798
-15295.626596	5340.335000	1890.846680	-26.815329
-15295.626596	5340.335000	1889.862305	-3.749545
-15295.626596	5340.335000	1888.877930	-60.806408
-15295.626596	5340.335000	1887.892578	20.485573
-15295.626596	5340.335000	1886.908203	-82.676598
-15295.626596	5340.335000	1885.922852	73.777885
-15295.626596	5340.335000	1884.937500	65.223473
-15295.626596	5340.335000	1883.952148	51.812176
-15295.626596	5340.335000	1882.965820	-85.263832
-15295.626596	5340.335000	1881.980469	29.823198
-15295.626596	5340.335000	1880.994141	101.228477
-15295.626596	5340.335000	1880.007813	-28.539412
-15295.626596	5340.335000	1879.021484	93.710121
-15295.626596	5340.335000	1878.035156	2.730679
-15295.626596	5340.335000	1877.047852	-54.318050
-15295.626596	5340.335000	1876.061523	4.877426
-15295.626596	5340.335000	1875.074219	102.776932
-15295.626596	5340.335000	1874.086914	65.075157
-15295.626596	5340.335000	1873.098633	39.477188
-15295.626596	5340.335000	1872.111328	28.397203
-15295.626596	5340.335000	1871.123047	-52.847858
-15295.626596	5340.335000	1870.135742	-61.508812
-15295.626596	5340.335000	1869.147461	7.209033
-15295.626596	5340.335000	1868.158203	-37.750763
-15295.626596	5340.335000	1867.169922	40.585419
-15295.626596	5340.335000	1866.180664	80.209007
-15295.626596	5340.335000	1865.192383	73.893959
-15295.626596	5340.335000	1864.203125	55.489334
-15295.626596	5340.335000	1863.213867	49.158981
-15295.626596	5340.335000	1862.223633	16.252686
-15295.626596	5340.335000	1861.234375	48.546219
-15295.626596	5340.335000	1860.244141	66.330467
-15295.626596	5340.335000	1859.253906	-36.592983
-15295.626596	5340.335000	1858.263672	-6.754136
-15295.626596	5340.335000	1857.273438	15.824077
-15295.626596	5340.335000	1856.282227	-79.827446
-15295.626596	5340.335000	1855.291992	-64.501152
-15295.626596	5340.335000	1854.300781	20.742414
-15295.626596	5340.335000	1853.309570	89.066010
-15295.626596	5340.335000	1852.317383	15.124773
-15295.626596	5340.335000	1851.326172	126.785759
-15295.626596	5340.335000	1850.333984	26.337244
-15295.626596	5340.335000	1849.342773	17.469318
-15295.626596	5340.335000	1848.350586	71.222900
-15295.626596	5340.335000	1847.357422	31.018421
-15295.626596	5340.335000	1846.365234	43.793594
-15295.626596	5340.335000	1845.372070	34.885670
-15295.626596	5340.335000	1844.379883	-140.112061
-15295.626596	5340.335000	1843.386719	-9.422456
-15295.626596	5340.335000	1842.393555	-47.219536
-15295.626596	5340.335000	1841.399414	40.080456
-15295.626596	5340.335000	1840.406250	62.398033
-15295.626596	5340.335000	1839.412109	84.696075
-15295.626596	5340.335000	1838.417969	58.889694
-15295.626596	5340.335000	1837.423828	37.890823
-15295.626596	5340.335000	1836.429688	7.276167
-15295.626596	5340.335000	1835.434570	123.241508
-15295.626596	5340.335000	1834.440430	73.382759
-15295.626596	5340.335000	1833.445313	52.356297
-15295.626596	5340.335000	1832.450195	28.926428
-15295.626596	5340.335000	1831.454102	175.974686
-15295.626596	5340.335000	1830.458984	63.685913
-15295.626596	5340.335000	1829.462891	71.440071
-15295.626596	5340.335000	1828.466797	52.784199
-15295.626596	5340.335000	1827.470703	-13.860489
-15295.626596	5340.335000	1826.474609	94.627647
-15295.626596	5340.335000	1825.478516	140.706909
-15295.626596	5340.335000	1824.481445	112.421387
-15295.626596	5340.335000	1823.484375	-21.352976
-15295.626596	5340.335000	1822.487305	-16.057034
-15295.626596	5340.335000	1821.490234	-70.687302
-15295.626596	5340.335000	1820.493164	80.763107
-15295.626596	5340.335000	1819.495117	-33.776524
-15295.626596	5340.335000	1818.498047	19.386452
-15295.626596	5340.335000	1817.500000	3.070236
-15295.626596	5340.335000	1816.500977	32.242397
-15295.626596	5340.335000	1815.502930	49.426674
-15295.626596	5340.335000	1814.504883	16.333334
-15295.626596	5340.335000	1813.505859	66.997086
-15295.626596	5340.335000	1812.506836	-76.162338
-15295.626596	5340.335000	1811.507813	122.791664
-15295.626596	5340.335000	1810.508789	13.141358
-15295.626596	5340.335000	1809.508789	78.078896
-15295.626596	5340.335000	1808.508789	-7.632446
-15295.626596	5340.335000	1807.508789	-24.001886
-15295.626596	5340.335000	1806.508789	52.829758
-15295.626596	5340.335000	1805.508789	-1.791748
-15295.626596	5340.335000	1804.508789	-22.955711
-15295.626596	5340.335000	1803.507813	77.690605
-15295.626596	5340.335000	1802.506836	49.337776
-15295.626596	5340.335000	1801.505859	16.212164
-15295.626596	5340.335000	1800.504883	57.091660
-15295.626596	5340.335000	1799.502930	-4.680070
-15295.626596	5340.335000	1798.501953	-73.593933
-15295.626596	5340.335000	1797.500000	-101.932854
-15295.626596	5340.335000	1796.498047	29.546497
-15295.626596	5340.335000	1795.496094	29.801208
-15295.626596	5340.335000	1794.493164	-5.719622
-15295.626596	5340.335000	1793.491211	-79.376709
-15295.626596	5340.335000	1792.488281	-57.674736
-15295.626596	5340.335000	1791.485352	49.801056
-15295.626596	5340.335000	1790.482422	80.985275
-15295.626596	5340.335000	1789.478516	90.709076
-15295.626596	5340.335000	1788.475586	155.202377
-15295.626596	5340.335000	1787.471680	10.112268
-15295.626596	5340.335000	1786.467773	-99.218224
-15295.626596	5340.335000	1785.463867	-15.707042
-15295.626596	5340.335000	1784.459961	17.787218
-15295.626596	5340.335000	1783.455078	15.568308
-15295.626596	5340.335000	1782.450195	-129.396713
-15295.626596	5340.335000	1781.445313	-34.081444
-15295.626596	5340.335000	1780.440430	-33.933361
-15295.626596	5340.335000	1779.435547	-78.967812
-15295.626596	5340.335000	1778.429688	120.856232
-15295.626596	5340.335000	1777.424805	25.883810
-15295.626596	5340.335000	1776.418945	37.871246
-15295.626596	5340.335000	1775.413086	64.101799
-15295.626596	5340.335000	1774.406250	-30.830557
-15295.626596	5340.335000	1773.400391	-18.860762
-15295.626596	5340.335000	1772.393555	-18.776735
-15295.626596	5340.335000	1771.386719	2.666714
-15295.626596	5340.335000	1770.379883	-61.354118
-15295.626596	5340.335000	1769.373047	-30.432711
-15295.626596	5340.335000	1768.365234	2.841268
-15295.626596	5340.335000	1767.358398	5.258049
-15295.626596	5340.335000	1766.350586	-54.000885
-15295.626596	5340.335000	1765.342773	48.005737
-15295.626596	5340.335000	1764.334961	-1.769434
-15295.626596	5340.335000	1763.326172	-25.459547
-15295.626596	5340.335000	1762.318359	-51.515778
-15295.626596	5340.335000	1761.309570	14.840221
-15295.626596	5340.335000	1760.300781	43.259212
-15295.626596	5340.335000	1759.291016	17.180527
-15295.626596	5340.335000	1758.282227	66.887657
-15295.626596	5340.335000	1757.272461	38.432816
-15295.626596	5340.335000	1756.262695	57.327148
-15295.626596	5340.335000	1755.252930	-44.500381
-15295.626596	5340.335000	1754.243164	7.517864
-15295.626596	5340.335000	1753.233398	-32.761169
-15295.626596	5340.335000	1752.222656	130.396240
-15295.626596	5340.335000	1751.211914	66.443375
-15295.626596	5340.335000	1750.201172	78.173965
-15295.626596	5340.335000	1749.190430	-106.328255
-15295.626596	5340.335000	1748.179688	-2.399934
-15295.626596	5340.335000	1747.167969	-0.138210
-15295.626596	5340.335000	1746.156250	-40.413971
-15295.626596	5340.335000	1745.144531	25.622883
-15295.626596	5340.335000	1744.132813	13.686228
-15295.626596	5340.335000	1743.121094	6.469913
-15295.626596	5340.335000	1742.108398	-83.385674
-15295.626596	5340.335000	1741.095703	13.266427
-15295.626596	5340.335000	1740.083008	76.833687
-15295.626596	5340.335000	1739.070313	-31.881645
-15295.626596	5340.335000	1738.057617	83.557930
-15295.626596	5340.335000	1737.043945	114.031052
-15295.626596	5340.335000	1736.030273	-4.084585
-15295.626596	5340.335000	1735.016602	-70.290443
-15295.626596	5340.335000	1734.002930	4.963769
-15295.626596	5340.335000	1732.989258	-28.235525
-15295.626596	5340.335000	1731.974609	-80.282669
-15295.626596	5340.335000	1730.959961	-12.160530
-15295.626596	5340.335000	1729.945313	112.462181
-15295.626596	5340.335000	1728.930664	-0.835673
-15295.626596	5340.335000	1727.916016	-59.939846
-15295.626596	5340.335000	1726.900391	-81.363113
-15295.626596	5340.335000	1725.885742	-18.048195
-15295.626596	5340.335000	1724.870117	-67.724998
-15295.626596	5340.335000	1723.853516	-18.571533
-15295.626596	5340.335000	1722.837891	-49.424026
-15295.626596	5340.335000	1721.822266	13.806526
-15295.626596	5340.335000	1720.805664	-35.868271
-15295.626596	5340.335000	1719.789063	-64.371422
-15295.626596	5340.335000	1718.772461	8.205032
-15295.626596	5340.335000	1717.754883	12.590198
-15295.626596	5340.335000	1716.738281	26.367580
-15295.626596	5340.335000	1715.720703	63.623085
-15295.626596	5340.335000	1714.703125	-143.418549
-15295.626596	5340.335000	1713.685547	6.562000
-15295.626596	5340.335000	1712.667969	-38.398403
-15295.626596	5340.335000	1711.649414	66.886833
-15295.626596	5340.335000	1710.630859	-15.635849
-15295.626596	5340.335000	1709.612305	75.510834
-15295.626596	5340.335000	1708.593750	-21.073021
-15295.626596	5340.335000	1707.575195	-21.455296
-15295.626596	5340.335000	1706.555664	-31.227259
-15295.626596	5340.335000	1705.536133	34.029732
-15295.626596	5340.335000	1704.516602	19.547844
-15295.626596	5340.335000	1703.497070	21.471117
-15295.626596	5340.335000	1702.477539	44.477280
-15295.626596	5340.335000	1701.457031	51.064632
-15295.626596	5340.335000	1700.437500	-26.686300
-15295.626596	5340.335000	1699.416992	-57.575302
-15295.626596	5340.335000	1698.395508	35.643456
-15295.626596	5340.335000	1697.375000	-30.377689
-15295.626596	5340.335000	1696.354492	48.743095
-15295.626596	5340.335000	1695.333008	71.658134
-15295.626596	5340.335000	1694.311523	124.974609
-15295.626596	5340.335000	1693.290039	150.190567
-15295.626596	5340.335000	1692.267578	-18.741901
-15295.626596	5340.335000	1691.246094	57.923630
-15295.626596	5340.335000	1690.223633	108.832336
-15295.626596	5340.335000	1689.201172	91.924683
-15295.626596	5340.335000	1688.178711	68.004616
-15295.626596	5340.335000	1687.155273	-7.322206
-15295.626596	5340.335000	1686.132813	141.651367
-15295.626596	5340.335000	1685.109375	33.623936
-15295.626596	5340.335000	1684.085938	37.725689
-15295.626596	5340.335000	1683.062500	139.882889
-15295.626596	5340.335000	1682.039063	129.941269
-15295.626596	5340.335000	1681.014648	126.996162
-15295.626596	5340.335000	1679.990234	91.375549
-15295.626596	5340.335000	1678.965820	121.087013
-15295.626596	5340.335000	1677.941406	176.438400
-15295.626596	5340.335000	1676.916992	133.809875
-15295.626596	5340.335000	1675.891602	-18.402477
-15295.626596	5340.335000	1674.866211	-16.699739
-15295.626596	5340.335000	1673.840820	24.618782
-15295.626596	5340.335000	1672.815430	98.539177
-15295.626596	5340.335000	1671.790039	137.475037
-15295.626596	5340.335000	1670.763672	192.692307
-15295.626596	5340.335000	1669.737305	38.269279
-15295.626596	5340.335000	1668.710938	42.241127
-15295.626596	5340.335000	1667.684570	106.735306
-15295.626596	5340.335000	1666.658203	96.711784
-15295.626596	5340.335000	1665.630859	-25.024437
-15295.626596	5340.335000	1664.603516	6.846417
-15295.626596	5340.335000	1663.576172	141.056046
-15295.626596	5340.335000	1662.548828	84.484123
-15295.626596	5340.335000	1661.520508	58.155579
-15295.626596	5340.335000	1660.493164	57.406803
-15295.626596	5340.335000	1659.464844	138.007401
-15295.626596	5340.335000	1658.436523	209.273026
-15295.626596	5340.335000	1657.408203	243.326019
-15295.626596	5340.335000	1656.378906	233.215485
-15295.626596	5340.335000	1655.350586	172.003937
-15295.626596	5340.335000	1654.321289	254.788559
-15295.626596	5340.335000	1653.291992	230.729294
-15295.626596	5340.335000	1652.261719	65.065147
-15295.626596	5340.335000	1651.232422	196.540344
-15295.626596	5340.335000	1650.202148	114.470764
-15295.626596	5340.335000	1649.171875	176.267853
-15295.626596	5340.335000	1648.141602	64.064438
-15295.626596	5340.335000	1647.111328	81.769745
-15295.626596	5340.335000	1646.080078	268.723358
-15295.626596	5340.335000	1645.049805	270.140228
-15295.626596	5340.335000	1644.018555	167.246872
-15295.626596	5340.335000	1642.987305	180.253555
-15295.626596	5340.335000	1641.955078	218.731796
-15295.626596	5340.335000	1640.923828	136.735504
-15295.626596	5340.335000	1639.891602	223.829956
-15295.626596	5340.335000	1638.859375	208.999420
-15295.626596	5340.335000	1637.827148	150.180954
-15295.626596	5340.335000	1636.794922	260.347748
-15295.626596	5340.335000	1635.761719	342.692810
-15295.626596	5340.335000	1634.729492	163.547531
-15295.626596	5340.335000	1633.696289	266.686096
-15295.626596	5340.335000	1632.662109	274.948395
-15295.626596	5340.335000	1631.628906	190.706787
-15295.626596	5340.335000	1630.594727	171.224258
-15295.626596	5340.335000	1629.561523	207.221832
-15295.626596	5340.335000	1628.527344	106.843811
-15295.626596	5340.335000	1627.493164	276.839661
-15295.626596	5340.335000	1626.458008	231.916061
-15295.626596	5340.335000	1625.423828	170.838043
-15295.626596	5340.335000	1624.388672	211.383163
-15295.626596	5340.335000	1623.353516	184.950317
-15295.626596	5340.335000	1622.318359	253.165070
-15295.626596	5340.335000	1621.282227	316.729187
-15295.626596	5340.335000	1620.247070	338.730530
-15295.626596	5340.335000	1619.210938	201.530563
-15295.626596	5340.335000	1618.174805	308.874451
-15295.626596	5340.335000	1617.137695	201.699783
-15295.626596	5340.335000	1616.101563	189.095413
-15295.626596	5340.335000	1615.064453	139.604950
-15295.626596	5340.335000	1614.027344	239.938370
-15295.626596	5340.335000	1612.990234	278.010315
-15295.626596	5340.335000	1611.953125	281.503967
-15295.626596	5340.335000	1610.916016	236.619110
-15295.626596	5340.335000	1609.877930	177.926132
-15295.626596	5340.335000	1608.839844	268.915314
-15295.626596	5340.335000	1607.801758	380.582886
-15295.626596	5340.335000	1606.763672	374.818024
-15295.626596	5340.335000	1605.724609	297.711670
-15295.626596	5340.335000	1604.685547	328.765350
-15295.626596	5340.335000	1603.646484	433.411285
-15295.626596	5340.335000	1602.607422	432.218903
-15295.626596	5340.335000	1601.568359	352.843079
-15295.626596	5340.335000	1600.528320	475.798004
-15295.626596	5340.335000	1599.489258	460.793823
-15295.626596	5340.335000	1598.449219	367.654755
-15295.626596	5340.335000	1597.408203	348.068451
-15295.626596	5340.335000	1596.368164	512.260071
-15295.626596	5340.335000	1595.327148	485.754608
-15295.626596	5340.335000	1594.287109	450.073212
-15295.626596	5340.335000	1593.246094	301.905365
-15295.626596	5340.335000	1592.204102	346.598328
-15295.626596	5340.335000	1591.163086	327.015564
-15295.626596	5340.335000	1590.121094	328.084320
-15295.626596	5340.335000	1589.079102	271.799377
-15295.626596	5340.335000	1588.037109	304.981659
-15295.626596	5340.335000	1586.995117	427.579010
-15295.626596	5340.335000	1585.953125	343.785370
-15295.626596	5340.335000	1584.910156	296.694580
-15295.626596	5340.335000	1583.867188	368.791168
-15295.626596	5340.335000	1582.824219	234.637726
-15295.626596	5340.335000	1581.781250	398.347656
-15295.626596	5340.335000	1580.737305	463.499634
-15295.626596	5340.335000	1579.693359	194.288147
-15295.626596	5340.335000	1578.649414	284.634735
-15295.626596	5340.335000	1577.605469	418.435944
-15295.626596	5340.335000	1576.561523	305.010773
-15295.626596	5340.335000	1575.516602	260.270935
-15295.626596	5340.335000	1574.472656	329.935852
-15295.626596	5340.335000	1573.427734	298.928894
-15295.626596	5340.335000	1572.381836	213.045593
-15295.626596	5340.335000	1571.336914	216.366257
-15295.626596	5340.335000	1570.291016	279.115509
-15295.626596	5340.335000	1569.246094	307.559723
-15295.626596	5340.335000	1568.200195	297.142731
-15295.626596	5340.335000	1567.153320	309.572723
-15295.626596	5340.335000	1566.107422	258.043213
-15295.626596	5340.335000	1565.060547	268.190033
-15295.626596	5340.335000	1564.013672	193.852722
-15295.626596	5340.335000	1562.966797	313.581696
-15295.626596	5340.335000	1561.919922	271.215912
-15295.626596	5340.335000	1560.872070	196.918121
-15295.626596	5340.335000	1559.825195	316.574768
-15295.626596	5340.335000	1558.777344	274.231293
-15295.626596	5340.335000	1557.729492	149.803894
-15295.626596	5340.335000	1556.680664	205.551956
-15295.626596	5340.335000	1555.632813	259.001587
-15295.626596	5340.335000	1554.583984	246.331085
-15295.626596	5340.335000	1553.535156	276.962952
-15295.626596	5340.335000	1552.486328	138.987701
-15295.626596	5340.335000	1551.436523	315.411804
-15295.626596	5340.335000	1550.387695	127.382385
-15295.626596	5340.335000	1549.337891	153.461105
-15295.626596	5340.335000	1548.288086	179.531433
-15295.626596	5340.335000	1547.238281	264.770752
-15295.626596	5340.335000	1546.187500	151.996597
-15295.626596	5340.335000	1545.136719	200.805801
-15295.626596	5340.335000	1544.086914	245.051544
-15295.626596	5340.335000	1543.035156	327.939545
-15295.626596	5340.335000	1541.984375	224.345444
-15295.626596	5340.335000	1540.933594	236.737167
-15295.626596	5340.335000	1539.881836	176.390762
-15295.626596	5340.335000	1538.830078	304.687256
-15295.626596	5340.335000	1537.778320	294.341583
-15295.626596	5340.335000	1536.725586	79.557129
-15295.626596	5340.335000	1535.673828	73.809059
-15295.626596	5340.335000	1534.621094	208.847107
-15295.626596	5340.335000	1533.568359	221.242203
-15295.626596	5340.335000	1532.515625	258.603882
-15295.626596	5340.335000	1531.461914	155.252655
-15295.626596	5340.335000	1530.409180	174.469360
-15295.626596	5340.335000	1529.355469	275.345093
-15295.626596	5340.335000	1528.301758	224.229065
-15295.626596	5340.335000	1527.247070	154.994568
-15295.626596	5340.335000	1526.193359	244.492706
-15295.626596	5340.335000	1525.138672	218.358047
-15295.626596	5340.335000	1524.083984	106.122437
-15295.626596	5340.335000	1523.029297	143.477448
-15295.626596	5340.335000	1521.974609	210.272369
-15295.626596	5340.335000	1520.918945	150.211060
-15295.626596	5340.335000	1519.863281	169.434235
-15295.626596	5340.335000	1518.807617	233.935226
-15295.626596	5340.335000	1517.751953	216.930008
-15295.626596	5340.335000	1516.696289	202.200500
-15295.626596	5340.335000	1515.639648	78.874916
-15295.626596	5340.335000	1514.583008	172.774612
-15295.626596	5340.335000	1513.526367	205.576981
-15295.626596	5340.335000	1512.469727	59.731422
-15295.626596	5340.335000	1511.412109	108.380844
-15295.626596	5340.335000	1510.355469	53.042664
-15295.626596	5340.335000	1509.297852	4.511341
-15295.626596	5340.335000	1508.240234	80.279549
-15295.626596	5340.335000	1507.181641	61.143555
-15295.626596	5340.335000	1506.124023	166.248154
-15295.626596	5340.335000	1505.065430	104.213562
-15295.626596	5340.335000	1504.006836	28.665714
-15295.626596	5340.335000	1502.948242	102.135544
-15295.626596	5340.335000	1501.888672	71.769463
-15295.626596	5340.335000	1500.830078	156.501236
-15295.626596	5340.335000	1499.770508	47.197750
-15295.626596	5340.335000	1498.710938	-12.433067
-15295.626596	5340.335000	1497.650391	176.019394
-15295.626596	5340.335000	1496.590820	32.986385
-15295.626596	5340.335000	1495.530273	65.839745
-15295.626596	5340.335000	1494.469727	22.065207
-15295.626596	5340.335000	1493.409180	68.447113
-15295.626596	5340.335000	1492.348633	-90.182343
-15295.626596	5340.335000	1491.287109	125.147583
-15295.626596	5340.335000	1490.225586	85.939651
-15295.626596	5340.335000	1489.164063	-7.277156
-15295.626596	5340.335000	1488.102539	52.622330
-15295.626596	5340.335000	1487.041016	67.497650
-15295.626596	5340.335000	1485.978516	-63.879135
-15295.626596	5340.335000	1484.916016	-89.444771
-15295.626596	5340.335000	1483.853516	33.431286
-15295.626596	5340.335000	1482.791016	147.287781
-15295.626596	5340.335000	1481.727539	13.796703
-15295.626596	5340.335000	1480.664063	-36.445026
-15295.626596	5340.335000	1479.600586	12.229747
-15295.626596	5340.335000	1478.537109	-139.079208
-15295.626596	5340.335000	1477.473633	26.422232
-15295.626596	5340.335000	1476.409180	5.447134
-15295.626596	5340.335000	1475.344727	-13.213804
-15295.626596	5340.335000	1474.280273	48.898563
-15295.626596	5340.335000	1473.215820	81.851784
-15295.626596	5340.335000	1472.151367	114.825699
-15295.626596	5340.335000	1471.085938	-31.691629
-15295.626596	5340.335000	1470.020508	43.960041
-15295.626596	5340.335000	1468.955078	27.699329
-15295.626596	5340.335000	1467.888672	112.108078
-15295.626596	5340.335000	1466.823242	158.615372
-15295.626596	5340.335000	1465.756836	95.264160
-15295.626596	5340.335000	1464.690430	70.062263
-15295.626596	5340.335000	1463.624023	35.960037
-15295.626596	5340.335000	1462.556641	133.774246
-15295.626596	5340.335000	1461.490234	249.423599
-15295.626596	5340.335000	1460.422852	195.265625
-15295.626596	5340.335000	1459.355469	125.522896
-15295.626596	5340.335000	1458.287109	-6.986755
-15295.626596	5340.335000	1457.219727	112.781212
-15295.626596	5340.335000	1456.151367	70.036972
-15295.626596	5340.335000	1455.083008	101.066544
-15295.626596	5340.335000	1454.014648	16.398888
-15295.626596	5340.335000	1452.945313	56.042805
-15295.626596	5340.335000	1451.876953	66.681831
-15295.626596	5340.335000	1450.807617	110.944771
-15295.626596	5340.335000	1449.738281	90.515984
-15295.626596	5340.335000	1448.668945	38.957626
-15295.626596	5340.335000	1447.598633	114.617447
-15295.626596	5340.335000	1446.528320	97.804756
-15295.626596	5340.335000	1445.458008	102.892754
-15295.626596	5340.335000	1444.387695	-30.439730
-15295.626596	5340.335000	1443.317383	-6.837072
-15295.626596	5340.335000	1442.246094	6.262420
-15295.626596	5340.335000	1441.174805	15.668942
-15295.626596	5340.335000	1440.103516	-22.195982
-15295.626596	5340.335000	1439.032227	93.825012
-15295.626596	5340.335000	1437.960938	213.221313
-15295.626596	5340.335000	1436.888672	-11.884276
-15295.626596	5340.335000	1435.816406	40.980961
-15295.626596	5340.335000	1434.744141	-46.967030
-15295.626596	5340.335000	1433.670898	40.985439
-15295.626596	5340.335000	1432.598633	-120.072495
-15295.626596	5340.335000	1431.525391	-51.559269
-15295.626596	5340.335000	1430.452148	-101.163422
-15295.626596	5340.335000	1429.378906	113.840767
-15295.626596	5340.335000	1428.304688	94.864334
-15295.626596	5340.335000	1427.231445	-79.724976
-15295.626596	5340.335000	1426.157227	-76.884964
-15295.626596	5340.335000	1425.083008	-117.641663
-15295.626596	5340.335000	1424.007813	-8.275366
-15295.626596	5340.335000	1422.933594	-58.134796
-15295.626596	5340.335000	1421.858398	27.847296
-15295.626596	5340.335000	1420.783203	-92.175034
-15295.626596	5340.335000	1419.708008	-80.656761
-15295.626596	5340.335000	1418.631836	-63.180809
-15295.626596	5340.335000	1417.555664	15.280830
-15295.626596	5340.335000	1416.479492	78.364983
-15295.626596	5340.335000	1415.403320	3.451142
-15295.626596	5340.335000	1414.327148	-11.769668
-15295.626596	5340.335000	1413.250000	156.133865
-15295.626596	5340.335000	1412.173828	-70.703979
-15295.626596	5340.335000	1411.096680	-8.807375
-15295.626596	5340.335000	1410.018555	-28.240131
-15295.626596	5340.335000	1408.941406	86.889702
-15295.626596	5340.335000	1407.863281	184.266571
-15295.626596	5340.335000	1406.785156	71.401680
-15295.626596	5340.335000	1405.707031	-3.897764
-15295.626596	5340.335000	1404.628906	76.786301
-15295.626596	5340.335000	1403.549805	53.182232
-15295.626596	5340.335000	1402.470703	9.085322
-15295.626596	5340.335000	1401.391602	-82.905235
-15295.626596	5340.335000	1400.312500	-61.173141
-15295.626596	5340.335000	1399.233398	-77.987862
-15295.626596	5340.335000	1398.153320	-83.198555
-15295.626596	5340.335000	1397.073242	50.570015
-15295.626596	5340.335000	1395.993164	-92.013626
-15295.626596	5340.335000	1394.913086	39.246403
-15295.626596	5340.335000	1393.832031	-85.447243
-15295.626596	5340.335000	1392.750977	6.174152
-15295.626596	5340.335000	1391.669922	17.091110
-15295.626596	5340.335000	1390.588867	-55.292984
-15295.626596	5340.335000	1389.506836	0.551281
-15295.626596	5340.335000	1388.425781	-2.325828
-15295.626596	5340.335000	1387.343750	47.548042
-15295.626596	5340.335000	1386.261719	-30.937458
-15295.626596	5340.335000	1385.178711	2.513764
-15295.626596	5340.335000	1384.096680	-19.952997
-15295.626596	5340.335000	1383.013672	-60.437969
-15295.626596	5340.335000	1381.930664	40.098789
-15295.626596	5340.335000	1380.846680	-104.735023
-15295.626596	5340.335000	1379.763672	-138.999863
-15295.626596	5340.335000	1378.679688	-22.480856
-15295.626596	5340.335000	1377.595703	-7.106409
-15295.626596	5340.335000	1376.511719	63.623024
-15295.626596	5340.335000	1375.427734	-45.156788
-15295.626596	5340.335000	1374.342773	43.352909
-15295.626596	5340.335000	1373.257813	54.858353
-15295.626596	5340.335000	1372.172852	32.585159
-15295.626596	5340.335000	1371.087891	13.934232
-15295.626596	5340.335000	1370.001953	41.327446
-15295.626596	5340.335000	1368.916992	-0.020751
-15295.626596	5340.335000	1367.831055	-59.887707
-15295.626596	5340.335000	1366.744141	-32.975002
-15295.626596	5340.335000	1365.658203	65.103058
-15295.626596	5340.335000	1364.571289	126.571205
-15295.626596	5340.335000	1363.484375	158.723358
-15295.626596	5340.335000	1362.397461	34.595646
-15295.626596	5340.335000	1361.310547	160.275970
-15295.626596	5340.335000	1360.222656	10.341674
-15295.626596	5340.335000	1359.135742	64.090744
-15295.626596	5340.335000	1358.047852	93.524055
-15295.626596	5340.335000	1356.958984	94.222748
-15295.626596	5340.335000	1355.871094	127.116486
-15295.626596	5340.335000	1354.782227	-127.063728
-15295.626596	5340.335000	1353.693359	40.557335
-15295.626596	5340.335000	1352.604492	145.126633
-15295.626596	5340.335000	1351.515625	105.736427
-15295.626596	5340.335000	1350.425781	145.873428
-15295.626596	5340.335000	1349.335938	102.484543
-15295.626596	5340.335000	1348.246094	30.698166
-15295.626596	5340.335000	1347.156250	42.581165
-15295.626596	5340.335000	1346.066406	110.120331
-15295.626596	5340.335000	1344.975586	142.921127
-15295.626596	5340.335000	1343.884766	151.881012
-15295.626596	5340.335000	1342.793945	248.217224
-15295.626596	5340.335000	1341.702148	98.348305
-15295.626596	5340.335000	1340.611328	141.603622
-15295.626596	5340.335000	1339.519531	56.998985
-15295.626596	5340.335000	1338.427734	91.065994
-15295.626596	5340.335000	1337.334961	19.427824
-15295.626596	5340.335000	1336.243164	151.195923
-15295.626596	5340.335000	1335.150391	30.989264
-15295.626596	5340.335000	1334.057617	79.374519
-15295.626596	5340.335000	1332.964844	109.081131
-15295.626596	5340.335000	1331.871094	122.296349
-15295.626596	5340.335000	1330.778320	245.799820
-15295.626596	5340.335000	1329.684570	12.243958
-15295.626596	5340.335000	1328.590820	135.317856
-15295.626596	5340.335000	1327.496094	188.624863
-15295.626596	5340.335000	1326.402344	89.822365
-15295.626596	5340.335000	1325.307617	180.026321
-15295.626596	5340.335000	1324.212891	65.834923
-15295.626596	5340.335000	1323.117188	58.540058
-15295.626596	5340.335000	1322.022461	150.913681
-15295.626596	5340.335000	1320.926758	73.498688
-15295.626596	5340.335000	1319.831055	-18.163010
-15295.626596	5340.335000	1318.735352	7.431933
-15295.626596	5340.335000	1317.638672	-72.499680
-15295.626596	5340.335000	1316.542969	20.793371
-15295.626596	5340.335000	1315.446289	-10.476884
-15295.626596	5340.335000	1314.349609	2.501872
-15295.626596	5340.335000	1313.251953	80.063225
-15295.626596	5340.335000	1312.155273	89.900581
-15295.626596	5340.335000	1311.057617	-18.946695
-15295.626596	5340.335000	1309.959961	-100.189835
-15295.626596	5340.335000	1308.862305	91.566574
-15295.626596	5340.335000	1307.763672	-77.042030
-15295.626596	5340.335000	1306.665039	84.895630
-15295.626596	5340.335000	1305.566406	16.195349
-15295.626596	5340.335000	1304.467773	0.265719
-15295.626596	5340.335000	1303.369141	105.579773
-15295.626596	5340.335000	1302.269531	-79.410545
-15295.626596	5340.335000	1301.169922	2.474948
-15295.626596	5340.335000	1300.070313	5.503236
-15295.626596	5340.335000	1298.970703	68.444214
-15295.626596	5340.335000	1297.870117	-33.553322
-15295.626596	5340.335000	1296.769531	26.395319
-15295.626596	5340.335000	1295.668945	57.622044
-15295.626596	5340.335000	1294.568359	19.258070
-15295.626596	5340.335000	1293.466797	-35.157112
-15295.626596	5340.335000	1292.366211	10.397733
-15295.626596	5340.335000	1291.264648	62.032982
-15295.626596	5340.335000	1290.162109	34.688984
-15295.626596	5340.335000	1289.060547	-75.455437
-15295.626596	5340.335000	1287.958008	42.673103
-15295.626596	5340.335000	1286.855469	-9.537483
-15295.626596	5340.335000	1285.752930	-12.537050
-15295.626596	5340.335000	1284.650391	-3.752988
-15295.626596	5340.335000	1283.546875	-37.194969
-15295.626596	5340.335000	1282.444336	79.882980
-15295.626596	5340.335000	1281.339844	41.427284
-15295.626596	5340.335000	1280.236328	72.136230
-15295.626596	5340.335000	1279.132813	17.612951
-15295.626596	5340.335000	1278.028320	70.528526
-15295.626596	5340.335000	1276.923828	-16.879717
-15295.626596	5340.335000	1275.819336	-16.706656
-15295.626596	5340.335000	1274.713867	-69.481361
-15295.626596	5340.335000	1273.608398	34.447983
-15295.626596	5340.335000	1272.503906	8.014396
-15295.626596	5340.335000	1271.397461	-12.414819
-15295.626596	5340.335000	1270.291992	-1.766875
-15295.626596	5340.335000	1269.185547	28.287075
-15295.626596	5340.335000	1268.080078	-25.181803
-15295.626596	5340.335000	1266.972656	-4.868989
-15295.626596	5340.335000	1265.866211	-19.103767
-15295.626596	5340.335000	1264.759766	59.550697
-15295.626596	5340.335000	1263.652344	-22.655704
-15295.626596	5340.335000	1262.544922	-26.199261
-15295.626596	5340.335000	1261.436523	46.178246
-15295.626596	5340.335000	1260.329102	-79.848747
-15295.626596	5340.335000	1259.220703	-59.950623
-15295.626596	5340.335000	1258.112305	15.369900
-15295.626596	5340.335000	1257.003906	30.991043
-15295.626596	5340.335000	1255.895508	-33.374981
-15295.626596	5340.335000	1254.786133	83.554062
-15295.626596	5340.335000	1253.676758	22.540512
-15295.626596	5340.335000	1252.567383	-44.536434
-15295.626596	5340.335000	1251.458008	37.424103
-15295.626596	5340.335000	1250.347656	67.934875
-15295.626596	5340.335000	1249.237305	-54.626602
-15295.626596	5340.335000	1248.126953	30.987019
-15295.626596	5340.335000	1247.016602	14.673495
-15295.626596	5340.335000	1245.905273	37.334785
-15295.626596	5340.335000	1244.793945	-79.824516
-15295.626596	5340.335000	1243.682617	-36.069748
-15295.626596	5340.335000	1242.571289	151.511963
-15295.626596	5340.335000	1241.459961	102.302750
-15295.626596	5340.335000	1240.347656	37.699741
-15295.626596	5340.335000	1239.235352	30.229237
-15295.626596	5340.335000	1238.123047	65.550209
-15295.626596	5340.335000	1237.009766	23.915777
-15295.626596	5340.335000	1235.897461	54.218975
-15295.626596	5340.335000	1234.784180	66.505341
-15295.626596	5340.335000	1233.670898	16.425131
-15295.626596	5340.335000	1232.556641	-12.759212
-15295.626596	5340.335000	1231.443359	54.985382
-15295.626596	5340.335000	1230.329102	52.128849
-15295.626596	5340.335000	1229.214844	37.439568
-15295.626596	5340.335000	1228.099609	24.542810
-15295.626596	5340.335000	1226.985352	18.082396
-15295.626596	5340.335000	1225.870117	30.575710
-15295.626596	5340.335000	1224.754883	16.114805
-15295.626596	5340.335000	1223.639648	105.044678
-15295.626596	5340.335000	1222.523438	-10.649487
-15295.626596	5340.335000	1221.408203	43.821041
-15295.626596	5340.335000	1220.291992	65.962029
-15295.626596	5340.335000	1219.174805	92.740067
-15295.626596	5340.335000	1218.058594	38.934074
-15295.626596	5340.335000	1216.941406	115.385307
-15295.626596	5340.335000	1215.824219	-54.572075
-15295.626596	5340.335000	1214.707031	21.917170
-15295.626596	5340.335000	1213.589844	-19.469942
-15295.626596	5340.335000	1212.471680	62.816795
-15295.626596	5340.335000	1211.353516	31.451345
-15295.626596	5340.335000	1210.235352	-42.732536
-15295.626596	5340.335000	1209.117188	59.425560
-15295.626596	5340.335000	1207.998047	-13.265341
-15295.626596	5340.335000	1206.878906	62.375526
-15295.626596	5340.335000	1205.759766	93.848419
-15295.626596	5340.335000	1204.640625	9.721952
-15295.626596	5340.335000	1203.520508	19.691402
-15295.626596	5340.335000	1202.401367	6.950489
-15295.626596	5340.335000	1201.281250	43.523300
-15295.626596	5340.335000	1200.160156	53.984818
-15295.626596	5340.335000	1199.040039	27.642496
-15295.626596	5340.335000	1197.918945	-35.375053
-15295.626596	5340.335000	1196.797852	10.804771
-15295.626596	5340.335000	1195.676758	-15.986720
-15295.626596	5340.335000	1194.555664	95.409416
-15295.626596	5340.335000	1193.433594	-52.436005
-15295.626596	5340.335000	1192.311523	12.366684
-15295.626596	5340.335000	1191.189453	-96.462051
-15295.626596	5340.335000	1190.066406	-12.329414
-15295.626596	5340.335000	1188.944336	-56.439758
-15295.626596	5340.335000	1187.821289	-64.029617
-15295.626596	5340.335000	1186.698242	-139.389526
-15295.626596	5340.335000	1185.574219	-85.351959
-15295.626596	5340.335000	1184.451172	72.517853
-15295.626596	5340.335000	1183.327148	-37.207020
-15295.626596	5340.335000	1182.203125	41.864025
-15295.626596	5340.335000	1181.078125	54.693928
-15295.626596	5340.335000	1179.954102	-4.948567
-15295.626596	5340.335000	1178.829102	-21.982079
-15295.626596	5340.335000	1177.704102	28.303818
-15295.626596	5340.335000	1176.579102	9.804889
-15295.626596	5340.335000	1175.453125	26.494335
-15295.626596	5340.335000	1174.327148	12.860896
-15295.626596	5340.335000	1173.201172	-13.184036
-15295.626596	5340.335000	1172.075195	11.278254
-15295.626596	5340.335000	1170.949219	91.381325
-15295.626596	5340.335000	1169.822266	38.055416
-15295.626596	5340.335000	1168.695313	-11.289840
-15295.626596	5340.335000	1167.568359	40.184689
-15295.626596	5340.335000	1166.440430	-22.504335
-15295.626596	5340.335000	1165.313477	-24.983696
-15295.626596	5340.335000	1164.185547	-22.853136
-15295.626596	5340.335000	1163.057617	-1.266494
-15295.626596	5340.335000	1161.928711	-21.835035
-15295.626596	5340.335000	1160.800781	8.843273
-15295.626596	5340.335000	1159.671875	27.486065
-15295.626596	5340.335000	1158.541992	52.681004
-15295.626596	5340.335000	1157.413086	-10.996526
-15295.626596	5340.335000	1156.283203	60.948444
-15295.626596	5340.335000	1155.154297	47.204590
-15295.626596	5340.335000	1154.023438	77.072815
-15295.626596	5340.335000	1152.893555	184.417297
-15295.626596	5340.335000	1151.763672	86.058418
-15295.626596	5340.335000	1150.632813	127.133430
-15295.626596	5340.335000	1149.501953	60.027592
-15295.626596	5340.335000	1148.370117	93.896698
-15295.626596	5340.335000	1147.239258	86.790321
-15295.626596	5340.335000	1146.107422	68.376724
-15295.626596	5340.335000	1144.975586	0.792158
-15295.626596	5340.335000	1143.843750	0.779085
-15295.626596	5340.335000	1142.710938	1.944468
-15295.626596	5340.335000	1141.578125	38.288830
-15295.626596	5340.335000	1140.445313	62.920853
-15295.626596	5340.335000	1139.312500	-16.434090
-15295.626596	5340.335000	1138.178711	56.572166
-15295.626596	5340.335000	1137.045898	75.324722
-15295.626596	5340.335000	1135.912109	84.111877
-15295.626596	5340.335000	1134.777344	-68.171791
-15295.626596	5340.335000	1133.643555	-23.392378
-15295.626596	5340.335000	1132.508789	-12.027957
-15295.626596	5340.335000	1131.374023	42.760674
-15295.626596	5340.335000	1130.239258	-61.116035
-15295.626596	5340.335000	1129.104492	-26.566481
-15295.626596	5340.335000	1127.968750	-85.626579
-15295.626596	5340.335000	1126.833008	-110.451485
-15295.626596	5340.335000	1125.697266	-54.102177
-15295.626596	5340.335000	1124.560547	-42.889732
-15295.626596	5340.335000	1123.424805	69.176331
-15295.626596	5340.335000	1122.288086	37.764072
-15295.626596	5340.335000	1121.151367	-13.513544
-15295.626596	5340.335000	1120.013672	-90.368988
-15295.626596	5340.335000	1118.876953	24.641159
-15295.626596	5340.335000	1117.739258	0.085802
-15295.626596	5340.335000	1116.601563	54.939983
-15295.626596	5340.335000	1115.462891	14.971439
-15295.626596	5340.335000	1114.324219	45.000446
-15295.626596	5340.335000	1113.186523	35.981609
-15295.626596	5340.335000	1112.046875	-58.043060
-15295.626596	5340.335000	1110.908203	92.355034
-15295.626596	5340.335000	1109.769531	8.660402
-15295.626596	5340.335000	1108.629883	-60.919315
-15295.626596	5340.335000	1107.490234	-71.559875
-15295.626596	5340.335000	1106.349609	-58.540474
-15295.626596	5340.335000	1105.209961	-74.668434
-15295.626596	5340.335000	1104.069336	19.219679
-15295.626596	5340.335000	1102.928711	-52.047695
-15295.626596	5340.335000	1101.787109	-9.574979
-15295.626596	5340.335000	1100.646484	-29.426004
-15295.626596	5340.335000	1099.504883	-86.214752
-15295.626596	5340.335000	1098.363281	-56.062191
-15295.626596	5340.335000	1097.221680	-68.055138
-15295.626596	5340.335000	1096.079102	28.793734
-15295.626596	5340.335000	1094.936523	-49.527134
-15295.626596	5340.335000	1093.793945	-2.137020
-15295.626596	5340.335000	1092.651367	39.842842
-15295.626596	5340.335000	1091.507813	46.486904
-15295.626596	5340.335000	1090.364258	-32.990021
-15295.626596	5340.335000	1089.220703	70.446114
-15295.626596	5340.335000	1088.077148	-32.415764
-15295.626596	5340.335000	1086.933594	-31.468592
-15295.626596	5340.335000	1085.789063	-17.647741
-15295.626596	5340.335000	1084.644531	127.748734
-15295.626596	5340.335000	1083.499023	-6.011191
-15295.626596	5340.335000	1082.354492	48.839619
-15295.626596	5340.335000	1081.208984	-42.407875
-15295.626596	5340.335000	1080.063477	-87.796791
-15295.626596	5340.335000	1078.917969	58.518944
-15295.626596	5340.335000	1077.771484	14.008690
-15295.626596	5340.335000	1076.625977	102.063232
-15295.626596	5340.335000	1075.479492	56.105762
-15295.626596	5340.335000	1074.332031	-48.268898
-15295.626596	5340.335000	1073.185547	97.818161
-15295.626596	5340.335000	1072.038086	25.588886
-15295.626596	5340.335000	1070.890625	39.482197
-15295.626596	5340.335000	1069.743164	60.601524
-15295.626596	5340.335000	1068.594727	38.578728
-15295.626596	5340.335000	1067.447266	-97.245224
-15295.626596	5340.335000	1066.298828	6.046069
-15295.626596	5340.335000	1065.149414	-41.870270
-15295.626596	5340.335000	1064.000977	-155.549179
-15295.626596	5340.335000	1062.851563	-28.344612
-15295.626596	5340.335000	1061.702148	117.806038
-15295.626596	5340.335000	1060.552734	25.436621
-15295.626596	5340.335000	1059.402344	64.942833
-15295.626596	5340.335000	1058.252930	-114.657852
-15295.626596	5340.335000	1057.102539	50.761696
-15295.626596	5340.335000	1055.951172	58.976772
-15295.626596	5340.335000	1054.800781	36.570843
-15295.626596	5340.335000	1053.649414	-15.166173
-15295.626596	5340.335000	1052.498047	-15.645934
-15295.626596	5340.335000	1051.346680	-55.155357
-15295.626596	5340.335000	1050.194336	-49.824234
-15295.626596	5340.335000	1049.042969	46.644684
-15295.626596	5340.335000	1047.890625	104.691818
-15295.626596	5340.335000	1046.738281	10.583812
-15295.626596	5340.335000	1045.584961	4.769453
-15295.626596	5340.335000	1044.431641	35.426311
-15295.626596	5340.335000	1043.278320	92.102684
-15295.626596	5340.335000	1042.125000	-9.634807
-15295.626596	5340.335000	1040.971680	100.318047
-15295.626596	5340.335000	1039.817383	140.304245
-15295.626596	5340.335000	1038.663086	37.537354
-15295.626596	5340.335000	1037.508789	7.110344
-15295.626596	5340.335000	1036.353516	4.969707
-15295.626596	5340.335000	1035.198242	51.920101
-15295.626596	5340.335000	1034.042969	40.885586
-15295.626596	5340.335000	1032.887695	-31.858475
-15295.626596	5340.335000	1031.732422	38.393967
-15295.626596	5340.335000	1030.576172	93.752899
-15295.626596	5340.335000	1029.419922	81.151741
-15295.626596	5340.335000	1028.263672	87.343170
-15295.626596	5340.335000	1027.106445	-47.222534
-15295.626596	5340.335000	1025.949219	35.173988
-15295.626596	5340.335000	1024.792969	67.085144
-15295.626596	5340.335000	1023.634766	-110.162178
-15295.626596	5340.335000	1022.477539	97.778000
-15295.626596	5340.335000	1021.319336	182.272964
-15295.626596	5340.335000	1020.161133	52.454266
-15295.626596	5340.335000	1019.002930	-38.035755
-15295.626596	5340.335000	1017.843750	67.911789
-15295.626596	5340.335000	1016.684570	121.079857
-15295.626596	5340.335000	1015.525391	13.202594
-15295.626596	5340.335000	1014.366211	23.518551
-15295.626596	5340.335000	1013.207031	109.586342
-15295.626596	5340.335000	1012.046875	83.871231
-15295.626596	5340.335000	1010.886719	-34.721413
-15295.626596	5340.335000	1009.726563	55.671471
-15295.626596	5340.335000	1008.565430	63.667213
-15295.626596	5340.335000	1007.404297	21.966633
-15295.626596	5340.335000	1006.243164	76.655212
-15295.626596	5340.335000	1005.082031	19.186123
-15295.626596	5340.335000	1003.920898	124.032051
-15295.626596	5340.335000	1002.758789	45.556858
-15295.626596	5340.335000	1001.596680	78.122330
-15295.626596	5340.335000	1000.433594	137.580566
-15295.626596	5340.335000	999.271484	75.562698
-15295.626596	5340.335000	998.108398	64.819756
-15295.626596	5340.335000	996.945313	141.466034
-15295.626596	5340.335000	995.782227	101.412964
-15295.626596	5340.335000	994.618164	87.355621
-15295.626596	5340.335000	993.454102	81.860733
-15295.626596	5340.335000	992.290039	75.784325
-15295.626596	5340.335000	991.125977	108.272446
-15295.626596	5340.335000	989.960938	131.444931
-15295.626596	5340.335000	988.796875	195.486618
-15295.626596	5340.335000	987.630859	109.662598
-15295.626596	5340.335000	986.465820	124.374657
-15295.626596	5340.335000	985.300781	273.144989
-15295.626596	5340.335000	984.134766	76.821350
-15295.626596	5340.335000	982.968750	26.979195
-15295.626596	5340.335000	981.801758	70.624001
-15295.626596	5340.335000	980.635742	57.871479
-15295.626596	5340.335000	979.468750	-18.877590
-15295.626596	5340.335000	978.301758	34.321903
-15295.626596	5340.335000	977.133789	29.102846
-15295.626596	5340.335000	975.966797	-119.231689
-15295.626596	5340.335000	974.798828	24.876459
-15295.626596	5340.335000	973.630859	-22.182476
-15295.626596	5340.335000	972.461914	49.256573
-15295.626596	5340.335000	971.293945	-83.493202
-15295.626596	5340.335000	970.125000	-33.178905
-15295.626596	5340.335000	968.956055	15.609764
-15295.626596	5340.335000	967.786133	-6.725593
-15295.626596	5340.335000	966.617188	-68.241547
-15295.626596	5340.335000	965.447266	-101.282715
-15295.626596	5340.335000	964.276367	52.467602
-15295.626596	5340.335000	963.106445	129.392136
-15295.626596	5340.335000	961.935547	-76.991264
-15295.626596	5340.335000	960.764648	-7.651332
-15295.626596	5340.335000	959.593750	34.238453
-15295.626596	5340.335000	958.422852	114.906715
-15295.626596	5340.335000	957.250977	-22.817068
-15295.626596	5340.335000	956.079102	-3.729464
-15295.626596	5340.335000	954.907227	-44.939243
-15295.626596	5340.335000	953.734375	-38.109402
-15295.626596	5340.335000	952.562500	-119.301567
-15295.626596	5340.335000	951.389648	-42.696083
-15295.626596	5340.335000	950.215820	40.982517
-15295.626596	5340.335000	949.042969	45.789368
-15295.626596	5340.335000	947.869141	31.049191
-15295.626596	5340.335000	946.695313	-92.191948
-15295.626596	5340.335000	945.521484	-50.342625
-15295.626596	5340.335000	944.346680	146.676773
-15295.626596	5340.335000	943.172852	55.730091
-15295.626596	5340.335000	941.998047	53.165131
-15295.626596	5340.335000	940.822266	15.925341
-15295.626596	5340.335000	939.647461	52.753788
-15295.626596	5340.335000	938.471680	-21.175617
-15295.626596	5340.335000	937.295898	59.900574
-15295.626596	5340.335000	936.119141	42.588272
-15295.626596	5340.335000	934.943359	71.941162
-15295.626596	5340.335000	933.766602	-122.702850
-15295.626596	5340.335000	932.589844	24.943886
-15295.626596	5340.335000	931.413086	96.134926
-15295.626596	5340.335000	930.235352	93.583061
-15295.626596	5340.335000	929.057617	-2.665474
-15295.626596	5340.335000	927.879883	36.546188
-15295.626596	5340.335000	926.702148	105.264076
-15295.626596	5340.335000	925.523438	13.967314
-15295.626596	5340.335000	924.344727	-28.075666
-15295.626596	5340.335000	923.166016	-8.602278
-15295.626596	5340.335000	921.987305	1.005531
-15295.626596	5340.335000	920.807617	37.657749
-15295.626596	5340.335000	919.627930	38.179256
-15295.626596	5340.335000	919.497070	-48.600414
-15295.626596	5340.335000	918.331055	39.647297
-15295.626596	5340.335000	917.165039	-34.370693
-15295.626596	5340.335000	915.999023	-5.158656
-15295.626596	5340.335000	914.833008	-88.984772
-15295.626596	5340.335000	913.666016	-37.684704
-15295.626596	5340.335000	912.499023	-57.635685
-15295.626596	5340.335000	911.332031	-8.837340
-15295.626596	5340.335000	910.165039	-90.176750
-15295.626596	5340.335000	908.997070	42.039677
-15295.626596	5340.335000	907.830078	22.052080
-15295.626596	5340.335000	906.661133	-66.630074
-15295.626596	5340.335000	905.493164	-17.923956
-15295.626596	5340.335000	904.325195	-74.698730
-15295.626596	5340.335000	903.156250	23.010170
-15295.626596	5340.335000	901.987305	47.129528
-15295.626596	5340.335000	900.818359	-39.059273
-15295.626596	5340.335000	899.648438	-81.113670
-15295.626596	5340.335000	898.478516	112.030098
-15295.626596	5340.335000	897.308594	-28.029436
-15295.626596	5340.335000	896.138672	-26.004320
-15295.626596	5340.335000	894.968750	-4.400287
-15295.626596	5340.335000	893.797852	110.207123
-15295.626596	5340.335000	892.626953	-24.873167
-15295.626596	5340.335000	891.456055	67.654861
-15295.626596	5340.335000	890.284180	-11.108812
-15295.626596	5340.335000	889.113281	25.108862
-15295.626596	5340.335000	887.941406	61.305077
-15295.626596	5340.335000	886.768555	121.928909
-15295.626596	5340.335000	885.596680	89.634056
-15295.626596	5340.335000	884.423828	13.355661
-15295.626596	5340.335000	883.250977	66.601906
-15295.626596	5340.335000	882.078125	149.134628
-15295.626596	5340.335000	880.905273	151.028397
-15295.626596	5340.335000	879.731445	177.334061
-15295.626596	5340.335000	878.557617	57.139179
-15295.626596	5340.335000	877.383789	81.000481
-15295.626596	5340.335000	876.209961	16.991570
-15295.626596	5340.335000	875.035156	31.080019
-15295.626596	5340.335000	873.860352	98.823845
-15295.626596	5340.335000	872.685547	-9.066638
-15295.626596	5340.335000	871.510742	-24.259056
-15295.626596	5340.335000	870.334961	-88.208710
-15295.626596	5340.335000	869.159180	16.043556
-15295.626596	5340.335000	867.983398	27.645302
-15295.626596	5340.335000	866.807617	61.164982
-15295.626596	5340.335000	865.630859	-63.668152
-15295.626596	5340.335000	864.454102	-32.588787
-15295.626596	5340.335000	863.277344	-8.831693
-15295.626596	5340.335000	862.100586	224.269730
-15295.626596	5340.335000	860.922852	53.242310
-15295.626596	5340.335000	859.745117	-8.216252
-15295.626596	5340.335000	858.567383	66.588959
-15295.626596	5340.335000	857.389648	65.954163
-15295.626596	5340.335000	856.210938	118.817551
-15295.626596	5340.335000	855.032227	-8.269646
-15295.626596	5340.335000	853.853516	71.318619
-15295.626596	5340.335000	852.674805	39.071198
-15295.626596	5340.335000	851.495117	48.141590
-15295.626596	5340.335000	850.315430	115.510223
-15295.626596	5340.335000	849.135742	-57.615795
-15295.626596	5340.335000	847.956055	14.595877
-15295.626596	5340.335000	846.775391	94.057999
-15295.626596	5340.335000	845.595703	-6.145576
-15295.626596	5340.335000	844.415039	112.111389
-15295.626596	5340.335000	843.233398	55.613846
-15295.626596	5340.335000	842.052734	-44.530891
-15295.626596	5340.335000	840.871094	32.418369
-15295.626596	5340.335000	839.689453	14.760183
-15295.626596	5340.335000	838.506836	-10.167189
-15295.626596	5340.335000	837.325195	-134.469070
-15295.626596	5340.335000	836.142578	10.278059
-15295.626596	5340.335000	834.959961	26.546600
-15295.626596	5340.335000	833.777344	62.184982
-15295.626596	5340.335000	832.593750	-11.181694
-15295.626596	5340.335000	831.410156	24.443615
-15295.626596	5340.335000	830.226563	50.367100
-15295.626596	5340.335000	829.042969	-56.847244
-15295.626596	5340.335000	827.858398	39.254532
-15295.626596	5340.335000	826.673828	14.341586
-15295.626596	5340.335000	825.489258	-107.321648
-15295.626596	5340.335000	824.304688	-59.646767
-15295.626596	5340.335000	823.120117	75.051552
-15295.626596	5340.335000	821.934570	35.635193
-15295.626596	5340.335000	820.749023	97.744019
-15295.626596	5340.335000	819.562500	101.829498
-15295.626596	5340.335000	818.376953	52.759724
-15295.626596	5340.335000	817.190430	-92.910767
-15295.626596	5340.335000	816.003906	-86.382202
-15295.626596	5340.335000	814.817383	4.646685
-15295.626596	5340.335000	813.629883	-10.578703
-15295.626596	5340.335000	812.442383	24.881784
-15295.626596	5340.335000	811.254883	135.126282
-15295.626596	5340.335000	810.067383	-104.484116
-15295.626596	5340.335000	808.878906	68.446831
-15295.626596	5340.335000	807.690430	-14.311375
-15295.626596	5340.335000	806.501953	105.482460
-15295.626596	5340.335000	805.313477	-1.359907
-15295.626596	5340.335000	804.124023	-35.862167
-15295.626596	5340.335000	802.934570	95.900208
-15295.626596	5340.335000	801.745117	-6.064758
-15295.626596	5340.335000	800.555664	38.926025
-15295.626596	5340.335000	799.365234	103.158661
-15295.626596	5340.335000	798.175781	46.988087
-15295.626596	5340.335000	796.985352	19.721409
-15295.626596	5340.335000	795.793945	-72.512268
-15295.626596	5340.335000	794.603516	18.143707
-15295.626596	5340.335000	793.412109	-4.298993
-15295.626596	5340.335000	792.220703	-108.504959
-15295.626596	5340.335000	791.028320	6.136824
-15295.626596	5340.335000	789.836914	-54.763306
-15295.626596	5340.335000	788.644531	62.216434
-15295.626596	5340.335000	787.452148	73.412682
-15295.626596	5340.335000	786.258789	48.563145
-15295.626596	5340.335000	785.066406	50.142414
-15295.626596	5340.335000	783.873047	73.330559
-15295.626596	5340.335000	782.679688	29.277683
-15295.626596	5340.335000	781.485352	66.855751
-15295.626596	5340.335000	780.291992	-149.985291
-15295.626596	5340.335000	779.097656	38.775169
-15295.626596	5340.335000	777.903320	78.714973
-15295.626596	5340.335000	776.708008	-44.464355
-15295.626596	5340.335000	775.512695	-35.706451
-15295.626596	5340.335000	774.318359	-2.981311
-15295.626596	5340.335000	773.122070	24.931759
-15295.626596	5340.335000	771.926758	95.965942
-15295.626596	5340.335000	770.730469	83.105400
-15295.626596	5340.335000	769.534180	63.058842
-15295.626596	5340.335000	768.337891	47.805908
-15295.626596	5340.335000	767.141602	101.995422
-15295.626596	5340.335000	765.944336	10.122087
-15295.626596	5340.335000	764.747070	124.124832
-15295.626596	5340.335000	763.549805	120.816780
-15295.626596	5340.335000	762.351563	177.317856
-15295.626596	5340.335000	761.154297	-0.628945
-15295.626596	5340.335000	759.956055	65.428703
-15295.626596	5340.335000	758.757813	83.632874
-15295.626596	5340.335000	757.558594	130.509705
-15295.626596	5340.335000	756.359375	122.390251
-15295.626596	5340.335000	755.160156	102.320511
-15295.626596	5340.335000	753.960938	87.030846
-15295.626596	5340.335000	752.761719	9.639287
-15295.626596	5340.335000	751.561523	68.391922
-15295.626596	5340.335000	750.361328	88.912766
-15295.626596	5340.335000	749.160156	42.580688
-15295.626596	5340.335000	747.959961	27.286476
-15295.626596	5340.335000	746.758789	-14.254972
-15295.626596	5340.335000	745.557617	73.033745
-15295.626596	5340.335000	744.356445	21.945463
-15295.626596	5340.335000	743.154297	-0.514518
-15295.626596	5340.335000	741.952148	36.628922
-15295.626596	5340.335000	740.750000	7.009424
-15295.626596	5340.335000	739.547852	115.612450
-15295.626596	5340.335000	738.344727	-33.155861
-15295.626596	5340.335000	737.142578	-22.271090
-15295.626596	5340.335000	735.939453	69.574074
-15295.626596	5340.335000	734.735352	39.937328
-15295.626596	5340.335000	733.532227	-3.978913
-15295.626596	5340.335000	732.328125	-28.845158
-15295.626596	5340.335000	731.124023	58.130402
-15295.626596	5340.335000	729.918945	42.759624
-15295.626596	5340.335000	728.714844	-103.436172
-15295.626596	5340.335000	727.509766	40.546761
-15295.626596	5340.335000	726.303711	27.538317
-15295.626596	5340.335000	725.098633	31.165327
-15295.626596	5340.335000	723.892578	-7.998202
-15295.626596	5340.335000	722.686523	-106.557877
-15295.626596	5340.335000	721.480469	72.859428
-15295.626596	5340.335000	720.274414	21.805319
-15295.626596	5340.335000	719.067383	34.876476
-15295.626596	5340.335000	717.860352	7.571087
-15295.626596	5340.335000	716.653320	-3.118339
-15295.626596	5340.335000	715.445313	78.736893
-15295.626596	5340.335000	714.238281	56.151451
-15295.626596	5340.335000	713.030273	2.726047
-15295.626596	5340.335000	711.821289	-53.060513
-15295.626596	5340.335000	710.613281	-123.062157
-15295.626596	5340.335000	709.404297	53.499256
-15295.626596	5340.335000	708.195313	37.993317
-15295.626596	5340.335000	706.986328	41.438652
-15295.626596	5340.335000	705.776367	-66.480247
-15295.626596	5340.335000	704.566406	-55.934067
-15295.626596	5340.335000	703.356445	23.270895
-15295.626596	5340.335000	702.146484	-18.320616
-15295.626596	5340.335000	700.935547	-81.212631
-15295.626596	5340.335000	699.724609	9.741119
-15295.626596	5340.335000	698.513672	62.784367
-15295.626596	5340.335000	697.302734	4.605422
-15295.626596	5340.335000	696.090820	-193.108139
-15295.626596	5340.335000	694.878906	-62.063747
-15295.626596	5340.335000	693.666992	47.633678
-15295.626596	5340.335000	692.455078	-27.096085
-15295.626596	5340.335000	691.242188	51.797043
-15295.626596	5340.335000	690.029297	5.420117
-15295.626596	5340.335000	688.816406	46.448521
-15295.626596	5340.335000	687.602539	80.359062
-15295.626596	5340.335000	686.389648	-36.875835
-15295.626596	5340.335000	685.175781	39.499844
-15295.626596	5340.335000	683.960938	-30.505293
-15295.626596	5340.335000	682.747070	-107.574997
-15295.626596	5340.335000	681.532227	-7.688677
-15295.626596	5340.335000	680.317383	132.237885
-15295.626596	5340.335000	679.102539	19.760443
-15295.626596	5340.335000	677.886719	190.239044
-15295.626596	5340.335000	676.670898	216.839218
-15295.626596	5340.335000	675.455078	151.499329
-15295.626596	5340.335000	674.239258	234.612320
-15295.626596	5340.335000	673.022461	235.222229
-15295.626596	5340.335000	671.805664	115.697823
-15295.626596	5340.335000	670.588867	36.236961
-15295.626596	5340.335000	669.372070	-0.831363
-15295.626596	5340.335000	668.154297	180.995850
-15295.626596	5340.335000	666.936523	66.219749
-15295.626596	5340.335000	665.718750	36.173206
-15295.626596	5340.335000	664.500977	-5.639718
-15295.626596	5340.335000	663.282227	-2.770258
-15295.626596	5340.335000	662.063477	98.832832
-15295.626596	5340.335000	660.844727	59.328876
-15295.626596	5340.335000	659.625000	-29.533335
-15295.626596	5340.335000	658.405273	-80.779900
-15295.626596	5340.335000	657.185547	-82.688484
-15295.626596	5340.335000	655.965820	-32.941788
-15295.626596	5340.335000	654.745117	-27.853079
-15295.626596	5340.335000	653.525391	-34.523357
-15295.626596	5340.335000	652.303711	43.291046
-15295.626596	5340.335000	651.083008	64.731583
-15295.626596	5340.335000	649.861328	50.948360
-15295.626596	5340.335000	648.640625	-16.800608
-15295.626596	5340.335000	647.417969	100.737473
-15295.626596	5340.335000	646.196289	63.449852
-15295.626596	5340.335000	644.973633	16.780481
-15295.626596	5340.335000	643.750977	-43.951294
-15295.626596	5340.335000	642.528320	0.772811
-15295.626596	5340.335000	641.305664	19.687387
-15295.626596	5340.335000	640.082031	97.131889
-15295.626596	5340.335000	638.858398	-8.139205
-15295.626596	5340.335000	637.634766	-85.288986
-15295.626596	5340.335000	636.410156	106.770508
-15295.626596	5340.335000	635.185547	-28.920044
-15295.626596	5340.335000	633.960938	64.733360
-15295.626596	5340.335000	632.736328	20.305195
-15295.626596	5340.335000	631.510742	41.363369
-15295.626596	5340.335000	630.285156	-42.833340
-15295.626596	5340.335000	629.059570	17.934345
-15295.626596	5340.335000	627.833984	-73.272751
-15295.626596	5340.335000	626.607422	-17.238554
-15295.626596	5340.335000	625.380859	-66.384628
-15295.626596	5340.335000	624.154297	87.693390
-15295.626596	5340.335000	622.927734	-40.896282
-15295.626596	5340.335000	621.700195	52.363659
-15295.626596	5340.335000	620.472656	42.851303
-15295.626596	5340.335000	619.245117	33.323582
-15295.626596	5340.335000	618.016602	-29.888760
-15295.626596	5340.335000	616.788086	-93.093102
-15295.626596	5340.335000	615.559570	-79.319618
-15295.626596	5340.335000	614.331055	-30.591862
-15295.626596	5340.335000	613.101563	143.992661
-15295.626596	5340.335000	611.872070	-7.846723
-15295.626596	5340.335000	610.642578	-38.456814
-15295.626596	5340.335000	609.413086	47.424995
-15295.626596	5340.335000	608.182617	-111.341537
-15295.626596	5340.335000	606.952148	49.008625
-15295.626596	5340.335000	605.721680	-14.259439
-15295.626596	5340.335000	604.491211	-14.663377
-15295.626596	5340.335000	603.259766	17.498833
-15295.626596	5340.335000	602.028320	-8.544544
-15295.626596	5340.335000	600.796875	-48.552578
-15295.626596	5340.335000	599.564453	-35.064472
-15295.626596	5340.335000	598.332031	-30.900721
-15295.626596	5340.335000	597.099609	-66.280090
-15295.626596	5340.335000	595.867188	-76.091019
-15295.626596	5340.335000	594.633789	-83.591469
-15295.626596	5340.335000	593.400391	52.953320
-15295.626596	5340.335000	592.166992	50.043365
-15295.626596	5340.335000	590.933594	128.407944
-15295.626596	5340.335000	589.699219	-11.548329
-15295.626596	5340.335000	588.464844	-67.884308
-15295.626596	5340.335000	587.230469	-45.295494
-15295.626596	5340.335000	585.995117	56.166420
-15295.626596	5340.335000	584.760742	50.850842
-15295.626596	5340.335000	583.525391	-68.136185
-15295.626596	5340.335000	582.289063	114.390953
-15295.626596	5340.335000	581.053711	-74.141853
-15295.626596	5340.335000	579.817383	59.603603
-15295.626596	5340.335000	578.581055	49.590088
-15295.626596	5340.335000	577.343750	-22.993843
-15295.626596	5340.335000	576.107422	94.403786
-15295.626596	5340.335000	574.870117	176.996872
-15295.626596	5340.335000	573.631836	150.709137
-15295.626596	5340.335000	572.394531	96.642906
-15295.626596	5340.335000	571.156250	86.565529
-15295.626596	5340.335000	569.917969	169.047577
-15295.626596	5340.335000	568.679688	110.354599
-15295.626596	5340.335000	567.440430	26.231560
-15295.626596	5340.335000	566.202148	11.517236
-15295.626596	5340.335000	564.961914	112.404861
-15295.626596	5340.335000	563.722656	72.233604
-15295.626596	5340.335000	562.482422	-4.907919
-15295.626596	5340.335000	561.243164	40.443893
-15295.626596	5340.335000	560.001953	37.253498
-15295.626596	5340.335000	558.761719	34.060825
-15295.626596	5340.335000	557.520508	-3.774997
-15295.626596	5340.335000	556.279297	69.217857
-15295.626596	5340.335000	555.038086	132.942963
-15295.626596	5340.335000	553.795898	42.019615
-15295.626596	5340.335000	552.554688	89.566536
-15295.626596	5340.335000	551.311523	56.352131
-15295.626596	5340.335000	550.069336	43.907898
-15295.626596	5340.335000	548.826172	47.606167
-15295.626596	5340.335000	547.583984	35.167015
-15295.626596	5340.335000	546.339844	-27.974611
-15295.626596	5340.335000	545.096680	-8.134121
-15295.626596	5340.335000	543.852539	96.935844
-15295.626596	5340.335000	542.608398	3.882011
-15295.626596	5340.335000	541.364258	9.889280
-15295.626596	5340.335000	540.119141	158.635605
-15295.626596	5340.335000	538.875000	143.897476
-15295.626596	5340.335000	537.628906	85.441238
-15295.626596	5340.335000	536.383789	289.306671
-15295.626596	5340.335000	535.137695	111.238815
-15295.626596	5340.335000	533.892578	43.645206
-15295.626596	5340.335000	532.645508	215.211960
-15295.626596	5340.335000	531.399414	230.394348
-15295.626596	5340.335000	530.152344	328.315857
-15295.626596	5340.335000	528.905273	419.310455
-15295.626596	5340.335000	527.658203	347.163483
-15295.626596	5340.335000	526.410156	486.365448
-15295.626596	5340.335000	525.163086	577.296021
-15295.626596	5340.335000	523.914063	456.975525
-15295.626596	5340.335000	522.666016	630.527466
-15295.626596	5340.335000	521.416992	524.040344
-15295.626596	5340.335000	520.167969	472.676758
-15295.626596	5340.335000	518.918945	485.577881
-15295.626596	5340.335000	517.669922	608.570557
-15295.626596	5340.335000	516.419922	619.171326
-15295.626596	5340.335000	515.169922	570.179871
-15295.626596	5340.335000	513.919922	587.691101
-15295.626596	5340.335000	512.668945	662.496033
-15295.626596	5340.335000	511.417969	402.809265
-15295.626596	5340.335000	510.166992	379.167633
-15295.626596	5340.335000	508.916016	401.354431
-15295.626596	5340.335000	507.664063	249.549896
-15295.626596	5340.335000	506.412109	292.392944
-15295.626596	5340.335000	505.160156	236.833893
-15295.626596	5340.335000	503.907227	249.957275
-15295.626596	5340.335000	502.655273	134.999176
-15295.626596	5340.335000	501.402344	61.277470
-15295.626596	5340.335000	500.148438	113.367004
-15295.626596	5340.335000	498.895508	138.026688
-15295.626596	5340.335000	497.641602	110.131592
-15295.626596	5340.335000	496.387695	233.085129
-15295.626596	5340.335000	495.132813	191.523148
-15295.626596	5340.335000	493.878906	122.597939
-15295.626596	5340.335000	492.624023	181.606064
-15295.626596	5340.335000	491.368164	156.141373
-15295.626596	5340.335000	490.113281	-45.041752
-15295.626596	5340.335000	488.857422	34.584576
-15295.626596	5340.335000	487.601563	114.204514
-15295.626596	5340.335000	486.344727	40.985004
-15295.626596	5340.335000	485.088867	141.153091
-15295.626596	5340.335000	483.832031	-30.026402
-15295.626596	5340.335000	482.575195	51.936184
-15295.626596	5340.335000	481.317383	60.960747
-15295.626596	5340.335000	480.059570	44.947021
-15295.626596	5340.335000	478.801758	35.806477
-15295.626596	5340.335000	477.543945	83.642937
-15295.626596	5340.335000	476.285156	44.957615
-15295.626596	5340.335000	475.027344	120.156189
-15295.626596	5340.335000	473.767578	147.552765
-15295.626596	5340.335000	472.508789	-9.359187
-15295.626596	5340.335000	471.249023	-41.035519
-15295.626596	5340.335000	469.989258	-56.741936
-15295.626596	5340.335000	468.729492	32.206009
-15295.626596	5340.335000	467.469727	77.948303
-15295.626596	5340.335000	466.208984	19.134336
-15295.626596	5340.335000	464.948242	-57.802128
-15295.626596	5340.335000	463.686523	-50.598930
-15295.626596	5340.335000	462.425781	111.115822
-15295.626596	5340.335000	461.164063	-22.472464
-15295.626596	5340.335000	459.901367	12.068066
-15295.626596	5340.335000	458.639648	-57.805779
-15295.626596	5340.335000	457.376953	31.269682
-15295.626596	5340.335000	456.114258	38.644257
-15295.626596	5340.335000	454.851563	-28.822721
-15295.626596	5340.335000	453.587891	-50.861889
-15295.626596	5340.335000	452.324219	11.050669
-15295.626596	5340.335000	451.060547	16.284388
-15295.626596	5340.335000	449.796875	-12.455402
-15295.626596	5340.335000	448.532227	-34.353783
-15295.626596	5340.335000	447.267578	61.613579
-15295.626596	5340.335000	446.002930	60.156979
-15295.626596	5340.335000	444.737305	-45.455883
-15295.626596	5340.335000	443.471680	-55.889641
-15295.626596	5340.335000	442.206055	35.585110
-15295.626596	5340.335000	440.940430	20.665480
-15295.626596	5340.335000	439.673828	3.514756
-15295.626596	5340.335000	438.407227	-61.115776
-15295.626596	5340.335000	437.140625	50.738613
-15295.626596	5340.335000	435.873047	-38.704735
-15295.626596	5340.335000	434.605469	95.749527
-15295.626596	5340.335000	433.337891	-0.405286
-15295.626596	5340.335000	432.070313	-17.399551
-15295.626596	5340.335000	430.801758	22.118095
-15295.626596	5340.335000	429.533203	-3.877102
-15295.626596	5340.335000	428.264648	-20.813528
-15295.626596	5340.335000	426.996094	97.752419
-15295.626596	5340.335000	425.726563	46.960873
-15295.626596	5340.335000	424.457031	21.027403
-15295.626596	5340.335000	423.186523	85.375168
-15295.626596	5340.335000	421.916992	95.553169
-15295.626596	5340.335000	420.646484	51.594593
-15295.626596	5340.335000	419.375977	-10.386000
-15295.626596	5340.335000	418.104492	-40.777119
-15295.626596	5340.335000	416.833008	21.259470
-15295.626596	5340.335000	415.561523	-29.420185
-15295.626596	5340.335000	414.290039	140.721008
-15295.626596	5340.335000	413.017578	101.277222
-15295.626596	5340.335000	411.746094	-118.339081
-15295.626596	5340.335000	410.472656	-99.200386
-15295.626596	5340.335000	409.200195	-5.802454
-15295.626596	5340.335000	407.926758	-0.248621
-15295.626596	5340.335000	406.653320	-5.976685
-15295.626596	5340.335000	405.379883	89.502960
-15295.626596	5340.335000	404.105469	67.943626
-15295.626596	5340.335000	402.831055	32.861282
-15295.626596	5340.335000	401.556641	-38.222168
-15295.626596	5340.335000	400.282227	0.818067
-15295.626596	5340.335000	399.006836	-81.565216
-15295.626596	5340.335000	397.731445	-65.110184
-15295.626596	5340.335000	396.456055	59.099266
-15295.626596	5340.335000	395.179688	203.400314
-15295.626596	5340.335000	393.903320	134.259552
-15295.626596	5340.335000	392.626953	47.113796
-15295.626596	5340.335000	391.350586	11.544762
-15295.626596	5340.335000	390.073242	38.731739
-15295.626596	5340.335000	388.795898	128.628876
-15295.626596	5340.335000	387.518555	144.372513
-15295.626596	5340.335000	386.240234	-44.056076
-15295.626596	5340.335000	384.961914	-24.014637
-15295.626596	5340.335000	383.683594	94.524704
-15295.626596	5340.335000	382.405273	-26.893770
-15295.626596	5340.335000	381.125977	-49.810951
-15295.626596	5340.335000	379.846680	7.783147
-15295.626596	5340.335000	378.567383	40.573299
-15295.626596	5340.335000	377.287109	-61.145435
-15295.626596	5340.335000	376.006836	-21.953737
-15295.626596	5340.335000	374.726563	86.432114
-15295.626596	5340.335000	373.446289	46.916729
-15295.626596	5340.335000	372.165039	9.468542
-15295.626596	5340.335000	370.883789	-1.317295
-15295.626596	5340.335000	369.602539	25.712620
-15295.626596	5340.335000	368.320313	63.695454
-15295.626596	5340.335000	367.039063	132.734894
-15295.626596	5340.335000	365.755859	69.665543
-15295.626596	5340.335000	364.473633	-60.637386
-15295.626596	5340.335000	363.190430	101.470741
-15295.626596	5340.335000	361.907227	80.127838
-15295.626596	5340.335000	360.624023	-19.620485
-15295.626596	5340.335000	359.340820	114.771599
-15295.626596	5340.335000	358.056641	128.294968
-15295.626596	5340.335000	356.772461	-10.215577
-15295.626596	5340.335000	355.487305	132.083771
-15295.626596	5340.335000	354.202148	133.485184
-15295.626596	5340.335000	352.916992	103.327385
-15295.626596	5340.335000	351.631836	-9.656134
-15295.626596	5340.335000	350.346680	148.952805
-15295.626596	5340.335000	349.060547	115.471153
-15295.626596	5340.335000	347.774414	324.439240
-15295.626596	5340.335000	346.487305	114.161011
-15295.626596	5340.335000	345.200195	41.613682
-15295.626596	5340.335000	343.913086	171.255234
-15295.626596	5340.335000	342.625977	62.217144
-15295.626596	5340.335000	341.338867	26.192503
-15295.626596	5340.335000	340.050781	156.555893
-15295.626596	5340.335000	338.762695	41.672070
-15295.626596	5340.335000	337.473633	84.207008
-15295.626596	5340.335000	336.184570	128.407715
-15295.626596	5340.335000	334.895508	29.763172
-15295.626596	5340.335000	333.606445	155.056900
-15295.626596	5340.335000	332.317383	170.825439
-15295.626596	5340.335000	331.027344	-31.743097
-15295.626596	5340.335000	329.736328	-39.418167
-15295.626596	5340.335000	328.446289	52.193516
-15295.626596	5340.335000	327.155273	114.219803
-15295.626596	5340.335000	325.864258	-13.137694
-15295.626596	5340.335000	324.573242	47.467369
-15295.626596	5340.335000	323.281250	160.541504
-15295.626596	5340.335000	321.989258	77.612083
-15295.626596	5340.335000	320.697266	-54.850475
-15295.626596	5340.335000	319.405273	-12.907060
-15295.626596	5340.335000	318.112305	63.638798
-15295.626596	5340.335000	316.819336	121.566719
-15295.626596	5340.335000	315.526367	-16.389824
-15295.626596	5340.335000	314.232422	-93.183937
-15295.626596	5340.335000	312.938477	-108.864342
-15295.626596	5340.335000	311.644531	67.143082
-15295.626596	5340.335000	310.349609	42.829147
-15295.626596	5340.335000	309.054688	13.085918
-15295.626596	5340.335000	307.759766	132.782669
-15295.626596	5340.335000	306.464844	-65.002899
-15295.626596	5340.335000	305.168945	-20.526728
-15295.626596	5340.335000	303.873047	-32.484974
-15295.626596	5340.335000	302.577148	18.514133
-15295.626596	5340.335000	301.281250	26.300711
-15295.626596	5340.335000	299.984375	50.509258
