#X		#Y		#Wave		#Intensity
9897.421809	4335.638333	1999.946289	46.643021
9897.421809	4335.638333	1998.981445	-73.644119
9897.421809	4335.638333	1998.017578	111.682175
9897.421809	4335.638333	1997.052734	7.119238
9897.421809	4335.638333	1996.088867	113.320572
9897.421809	4335.638333	1995.124023	-15.737348
9897.421809	4335.638333	1994.159180	-35.656498
9897.421809	4335.638333	1993.193359	-8.410562
9897.421809	4335.638333	1992.228516	-149.417084
9897.421809	4335.638333	1991.262695	34.002693
9897.421809	4335.638333	1990.296875	29.366659
9897.421809	4335.638333	1989.331055	-27.129625
9897.421809	4335.638333	1988.365234	-29.078632
9897.421809	4335.638333	1987.398438	58.113281
9897.421809	4335.638333	1986.432617	1.930917
9897.421809	4335.638333	1985.465820	-36.833130
9897.421809	4335.638333	1984.499023	25.863092
9897.421809	4335.638333	1983.532227	-198.092194
9897.421809	4335.638333	1982.565430	52.595551
9897.421809	4335.638333	1981.597656	48.780525
9897.421809	4335.638333	1980.629883	-6.829488
9897.421809	4335.638333	1979.662109	-89.509178
9897.421809	4335.638333	1978.694336	-179.491196
9897.421809	4335.638333	1977.726563	-20.004259
9897.421809	4335.638333	1976.758789	62.972004
9897.421809	4335.638333	1975.790039	22.583515
9897.421809	4335.638333	1974.821289	24.227278
9897.421809	4335.638333	1973.852539	55.539970
9897.421809	4335.638333	1972.883789	151.038193
9897.421809	4335.638333	1971.915039	-29.651047
9897.421809	4335.638333	1970.945313	-25.284643
9897.421809	4335.638333	1969.975586	62.958076
9897.421809	4335.638333	1969.005859	-114.976448
9897.421809	4335.638333	1968.036133	99.041840
9897.421809	4335.638333	1967.066406	115.922333
9897.421809	4335.638333	1966.096680	2.285415
9897.421809	4335.638333	1965.125977	48.832729
9897.421809	4335.638333	1964.155273	-54.802692
9897.421809	4335.638333	1963.184570	-101.726952
9897.421809	4335.638333	1962.213867	171.420670
9897.421809	4335.638333	1961.242188	97.487671
9897.421809	4335.638333	1960.271484	166.343872
9897.421809	4335.638333	1959.299805	80.220024
9897.421809	4335.638333	1958.328125	-94.384712
9897.421809	4335.638333	1957.356445	-77.060646
9897.421809	4335.638333	1956.384766	38.647861
9897.421809	4335.638333	1955.412109	112.555489
9897.421809	4335.638333	1954.439453	-54.410954
9897.421809	4335.638333	1953.467773	-41.885292
9897.421809	4335.638333	1952.495117	118.088562
9897.421809	4335.638333	1951.521484	79.048500
9897.421809	4335.638333	1950.548828	10.579724
9897.421809	4335.638333	1949.575195	172.994049
9897.421809	4335.638333	1948.601563	53.026840
9897.421809	4335.638333	1947.627930	166.329285
9897.421809	4335.638333	1946.654297	9.642419
9897.421809	4335.638333	1945.680664	73.880165
9897.421809	4335.638333	1944.706055	-23.806288
9897.421809	4335.638333	1943.732422	33.098728
9897.421809	4335.638333	1942.757813	-96.386406
9897.421809	4335.638333	1941.783203	-71.328102
9897.421809	4335.638333	1940.807617	-100.195122
9897.421809	4335.638333	1939.833008	40.089664
9897.421809	4335.638333	1938.857422	320.025330
9897.421809	4335.638333	1937.881836	26.527876
9897.421809	4335.638333	1936.906250	-21.873323
9897.421809	4335.638333	1935.930664	-62.896961
9897.421809	4335.638333	1934.955078	47.934578
9897.421809	4335.638333	1933.978516	-17.546452
9897.421809	4335.638333	1933.001953	85.911934
9897.421809	4335.638333	1932.025391	22.915335
9897.421809	4335.638333	1931.048828	246.248093
9897.421809	4335.638333	1930.072266	60.934788
9897.421809	4335.638333	1929.094727	-48.474426
9897.421809	4335.638333	1928.118164	-8.653473
9897.421809	4335.638333	1927.140625	-132.668228
9897.421809	4335.638333	1926.163086	51.402306
9897.421809	4335.638333	1925.184570	-50.570366
9897.421809	4335.638333	1924.207031	82.103134
9897.421809	4335.638333	1923.228516	90.119736
9897.421809	4335.638333	1922.250000	90.805725
9897.421809	4335.638333	1921.271484	-77.033890
9897.421809	4335.638333	1920.292969	70.203743
9897.421809	4335.638333	1919.314453	87.986748
9897.421809	4335.638333	1918.334961	-143.226334
9897.421809	4335.638333	1917.355469	-5.823020
9897.421809	4335.638333	1916.375977	102.245895
9897.421809	4335.638333	1915.396484	19.974941
9897.421809	4335.638333	1914.416992	59.694603
9897.421809	4335.638333	1913.436523	70.130074
9897.421809	4335.638333	1912.457031	80.557800
9897.421809	4335.638333	1911.476563	15.402395
9897.421809	4335.638333	1910.496094	16.077211
9897.421809	4335.638333	1909.515625	116.660843
9897.421809	4335.638333	1908.534180	71.010345
9897.421809	4335.638333	1907.552734	-203.619080
9897.421809	4335.638333	1906.572266	-78.714363
9897.421809	4335.638333	1905.590820	43.700844
9897.421809	4335.638333	1904.608398	107.629967
9897.421809	4335.638333	1903.626953	37.642609
9897.421809	4335.638333	1902.644531	162.375275
9897.421809	4335.638333	1901.663086	21.819513
9897.421809	4335.638333	1900.680664	19.978985
9897.421809	4335.638333	1899.698242	120.290672
9897.421809	4335.638333	1898.714844	-8.049479
9897.421809	4335.638333	1897.732422	-73.134789
9897.421809	4335.638333	1896.749023	-19.084667
9897.421809	4335.638333	1895.765625	-37.985508
9897.421809	4335.638333	1894.782227	256.596893
9897.421809	4335.638333	1893.798828	79.696320
9897.421809	4335.638333	1892.814453	-199.178787
9897.421809	4335.638333	1891.831055	-167.079575
9897.421809	4335.638333	1890.846680	-84.011284
9897.421809	4335.638333	1889.862305	-178.222321
9897.421809	4335.638333	1888.877930	57.714741
9897.421809	4335.638333	1887.892578	-184.561844
9897.421809	4335.638333	1886.908203	-82.199730
9897.421809	4335.638333	1885.922852	-147.288254
9897.421809	4335.638333	1884.937500	-129.898941
9897.421809	4335.638333	1883.952148	129.982559
9897.421809	4335.638333	1882.965820	-7.899101
9897.421809	4335.638333	1881.980469	-41.503872
9897.421809	4335.638333	1880.994141	138.179367
9897.421809	4335.638333	1880.007813	-45.721611
9897.421809	4335.638333	1879.021484	-67.238304
9897.421809	4335.638333	1878.035156	22.666111
9897.421809	4335.638333	1877.047852	-107.880943
9897.421809	4335.638333	1876.061523	83.664696
9897.421809	4335.638333	1875.074219	-49.303204
9897.421809	4335.638333	1874.086914	132.438004
9897.421809	4335.638333	1873.098633	-24.729431
9897.421809	4335.638333	1872.111328	-39.095161
9897.421809	4335.638333	1871.123047	-123.633728
9897.421809	4335.638333	1870.135742	-94.476486
9897.421809	4335.638333	1869.147461	9.616799
9897.421809	4335.638333	1868.158203	87.053070
9897.421809	4335.638333	1867.169922	229.710861
9897.421809	4335.638333	1866.180664	82.256081
9897.421809	4335.638333	1865.192383	-57.914085
9897.421809	4335.638333	1864.203125	212.678696
9897.421809	4335.638333	1863.213867	-21.717279
9897.421809	4335.638333	1862.223633	-79.739464
9897.421809	4335.638333	1861.234375	7.119840
9897.421809	4335.638333	1860.244141	-123.358444
9897.421809	4335.638333	1859.253906	154.121948
9897.421809	4335.638333	1858.263672	13.966073
9897.421809	4335.638333	1857.273438	218.883728
9897.421809	4335.638333	1856.282227	30.472687
9897.421809	4335.638333	1855.291992	44.716515
9897.421809	4335.638333	1854.300781	-126.758408
9897.421809	4335.638333	1853.309570	61.060146
9897.421809	4335.638333	1852.317383	19.772797
9897.421809	4335.638333	1851.326172	14.629910
9897.421809	4335.638333	1850.333984	-43.548946
9897.421809	4335.638333	1849.342773	28.369501
9897.421809	4335.638333	1848.350586	105.054344
9897.421809	4335.638333	1847.357422	167.233871
9897.421809	4335.638333	1846.365234	142.681152
9897.421809	4335.638333	1845.372070	41.071976
9897.421809	4335.638333	1844.379883	-12.382980
9897.421809	4335.638333	1843.386719	-15.305874
9897.421809	4335.638333	1842.393555	-68.782829
9897.421809	4335.638333	1841.399414	-35.662682
9897.421809	4335.638333	1840.406250	23.877754
9897.421809	4335.638333	1839.412109	85.772781
9897.421809	4335.638333	1838.417969	89.914879
9897.421809	4335.638333	1837.423828	-26.162867
9897.421809	4335.638333	1836.429688	208.671234
9897.421809	4335.638333	1835.434570	51.709820
9897.421809	4335.638333	1834.440430	79.773453
9897.421809	4335.638333	1833.445313	208.682861
9897.421809	4335.638333	1832.450195	154.997696
9897.421809	4335.638333	1831.454102	168.533920
9897.421809	4335.638333	1830.458984	-62.829071
9897.421809	4335.638333	1829.462891	-61.312763
9897.421809	4335.638333	1828.466797	156.155304
9897.421809	4335.638333	1827.470703	78.396301
9897.421809	4335.638333	1826.474609	120.581993
9897.421809	4335.638333	1825.478516	119.552101
9897.421809	4335.638333	1824.481445	-82.936157
9897.421809	4335.638333	1823.484375	64.659523
9897.421809	4335.638333	1822.487305	214.568542
9897.421809	4335.638333	1821.490234	93.575943
9897.421809	4335.638333	1820.493164	-72.926781
9897.421809	4335.638333	1819.495117	55.272533
9897.421809	4335.638333	1818.498047	-39.361130
9897.421809	4335.638333	1817.500000	-133.990280
9897.421809	4335.638333	1816.500977	94.622208
9897.421809	4335.638333	1815.502930	122.033279
9897.421809	4335.638333	1814.504883	-37.284199
9897.421809	4335.638333	1813.505859	-26.670959
9897.421809	4335.638333	1812.506836	151.386337
9897.421809	4335.638333	1811.507813	-36.642689
9897.421809	4335.638333	1810.508789	40.840519
9897.421809	4335.638333	1809.508789	99.132820
9897.421809	4335.638333	1808.508789	-79.309959
9897.421809	4335.638333	1807.508789	-21.077734
9897.421809	4335.638333	1806.508789	68.169243
9897.421809	4335.638333	1805.508789	157.351791
9897.421809	4335.638333	1804.508789	48.189568
9897.421809	4335.638333	1803.507813	39.351322
9897.421809	4335.638333	1802.506836	-12.497936
9897.421809	4335.638333	1801.505859	78.893669
9897.421809	4335.638333	1800.504883	120.091484
9897.421809	4335.638333	1799.502930	65.772972
9897.421809	4335.638333	1798.501953	-33.891632
9897.421809	4335.638333	1797.500000	116.952621
9897.421809	4335.638333	1796.498047	17.250202
9897.421809	4335.638333	1795.496094	213.276443
9897.421809	4335.638333	1794.493164	99.221344
9897.421809	4335.638333	1793.491211	18.556236
9897.421809	4335.638333	1792.488281	66.595734
9897.421809	4335.638333	1791.485352	14.497367
9897.421809	4335.638333	1790.482422	193.498383
9897.421809	4335.638333	1789.478516	-44.478951
9897.421809	4335.638333	1788.475586	317.791901
9897.421809	4335.638333	1787.471680	-13.051497
9897.421809	4335.638333	1786.467773	6.173928
9897.421809	4335.638333	1785.463867	13.458359
9897.421809	4335.638333	1784.459961	15.948231
9897.421809	4335.638333	1783.455078	68.369370
9897.421809	4335.638333	1782.450195	-81.475883
9897.421809	4335.638333	1781.445313	-102.856133
9897.421809	4335.638333	1780.440430	-33.893490
9897.421809	4335.638333	1779.435547	-69.605568
9897.421809	4335.638333	1778.429688	-48.288174
9897.421809	4335.638333	1777.424805	182.143326
9897.421809	4335.638333	1776.418945	117.793602
9897.421809	4335.638333	1775.413086	231.621490
9897.421809	4335.638333	1774.406250	-53.693336
9897.421809	4335.638333	1773.400391	-51.564064
9897.421809	4335.638333	1772.393555	0.392094
9897.421809	4335.638333	1771.386719	330.056946
9897.421809	4335.638333	1770.379883	165.859131
9897.421809	4335.638333	1769.373047	144.077011
9897.421809	4335.638333	1768.365234	10.751372
9897.421809	4335.638333	1767.358398	181.090530
9897.421809	4335.638333	1766.350586	152.098969
9897.421809	4335.638333	1765.342773	68.545395
9897.421809	4335.638333	1764.334961	44.260868
9897.421809	4335.638333	1763.326172	95.802658
9897.421809	4335.638333	1762.318359	-70.743652
9897.421809	4335.638333	1761.309570	193.989395
9897.421809	4335.638333	1760.300781	-19.963675
9897.421809	4335.638333	1759.291016	40.885933
9897.421809	4335.638333	1758.282227	73.265640
9897.421809	4335.638333	1757.272461	39.298561
9897.421809	4335.638333	1756.262695	-44.402557
9897.421809	4335.638333	1755.252930	106.210144
9897.421809	4335.638333	1754.243164	-93.491249
9897.421809	4335.638333	1753.233398	97.225693
9897.421809	4335.638333	1752.222656	6.342741
9897.421809	4335.638333	1751.211914	-117.650223
9897.421809	4335.638333	1750.201172	70.491928
9897.421809	4335.638333	1749.190430	10.297539
9897.421809	4335.638333	1748.179688	-45.180630
9897.421809	4335.638333	1747.167969	-81.770523
9897.421809	4335.638333	1746.156250	-23.869785
9897.421809	4335.638333	1745.144531	-25.081911
9897.421809	4335.638333	1744.132813	124.830437
9897.421809	4335.638333	1743.121094	5.451289
9897.421809	4335.638333	1742.108398	67.873451
9897.421809	4335.638333	1741.095703	-110.532974
9897.421809	4335.638333	1740.083008	157.145126
9897.421809	4335.638333	1739.070313	273.671478
9897.421809	4335.638333	1738.057617	76.352776
9897.421809	4335.638333	1737.043945	-118.570847
9897.421809	4335.638333	1736.030273	11.986687
9897.421809	4335.638333	1735.016602	-81.532188
9897.421809	4335.638333	1734.002930	91.333534
9897.421809	4335.638333	1732.989258	-115.363365
9897.421809	4335.638333	1731.974609	-18.036190
9897.421809	4335.638333	1730.959961	-102.192459
9897.421809	4335.638333	1729.945313	-59.149479
9897.421809	4335.638333	1728.930664	-11.446246
9897.421809	4335.638333	1727.916016	66.814781
9897.421809	4335.638333	1726.900391	-8.014234
9897.421809	4335.638333	1725.885742	-28.707731
9897.421809	4335.638333	1724.870117	-49.431591
9897.421809	4335.638333	1723.853516	49.811253
9897.421809	4335.638333	1722.837891	-159.178268
9897.421809	4335.638333	1721.822266	158.717606
9897.421809	4335.638333	1720.805664	173.109665
9897.421809	4335.638333	1719.789063	112.230034
9897.421809	4335.638333	1718.772461	-54.436836
9897.421809	4335.638333	1717.754883	-115.320251
9897.421809	4335.638333	1716.738281	-68.122810
9897.421809	4335.638333	1715.720703	-44.471832
9897.421809	4335.638333	1714.703125	30.810257
9897.421809	4335.638333	1713.685547	84.895454
9897.421809	4335.638333	1712.667969	-60.643856
9897.421809	4335.638333	1711.649414	66.140778
9897.421809	4335.638333	1710.630859	42.635082
9897.421809	4335.638333	1709.612305	-63.022152
9897.421809	4335.638333	1708.593750	103.476830
9897.421809	4335.638333	1707.575195	-98.387383
9897.421809	4335.638333	1706.555664	-23.476990
9897.421809	4335.638333	1705.536133	-89.311401
9897.421809	4335.638333	1704.516602	-35.593590
9897.421809	4335.638333	1703.497070	-127.246269
9897.421809	4335.638333	1702.477539	-118.128662
9897.421809	4335.638333	1701.457031	90.100021
9897.421809	4335.638333	1700.437500	-34.412266
9897.421809	4335.638333	1699.416992	94.028580
9897.421809	4335.638333	1698.395508	-4.751192
9897.421809	4335.638333	1697.375000	-166.730408
9897.421809	4335.638333	1696.354492	-57.154240
9897.421809	4335.638333	1695.333008	127.231026
9897.421809	4335.638333	1694.311523	-95.610260
9897.421809	4335.638333	1693.290039	-14.280478
9897.421809	4335.638333	1692.267578	55.289478
9897.421809	4335.638333	1691.246094	-34.207005
9897.421809	4335.638333	1690.223633	-53.564560
9897.421809	4335.638333	1689.201172	-33.204449
9897.421809	4335.638333	1688.178711	-85.332527
9897.421809	4335.638333	1687.155273	-72.047791
9897.421809	4335.638333	1686.132813	-21.412434
9897.421809	4335.638333	1685.109375	171.650742
9897.421809	4335.638333	1684.085938	61.020439
9897.421809	4335.638333	1683.062500	48.468330
9897.421809	4335.638333	1682.039063	24.221201
9897.421809	4335.638333	1681.014648	9.286386
9897.421809	4335.638333	1679.990234	-29.006151
9897.421809	4335.638333	1678.965820	-18.317318
9897.421809	4335.638333	1677.941406	34.327721
9897.421809	4335.638333	1676.916992	-22.686041
9897.421809	4335.638333	1675.891602	50.865429
9897.421809	4335.638333	1674.866211	73.072975
9897.421809	4335.638333	1673.840820	71.938789
9897.421809	4335.638333	1672.815430	180.305878
9897.421809	4335.638333	1671.790039	160.459656
9897.421809	4335.638333	1670.763672	324.617218
9897.421809	4335.638333	1669.737305	6.578521
9897.421809	4335.638333	1668.710938	49.566475
9897.421809	4335.638333	1667.684570	146.058884
9897.421809	4335.638333	1666.658203	70.241539
9897.421809	4335.638333	1665.630859	73.549248
9897.421809	4335.638333	1664.603516	239.704926
9897.421809	4335.638333	1663.576172	301.088745
9897.421809	4335.638333	1662.548828	146.116959
9897.421809	4335.638333	1661.520508	433.007507
9897.421809	4335.638333	1660.493164	187.350784
9897.421809	4335.638333	1659.464844	-7.102273
9897.421809	4335.638333	1658.436523	109.925140
9897.421809	4335.638333	1657.408203	161.822952
9897.421809	4335.638333	1656.378906	257.812927
9897.421809	4335.638333	1655.350586	-31.823967
9897.421809	4335.638333	1654.321289	324.218781
9897.421809	4335.638333	1653.291992	227.344009
9897.421809	4335.638333	1652.261719	77.087883
9897.421809	4335.638333	1651.232422	251.806732
9897.421809	4335.638333	1650.202148	182.779572
9897.421809	4335.638333	1649.171875	13.997251
9897.421809	4335.638333	1648.141602	93.457138
9897.421809	4335.638333	1647.111328	267.950562
9897.421809	4335.638333	1646.080078	474.813446
9897.421809	4335.638333	1645.049805	285.164001
9897.421809	4335.638333	1644.018555	262.443176
9897.421809	4335.638333	1642.987305	293.013062
9897.421809	4335.638333	1641.955078	198.434097
9897.421809	4335.638333	1640.923828	393.435944
9897.421809	4335.638333	1639.891602	407.689972
9897.421809	4335.638333	1638.859375	248.256531
9897.421809	4335.638333	1637.827148	206.937698
9897.421809	4335.638333	1636.794922	417.915497
9897.421809	4335.638333	1635.761719	415.882111
9897.421809	4335.638333	1634.729492	552.666077
9897.421809	4335.638333	1633.696289	580.649536
9897.421809	4335.638333	1632.662109	331.058380
9897.421809	4335.638333	1631.628906	585.660645
9897.421809	4335.638333	1630.594727	590.451721
9897.421809	4335.638333	1629.561523	334.032684
9897.421809	4335.638333	1628.527344	415.107849
9897.421809	4335.638333	1627.493164	459.168396
9897.421809	4335.638333	1626.458008	392.305878
9897.421809	4335.638333	1625.423828	367.036530
9897.421809	4335.638333	1624.388672	561.139771
9897.421809	4335.638333	1623.353516	561.215210
9897.421809	4335.638333	1622.318359	593.595337
9897.421809	4335.638333	1621.282227	616.714355
9897.421809	4335.638333	1620.247070	660.587708
9897.421809	4335.638333	1619.210938	718.269104
9897.421809	4335.638333	1618.174805	533.728394
9897.421809	4335.638333	1617.137695	566.018982
9897.421809	4335.638333	1616.101563	757.386780
9897.421809	4335.638333	1615.064453	676.647156
9897.421809	4335.638333	1614.027344	577.492737
9897.421809	4335.638333	1612.990234	681.150330
9897.421809	4335.638333	1611.953125	625.792297
9897.421809	4335.638333	1610.916016	547.414246
9897.421809	4335.638333	1609.877930	786.864380
9897.421809	4335.638333	1608.839844	793.659485
9897.421809	4335.638333	1607.801758	747.499207
9897.421809	4335.638333	1606.763672	687.540222
9897.421809	4335.638333	1605.724609	395.173828
9897.421809	4335.638333	1604.685547	825.349426
9897.421809	4335.638333	1603.646484	928.710938
9897.421809	4335.638333	1602.607422	854.940491
9897.421809	4335.638333	1601.568359	877.770874
9897.421809	4335.638333	1600.528320	987.942078
9897.421809	4335.638333	1599.489258	783.180542
9897.421809	4335.638333	1598.449219	930.091736
9897.421809	4335.638333	1597.408203	840.284546
9897.421809	4335.638333	1596.368164	1085.902344
9897.421809	4335.638333	1595.327148	915.713806
9897.421809	4335.638333	1594.287109	931.593628
9897.421809	4335.638333	1593.246094	1055.364258
9897.421809	4335.638333	1592.204102	967.908020
9897.421809	4335.638333	1591.163086	708.375000
9897.421809	4335.638333	1590.121094	765.573975
9897.421809	4335.638333	1589.079102	799.812683
9897.421809	4335.638333	1588.037109	804.223389
9897.421809	4335.638333	1586.995117	817.808533
9897.421809	4335.638333	1585.953125	998.755066
9897.421809	4335.638333	1584.910156	833.504211
9897.421809	4335.638333	1583.867188	803.536560
9897.421809	4335.638333	1582.824219	878.986389
9897.421809	4335.638333	1581.781250	571.835571
9897.421809	4335.638333	1580.737305	995.449219
9897.421809	4335.638333	1579.693359	777.710205
9897.421809	4335.638333	1578.649414	745.514526
9897.421809	4335.638333	1577.605469	617.197571
9897.421809	4335.638333	1576.561523	619.389709
9897.421809	4335.638333	1575.516602	1058.625122
9897.421809	4335.638333	1574.472656	745.038940
9897.421809	4335.638333	1573.427734	818.129761
9897.421809	4335.638333	1572.381836	934.644104
9897.421809	4335.638333	1571.336914	536.692871
9897.421809	4335.638333	1570.291016	831.540161
9897.421809	4335.638333	1569.246094	1057.723511
9897.421809	4335.638333	1568.200195	813.105835
9897.421809	4335.638333	1567.153320	733.080078
9897.421809	4335.638333	1566.107422	842.687744
9897.421809	4335.638333	1565.060547	776.414673
9897.421809	4335.638333	1564.013672	835.758972
9897.421809	4335.638333	1562.966797	607.460205
9897.421809	4335.638333	1561.919922	851.713318
9897.421809	4335.638333	1560.872070	749.029053
9897.421809	4335.638333	1559.825195	765.041565
9897.421809	4335.638333	1558.777344	719.470215
9897.421809	4335.638333	1557.729492	949.880310
9897.421809	4335.638333	1556.680664	995.522156
9897.421809	4335.638333	1555.632813	781.286316
9897.421809	4335.638333	1554.583984	772.276245
9897.421809	4335.638333	1553.535156	1025.345337
9897.421809	4335.638333	1552.486328	929.750793
9897.421809	4335.638333	1551.436523	998.213623
9897.421809	4335.638333	1550.387695	788.829468
9897.421809	4335.638333	1549.337891	779.915771
9897.421809	4335.638333	1548.288086	1107.950806
9897.421809	4335.638333	1547.238281	978.386047
9897.421809	4335.638333	1546.187500	837.510132
9897.421809	4335.638333	1545.136719	942.431030
9897.421809	4335.638333	1544.086914	1140.602295
9897.421809	4335.638333	1543.035156	1013.484436
9897.421809	4335.638333	1541.984375	740.920654
9897.421809	4335.638333	1540.933594	757.208191
9897.421809	4335.638333	1539.881836	971.252991
9897.421809	4335.638333	1538.830078	776.190247
9897.421809	4335.638333	1537.778320	862.962769
9897.421809	4335.638333	1536.725586	561.278198
9897.421809	4335.638333	1535.673828	586.790039
9897.421809	4335.638333	1534.621094	476.070374
9897.421809	4335.638333	1533.568359	585.636169
9897.421809	4335.638333	1532.515625	670.218262
9897.421809	4335.638333	1531.461914	487.006897
9897.421809	4335.638333	1530.409180	385.582092
9897.421809	4335.638333	1529.355469	365.885284
9897.421809	4335.638333	1528.301758	273.649109
9897.421809	4335.638333	1527.247070	451.313843
9897.421809	4335.638333	1526.193359	409.035431
9897.421809	4335.638333	1525.138672	221.732147
9897.421809	4335.638333	1524.083984	365.402100
9897.421809	4335.638333	1523.029297	198.636520
9897.421809	4335.638333	1521.974609	186.012039
9897.421809	4335.638333	1520.918945	454.264130
9897.421809	4335.638333	1519.863281	101.991264
9897.421809	4335.638333	1518.807617	48.735905
9897.421809	4335.638333	1517.751953	9.117628
9897.421809	4335.638333	1516.696289	-80.238129
9897.421809	4335.638333	1515.639648	-40.557671
9897.421809	4335.638333	1514.583008	82.843277
9897.421809	4335.638333	1513.526367	138.380188
9897.421809	4335.638333	1512.469727	-23.153528
9897.421809	4335.638333	1511.412109	50.538410
9897.421809	4335.638333	1510.355469	108.419426
9897.421809	4335.638333	1509.297852	-50.643871
9897.421809	4335.638333	1508.240234	45.718117
9897.421809	4335.638333	1507.181641	198.551834
9897.421809	4335.638333	1506.124023	89.372124
9897.421809	4335.638333	1505.065430	160.921890
9897.421809	4335.638333	1504.006836	160.238541
9897.421809	4335.638333	1502.948242	98.648643
9897.421809	4335.638333	1501.888672	57.432236
9897.421809	4335.638333	1500.830078	203.555908
9897.421809	4335.638333	1499.770508	40.598888
9897.421809	4335.638333	1498.710938	-25.265900
9897.421809	4335.638333	1497.650391	-97.830536
9897.421809	4335.638333	1496.590820	113.756981
9897.421809	4335.638333	1495.530273	-127.779274
9897.421809	4335.638333	1494.469727	-222.686478
9897.421809	4335.638333	1493.409180	-76.414421
9897.421809	4335.638333	1492.348633	-279.337738
9897.421809	4335.638333	1491.287109	13.374798
9897.421809	4335.638333	1490.225586	164.147705
9897.421809	4335.638333	1489.164063	-72.339928
9897.421809	4335.638333	1488.102539	-101.596519
9897.421809	4335.638333	1487.041016	44.749405
9897.421809	4335.638333	1485.978516	-33.929722
9897.421809	4335.638333	1484.916016	11.212260
9897.421809	4335.638333	1483.853516	-8.862370
9897.421809	4335.638333	1482.791016	-175.036072
9897.421809	4335.638333	1481.727539	-123.006531
9897.421809	4335.638333	1480.664063	16.712833
9897.421809	4335.638333	1479.600586	-209.877640
9897.421809	4335.638333	1478.537109	-16.164303
9897.421809	4335.638333	1477.473633	-159.416367
9897.421809	4335.638333	1476.409180	-233.034393
9897.421809	4335.638333	1475.344727	-86.460808
9897.421809	4335.638333	1474.280273	53.419987
9897.421809	4335.638333	1473.215820	-197.280365
9897.421809	4335.638333	1472.151367	-102.204109
9897.421809	4335.638333	1471.085938	-40.848293
9897.421809	4335.638333	1470.020508	63.186237
9897.421809	4335.638333	1468.955078	39.434952
9897.421809	4335.638333	1467.888672	-4.427175
9897.421809	4335.638333	1466.823242	7.948146
9897.421809	4335.638333	1465.756836	11.162562
9897.421809	4335.638333	1464.690430	90.674515
9897.421809	4335.638333	1463.624023	17.884689
9897.421809	4335.638333	1462.556641	126.954643
9897.421809	4335.638333	1461.490234	81.001633
9897.421809	4335.638333	1460.422852	30.760645
9897.421809	4335.638333	1459.355469	79.270882
9897.421809	4335.638333	1458.287109	43.106209
9897.421809	4335.638333	1457.219727	-37.952488
9897.421809	4335.638333	1456.151367	43.511818
9897.421809	4335.638333	1455.083008	-26.031227
9897.421809	4335.638333	1454.014648	189.921570
9897.421809	4335.638333	1452.945313	79.873993
9897.421809	4335.638333	1451.876953	117.312431
9897.421809	4335.638333	1450.807617	52.329243
9897.421809	4335.638333	1449.738281	200.318588
9897.421809	4335.638333	1448.668945	16.815838
9897.421809	4335.638333	1447.598633	149.551636
9897.421809	4335.638333	1446.528320	105.444366
9897.421809	4335.638333	1445.458008	102.162224
9897.421809	4335.638333	1444.387695	-1.860984
9897.421809	4335.638333	1443.317383	140.789017
9897.421809	4335.638333	1442.246094	-7.097296
9897.421809	4335.638333	1441.174805	90.557320
9897.421809	4335.638333	1440.103516	216.094864
9897.421809	4335.638333	1439.032227	283.103424
9897.421809	4335.638333	1437.960938	-48.834759
9897.421809	4335.638333	1436.888672	-15.818631
9897.421809	4335.638333	1435.816406	143.380142
9897.421809	4335.638333	1434.744141	164.959961
9897.421809	4335.638333	1433.670898	36.911919
9897.421809	4335.638333	1432.598633	12.820832
9897.421809	4335.638333	1431.525391	-15.933795
9897.421809	4335.638333	1430.452148	92.263725
9897.421809	4335.638333	1429.378906	14.828595
9897.421809	4335.638333	1428.304688	-29.975374
9897.421809	4335.638333	1427.231445	-33.864769
9897.421809	4335.638333	1426.157227	11.486775
9897.421809	4335.638333	1425.083008	-37.883492
9897.421809	4335.638333	1424.007813	76.190811
9897.421809	4335.638333	1422.933594	152.952560
9897.421809	4335.638333	1421.858398	274.259827
9897.421809	4335.638333	1420.783203	-18.534000
9897.421809	4335.638333	1419.708008	105.583893
9897.421809	4335.638333	1418.631836	-21.116316
9897.421809	4335.638333	1417.555664	-0.822452
9897.421809	4335.638333	1416.479492	106.423584
9897.421809	4335.638333	1415.403320	13.514467
9897.421809	4335.638333	1414.327148	-15.262617
9897.421809	4335.638333	1413.250000	132.542480
9897.421809	4335.638333	1412.173828	-23.396999
9897.421809	4335.638333	1411.096680	67.858269
9897.421809	4335.638333	1410.018555	-51.644581
9897.421809	4335.638333	1408.941406	33.231159
9897.421809	4335.638333	1407.863281	-164.818954
9897.421809	4335.638333	1406.785156	-212.901398
9897.421809	4335.638333	1405.707031	-10.377434
9897.421809	4335.638333	1404.628906	85.174835
9897.421809	4335.638333	1403.549805	-110.814438
9897.421809	4335.638333	1402.470703	25.627127
9897.421809	4335.638333	1401.391602	-55.484833
9897.421809	4335.638333	1400.312500	-188.364166
9897.421809	4335.638333	1399.233398	109.362198
9897.421809	4335.638333	1398.153320	-64.557945
9897.421809	4335.638333	1397.073242	72.714638
9897.421809	4335.638333	1395.993164	157.802017
9897.421809	4335.638333	1394.913086	-53.471600
9897.421809	4335.638333	1393.832031	126.525612
9897.421809	4335.638333	1392.750977	304.688293
9897.421809	4335.638333	1391.669922	40.445084
9897.421809	4335.638333	1390.588867	106.608498
9897.421809	4335.638333	1389.506836	110.451195
9897.421809	4335.638333	1388.425781	208.900406
9897.421809	4335.638333	1387.343750	179.886383
9897.421809	4335.638333	1386.261719	317.746643
9897.421809	4335.638333	1385.178711	91.435806
9897.421809	4335.638333	1384.096680	231.337570
9897.421809	4335.638333	1383.013672	115.079918
9897.421809	4335.638333	1381.930664	50.036274
9897.421809	4335.638333	1380.846680	-32.136425
9897.421809	4335.638333	1379.763672	167.268280
9897.421809	4335.638333	1378.679688	-35.026428
9897.421809	4335.638333	1377.595703	-57.830017
9897.421809	4335.638333	1376.511719	3.342769
9897.421809	4335.638333	1375.427734	88.128540
9897.421809	4335.638333	1374.342773	72.492180
9897.421809	4335.638333	1373.257813	40.266544
9897.421809	4335.638333	1372.172852	70.324562
9897.421809	4335.638333	1371.087891	207.352615
9897.421809	4335.638333	1370.001953	273.222076
9897.421809	4335.638333	1368.916992	153.535583
9897.421809	4335.638333	1367.831055	63.837776
9897.421809	4335.638333	1366.744141	30.926546
9897.421809	4335.638333	1365.658203	309.415894
9897.421809	4335.638333	1364.571289	103.927925
9897.421809	4335.638333	1363.484375	95.648453
9897.421809	4335.638333	1362.397461	192.051910
9897.421809	4335.638333	1361.310547	174.040451
9897.421809	4335.638333	1360.222656	247.431244
9897.421809	4335.638333	1359.135742	100.183235
9897.421809	4335.638333	1358.047852	233.271774
9897.421809	4335.638333	1356.958984	360.029877
9897.421809	4335.638333	1355.871094	396.485413
9897.421809	4335.638333	1354.782227	329.112152
9897.421809	4335.638333	1353.693359	325.967346
9897.421809	4335.638333	1352.604492	186.016632
9897.421809	4335.638333	1351.515625	401.358398
9897.421809	4335.638333	1350.425781	252.411835
9897.421809	4335.638333	1349.335938	194.769119
9897.421809	4335.638333	1348.246094	217.993500
9897.421809	4335.638333	1347.156250	48.459713
9897.421809	4335.638333	1346.066406	106.643112
9897.421809	4335.638333	1344.975586	195.923111
9897.421809	4335.638333	1343.884766	44.659134
9897.421809	4335.638333	1342.793945	318.603851
9897.421809	4335.638333	1341.702148	283.954254
9897.421809	4335.638333	1340.611328	49.581230
9897.421809	4335.638333	1339.519531	50.264801
9897.421809	4335.638333	1338.427734	188.253723
9897.421809	4335.638333	1337.334961	111.971733
9897.421809	4335.638333	1336.243164	189.926025
9897.421809	4335.638333	1335.150391	145.459488
9897.421809	4335.638333	1334.057617	99.641960
9897.421809	4335.638333	1332.964844	117.917458
9897.421809	4335.638333	1331.871094	413.384766
9897.421809	4335.638333	1330.778320	-7.501250
9897.421809	4335.638333	1329.684570	224.546188
9897.421809	4335.638333	1328.590820	187.530212
9897.421809	4335.638333	1327.496094	163.884750
9897.421809	4335.638333	1326.402344	281.524170
9897.421809	4335.638333	1325.307617	181.514984
9897.421809	4335.638333	1324.212891	162.205765
9897.421809	4335.638333	1323.117188	212.677124
9897.421809	4335.638333	1322.022461	111.502197
9897.421809	4335.638333	1320.926758	127.805466
9897.421809	4335.638333	1319.831055	166.099365
9897.421809	4335.638333	1318.735352	199.111084
9897.421809	4335.638333	1317.638672	166.078644
9897.421809	4335.638333	1316.542969	38.991680
9897.421809	4335.638333	1315.446289	107.061089
9897.421809	4335.638333	1314.349609	-104.673630
9897.421809	4335.638333	1313.251953	36.643929
9897.421809	4335.638333	1312.155273	25.084978
9897.421809	4335.638333	1311.057617	-69.023956
9897.421809	4335.638333	1309.959961	-53.221710
9897.421809	4335.638333	1308.862305	-64.603424
9897.421809	4335.638333	1307.763672	107.392609
9897.421809	4335.638333	1306.665039	47.767418
9897.421809	4335.638333	1305.566406	-97.497963
9897.421809	4335.638333	1304.467773	7.760107
9897.421809	4335.638333	1303.369141	-113.430489
9897.421809	4335.638333	1302.269531	-81.674820
9897.421809	4335.638333	1301.169922	11.038637
9897.421809	4335.638333	1300.070313	-125.792511
9897.421809	4335.638333	1298.970703	-49.914799
9897.421809	4335.638333	1297.870117	54.836384
9897.421809	4335.638333	1296.769531	-164.407501
9897.421809	4335.638333	1295.668945	-211.072708
9897.421809	4335.638333	1294.568359	13.594220
9897.421809	4335.638333	1293.466797	2.319581
9897.421809	4335.638333	1292.366211	124.314484
9897.421809	4335.638333	1291.264648	-20.593002
9897.421809	4335.638333	1290.162109	64.087997
9897.421809	4335.638333	1289.060547	-29.872105
9897.421809	4335.638333	1287.958008	64.668488
9897.421809	4335.638333	1286.855469	42.797844
9897.421809	4335.638333	1285.752930	105.270363
9897.421809	4335.638333	1284.650391	-28.162493
9897.421809	4335.638333	1283.546875	-75.243828
9897.421809	4335.638333	1282.444336	112.558983
9897.421809	4335.638333	1281.339844	16.589981
9897.421809	4335.638333	1280.236328	118.457245
9897.421809	4335.638333	1279.132813	173.277084
9897.421809	4335.638333	1278.028320	157.864166
9897.421809	4335.638333	1276.923828	58.947800
9897.421809	4335.638333	1275.819336	107.133911
9897.421809	4335.638333	1274.713867	136.594711
9897.421809	4335.638333	1273.608398	49.921661
9897.421809	4335.638333	1272.503906	23.922928
9897.421809	4335.638333	1271.397461	-69.212776
9897.421809	4335.638333	1270.291992	111.804276
9897.421809	4335.638333	1269.185547	144.823120
9897.421809	4335.638333	1268.080078	229.234802
9897.421809	4335.638333	1266.972656	33.281166
9897.421809	4335.638333	1265.866211	4.261294
9897.421809	4335.638333	1264.759766	-68.595795
9897.421809	4335.638333	1263.652344	63.870674
9897.421809	4335.638333	1262.544922	-13.827264
9897.421809	4335.638333	1261.436523	56.436062
9897.421809	4335.638333	1260.329102	-91.891129
9897.421809	4335.638333	1259.220703	-48.784454
9897.421809	4335.638333	1258.112305	-146.713470
9897.421809	4335.638333	1257.003906	-79.059563
9897.421809	4335.638333	1255.895508	-162.276428
9897.421809	4335.638333	1254.786133	-204.662064
9897.421809	4335.638333	1253.676758	-133.259369
9897.421809	4335.638333	1252.567383	-163.947815
9897.421809	4335.638333	1251.458008	-156.797287
9897.421809	4335.638333	1250.347656	-186.047104
9897.421809	4335.638333	1249.237305	-146.404343
9897.421809	4335.638333	1248.126953	-122.775826
9897.421809	4335.638333	1247.016602	-329.375000
9897.421809	4335.638333	1245.905273	-154.235031
9897.421809	4335.638333	1244.793945	-216.470322
9897.421809	4335.638333	1243.682617	-61.919350
9897.421809	4335.638333	1242.571289	-116.193024
9897.421809	4335.638333	1241.459961	-48.673759
9897.421809	4335.638333	1240.347656	-48.506927
9897.421809	4335.638333	1239.235352	142.866776
9897.421809	4335.638333	1238.123047	27.936039
9897.421809	4335.638333	1237.009766	170.142456
9897.421809	4335.638333	1235.897461	139.085495
9897.421809	4335.638333	1234.784180	122.985855
9897.421809	4335.638333	1233.670898	-25.246666
9897.421809	4335.638333	1232.556641	144.569824
9897.421809	4335.638333	1231.443359	-1.078634
9897.421809	4335.638333	1230.329102	207.459473
9897.421809	4335.638333	1229.214844	230.223724
9897.421809	4335.638333	1228.099609	278.487885
9897.421809	4335.638333	1226.985352	92.654877
9897.421809	4335.638333	1225.870117	235.947601
9897.421809	4335.638333	1224.754883	180.122375
9897.421809	4335.638333	1223.639648	193.430603
9897.421809	4335.638333	1222.523438	353.004456
9897.421809	4335.638333	1221.408203	376.453796
9897.421809	4335.638333	1220.291992	425.510437
9897.421809	4335.638333	1219.174805	375.603485
9897.421809	4335.638333	1218.058594	423.271393
9897.421809	4335.638333	1216.941406	544.506836
9897.421809	4335.638333	1215.824219	628.387329
9897.421809	4335.638333	1214.707031	623.678833
9897.421809	4335.638333	1213.589844	533.054688
9897.421809	4335.638333	1212.471680	549.116882
9897.421809	4335.638333	1211.353516	520.816895
9897.421809	4335.638333	1210.235352	358.254791
9897.421809	4335.638333	1209.117188	293.113556
9897.421809	4335.638333	1207.998047	203.248184
9897.421809	4335.638333	1206.878906	140.048630
9897.421809	4335.638333	1205.759766	258.471375
9897.421809	4335.638333	1204.640625	42.303928
9897.421809	4335.638333	1203.520508	150.762589
9897.421809	4335.638333	1202.401367	37.381779
9897.421809	4335.638333	1201.281250	248.006805
9897.421809	4335.638333	1200.160156	8.148841
9897.421809	4335.638333	1199.040039	118.802216
9897.421809	4335.638333	1197.918945	-39.711155
9897.421809	4335.638333	1196.797852	124.278954
9897.421809	4335.638333	1195.676758	103.863777
9897.421809	4335.638333	1194.555664	113.106224
9897.421809	4335.638333	1193.433594	174.804672
9897.421809	4335.638333	1192.311523	-31.363811
9897.421809	4335.638333	1191.189453	-9.949592
9897.421809	4335.638333	1190.066406	65.968750
9897.421809	4335.638333	1188.944336	-103.982590
9897.421809	4335.638333	1187.821289	-178.701416
9897.421809	4335.638333	1186.698242	-201.638596
9897.421809	4335.638333	1185.574219	-190.421539
9897.421809	4335.638333	1184.451172	-3.963071
9897.421809	4335.638333	1183.327148	-73.254784
9897.421809	4335.638333	1182.203125	-12.641055
9897.421809	4335.638333	1181.078125	-96.460258
9897.421809	4335.638333	1179.954102	102.875816
9897.421809	4335.638333	1178.829102	63.529819
9897.421809	4335.638333	1177.704102	-158.899216
9897.421809	4335.638333	1176.579102	-161.806381
9897.421809	4335.638333	1175.453125	-88.155037
9897.421809	4335.638333	1174.327148	47.493683
9897.421809	4335.638333	1173.201172	-87.904686
9897.421809	4335.638333	1172.075195	-93.674889
9897.421809	4335.638333	1170.949219	-159.717819
9897.421809	4335.638333	1169.822266	-35.558460
9897.421809	4335.638333	1168.695313	12.826147
9897.421809	4335.638333	1167.568359	-170.935608
9897.421809	4335.638333	1166.440430	-91.155838
9897.421809	4335.638333	1165.313477	-126.359322
9897.421809	4335.638333	1164.185547	-8.048658
9897.421809	4335.638333	1163.057617	-91.984055
9897.421809	4335.638333	1161.928711	-67.908310
9897.421809	4335.638333	1160.800781	-2.665431
9897.421809	4335.638333	1159.671875	126.834648
9897.421809	4335.638333	1158.541992	-108.646873
9897.421809	4335.638333	1157.413086	119.440613
9897.421809	4335.638333	1156.283203	103.862885
9897.421809	4335.638333	1155.154297	6.258517
9897.421809	4335.638333	1154.023438	118.818787
9897.421809	4335.638333	1152.893555	30.652258
9897.421809	4335.638333	1151.763672	105.166458
9897.421809	4335.638333	1150.632813	116.491516
9897.421809	4335.638333	1149.501953	65.095955
9897.421809	4335.638333	1148.370117	158.452652
9897.421809	4335.638333	1147.239258	63.381092
9897.421809	4335.638333	1146.107422	43.431950
9897.421809	4335.638333	1144.975586	268.576782
9897.421809	4335.638333	1143.843750	119.147171
9897.421809	4335.638333	1142.710938	-12.741519
9897.421809	4335.638333	1141.578125	133.348160
9897.421809	4335.638333	1140.445313	235.452896
9897.421809	4335.638333	1139.312500	220.712891
9897.421809	4335.638333	1138.178711	135.513947
9897.421809	4335.638333	1137.045898	161.722839
9897.421809	4335.638333	1135.912109	-15.548577
9897.421809	4335.638333	1134.777344	20.372057
9897.421809	4335.638333	1133.643555	38.268688
9897.421809	4335.638333	1132.508789	32.575287
9897.421809	4335.638333	1131.374023	-18.189407
9897.421809	4335.638333	1130.239258	80.781837
9897.421809	4335.638333	1129.104492	124.658569
9897.421809	4335.638333	1127.968750	39.304905
9897.421809	4335.638333	1126.833008	82.899864
9897.421809	4335.638333	1125.697266	81.757545
9897.421809	4335.638333	1124.560547	26.762505
9897.421809	4335.638333	1123.424805	56.406212
9897.421809	4335.638333	1122.288086	-40.424656
9897.421809	4335.638333	1121.151367	2.752785
9897.421809	4335.638333	1120.013672	53.206802
9897.421809	4335.638333	1118.876953	94.434952
9897.421809	4335.638333	1117.739258	167.575668
9897.421809	4335.638333	1116.601563	-107.987640
9897.421809	4335.638333	1115.462891	-53.593258
9897.421809	4335.638333	1114.324219	55.377640
9897.421809	4335.638333	1113.186523	16.420944
9897.421809	4335.638333	1112.046875	-16.637819
9897.421809	4335.638333	1110.908203	177.763885
9897.421809	4335.638333	1109.769531	-148.786469
9897.421809	4335.638333	1108.629883	32.909813
9897.421809	4335.638333	1107.490234	-26.517502
9897.421809	4335.638333	1106.349609	119.874374
9897.421809	4335.638333	1105.209961	192.641373
9897.421809	4335.638333	1104.069336	62.367569
9897.421809	4335.638333	1102.928711	60.326427
9897.421809	4335.638333	1101.787109	27.052422
9897.421809	4335.638333	1100.646484	-53.472454
9897.421809	4335.638333	1099.504883	39.380562
9897.421809	4335.638333	1098.363281	176.721008
9897.421809	4335.638333	1097.221680	72.815269
9897.421809	4335.638333	1096.079102	-26.319921
9897.421809	4335.638333	1094.936523	-35.680355
9897.421809	4335.638333	1093.793945	92.795258
9897.421809	4335.638333	1092.651367	-88.380600
9897.421809	4335.638333	1091.507813	59.478642
9897.421809	4335.638333	1090.364258	86.222054
9897.421809	4335.638333	1089.220703	55.725410
9897.421809	4335.638333	1088.077148	291.348877
9897.421809	4335.638333	1086.933594	149.916458
9897.421809	4335.638333	1085.789063	62.303066
9897.421809	4335.638333	1084.644531	-89.152763
9897.421809	4335.638333	1083.499023	-21.958994
9897.421809	4335.638333	1082.354492	159.158539
9897.421809	4335.638333	1081.208984	93.745567
9897.421809	4335.638333	1080.063477	18.539223
9897.421809	4335.638333	1078.917969	40.547173
9897.421809	4335.638333	1077.771484	74.394104
9897.421809	4335.638333	1076.625977	-5.704989
9897.421809	4335.638333	1075.479492	141.582397
9897.421809	4335.638333	1074.332031	-40.299614
9897.421809	4335.638333	1073.185547	-79.089928
9897.421809	4335.638333	1072.038086	-25.970869
9897.421809	4335.638333	1070.890625	130.385849
9897.421809	4335.638333	1069.743164	49.822884
9897.421809	4335.638333	1068.594727	32.320160
9897.421809	4335.638333	1067.447266	62.635281
9897.421809	4335.638333	1066.298828	64.028938
9897.421809	4335.638333	1065.149414	34.653286
9897.421809	4335.638333	1064.000977	-76.761185
9897.421809	4335.638333	1062.851563	-23.953985
9897.421809	4335.638333	1061.702148	67.166206
9897.421809	4335.638333	1060.552734	-88.143845
9897.421809	4335.638333	1059.402344	53.731277
9897.421809	4335.638333	1058.252930	139.141602
9897.421809	4335.638333	1057.102539	55.965458
9897.421809	4335.638333	1055.951172	-101.848099
9897.421809	4335.638333	1054.800781	-52.723213
9897.421809	4335.638333	1053.649414	227.477020
9897.421809	4335.638333	1052.498047	55.937035
9897.421809	4335.638333	1051.346680	43.989807
9897.421809	4335.638333	1050.194336	108.238792
9897.421809	4335.638333	1049.042969	108.149887
9897.421809	4335.638333	1047.890625	-95.927467
9897.421809	4335.638333	1046.738281	113.168930
9897.421809	4335.638333	1045.584961	108.732796
9897.421809	4335.638333	1044.431641	20.610012
9897.421809	4335.638333	1043.278320	16.383596
9897.421809	4335.638333	1042.125000	-113.338997
9897.421809	4335.638333	1040.971680	-22.465935
9897.421809	4335.638333	1039.817383	85.903786
9897.421809	4335.638333	1038.663086	112.776398
9897.421809	4335.638333	1037.508789	120.110939
9897.421809	4335.638333	1036.353516	-79.215126
9897.421809	4335.638333	1035.198242	-74.935669
9897.421809	4335.638333	1034.042969	109.584145
9897.421809	4335.638333	1032.887695	80.301414
9897.421809	4335.638333	1031.732422	254.621490
9897.421809	4335.638333	1030.576172	112.255676
9897.421809	4335.638333	1029.419922	205.538666
9897.421809	4335.638333	1028.263672	152.866058
9897.421809	4335.638333	1027.106445	133.237152
9897.421809	4335.638333	1025.949219	228.858826
9897.421809	4335.638333	1024.792969	-71.723991
9897.421809	4335.638333	1023.634766	65.346550
9897.421809	4335.638333	1022.477539	343.107361
9897.421809	4335.638333	1021.319336	38.305744
9897.421809	4335.638333	1020.161133	127.008156
9897.421809	4335.638333	1019.002930	103.446182
9897.421809	4335.638333	1017.843750	-16.318636
9897.421809	4335.638333	1016.684570	164.321320
9897.421809	4335.638333	1015.525391	-18.038116
9897.421809	4335.638333	1014.366211	-39.156544
9897.421809	4335.638333	1013.207031	58.939827
9897.421809	4335.638333	1012.046875	-0.481562
9897.421809	4335.638333	1010.886719	14.116790
9897.421809	4335.638333	1009.726563	155.385452
9897.421809	4335.638333	1008.565430	-43.108437
9897.421809	4335.638333	1007.404297	-179.265717
9897.421809	4335.638333	1006.243164	47.640362
9897.421809	4335.638333	1005.082031	-39.021854
9897.421809	4335.638333	1003.920898	-15.563696
9897.421809	4335.638333	1002.758789	86.710754
9897.421809	4335.638333	1001.596680	43.655720
9897.421809	4335.638333	1000.433594	191.677994
9897.421809	4335.638333	999.271484	93.207741
9897.421809	4335.638333	998.108398	111.174530
9897.421809	4335.638333	996.945313	136.611435
9897.421809	4335.638333	995.782227	336.192535
9897.421809	4335.638333	994.618164	286.226776
9897.421809	4335.638333	993.454102	328.961273
9897.421809	4335.638333	992.290039	479.127686
9897.421809	4335.638333	991.125977	435.233093
9897.421809	4335.638333	989.960938	288.245514
9897.421809	4335.638333	988.796875	466.619232
9897.421809	4335.638333	987.630859	470.879913
9897.421809	4335.638333	986.465820	253.132233
9897.421809	4335.638333	985.300781	302.938995
9897.421809	4335.638333	984.134766	301.210480
9897.421809	4335.638333	982.968750	287.330811
9897.421809	4335.638333	981.801758	75.465088
9897.421809	4335.638333	980.635742	94.937180
9897.421809	4335.638333	979.468750	1.411017
9897.421809	4335.638333	978.301758	50.950539
9897.421809	4335.638333	977.133789	-2.248962
9897.421809	4335.638333	975.966797	279.781128
9897.421809	4335.638333	974.798828	40.316856
9897.421809	4335.638333	973.630859	31.785549
9897.421809	4335.638333	972.461914	195.538651
9897.421809	4335.638333	971.293945	-129.652237
9897.421809	4335.638333	970.125000	-141.360916
9897.421809	4335.638333	968.956055	24.911362
9897.421809	4335.638333	967.786133	51.104820
9897.421809	4335.638333	966.617188	54.009838
9897.421809	4335.638333	965.447266	-37.510094
9897.421809	4335.638333	964.276367	-23.135418
9897.421809	4335.638333	963.106445	-69.897835
9897.421809	4335.638333	961.935547	-2.114680
9897.421809	4335.638333	960.764648	16.037233
9897.421809	4335.638333	959.593750	-241.878296
9897.421809	4335.638333	958.422852	-50.397095
9897.421809	4335.638333	957.250977	54.063412
9897.421809	4335.638333	956.079102	-42.847305
9897.421809	4335.638333	954.907227	-153.012711
9897.421809	4335.638333	953.734375	72.441673
9897.421809	4335.638333	952.562500	4.050070
9897.421809	4335.638333	951.389648	-4.653750
9897.421809	4335.638333	950.215820	-201.688080
9897.421809	4335.638333	949.042969	122.461899
9897.421809	4335.638333	947.869141	-8.329336
9897.421809	4335.638333	946.695313	-112.185555
9897.421809	4335.638333	945.521484	-161.760712
9897.421809	4335.638333	944.346680	-140.223465
9897.421809	4335.638333	943.172852	-11.521649
9897.421809	4335.638333	941.998047	-39.973408
9897.421809	4335.638333	940.822266	-136.982758
9897.421809	4335.638333	939.647461	-49.057957
9897.421809	4335.638333	938.471680	122.195625
9897.421809	4335.638333	937.295898	-134.196167
9897.421809	4335.638333	936.119141	-171.924606
9897.421809	4335.638333	934.943359	-45.946964
9897.421809	4335.638333	933.766602	3.982753
9897.421809	4335.638333	932.589844	13.603376
9897.421809	4335.638333	931.413086	122.773643
9897.421809	4335.638333	930.235352	424.289490
9897.421809	4335.638333	929.057617	75.307777
9897.421809	4335.638333	927.879883	115.613007
9897.421809	4335.638333	926.702148	205.748505
9897.421809	4335.638333	925.523438	117.864616
9897.421809	4335.638333	924.344727	162.840927
9897.421809	4335.638333	923.166016	8.565475
9897.421809	4335.638333	921.987305	122.247574
9897.421809	4335.638333	920.807617	22.523834
9897.421809	4335.638333	919.627930	24.338364
9897.421809	4335.638333	919.497070	-107.787766
9897.421809	4335.638333	918.331055	373.062042
9897.421809	4335.638333	917.165039	128.754013
9897.421809	4335.638333	915.999023	57.434933
9897.421809	4335.638333	914.833008	-30.450525
9897.421809	4335.638333	913.666016	35.579830
9897.421809	4335.638333	912.499023	-23.894072
9897.421809	4335.638333	911.332031	-31.294765
9897.421809	4335.638333	910.165039	86.699348
9897.421809	4335.638333	908.997070	-31.943268
9897.421809	4335.638333	907.830078	142.734940
9897.421809	4335.638333	906.661133	-94.140617
9897.421809	4335.638333	905.493164	-278.923248
9897.421809	4335.638333	904.325195	51.662113
9897.421809	4335.638333	903.156250	-107.108513
9897.421809	4335.638333	901.987305	-72.076973
9897.421809	4335.638333	900.818359	-155.193161
9897.421809	4335.638333	899.648438	-32.805134
9897.421809	4335.638333	898.478516	-144.259583
9897.421809	4335.638333	897.308594	-156.524963
9897.421809	4335.638333	896.138672	-62.579506
9897.421809	4335.638333	894.968750	26.593678
9897.421809	4335.638333	893.797852	181.784149
9897.421809	4335.638333	892.626953	155.255630
9897.421809	4335.638333	891.456055	34.385338
9897.421809	4335.638333	890.284180	47.959869
9897.421809	4335.638333	889.113281	80.376579
9897.421809	4335.638333	887.941406	174.052109
9897.421809	4335.638333	886.768555	15.524783
9897.421809	4335.638333	885.596680	257.585541
9897.421809	4335.638333	884.423828	230.997681
9897.421809	4335.638333	883.250977	180.857941
9897.421809	4335.638333	882.078125	102.472244
9897.421809	4335.638333	880.905273	106.503937
9897.421809	4335.638333	879.731445	289.404510
9897.421809	4335.638333	878.557617	107.473938
9897.421809	4335.638333	877.383789	151.469254
9897.421809	4335.638333	876.209961	263.651428
9897.421809	4335.638333	875.035156	194.693649
9897.421809	4335.638333	873.860352	139.863602
9897.421809	4335.638333	872.685547	49.783592
9897.421809	4335.638333	871.510742	-117.828407
9897.421809	4335.638333	870.334961	-134.988724
9897.421809	4335.638333	869.159180	-81.670860
9897.421809	4335.638333	867.983398	-63.615810
9897.421809	4335.638333	866.807617	-33.834118
9897.421809	4335.638333	865.630859	19.407820
9897.421809	4335.638333	864.454102	100.789856
9897.421809	4335.638333	863.277344	27.231112
9897.421809	4335.638333	862.100586	117.949547
9897.421809	4335.638333	860.922852	-129.199203
9897.421809	4335.638333	859.745117	-43.190559
9897.421809	4335.638333	858.567383	-93.235291
9897.421809	4335.638333	857.389648	-30.728758
9897.421809	4335.638333	856.210938	57.532303
9897.421809	4335.638333	855.032227	-8.926554
9897.421809	4335.638333	853.853516	1.958289
9897.421809	4335.638333	852.674805	-113.668495
9897.421809	4335.638333	851.495117	-161.331238
9897.421809	4335.638333	850.315430	-0.572743
9897.421809	4335.638333	849.135742	75.831726
9897.421809	4335.638333	847.956055	149.858841
9897.421809	4335.638333	846.775391	1.530141
9897.421809	4335.638333	845.595703	-144.404160
9897.421809	4335.638333	844.415039	116.748314
9897.421809	4335.638333	843.233398	15.278638
9897.421809	4335.638333	842.052734	12.052285
9897.421809	4335.638333	840.871094	102.336761
9897.421809	4335.638333	839.689453	7.929100
9897.421809	4335.638333	838.506836	-6.991041
9897.421809	4335.638333	837.325195	-21.909750
9897.421809	4335.638333	836.142578	70.624023
9897.421809	4335.638333	834.959961	-26.052670
9897.421809	4335.638333	833.777344	-71.326500
9897.421809	4335.638333	832.593750	70.170624
9897.421809	4335.638333	831.410156	-269.192017
9897.421809	4335.638333	830.226563	-197.725937
9897.421809	4335.638333	829.042969	130.336472
9897.421809	4335.638333	827.858398	143.369125
9897.421809	4335.638333	826.673828	74.770584
9897.421809	4335.638333	825.489258	27.179510
9897.421809	4335.638333	824.304688	-118.302536
9897.421809	4335.638333	823.120117	-177.495880
9897.421809	4335.638333	821.934570	234.015350
9897.421809	4335.638333	820.749023	74.590607
9897.421809	4335.638333	819.562500	89.914291
9897.421809	4335.638333	818.376953	-127.642250
9897.421809	4335.638333	817.190430	-238.014908
9897.421809	4335.638333	816.003906	198.666519
9897.421809	4335.638333	814.817383	102.225227
9897.421809	4335.638333	813.629883	54.681477
9897.421809	4335.638333	812.442383	-111.487099
9897.421809	4335.638333	811.254883	115.466476
9897.421809	4335.638333	810.067383	56.307751
9897.421809	4335.638333	808.878906	-112.098328
9897.421809	4335.638333	807.690430	193.727814
9897.421809	4335.638333	806.501953	-4.859447
9897.421809	4335.638333	805.313477	179.990356
9897.421809	4335.638333	804.124023	-4.583443
9897.421809	4335.638333	802.934570	-61.354229
9897.421809	4335.638333	801.745117	97.834114
9897.421809	4335.638333	800.555664	59.624996
9897.421809	4335.638333	799.365234	109.624489
9897.421809	4335.638333	798.175781	-72.456192
9897.421809	4335.638333	796.985352	0.736839
9897.421809	4335.638333	795.793945	175.953384
9897.421809	4335.638333	794.603516	93.672256
9897.421809	4335.638333	793.412109	122.711143
9897.421809	4335.638333	792.220703	59.006618
9897.421809	4335.638333	791.028320	-0.043350
9897.421809	4335.638333	789.836914	-5.783183
9897.421809	4335.638333	788.644531	217.822510
9897.421809	4335.638333	787.452148	186.545273
9897.421809	4335.638333	786.258789	166.853317
9897.421809	4335.638333	785.066406	147.159073
9897.421809	4335.638333	783.873047	51.077965
9897.421809	4335.638333	782.679688	184.139297
9897.421809	4335.638333	781.485352	192.193100
9897.421809	4335.638333	780.291992	93.819794
9897.421809	4335.638333	779.097656	99.555595
9897.421809	4335.638333	777.903320	-181.452011
9897.421809	4335.638333	776.708008	-32.346214
9897.421809	4335.638333	775.512695	54.279255
9897.421809	4335.638333	774.318359	59.974277
9897.421809	4335.638333	773.122070	-26.759613
9897.421809	4335.638333	771.926758	147.553940
9897.421809	4335.638333	770.730469	123.168770
9897.421809	4335.638333	769.534180	191.140564
9897.421809	4335.638333	768.337891	263.688721
9897.421809	4335.638333	767.141602	396.200623
9897.421809	4335.638333	765.944336	260.970367
9897.421809	4335.638333	764.747070	287.276398
9897.421809	4335.638333	763.549805	396.594879
9897.421809	4335.638333	762.351563	351.343933
9897.421809	4335.638333	761.154297	352.208710
9897.421809	4335.638333	759.956055	537.469116
9897.421809	4335.638333	758.757813	439.163300
9897.421809	4335.638333	757.558594	398.486694
9897.421809	4335.638333	756.359375	659.595581
9897.421809	4335.638333	755.160156	611.946716
9897.421809	4335.638333	753.960938	336.328613
9897.421809	4335.638333	752.761719	369.310272
9897.421809	4335.638333	751.561523	416.071350
9897.421809	4335.638333	750.361328	425.973328
9897.421809	4335.638333	749.160156	382.933075
9897.421809	4335.638333	747.959961	337.590118
9897.421809	4335.638333	746.758789	363.541351
9897.421809	4335.638333	745.557617	497.533051
9897.421809	4335.638333	744.356445	286.611633
9897.421809	4335.638333	743.154297	174.589462
9897.421809	4335.638333	741.952148	322.258728
9897.421809	4335.638333	740.750000	382.541779
9897.421809	4335.638333	739.547852	194.700867
9897.421809	4335.638333	738.344727	303.164459
9897.421809	4335.638333	737.142578	294.461884
9897.421809	4335.638333	735.939453	244.418259
9897.421809	4335.638333	734.735352	219.616058
9897.421809	4335.638333	733.532227	236.101334
9897.421809	4335.638333	732.328125	328.259644
9897.421809	4335.638333	731.124023	200.164505
9897.421809	4335.638333	729.918945	340.393646
9897.421809	4335.638333	728.714844	193.953247
9897.421809	4335.638333	727.509766	166.740326
9897.421809	4335.638333	726.303711	153.259232
9897.421809	4335.638333	725.098633	190.162720
9897.421809	4335.638333	723.892578	103.319389
9897.421809	4335.638333	722.686523	-40.774204
9897.421809	4335.638333	721.480469	215.875549
9897.421809	4335.638333	720.274414	-51.866650
9897.421809	4335.638333	719.067383	0.907695
9897.421809	4335.638333	717.860352	-81.385834
9897.421809	4335.638333	716.653320	83.413368
9897.421809	4335.638333	715.445313	-117.874199
9897.421809	4335.638333	714.238281	85.673248
9897.421809	4335.638333	713.030273	3.294902
9897.421809	4335.638333	711.821289	-159.092880
9897.421809	4335.638333	710.613281	-106.613068
9897.421809	4335.638333	709.404297	-63.332329
9897.421809	4335.638333	708.195313	203.776459
9897.421809	4335.638333	706.986328	132.697113
9897.421809	4335.638333	705.776367	-32.016697
9897.421809	4335.638333	704.566406	-100.811409
9897.421809	4335.638333	703.356445	19.839767
9897.421809	4335.638333	702.146484	65.089584
9897.421809	4335.638333	700.935547	7.604878
9897.421809	4335.638333	699.724609	-65.864395
9897.421809	4335.638333	698.513672	-0.223087
9897.421809	4335.638333	697.302734	76.749924
9897.421809	4335.638333	696.090820	-5.934921
9897.421809	4335.638333	694.878906	244.142395
9897.421809	4335.638333	693.666992	1.855334
9897.421809	4335.638333	692.455078	-64.946068
9897.421809	4335.638333	691.242188	34.514111
9897.421809	4335.638333	690.029297	38.239037
9897.421809	4335.638333	688.816406	199.019165
9897.421809	4335.638333	687.602539	61.477989
9897.421809	4335.638333	686.389648	26.362944
9897.421809	4335.638333	685.175781	82.230095
9897.421809	4335.638333	683.960938	176.697922
9897.421809	4335.638333	682.747070	59.552197
9897.421809	4335.638333	681.532227	-48.498905
9897.421809	4335.638333	680.317383	18.504152
9897.421809	4335.638333	679.102539	155.891891
9897.421809	4335.638333	677.886719	261.352905
9897.421809	4335.638333	676.670898	121.333183
9897.421809	4335.638333	675.455078	88.084152
9897.421809	4335.638333	674.239258	-58.759937
9897.421809	4335.638333	673.022461	262.153412
9897.421809	4335.638333	671.805664	285.486206
9897.421809	4335.638333	670.588867	215.696899
9897.421809	4335.638333	669.372070	159.496902
9897.421809	4335.638333	668.154297	243.922150
9897.421809	4335.638333	666.936523	133.186600
9897.421809	4335.638333	665.718750	81.403023
9897.421809	4335.638333	664.500977	49.987919
9897.421809	4335.638333	663.282227	218.004425
9897.421809	4335.638333	662.063477	193.253586
9897.421809	4335.638333	660.844727	191.111877
9897.421809	4335.638333	659.625000	279.524139
9897.421809	4335.638333	658.405273	154.939041
9897.421809	4335.638333	657.185547	234.141266
9897.421809	4335.638333	655.965820	310.985870
9897.421809	4335.638333	654.745117	240.607910
9897.421809	4335.638333	653.525391	179.251434
9897.421809	4335.638333	652.303711	86.179001
9897.421809	4335.638333	651.083008	219.286377
9897.421809	4335.638333	649.861328	162.301056
9897.421809	4335.638333	648.640625	188.937210
9897.421809	4335.638333	647.417969	292.353271
9897.421809	4335.638333	646.196289	228.413467
9897.421809	4335.638333	644.973633	200.587082
9897.421809	4335.638333	643.750977	89.116394
9897.421809	4335.638333	642.528320	160.580154
9897.421809	4335.638333	641.305664	35.482880
9897.421809	4335.638333	640.082031	197.098831
9897.421809	4335.638333	638.858398	139.625595
9897.421809	4335.638333	637.634766	206.230835
9897.421809	4335.638333	636.410156	56.132984
9897.421809	4335.638333	635.185547	178.981995
9897.421809	4335.638333	633.960938	193.453354
9897.421809	4335.638333	632.736328	174.026260
9897.421809	4335.638333	631.510742	3.491239
9897.421809	4335.638333	630.285156	180.059052
9897.421809	4335.638333	629.059570	43.254826
9897.421809	4335.638333	627.833984	57.384945
9897.421809	4335.638333	626.607422	168.290558
9897.421809	4335.638333	625.380859	276.825256
9897.421809	4335.638333	624.154297	-20.029736
9897.421809	4335.638333	622.927734	-109.736542
9897.421809	4335.638333	621.700195	-3.681728
9897.421809	4335.638333	620.472656	-28.249725
9897.421809	4335.638333	619.245117	68.598358
9897.421809	4335.638333	618.016602	-176.538834
9897.421809	4335.638333	616.788086	68.559959
9897.421809	4335.638333	615.559570	108.897507
9897.421809	4335.638333	614.331055	-59.891529
9897.421809	4335.638333	613.101563	23.002254
9897.421809	4335.638333	611.872070	27.150961
9897.421809	4335.638333	610.642578	-18.194517
9897.421809	4335.638333	609.413086	201.407150
9897.421809	4335.638333	608.182617	-25.978935
9897.421809	4335.638333	606.952148	60.933468
9897.421809	4335.638333	605.721680	93.869919
9897.421809	4335.638333	604.491211	160.375320
9897.421809	4335.638333	603.259766	40.571217
9897.421809	4335.638333	602.028320	37.375011
9897.421809	4335.638333	600.796875	49.803329
9897.421809	4335.638333	599.564453	64.387749
9897.421809	4335.638333	598.332031	-13.009793
9897.421809	4335.638333	597.099609	227.774826
9897.421809	4335.638333	595.867188	96.452637
9897.421809	4335.638333	594.633789	54.708347
9897.421809	4335.638333	593.400391	42.022358
9897.421809	4335.638333	592.166992	212.873291
9897.421809	4335.638333	590.933594	200.009338
9897.421809	4335.638333	589.699219	95.307442
9897.421809	4335.638333	588.464844	-11.662873
9897.421809	4335.638333	587.230469	134.141541
9897.421809	4335.638333	585.995117	176.914886
9897.421809	4335.638333	584.760742	212.892319
9897.421809	4335.638333	583.525391	0.605601
9897.421809	4335.638333	582.289063	31.976652
9897.421809	4335.638333	581.053711	170.536911
9897.421809	4335.638333	579.817383	219.585419
9897.421809	4335.638333	578.581055	266.305542
9897.421809	4335.638333	577.343750	453.631409
9897.421809	4335.638333	576.107422	317.037384
9897.421809	4335.638333	574.870117	381.342560
9897.421809	4335.638333	573.631836	309.392853
9897.421809	4335.638333	572.394531	386.916840
9897.421809	4335.638333	571.156250	417.479462
9897.421809	4335.638333	569.917969	215.982361
9897.421809	4335.638333	568.679688	270.955200
9897.421809	4335.638333	567.440430	62.739052
9897.421809	4335.638333	566.202148	266.930267
9897.421809	4335.638333	564.961914	223.575516
9897.421809	4335.638333	563.722656	144.524490
9897.421809	4335.638333	562.482422	-86.050110
9897.421809	4335.638333	561.243164	59.807938
9897.421809	4335.638333	560.001953	138.720886
9897.421809	4335.638333	558.761719	157.428757
9897.421809	4335.638333	557.520508	253.957397
9897.421809	4335.638333	556.279297	45.511883
9897.421809	4335.638333	555.038086	95.167915
9897.421809	4335.638333	553.795898	55.756348
9897.421809	4335.638333	552.554688	216.449005
9897.421809	4335.638333	551.311523	-27.661118
9897.421809	4335.638333	550.069336	128.398514
9897.421809	4335.638333	548.826172	164.308441
9897.421809	4335.638333	547.583984	-75.376282
9897.421809	4335.638333	546.339844	-77.337624
9897.421809	4335.638333	545.096680	116.095818
9897.421809	4335.638333	543.852539	100.646217
9897.421809	4335.638333	542.608398	149.524139
9897.421809	4335.638333	541.364258	9.654031
9897.421809	4335.638333	540.119141	-8.171772
9897.421809	4335.638333	538.875000	44.952084
9897.421809	4335.638333	537.628906	64.707970
9897.421809	4335.638333	536.383789	-88.575493
9897.421809	4335.638333	535.137695	-35.659119
9897.421809	4335.638333	533.892578	46.001461
9897.421809	4335.638333	532.645508	-127.314209
9897.421809	4335.638333	531.399414	-85.674461
9897.421809	4335.638333	530.152344	122.032616
9897.421809	4335.638333	528.905273	-190.890091
9897.421809	4335.638333	527.658203	-65.291588
9897.421809	4335.638333	526.410156	-81.497108
9897.421809	4335.638333	525.163086	-166.357224
9897.421809	4335.638333	523.914063	-34.382313
9897.421809	4335.638333	522.666016	-108.266815
9897.421809	4335.638333	521.416992	-233.055634
9897.421809	4335.638333	520.167969	-85.826492
9897.421809	4335.638333	518.918945	-217.301453
9897.421809	4335.638333	517.669922	-191.820724
9897.421809	4335.638333	516.419922	-159.778275
9897.421809	4335.638333	515.169922	-57.091553
9897.421809	4335.638333	513.919922	-76.000221
9897.421809	4335.638333	512.668945	-152.381760
9897.421809	4335.638333	511.417969	-171.365463
9897.421809	4335.638333	510.166992	-110.909782
9897.421809	4335.638333	508.916016	-176.340378
9897.421809	4335.638333	507.664063	-208.695068
9897.421809	4335.638333	506.412109	-80.023003
9897.421809	4335.638333	505.160156	-46.301239
9897.421809	4335.638333	503.907227	-19.264046
9897.421809	4335.638333	502.655273	-131.179886
9897.421809	4335.638333	501.402344	45.674576
9897.421809	4335.638333	500.148438	-55.293129
9897.421809	4335.638333	498.895508	-136.420700
9897.421809	4335.638333	497.641602	-69.966484
9897.421809	4335.638333	496.387695	-12.394605
9897.421809	4335.638333	495.132813	-71.604729
9897.421809	4335.638333	493.878906	104.742325
9897.421809	4335.638333	492.624023	-161.452972
9897.421809	4335.638333	491.368164	-2.869217
9897.421809	4335.638333	490.113281	-134.803879
9897.421809	4335.638333	488.857422	127.005531
9897.421809	4335.638333	487.601563	-0.593592
9897.421809	4335.638333	486.344727	104.873627
9897.421809	4335.638333	485.088867	16.817802
9897.421809	4335.638333	483.832031	-11.911062
9897.421809	4335.638333	482.575195	194.438644
9897.421809	4335.638333	481.317383	88.702850
9897.421809	4335.638333	480.059570	20.306936
9897.421809	4335.638333	478.801758	138.545593
9897.421809	4335.638333	477.543945	197.415573
9897.421809	4335.638333	476.285156	126.706566
9897.421809	4335.638333	475.027344	110.854637
9897.421809	4335.638333	473.767578	4.994983
9897.421809	4335.638333	472.508789	72.429863
9897.421809	4335.638333	471.249023	-9.344389
9897.421809	4335.638333	469.989258	5.342497
9897.421809	4335.638333	468.729492	33.127480
9897.421809	4335.638333	467.469727	36.746067
9897.421809	4335.638333	466.208984	182.726425
9897.421809	4335.638333	464.948242	289.163483
9897.421809	4335.638333	463.686523	272.842957
9897.421809	4335.638333	462.425781	208.313156
9897.421809	4335.638333	461.164063	-0.740287
9897.421809	4335.638333	459.901367	339.610901
9897.421809	4335.638333	458.639648	228.980362
9897.421809	4335.638333	457.376953	43.944859
9897.421809	4335.638333	456.114258	344.519836
9897.421809	4335.638333	454.851563	218.463333
9897.421809	4335.638333	453.587891	153.608902
9897.421809	4335.638333	452.324219	79.973755
9897.421809	4335.638333	451.060547	303.523651
9897.421809	4335.638333	449.796875	260.340454
9897.421809	4335.638333	448.532227	116.608620
9897.421809	4335.638333	447.267578	178.162460
9897.421809	4335.638333	446.002930	-24.596205
9897.421809	4335.638333	444.737305	207.077087
9897.421809	4335.638333	443.471680	119.907043
9897.421809	4335.638333	442.206055	281.454285
9897.421809	4335.638333	440.940430	104.684578
9897.421809	4335.638333	439.673828	228.895264
9897.421809	4335.638333	438.407227	95.632050
9897.421809	4335.638333	437.140625	123.666885
9897.421809	4335.638333	435.873047	40.409756
9897.421809	4335.638333	434.605469	227.316254
9897.421809	4335.638333	433.337891	165.646118
9897.421809	4335.638333	432.070313	254.195114
9897.421809	4335.638333	430.801758	205.370285
9897.421809	4335.638333	429.533203	206.524292
9897.421809	4335.638333	428.264648	116.119370
9897.421809	4335.638333	426.996094	188.856766
9897.421809	4335.638333	425.726563	146.086792
9897.421809	4335.638333	424.457031	327.272064
9897.421809	4335.638333	423.186523	179.785706
9897.421809	4335.638333	421.916992	267.077026
9897.421809	4335.638333	420.646484	506.348267
9897.421809	4335.638333	419.375977	199.762802
9897.421809	4335.638333	418.104492	247.355545
9897.421809	4335.638333	416.833008	307.785736
9897.421809	4335.638333	415.561523	118.196190
9897.421809	4335.638333	414.290039	223.857346
9897.421809	4335.638333	413.017578	272.806488
9897.421809	4335.638333	411.746094	291.148499
9897.421809	4335.638333	410.472656	263.664703
9897.421809	4335.638333	409.200195	75.411797
9897.421809	4335.638333	407.926758	38.854393
9897.421809	4335.638333	406.653320	132.209534
9897.421809	4335.638333	405.379883	177.569138
9897.421809	4335.638333	404.105469	122.909798
9897.421809	4335.638333	402.831055	5.148424
9897.421809	4335.638333	401.556641	62.692478
9897.421809	4335.638333	400.282227	184.921768
9897.421809	4335.638333	399.006836	137.829407
9897.421809	4335.638333	397.731445	172.743027
9897.421809	4335.638333	396.456055	133.705566
9897.421809	4335.638333	395.179688	118.151802
9897.421809	4335.638333	393.903320	76.290886
9897.421809	4335.638333	392.626953	293.745789
9897.421809	4335.638333	391.350586	378.776886
9897.421809	4335.638333	390.073242	203.837891
9897.421809	4335.638333	388.795898	58.853458
9897.421809	4335.638333	387.518555	92.961700
9897.421809	4335.638333	386.240234	234.688583
9897.421809	4335.638333	384.961914	164.146896
9897.421809	4335.638333	383.683594	108.308571
9897.421809	4335.638333	382.405273	10.989858
9897.421809	4335.638333	381.125977	189.634644
9897.421809	4335.638333	379.846680	-139.674896
9897.421809	4335.638333	378.567383	255.933853
9897.421809	4335.638333	377.287109	122.080040
9897.421809	4335.638333	376.006836	30.889565
9897.421809	4335.638333	374.726563	-9.053427
9897.421809	4335.638333	373.446289	-40.936718
9897.421809	4335.638333	372.165039	-25.991423
9897.421809	4335.638333	370.883789	3.414954
9897.421809	4335.638333	369.602539	55.876369
9897.421809	4335.638333	368.320313	157.190994
9897.421809	4335.638333	367.039063	53.135612
9897.421809	4335.638333	365.755859	-17.162928
9897.421809	4335.638333	364.473633	84.140915
9897.421809	4335.638333	363.190430	40.379196
9897.421809	4335.638333	361.907227	-210.776779
9897.421809	4335.638333	360.624023	-98.926247
9897.421809	4335.638333	359.340820	-142.856506
9897.421809	4335.638333	358.056641	109.210869
9897.421809	4335.638333	356.772461	145.235260
9897.421809	4335.638333	355.487305	-92.750664
9897.421809	4335.638333	354.202148	-41.350006
9897.421809	4335.638333	352.916992	80.000366
9897.421809	4335.638333	351.631836	24.121752
9897.421809	4335.638333	350.346680	104.748878
9897.421809	4335.638333	349.060547	268.036438
9897.421809	4335.638333	347.774414	-65.850861
9897.421809	4335.638333	346.487305	-173.157867
9897.421809	4335.638333	345.200195	38.265610
9897.421809	4335.638333	343.913086	-97.062126
9897.421809	4335.638333	342.625977	-126.254295
9897.421809	4335.638333	341.338867	139.346603
9897.421809	4335.638333	340.050781	58.259087
9897.421809	4335.638333	338.762695	-30.525280
9897.421809	4335.638333	337.473633	-217.109741
9897.421809	4335.638333	336.184570	158.653793
9897.421809	4335.638333	334.895508	-39.249111
9897.421809	4335.638333	333.606445	52.821590
9897.421809	4335.638333	332.317383	12.716060
9897.421809	4335.638333	331.027344	159.483597
9897.421809	4335.638333	329.736328	445.857788
9897.421809	4335.638333	328.446289	174.054001
9897.421809	4335.638333	327.155273	-24.443613
9897.421809	4335.638333	325.864258	-70.523323
9897.421809	4335.638333	324.573242	91.282677
9897.421809	4335.638333	323.281250	-63.182785
9897.421809	4335.638333	321.989258	-118.938911
9897.421809	4335.638333	320.697266	-283.437805
9897.421809	4335.638333	319.405273	-9.572015
9897.421809	4335.638333	318.112305	-154.509369
9897.421809	4335.638333	316.819336	-171.123123
9897.421809	4335.638333	315.526367	-68.093086
9897.421809	4335.638333	314.232422	-14.294236
9897.421809	4335.638333	312.938477	-1.149325
9897.421809	4335.638333	311.644531	176.201508
9897.421809	4335.638333	310.349609	-0.985479
9897.421809	4335.638333	309.054688	214.190674
9897.421809	4335.638333	307.759766	-27.461481
9897.421809	4335.638333	306.464844	69.677994
9897.421809	4335.638333	305.168945	225.966537
9897.421809	4335.638333	303.873047	426.455872
9897.421809	4335.638333	302.577148	347.142120
9897.421809	4335.638333	301.281250	478.162750
9897.421809	4335.638333	299.984375	682.905029
