#X		#Y		#Wave		#Intensity
10588.826596	5127.311667	1999.946289	43.837784
10588.826596	5127.311667	1998.981445	-51.657310
10588.826596	5127.311667	1998.017578	104.822807
10588.826596	5127.311667	1997.052734	13.458314
10588.826596	5127.311667	1996.088867	50.991562
10588.826596	5127.311667	1995.124023	29.082329
10588.826596	5127.311667	1994.159180	-47.282192
10588.826596	5127.311667	1993.193359	-88.928207
10588.826596	5127.311667	1992.228516	67.531960
10588.826596	5127.311667	1991.262695	-8.727060
10588.826596	5127.311667	1990.296875	-87.409561
10588.826596	5127.311667	1989.331055	12.119363
10588.826596	5127.311667	1988.365234	49.784157
10588.826596	5127.311667	1987.398438	-95.584000
10588.826596	5127.311667	1986.432617	-18.299847
10588.826596	5127.311667	1985.465820	14.469267
10588.826596	5127.311667	1984.499023	118.939331
10588.826596	5127.311667	1983.532227	38.015274
10588.826596	5127.311667	1982.565430	75.760246
10588.826596	5127.311667	1981.597656	120.923035
10588.826596	5127.311667	1980.629883	49.984703
10588.826596	5127.311667	1979.662109	23.549408
10588.826596	5127.311667	1978.694336	137.898560
10588.826596	5127.311667	1977.726563	-61.330467
10588.826596	5127.311667	1976.758789	104.867371
10588.826596	5127.311667	1975.790039	-25.140331
10588.826596	5127.311667	1974.821289	15.179114
10588.826596	5127.311667	1973.852539	-45.649704
10588.826596	5127.311667	1972.883789	46.493504
10588.826596	5127.311667	1971.915039	-9.351043
10588.826596	5127.311667	1970.945313	-18.310291
10588.826596	5127.311667	1969.975586	-17.388741
10588.826596	5127.311667	1969.005859	-75.606720
10588.826596	5127.311667	1968.036133	-5.640793
10588.826596	5127.311667	1967.066406	12.573179
10588.826596	5127.311667	1966.096680	84.991440
10588.826596	5127.311667	1965.125977	110.600433
10588.826596	5127.311667	1964.155273	-50.936459
10588.826596	5127.311667	1963.184570	19.034761
10588.826596	5127.311667	1962.213867	12.684692
10588.826596	5127.311667	1961.242188	90.029144
10588.826596	5127.311667	1960.271484	-46.721203
10588.826596	5127.311667	1959.299805	-30.872807
10588.826596	5127.311667	1958.328125	-0.258948
10588.826596	5127.311667	1957.356445	86.920372
10588.826596	5127.311667	1956.384766	-71.805832
10588.826596	5127.311667	1955.412109	25.212597
10588.826596	5127.311667	1954.439453	33.720947
10588.826596	5127.311667	1953.467773	17.663662
10588.826596	5127.311667	1952.495117	-25.404686
10588.826596	5127.311667	1951.521484	39.643585
10588.826596	5127.311667	1950.548828	40.819695
10588.826596	5127.311667	1949.575195	49.372620
10588.826596	5127.311667	1948.601563	87.394745
10588.826596	5127.311667	1947.627930	86.137253
10588.826596	5127.311667	1946.654297	45.621346
10588.826596	5127.311667	1945.680664	-7.139578
10588.826596	5127.311667	1944.706055	-86.858505
10588.826596	5127.311667	1943.732422	19.882875
10588.826596	5127.311667	1942.757813	-59.793755
10588.826596	5127.311667	1941.783203	24.851873
10588.826596	5127.311667	1940.807617	-62.134892
10588.826596	5127.311667	1939.833008	-11.819691
10588.826596	5127.311667	1938.857422	129.158005
10588.826596	5127.311667	1937.881836	59.374836
10588.826596	5127.311667	1936.906250	48.417946
10588.826596	5127.311667	1935.930664	-23.759321
10588.826596	5127.311667	1934.955078	-68.966812
10588.826596	5127.311667	1933.978516	-74.977470
10588.826596	5127.311667	1933.001953	-51.604816
10588.826596	5127.311667	1932.025391	-96.763664
10588.826596	5127.311667	1931.048828	68.540833
10588.826596	5127.311667	1930.072266	-27.989929
10588.826596	5127.311667	1929.094727	-11.960413
10588.826596	5127.311667	1928.118164	133.685654
10588.826596	5127.311667	1927.140625	27.430048
10588.826596	5127.311667	1926.163086	45.898190
10588.826596	5127.311667	1925.184570	-48.072472
10588.826596	5127.311667	1924.207031	-22.258215
10588.826596	5127.311667	1923.228516	64.633324
10588.826596	5127.311667	1922.250000	12.250976
10588.826596	5127.311667	1921.271484	-18.127197
10588.826596	5127.311667	1920.292969	-68.026848
10588.826596	5127.311667	1919.314453	26.144043
10588.826596	5127.311667	1918.334961	95.870911
10588.826596	5127.311667	1917.355469	155.811371
10588.826596	5127.311667	1916.375977	-60.006535
10588.826596	5127.311667	1915.396484	68.255325
10588.826596	5127.311667	1914.416992	89.143082
10588.826596	5127.311667	1913.436523	-55.813393
10588.826596	5127.311667	1912.457031	60.186218
10588.826596	5127.311667	1911.476563	5.491476
10588.826596	5127.311667	1910.496094	21.502655
10588.826596	5127.311667	1909.515625	-13.669173
10588.826596	5127.311667	1908.534180	-112.177238
10588.826596	5127.311667	1907.552734	30.519859
10588.826596	5127.311667	1906.572266	63.561157
10588.826596	5127.311667	1905.590820	16.228836
10588.826596	5127.311667	1904.608398	-118.736633
10588.826596	5127.311667	1903.626953	84.705788
10588.826596	5127.311667	1902.644531	132.308014
10588.826596	5127.311667	1901.663086	46.057384
10588.826596	5127.311667	1900.680664	-57.193619
10588.826596	5127.311667	1899.698242	-145.814240
10588.826596	5127.311667	1898.714844	18.518843
10588.826596	5127.311667	1897.732422	51.486359
10588.826596	5127.311667	1896.749023	-73.580711
10588.826596	5127.311667	1895.765625	-157.284515
10588.826596	5127.311667	1894.782227	28.784861
10588.826596	5127.311667	1893.798828	-6.321561
10588.826596	5127.311667	1892.814453	-12.268267
10588.826596	5127.311667	1891.831055	15.785185
10588.826596	5127.311667	1890.846680	46.251762
10588.826596	5127.311667	1889.862305	3.865286
10588.826596	5127.311667	1888.877930	-96.769012
10588.826596	5127.311667	1887.892578	76.875755
10588.826596	5127.311667	1886.908203	172.800735
10588.826596	5127.311667	1885.922852	-0.608012
10588.826596	5127.311667	1884.937500	-152.128357
10588.826596	5127.311667	1883.952148	-48.958271
10588.826596	5127.311667	1882.965820	22.645399
10588.826596	5127.311667	1881.980469	198.457306
10588.826596	5127.311667	1880.994141	-47.542797
10588.826596	5127.311667	1880.007813	19.150949
10588.826596	5127.311667	1879.021484	124.577866
10588.826596	5127.311667	1878.035156	60.387611
10588.826596	5127.311667	1877.047852	22.854584
10588.826596	5127.311667	1876.061523	157.254486
10588.826596	5127.311667	1875.074219	-49.774300
10588.826596	5127.311667	1874.086914	45.841007
10588.826596	5127.311667	1873.098633	-30.420147
10588.826596	5127.311667	1872.111328	-34.071041
10588.826596	5127.311667	1871.123047	-47.407467
10588.826596	5127.311667	1870.135742	-72.842560
10588.826596	5127.311667	1869.147461	15.383028
10588.826596	5127.311667	1868.158203	16.520998
10588.826596	5127.311667	1867.169922	70.831612
10588.826596	5127.311667	1866.180664	11.512144
10588.826596	5127.311667	1865.192383	10.200837
10588.826596	5127.311667	1864.203125	52.367882
10588.826596	5127.311667	1863.213867	22.038343
10588.826596	5127.311667	1862.223633	32.766270
10588.826596	5127.311667	1861.234375	-28.963341
10588.826596	5127.311667	1860.244141	-102.753616
10588.826596	5127.311667	1859.253906	64.851707
10588.826596	5127.311667	1858.263672	58.619999
10588.826596	5127.311667	1857.273438	-39.312229
10588.826596	5127.311667	1856.282227	-161.346085
10588.826596	5127.311667	1855.291992	107.395676
10588.826596	5127.311667	1854.300781	57.698948
10588.826596	5127.311667	1853.309570	70.695374
10588.826596	5127.311667	1852.317383	-24.805750
10588.826596	5127.311667	1851.326172	53.247738
10588.826596	5127.311667	1850.333984	58.964870
10588.826596	5127.311667	1849.342773	112.851471
10588.826596	5127.311667	1848.350586	82.393478
10588.826596	5127.311667	1847.357422	61.564766
10588.826596	5127.311667	1846.365234	117.782394
10588.826596	5127.311667	1845.372070	-23.449242
10588.826596	5127.311667	1844.379883	-22.629036
10588.826596	5127.311667	1843.386719	-33.859093
10588.826596	5127.311667	1842.393555	-124.502228
10588.826596	5127.311667	1841.399414	15.814197
10588.826596	5127.311667	1840.406250	170.493256
10588.826596	5127.311667	1839.412109	46.146114
10588.826596	5127.311667	1838.417969	92.533562
10588.826596	5127.311667	1837.423828	4.271130
10588.826596	5127.311667	1836.429688	12.160406
10588.826596	5127.311667	1835.434570	-6.404098
10588.826596	5127.311667	1834.440430	87.937943
10588.826596	5127.311667	1833.445313	131.783325
10588.826596	5127.311667	1832.450195	19.491608
10588.826596	5127.311667	1831.454102	-35.150204
10588.826596	5127.311667	1830.458984	63.854595
10588.826596	5127.311667	1829.462891	133.999664
10588.826596	5127.311667	1828.466797	124.906799
10588.826596	5127.311667	1827.470703	-40.157066
10588.826596	5127.311667	1826.474609	-90.032425
10588.826596	5127.311667	1825.478516	1.597948
10588.826596	5127.311667	1824.481445	-43.510284
10588.826596	5127.311667	1823.484375	21.663715
10588.826596	5127.311667	1822.487305	-76.205894
10588.826596	5127.311667	1821.490234	96.757202
10588.826596	5127.311667	1820.493164	94.715454
10588.826596	5127.311667	1819.495117	59.113888
10588.826596	5127.311667	1818.498047	-45.956089
10588.826596	5127.311667	1817.500000	52.549042
10588.826596	5127.311667	1816.500977	33.672543
10588.826596	5127.311667	1815.502930	-40.276295
10588.826596	5127.311667	1814.504883	163.420486
10588.826596	5127.311667	1813.505859	27.213665
10588.826596	5127.311667	1812.506836	-18.046576
10588.826596	5127.311667	1811.507813	68.252907
10588.826596	5127.311667	1810.508789	58.833176
10588.826596	5127.311667	1809.508789	97.217209
10588.826596	5127.311667	1808.508789	44.716694
10588.826596	5127.311667	1807.508789	32.848595
10588.826596	5127.311667	1806.508789	11.403806
10588.826596	5127.311667	1805.508789	6.669805
10588.826596	5127.311667	1804.508789	-79.308113
10588.826596	5127.311667	1803.507813	61.626701
10588.826596	5127.311667	1802.506836	25.772408
10588.826596	5127.311667	1801.505859	16.171860
10588.826596	5127.311667	1800.504883	25.648682
10588.826596	5127.311667	1799.502930	-57.982834
10588.826596	5127.311667	1798.501953	63.609814
10588.826596	5127.311667	1797.500000	-5.729365
10588.826596	5127.311667	1796.498047	101.446846
10588.826596	5127.311667	1795.496094	98.855148
10588.826596	5127.311667	1794.493164	15.169604
10588.826596	5127.311667	1793.491211	76.914345
10588.826596	5127.311667	1792.488281	179.129471
10588.826596	5127.311667	1791.485352	11.997171
10588.826596	5127.311667	1790.482422	73.633583
10588.826596	5127.311667	1789.478516	30.405533
10588.826596	5127.311667	1788.475586	-17.591803
10588.826596	5127.311667	1787.471680	-10.828316
10588.826596	5127.311667	1786.467773	53.046295
10588.826596	5127.311667	1785.463867	-23.567656
10588.826596	5127.311667	1784.459961	121.152519
10588.826596	5127.311667	1783.455078	70.676552
10588.826596	5127.311667	1782.450195	70.153664
10588.826596	5127.311667	1781.445313	-65.970879
10588.826596	5127.311667	1780.440430	145.131943
10588.826596	5127.311667	1779.435547	144.519714
10588.826596	5127.311667	1778.429688	10.758245
10588.826596	5127.311667	1777.424805	-1.762324
10588.826596	5127.311667	1776.418945	-35.692539
10588.826596	5127.311667	1775.413086	103.800606
10588.826596	5127.311667	1774.406250	15.176885
10588.826596	5127.311667	1773.400391	-23.563976
10588.826596	5127.311667	1772.393555	70.653366
10588.826596	5127.311667	1771.386719	34.237705
10588.826596	5127.311667	1770.379883	99.874069
10588.826596	5127.311667	1769.373047	8.832922
10588.826596	5127.311667	1768.365234	-44.239063
10588.826596	5127.311667	1767.358398	47.391537
10588.826596	5127.311667	1766.350586	117.612778
10588.826596	5127.311667	1765.342773	78.700798
10588.826596	5127.311667	1764.334961	13.697584
10588.826596	5127.311667	1763.326172	93.286789
10588.826596	5127.311667	1762.318359	30.623476
10588.826596	5127.311667	1761.309570	27.193140
10588.826596	5127.311667	1760.300781	-7.059490
10588.826596	5127.311667	1759.291016	74.734222
10588.826596	5127.311667	1758.282227	71.219292
10588.826596	5127.311667	1757.272461	77.147629
10588.826596	5127.311667	1756.262695	54.640339
10588.826596	5127.311667	1755.252930	41.582191
10588.826596	5127.311667	1754.243164	-73.250435
10588.826596	5127.311667	1753.233398	5.938859
10588.826596	5127.311667	1752.222656	14.105471
10588.826596	5127.311667	1751.211914	-32.152794
10588.826596	5127.311667	1750.201172	-57.138157
10588.826596	5127.311667	1749.190430	-79.776871
10588.826596	5127.311667	1748.179688	15.749934
10588.826596	5127.311667	1747.167969	33.225685
10588.826596	5127.311667	1746.156250	-58.018776
10588.826596	5127.311667	1745.144531	122.411118
10588.826596	5127.311667	1744.132813	16.960722
10588.826596	5127.311667	1743.121094	74.461609
10588.826596	5127.311667	1742.108398	18.585762
10588.826596	5127.311667	1741.095703	9.914659
10588.826596	5127.311667	1740.083008	-55.420307
10588.826596	5127.311667	1739.070313	-7.495263
10588.826596	5127.311667	1738.057617	-13.875581
10588.826596	5127.311667	1737.043945	0.946554
10588.826596	5127.311667	1736.030273	25.169445
10588.826596	5127.311667	1735.016602	-30.808409
10588.826596	5127.311667	1734.002930	-122.151009
10588.826596	5127.311667	1732.989258	-22.575085
10588.826596	5127.311667	1731.974609	-83.305344
10588.826596	5127.311667	1730.959961	-71.001755
10588.826596	5127.311667	1729.945313	-23.395681
10588.826596	5127.311667	1728.930664	17.101816
10588.826596	5127.311667	1727.916016	-20.145903
10588.826596	5127.311667	1726.900391	-5.615600
10588.826596	5127.311667	1725.885742	-0.527837
10588.826596	5127.311667	1724.870117	25.708677
10588.826596	5127.311667	1723.853516	-2.208767
10588.826596	5127.311667	1722.837891	-44.252052
10588.826596	5127.311667	1721.822266	-123.936058
10588.826596	5127.311667	1720.805664	10.369257
10588.826596	5127.311667	1719.789063	24.694160
10588.826596	5127.311667	1718.772461	-43.282532
10588.826596	5127.311667	1717.754883	41.498852
10588.826596	5127.311667	1716.738281	53.385571
10588.826596	5127.311667	1715.720703	93.430443
10588.826596	5127.311667	1714.703125	37.134083
10588.826596	5127.311667	1713.685547	-0.377919
10588.826596	5127.311667	1712.667969	-124.772919
10588.826596	5127.311667	1711.649414	60.716663
10588.826596	5127.311667	1710.630859	60.696983
10588.826596	5127.311667	1709.612305	-61.367474
10588.826596	5127.311667	1708.593750	25.394522
10588.826596	5127.311667	1707.575195	98.025574
10588.826596	5127.311667	1706.555664	121.351768
10588.826596	5127.311667	1705.536133	-17.142694
10588.826596	5127.311667	1704.516602	-172.018204
10588.826596	5127.311667	1703.497070	57.535419
10588.826596	5127.311667	1702.477539	134.656525
10588.826596	5127.311667	1701.457031	-74.119934
10588.826596	5127.311667	1700.437500	54.485664
10588.826596	5127.311667	1699.416992	82.306755
10588.826596	5127.311667	1698.395508	-39.772774
10588.826596	5127.311667	1697.375000	-84.565460
10588.826596	5127.311667	1696.354492	-70.845459
10588.826596	5127.311667	1695.333008	38.793678
10588.826596	5127.311667	1694.311523	-64.554207
10588.826596	5127.311667	1693.290039	-137.472427
10588.826596	5127.311667	1692.267578	44.552319
10588.826596	5127.311667	1691.246094	-26.063726
10588.826596	5127.311667	1690.223633	-56.932285
10588.826596	5127.311667	1689.201172	33.742744
10588.826596	5127.311667	1688.178711	79.957146
10588.826596	5127.311667	1687.155273	119.118217
10588.826596	5127.311667	1686.132813	-54.347866
10588.826596	5127.311667	1685.109375	-33.903572
10588.826596	5127.311667	1684.085938	-13.487559
10588.826596	5127.311667	1683.062500	48.928196
10588.826596	5127.311667	1682.039063	-42.772324
10588.826596	5127.311667	1681.014648	-36.434364
10588.826596	5127.311667	1679.990234	-13.784586
10588.826596	5127.311667	1678.965820	-70.487343
10588.826596	5127.311667	1677.941406	-5.891062
10588.826596	5127.311667	1676.916992	-69.608826
10588.826596	5127.311667	1675.891602	-70.368263
10588.826596	5127.311667	1674.866211	-24.521446
10588.826596	5127.311667	1673.840820	11.966515
10588.826596	5127.311667	1672.815430	-105.383171
10588.826596	5127.311667	1671.790039	-6.022936
10588.826596	5127.311667	1670.763672	-16.208307
10588.826596	5127.311667	1669.737305	57.436771
10588.826596	5127.311667	1668.710938	100.764572
10588.826596	5127.311667	1667.684570	-28.222729
10588.826596	5127.311667	1666.658203	-82.691895
10588.826596	5127.311667	1665.630859	-44.072365
10588.826596	5127.311667	1664.603516	145.755661
10588.826596	5127.311667	1663.576172	58.661083
10588.826596	5127.311667	1662.548828	108.810616
10588.826596	5127.311667	1661.520508	44.974018
10588.826596	5127.311667	1660.493164	171.799011
10588.826596	5127.311667	1659.464844	-43.150753
10588.826596	5127.311667	1658.436523	181.218262
10588.826596	5127.311667	1657.408203	68.558632
10588.826596	5127.311667	1656.378906	155.717209
10588.826596	5127.311667	1655.350586	38.430706
10588.826596	5127.311667	1654.321289	109.275864
10588.826596	5127.311667	1653.291992	87.206139
10588.826596	5127.311667	1652.261719	32.626427
10588.826596	5127.311667	1651.232422	168.376114
10588.826596	5127.311667	1650.202148	169.466385
10588.826596	5127.311667	1649.171875	179.822952
10588.826596	5127.311667	1648.141602	178.565201
10588.826596	5127.311667	1647.111328	147.145538
10588.826596	5127.311667	1646.080078	150.502014
10588.826596	5127.311667	1645.049805	88.937996
10588.826596	5127.311667	1644.018555	187.309326
10588.826596	5127.311667	1642.987305	77.069588
10588.826596	5127.311667	1641.955078	129.039612
10588.826596	5127.311667	1640.923828	132.336807
10588.826596	5127.311667	1639.891602	302.369202
10588.826596	5127.311667	1638.859375	148.148010
10588.826596	5127.311667	1637.827148	121.306831
10588.826596	5127.311667	1636.794922	263.435272
10588.826596	5127.311667	1635.761719	181.016266
10588.826596	5127.311667	1634.729492	265.214661
10588.826596	5127.311667	1633.696289	196.687943
10588.826596	5127.311667	1632.662109	266.945129
10588.826596	5127.311667	1631.628906	219.238525
10588.826596	5127.311667	1630.594727	287.135223
10588.826596	5127.311667	1629.561523	271.787018
10588.826596	5127.311667	1628.527344	184.789734
10588.826596	5127.311667	1627.493164	162.515549
10588.826596	5127.311667	1626.458008	188.751038
10588.826596	5127.311667	1625.423828	201.115326
10588.826596	5127.311667	1624.388672	368.184174
10588.826596	5127.311667	1623.353516	221.182373
10588.826596	5127.311667	1622.318359	249.667786
10588.826596	5127.311667	1621.282227	261.975311
10588.826596	5127.311667	1620.247070	361.960968
10588.826596	5127.311667	1619.210938	203.511505
10588.826596	5127.311667	1618.174805	441.848297
10588.826596	5127.311667	1617.137695	269.593323
10588.826596	5127.311667	1616.101563	272.636292
10588.826596	5127.311667	1615.064453	413.983124
10588.826596	5127.311667	1614.027344	320.183319
10588.826596	5127.311667	1612.990234	360.067200
10588.826596	5127.311667	1611.953125	204.102386
10588.826596	5127.311667	1610.916016	425.958130
10588.826596	5127.311667	1609.877930	465.784241
10588.826596	5127.311667	1608.839844	408.885620
10588.826596	5127.311667	1607.801758	538.475952
10588.826596	5127.311667	1606.763672	463.168243
10588.826596	5127.311667	1605.724609	422.401031
10588.826596	5127.311667	1604.685547	386.250092
10588.826596	5127.311667	1603.646484	446.724548
10588.826596	5127.311667	1602.607422	509.474152
10588.826596	5127.311667	1601.568359	519.313110
10588.826596	5127.311667	1600.528320	494.658905
10588.826596	5127.311667	1599.489258	635.511047
10588.826596	5127.311667	1598.449219	624.632813
10588.826596	5127.311667	1597.408203	583.886414
10588.826596	5127.311667	1596.368164	637.344482
10588.826596	5127.311667	1595.327148	612.690857
10588.826596	5127.311667	1594.287109	654.644226
10588.826596	5127.311667	1593.246094	666.733521
10588.826596	5127.311667	1592.204102	570.933716
10588.826596	5127.311667	1591.163086	729.913208
10588.826596	5127.311667	1590.121094	485.004669
10588.826596	5127.311667	1589.079102	653.116516
10588.826596	5127.311667	1588.037109	610.158630
10588.826596	5127.311667	1586.995117	509.893585
10588.826596	5127.311667	1585.953125	618.304077
10588.826596	5127.311667	1584.910156	463.067413
10588.826596	5127.311667	1583.867188	525.614380
10588.826596	5127.311667	1582.824219	560.645874
10588.826596	5127.311667	1581.781250	575.051514
10588.826596	5127.311667	1580.737305	589.452820
10588.826596	5127.311667	1579.693359	610.724426
10588.826596	5127.311667	1578.649414	583.913513
10588.826596	5127.311667	1577.605469	426.643005
10588.826596	5127.311667	1576.561523	457.108429
10588.826596	5127.311667	1575.516602	505.869965
10588.826596	5127.311667	1574.472656	437.950378
10588.826596	5127.311667	1573.427734	413.519409
10588.826596	5127.311667	1572.381836	498.869446
10588.826596	5127.311667	1571.336914	529.326355
10588.826596	5127.311667	1570.291016	438.620514
10588.826596	5127.311667	1569.246094	475.951813
10588.826596	5127.311667	1568.200195	458.432037
10588.826596	5127.311667	1567.153320	463.770538
10588.826596	5127.311667	1566.107422	455.416626
10588.826596	5127.311667	1565.060547	332.887421
10588.826596	5127.311667	1564.013672	479.840088
10588.826596	5127.311667	1562.966797	382.486877
10588.826596	5127.311667	1561.919922	527.112244
10588.826596	5127.311667	1560.872070	429.806274
10588.826596	5127.311667	1559.825195	531.042053
10588.826596	5127.311667	1558.777344	559.253418
10588.826596	5127.311667	1557.729492	592.027039
10588.826596	5127.311667	1556.680664	474.309631
10588.826596	5127.311667	1555.632813	504.833862
10588.826596	5127.311667	1554.583984	471.537537
10588.826596	5127.311667	1553.535156	559.042542
10588.826596	5127.311667	1552.486328	698.928772
10588.826596	5127.311667	1551.436523	531.257690
10588.826596	5127.311667	1550.387695	495.761749
10588.826596	5127.311667	1549.337891	492.168518
10588.826596	5127.311667	1548.288086	550.058350
10588.826596	5127.311667	1547.238281	617.045166
10588.826596	5127.311667	1546.187500	488.313171
10588.826596	5127.311667	1545.136719	416.527924
10588.826596	5127.311667	1544.086914	649.605591
10588.826596	5127.311667	1543.035156	639.252136
10588.826596	5127.311667	1541.984375	476.576599
10588.826596	5127.311667	1540.933594	661.810913
10588.826596	5127.311667	1539.881836	492.407776
10588.826596	5127.311667	1538.830078	541.248108
10588.826596	5127.311667	1537.778320	508.294586
10588.826596	5127.311667	1536.725586	679.811462
10588.826596	5127.311667	1535.673828	635.525452
10588.826596	5127.311667	1534.621094	657.122131
10588.826596	5127.311667	1533.568359	692.351318
10588.826596	5127.311667	1532.515625	754.823730
10588.826596	5127.311667	1531.461914	751.476624
10588.826596	5127.311667	1530.409180	591.600830
10588.826596	5127.311667	1529.355469	522.542725
10588.826596	5127.311667	1528.301758	566.933594
10588.826596	5127.311667	1527.247070	595.451416
10588.826596	5127.311667	1526.193359	383.669128
10588.826596	5127.311667	1525.138672	455.321991
10588.826596	5127.311667	1524.083984	316.210480
10588.826596	5127.311667	1523.029297	197.567825
10588.826596	5127.311667	1521.974609	341.772675
10588.826596	5127.311667	1520.918945	293.425018
10588.826596	5127.311667	1519.863281	322.110016
10588.826596	5127.311667	1518.807617	314.583771
10588.826596	5127.311667	1517.751953	119.211227
10588.826596	5127.311667	1516.696289	145.722183
10588.826596	5127.311667	1515.639648	208.445267
10588.826596	5127.311667	1514.583008	320.936157
10588.826596	5127.311667	1513.526367	164.260544
10588.826596	5127.311667	1512.469727	272.242889
10588.826596	5127.311667	1511.412109	77.251450
10588.826596	5127.311667	1510.355469	158.134888
10588.826596	5127.311667	1509.297852	220.928879
10588.826596	5127.311667	1508.240234	261.128876
10588.826596	5127.311667	1507.181641	177.088165
10588.826596	5127.311667	1506.124023	169.903656
10588.826596	5127.311667	1505.065430	126.614677
10588.826596	5127.311667	1504.006836	58.534931
10588.826596	5127.311667	1502.948242	146.261322
10588.826596	5127.311667	1501.888672	175.299576
10588.826596	5127.311667	1500.830078	208.869888
10588.826596	5127.311667	1499.770508	120.632927
10588.826596	5127.311667	1498.710938	199.363678
10588.826596	5127.311667	1497.650391	237.498154
10588.826596	5127.311667	1496.590820	167.429642
10588.826596	5127.311667	1495.530273	61.349312
10588.826596	5127.311667	1494.469727	142.395798
10588.826596	5127.311667	1493.409180	79.232391
10588.826596	5127.311667	1492.348633	218.874435
10588.826596	5127.311667	1491.287109	72.441673
10588.826596	5127.311667	1490.225586	189.567749
10588.826596	5127.311667	1489.164063	160.334396
10588.826596	5127.311667	1488.102539	198.672470
10588.826596	5127.311667	1487.041016	147.005020
10588.826596	5127.311667	1485.978516	138.137970
10588.826596	5127.311667	1484.916016	118.063187
10588.826596	5127.311667	1483.853516	86.771095
10588.826596	5127.311667	1482.791016	170.214020
10588.826596	5127.311667	1481.727539	46.813740
10588.826596	5127.311667	1480.664063	-72.002480
10588.826596	5127.311667	1479.600586	58.717701
10588.826596	5127.311667	1478.537109	86.069168
10588.826596	5127.311667	1477.473633	106.685394
10588.826596	5127.311667	1476.409180	-65.791000
10588.826596	5127.311667	1475.344727	136.769730
10588.826596	5127.311667	1474.280273	110.413162
10588.826596	5127.311667	1473.215820	-91.036812
10588.826596	5127.311667	1472.151367	75.646027
10588.826596	5127.311667	1471.085938	31.445759
10588.826596	5127.311667	1470.020508	-91.188698
10588.826596	5127.311667	1468.955078	-83.686890
10588.826596	5127.311667	1467.888672	17.844526
10588.826596	5127.311667	1466.823242	-129.179489
10588.826596	5127.311667	1465.756836	53.328407
10588.826596	5127.311667	1464.690430	-15.245054
10588.826596	5127.311667	1463.624023	34.926922
10588.826596	5127.311667	1462.556641	9.201693
10588.826596	5127.311667	1461.490234	-5.669702
10588.826596	5127.311667	1460.422852	113.744644
10588.826596	5127.311667	1459.355469	146.158905
10588.826596	5127.311667	1458.287109	-55.892162
10588.826596	5127.311667	1457.219727	50.456429
10588.826596	5127.311667	1456.151367	48.708633
10588.826596	5127.311667	1455.083008	-66.160774
10588.826596	5127.311667	1454.014648	53.528008
10588.826596	5127.311667	1452.945313	49.988583
10588.826596	5127.311667	1451.876953	11.179348
10588.826596	5127.311667	1450.807617	-20.998444
10588.826596	5127.311667	1449.738281	27.701281
10588.826596	5127.311667	1448.668945	151.399231
10588.826596	5127.311667	1447.598633	130.166580
10588.826596	5127.311667	1446.528320	175.386017
10588.826596	5127.311667	1445.458008	190.572266
10588.826596	5127.311667	1444.387695	199.127777
10588.826596	5127.311667	1443.317383	146.968140
10588.826596	5127.311667	1442.246094	227.557297
10588.826596	5127.311667	1441.174805	358.614624
10588.826596	5127.311667	1440.103516	226.135849
10588.826596	5127.311667	1439.032227	156.586823
10588.826596	5127.311667	1437.960938	163.006180
10588.826596	5127.311667	1436.888672	292.624634
10588.826596	5127.311667	1435.816406	115.946564
10588.826596	5127.311667	1434.744141	86.421219
10588.826596	5127.311667	1433.670898	7.574320
10588.826596	5127.311667	1432.598633	175.649567
10588.826596	5127.311667	1431.525391	-43.498909
10588.826596	5127.311667	1430.452148	-28.426994
10588.826596	5127.311667	1429.378906	65.311646
10588.826596	5127.311667	1428.304688	-28.824493
10588.826596	5127.311667	1427.231445	119.249214
10588.826596	5127.311667	1426.157227	79.502975
10588.826596	5127.311667	1425.083008	40.927582
10588.826596	5127.311667	1424.007813	33.912811
10588.826596	5127.311667	1422.933594	-66.097633
10588.826596	5127.311667	1421.858398	184.884308
10588.826596	5127.311667	1420.783203	-64.814293
10588.826596	5127.311667	1419.708008	-52.629959
10588.826596	5127.311667	1418.631836	78.132439
10588.826596	5127.311667	1417.555664	26.380419
10588.826596	5127.311667	1416.479492	-29.213171
10588.826596	5127.311667	1415.403320	-14.672736
10588.826596	5127.311667	1414.327148	63.602310
10588.826596	5127.311667	1413.250000	23.422001
10588.826596	5127.311667	1412.173828	-36.998257
10588.826596	5127.311667	1411.096680	-44.850372
10588.826596	5127.311667	1410.018555	-9.154753
10588.826596	5127.311667	1408.941406	-54.363220
10588.826596	5127.311667	1407.863281	-33.685043
10588.826596	5127.311667	1406.785156	-16.624729
10588.826596	5127.311667	1405.707031	-41.747246
10588.826596	5127.311667	1404.628906	37.531853
10588.826596	5127.311667	1403.549805	7.963826
10588.826596	5127.311667	1402.470703	59.328674
10588.826596	5127.311667	1401.391602	-60.453712
10588.826596	5127.311667	1400.312500	28.817797
10588.826596	5127.311667	1399.233398	-48.475983
10588.826596	5127.311667	1398.153320	165.415894
10588.826596	5127.311667	1397.073242	85.517349
10588.826596	5127.311667	1395.993164	5.171132
10588.826596	5127.311667	1394.913086	53.869854
10588.826596	5127.311667	1393.832031	-9.653488
10588.826596	5127.311667	1392.750977	76.011620
10588.826596	5127.311667	1391.669922	24.206423
10588.826596	5127.311667	1390.588867	107.704781
10588.826596	5127.311667	1389.506836	27.728592
10588.826596	5127.311667	1388.425781	140.269424
10588.826596	5127.311667	1387.343750	23.274124
10588.826596	5127.311667	1386.261719	168.525024
10588.826596	5127.311667	1385.178711	149.308609
10588.826596	5127.311667	1384.096680	184.569275
10588.826596	5127.311667	1383.013672	49.150620
10588.826596	5127.311667	1381.930664	-18.289682
10588.826596	5127.311667	1380.846680	55.882156
10588.826596	5127.311667	1379.763672	-66.635864
10588.826596	5127.311667	1378.679688	115.568481
10588.826596	5127.311667	1377.595703	-5.653430
10588.826596	5127.311667	1376.511719	-2.716749
10588.826596	5127.311667	1375.427734	-85.056152
10588.826596	5127.311667	1374.342773	145.039490
10588.826596	5127.311667	1373.257813	-10.420884
10588.826596	5127.311667	1372.172852	-32.591698
10588.826596	5127.311667	1371.087891	13.104576
10588.826596	5127.311667	1370.001953	-8.980188
10588.826596	5127.311667	1368.916992	20.905973
10588.826596	5127.311667	1367.831055	59.357597
10588.826596	5127.311667	1366.744141	22.548967
10588.826596	5127.311667	1365.658203	-14.794531
10588.826596	5127.311667	1364.571289	-143.040085
10588.826596	5127.311667	1363.484375	62.672962
10588.826596	5127.311667	1362.397461	104.399635
10588.826596	5127.311667	1361.310547	61.500153
10588.826596	5127.311667	1360.222656	88.725586
10588.826596	5127.311667	1359.135742	110.633911
10588.826596	5127.311667	1358.047852	112.495544
10588.826596	5127.311667	1356.958984	-47.978645
10588.826596	5127.311667	1355.871094	101.498604
10588.826596	5127.311667	1354.782227	117.397110
10588.826596	5127.311667	1353.693359	164.098679
10588.826596	5127.311667	1352.604492	225.450790
10588.826596	5127.311667	1351.515625	263.347839
10588.826596	5127.311667	1350.425781	101.505013
10588.826596	5127.311667	1349.335938	147.470016
10588.826596	5127.311667	1348.246094	100.856438
10588.826596	5127.311667	1347.156250	192.482452
10588.826596	5127.311667	1346.066406	191.616928
10588.826596	5127.311667	1344.975586	231.201782
10588.826596	5127.311667	1343.884766	207.996948
10588.826596	5127.311667	1342.793945	239.731720
10588.826596	5127.311667	1341.702148	135.182098
10588.826596	5127.311667	1340.611328	328.710571
10588.826596	5127.311667	1339.519531	160.530014
10588.826596	5127.311667	1338.427734	195.254166
10588.826596	5127.311667	1337.334961	259.245544
10588.826596	5127.311667	1336.243164	361.066650
10588.826596	5127.311667	1335.150391	204.263992
10588.826596	5127.311667	1334.057617	212.972733
10588.826596	5127.311667	1332.964844	224.258545
10588.826596	5127.311667	1331.871094	200.381104
10588.826596	5127.311667	1330.778320	183.834152
10588.826596	5127.311667	1329.684570	188.435089
10588.826596	5127.311667	1328.590820	93.542969
10588.826596	5127.311667	1327.496094	77.879463
10588.826596	5127.311667	1326.402344	75.937607
10588.826596	5127.311667	1325.307617	31.175148
10588.826596	5127.311667	1324.212891	304.545258
10588.826596	5127.311667	1323.117188	156.769226
10588.826596	5127.311667	1322.022461	68.247070
10588.826596	5127.311667	1320.926758	207.948975
10588.826596	5127.311667	1319.831055	12.727877
10588.826596	5127.311667	1318.735352	84.423393
10588.826596	5127.311667	1317.638672	93.957130
10588.826596	5127.311667	1316.542969	-9.747731
10588.826596	5127.311667	1315.446289	-57.031311
10588.826596	5127.311667	1314.349609	-3.776638
10588.826596	5127.311667	1313.251953	-87.746086
10588.826596	5127.311667	1312.155273	-48.557720
10588.826596	5127.311667	1311.057617	-30.199394
10588.826596	5127.311667	1309.959961	-9.640190
10588.826596	5127.311667	1308.862305	25.422369
10588.826596	5127.311667	1307.763672	-12.149467
10588.826596	5127.311667	1306.665039	-8.493802
10588.826596	5127.311667	1305.566406	-82.885803
10588.826596	5127.311667	1304.467773	-72.948776
10588.826596	5127.311667	1303.369141	-74.077026
10588.826596	5127.311667	1302.269531	14.113290
10588.826596	5127.311667	1301.169922	-76.947708
10588.826596	5127.311667	1300.070313	-109.651886
10588.826596	5127.311667	1298.970703	4.163574
10588.826596	5127.311667	1297.870117	-102.429901
10588.826596	5127.311667	1296.769531	-58.181492
10588.826596	5127.311667	1295.668945	-61.335609
10588.826596	5127.311667	1294.568359	1.809131
10588.826596	5127.311667	1293.466797	-10.806618
10588.826596	5127.311667	1292.366211	118.045372
10588.826596	5127.311667	1291.264648	142.820923
10588.826596	5127.311667	1290.162109	-3.290717
10588.826596	5127.311667	1289.060547	78.004936
10588.826596	5127.311667	1287.958008	-7.386935
10588.826596	5127.311667	1286.855469	82.054779
10588.826596	5127.311667	1285.752930	89.527054
10588.826596	5127.311667	1284.650391	79.159004
10588.826596	5127.311667	1283.546875	76.374367
10588.826596	5127.311667	1282.444336	41.623642
10588.826596	5127.311667	1281.339844	28.314905
10588.826596	5127.311667	1280.236328	235.748962
10588.826596	5127.311667	1279.132813	177.384735
10588.826596	5127.311667	1278.028320	102.078659
10588.826596	5127.311667	1276.923828	192.151474
10588.826596	5127.311667	1275.819336	71.017906
10588.826596	5127.311667	1274.713867	107.472946
10588.826596	5127.311667	1273.608398	-18.780413
10588.826596	5127.311667	1272.503906	59.260563
10588.826596	5127.311667	1271.397461	116.903358
10588.826596	5127.311667	1270.291992	53.390186
10588.826596	5127.311667	1269.185547	56.208855
10588.826596	5127.311667	1268.080078	162.309387
10588.826596	5127.311667	1266.972656	66.788521
10588.826596	5127.311667	1265.866211	-0.566321
10588.826596	5127.311667	1264.759766	75.001831
10588.826596	5127.311667	1263.652344	-3.404274
10588.826596	5127.311667	1262.544922	31.233616
10588.826596	5127.311667	1261.436523	61.997761
10588.826596	5127.311667	1260.329102	-33.787033
10588.826596	5127.311667	1259.220703	-124.838737
10588.826596	5127.311667	1258.112305	-55.769039
10588.826596	5127.311667	1257.003906	-152.711548
10588.826596	5127.311667	1255.895508	-53.388741
10588.826596	5127.311667	1254.786133	-122.707542
10588.826596	5127.311667	1253.676758	-243.256744
10588.826596	5127.311667	1252.567383	-217.635773
10588.826596	5127.311667	1251.458008	-251.821030
10588.826596	5127.311667	1250.347656	-142.523071
10588.826596	5127.311667	1249.237305	-49.358120
10588.826596	5127.311667	1248.126953	-188.512985
10588.826596	5127.311667	1247.016602	-49.388393
10588.826596	5127.311667	1245.905273	-62.608440
10588.826596	5127.311667	1244.793945	-48.825020
10588.826596	5127.311667	1243.682617	-58.088730
10588.826596	5127.311667	1242.571289	-2.603010
10588.826596	5127.311667	1241.459961	-118.857437
10588.826596	5127.311667	1240.347656	-12.535640
10588.826596	5127.311667	1239.235352	22.325188
10588.826596	5127.311667	1238.123047	-13.480342
10588.826596	5127.311667	1237.009766	-34.403419
10588.826596	5127.311667	1235.897461	-16.174921
10588.826596	5127.311667	1234.784180	-25.985481
10588.826596	5127.311667	1233.670898	-9.083751
10588.826596	5127.311667	1232.556641	98.798347
10588.826596	5127.311667	1231.443359	152.372253
10588.826596	5127.311667	1230.329102	148.156387
10588.826596	5127.311667	1229.214844	113.578827
10588.826596	5127.311667	1228.099609	185.679642
10588.826596	5127.311667	1226.985352	198.451477
10588.826596	5127.311667	1225.870117	261.397644
10588.826596	5127.311667	1224.754883	267.724060
10588.826596	5127.311667	1223.639648	278.554901
10588.826596	5127.311667	1222.523438	234.849731
10588.826596	5127.311667	1221.408203	276.522980
10588.826596	5127.311667	1220.291992	357.510193
10588.826596	5127.311667	1219.174805	202.515656
10588.826596	5127.311667	1218.058594	238.616882
10588.826596	5127.311667	1216.941406	253.746490
10588.826596	5127.311667	1215.824219	225.422821
10588.826596	5127.311667	1214.707031	252.441467
10588.826596	5127.311667	1213.589844	288.425690
10588.826596	5127.311667	1212.471680	168.620163
10588.826596	5127.311667	1211.353516	196.843567
10588.826596	5127.311667	1210.235352	72.846062
10588.826596	5127.311667	1209.117188	131.574142
10588.826596	5127.311667	1207.998047	64.054268
10588.826596	5127.311667	1206.878906	177.794037
10588.826596	5127.311667	1205.759766	107.388870
10588.826596	5127.311667	1204.640625	148.983459
10588.826596	5127.311667	1203.520508	140.553543
10588.826596	5127.311667	1202.401367	73.094063
10588.826596	5127.311667	1201.281250	112.694916
10588.826596	5127.311667	1200.160156	197.226425
10588.826596	5127.311667	1199.040039	119.651314
10588.826596	5127.311667	1197.918945	170.310959
10588.826596	5127.311667	1196.797852	56.673889
10588.826596	5127.311667	1195.676758	30.766178
10588.826596	5127.311667	1194.555664	84.509415
10588.826596	5127.311667	1193.433594	22.838297
10588.826596	5127.311667	1192.311523	56.103683
10588.826596	5127.311667	1191.189453	67.159782
10588.826596	5127.311667	1190.066406	8.603883
10588.826596	5127.311667	1188.944336	-54.299477
10588.826596	5127.311667	1187.821289	56.966339
10588.826596	5127.311667	1186.698242	104.856216
10588.826596	5127.311667	1185.574219	60.320946
10588.826596	5127.311667	1184.451172	4.529398
10588.826596	5127.311667	1183.327148	-81.146835
10588.826596	5127.311667	1182.203125	-8.971110
10588.826596	5127.311667	1181.078125	-33.645962
10588.826596	5127.311667	1179.954102	56.754349
10588.826596	5127.311667	1178.829102	17.956858
10588.826596	5127.311667	1177.704102	61.043446
10588.826596	5127.311667	1176.579102	34.508968
10588.826596	5127.311667	1175.453125	26.898426
10588.826596	5127.311667	1174.327148	116.953392
10588.826596	5127.311667	1173.201172	62.025169
10588.826596	5127.311667	1172.075195	58.545628
10588.826596	5127.311667	1170.949219	111.619987
10588.826596	5127.311667	1169.822266	75.915291
10588.826596	5127.311667	1168.695313	32.430481
10588.826596	5127.311667	1167.568359	-82.302963
10588.826596	5127.311667	1166.440430	50.320480
10588.826596	5127.311667	1165.313477	-11.746415
10588.826596	5127.311667	1164.185547	124.329689
10588.826596	5127.311667	1163.057617	124.968666
10588.826596	5127.311667	1161.928711	123.134895
10588.826596	5127.311667	1160.800781	142.427231
10588.826596	5127.311667	1159.671875	110.429916
10588.826596	5127.311667	1158.541992	208.599228
10588.826596	5127.311667	1157.413086	153.513596
10588.826596	5127.311667	1156.283203	198.526230
10588.826596	5127.311667	1155.154297	215.276642
10588.826596	5127.311667	1154.023438	280.439026
10588.826596	5127.311667	1152.893555	188.923187
10588.826596	5127.311667	1151.763672	233.819931
10588.826596	5127.311667	1150.632813	193.211746
10588.826596	5127.311667	1149.501953	211.368713
10588.826596	5127.311667	1148.370117	183.355713
10588.826596	5127.311667	1147.239258	205.690796
10588.826596	5127.311667	1146.107422	236.288086
10588.826596	5127.311667	1144.975586	195.628189
10588.826596	5127.311667	1143.843750	247.473099
10588.826596	5127.311667	1142.710938	236.324188
10588.826596	5127.311667	1141.578125	155.848602
10588.826596	5127.311667	1140.445313	241.899689
10588.826596	5127.311667	1139.312500	224.057785
10588.826596	5127.311667	1138.178711	261.221191
10588.826596	5127.311667	1137.045898	122.453133
10588.826596	5127.311667	1135.912109	129.477554
10588.826596	5127.311667	1134.777344	192.596024
10588.826596	5127.311667	1133.643555	85.696526
10588.826596	5127.311667	1132.508789	130.295456
10588.826596	5127.311667	1131.374023	100.702225
10588.826596	5127.311667	1130.239258	118.959618
10588.826596	5127.311667	1129.104492	100.345787
10588.826596	5127.311667	1127.968750	87.696899
10588.826596	5127.311667	1126.833008	122.580231
10588.826596	5127.311667	1125.697266	41.707531
10588.826596	5127.311667	1124.560547	0.394918
10588.826596	5127.311667	1123.424805	55.541889
10588.826596	5127.311667	1122.288086	132.926331
10588.826596	5127.311667	1121.151367	-19.321392
10588.826596	5127.311667	1120.013672	-96.807594
10588.826596	5127.311667	1118.876953	-15.268382
10588.826596	5127.311667	1117.739258	-50.750195
10588.826596	5127.311667	1116.601563	-5.252005
10588.826596	5127.311667	1115.462891	-21.783968
10588.826596	5127.311667	1114.324219	-33.194637
10588.826596	5127.311667	1113.186523	4.945328
10588.826596	5127.311667	1112.046875	53.246296
10588.826596	5127.311667	1110.908203	79.169418
10588.826596	5127.311667	1109.769531	-131.102615
10588.826596	5127.311667	1108.629883	78.549385
10588.826596	5127.311667	1107.490234	75.090927
10588.826596	5127.311667	1106.349609	-0.532192
10588.826596	5127.311667	1105.209961	78.731422
10588.826596	5127.311667	1104.069336	62.106979
10588.826596	5127.311667	1102.928711	-36.091297
10588.826596	5127.311667	1101.787109	72.252747
10588.826596	5127.311667	1100.646484	2.495340
10588.826596	5127.311667	1099.504883	199.300034
10588.826596	5127.311667	1098.363281	145.427429
10588.826596	5127.311667	1097.221680	21.375486
10588.826596	5127.311667	1096.079102	182.643082
10588.826596	5127.311667	1094.936523	108.979179
10588.826596	5127.311667	1093.793945	182.921265
10588.826596	5127.311667	1092.651367	126.452171
10588.826596	5127.311667	1091.507813	3.931106
10588.826596	5127.311667	1090.364258	-17.986681
10588.826596	5127.311667	1089.220703	60.313488
10588.826596	5127.311667	1088.077148	118.662598
10588.826596	5127.311667	1086.933594	41.018585
10588.826596	5127.311667	1085.789063	-118.888817
10588.826596	5127.311667	1084.644531	24.822794
10588.826596	5127.311667	1083.499023	124.818672
10588.826596	5127.311667	1082.354492	-28.187914
10588.826596	5127.311667	1081.208984	50.000751
10588.826596	5127.311667	1080.063477	9.670489
10588.826596	5127.311667	1078.917969	73.222618
10588.826596	5127.311667	1077.771484	-15.116655
10588.826596	5127.311667	1076.625977	25.846107
10588.826596	5127.311667	1075.479492	-12.615366
10588.826596	5127.311667	1074.332031	-42.742863
10588.826596	5127.311667	1073.185547	58.991650
10588.826596	5127.311667	1072.038086	0.295389
10588.826596	5127.311667	1070.890625	-13.246827
10588.826596	5127.311667	1069.743164	9.254625
10588.826596	5127.311667	1068.594727	-16.339405
10588.826596	5127.311667	1067.447266	-64.842003
10588.826596	5127.311667	1066.298828	-80.408409
10588.826596	5127.311667	1065.149414	33.661491
10588.826596	5127.311667	1064.000977	39.473202
10588.826596	5127.311667	1062.851563	110.458282
10588.826596	5127.311667	1061.702148	29.801327
10588.826596	5127.311667	1060.552734	14.084853
10588.826596	5127.311667	1059.402344	-103.512543
10588.826596	5127.311667	1058.252930	100.337982
10588.826596	5127.311667	1057.102539	3.227964
10588.826596	5127.311667	1055.951172	78.225243
10588.826596	5127.311667	1054.800781	72.972244
10588.826596	5127.311667	1053.649414	-15.532357
10588.826596	5127.311667	1052.498047	-2.193640
10588.826596	5127.311667	1051.346680	44.683731
10588.826596	5127.311667	1050.194336	55.234768
10588.826596	5127.311667	1049.042969	85.374557
10588.826596	5127.311667	1047.890625	39.937065
10588.826596	5127.311667	1046.738281	36.678928
10588.826596	5127.311667	1045.584961	75.181885
10588.826596	5127.311667	1044.431641	138.065887
10588.826596	5127.311667	1043.278320	135.502380
10588.826596	5127.311667	1042.125000	60.700882
10588.826596	5127.311667	1040.971680	-4.966996
10588.826596	5127.311667	1039.817383	75.014496
10588.826596	5127.311667	1038.663086	100.838669
10588.826596	5127.311667	1037.508789	161.349823
10588.826596	5127.311667	1036.353516	131.996246
10588.826596	5127.311667	1035.198242	152.262833
10588.826596	5127.311667	1034.042969	80.945549
10588.826596	5127.311667	1032.887695	63.420918
10588.826596	5127.311667	1031.732422	105.466835
10588.826596	5127.311667	1030.576172	85.834763
10588.826596	5127.311667	1029.419922	153.852936
10588.826596	5127.311667	1028.263672	182.279739
10588.826596	5127.311667	1027.106445	119.533577
10588.826596	5127.311667	1025.949219	150.592163
10588.826596	5127.311667	1024.792969	67.610519
10588.826596	5127.311667	1023.634766	20.363644
10588.826596	5127.311667	1022.477539	157.402893
10588.826596	5127.311667	1021.319336	106.203064
10588.826596	5127.311667	1020.161133	25.008099
10588.826596	5127.311667	1019.002930	-5.043242
10588.826596	5127.311667	1017.843750	67.006882
10588.826596	5127.311667	1016.684570	-61.162003
10588.826596	5127.311667	1015.525391	-28.253405
10588.826596	5127.311667	1014.366211	-42.384895
10588.826596	5127.311667	1013.207031	-20.162815
10588.826596	5127.311667	1012.046875	-32.012695
10588.826596	5127.311667	1010.886719	52.339813
10588.826596	5127.311667	1009.726563	-84.276558
10588.826596	5127.311667	1008.565430	27.175987
10588.826596	5127.311667	1007.404297	40.233093
10588.826596	5127.311667	1006.243164	23.473974
10588.826596	5127.311667	1005.082031	64.304031
10588.826596	5127.311667	1003.920898	70.366447
10588.826596	5127.311667	1002.758789	134.322006
10588.826596	5127.311667	1001.596680	-7.025002
10588.826596	5127.311667	1000.433594	109.650230
10588.826596	5127.311667	999.271484	41.112999
10588.826596	5127.311667	998.108398	-28.507227
10588.826596	5127.311667	996.945313	-51.017422
10588.826596	5127.311667	995.782227	171.428741
10588.826596	5127.311667	994.618164	99.999779
10588.826596	5127.311667	993.454102	268.158752
10588.826596	5127.311667	992.290039	263.947357
10588.826596	5127.311667	991.125977	170.297318
10588.826596	5127.311667	989.960938	212.962570
10588.826596	5127.311667	988.796875	267.951355
10588.826596	5127.311667	987.630859	345.689117
10588.826596	5127.311667	986.465820	317.283905
10588.826596	5127.311667	985.300781	216.535019
10588.826596	5127.311667	984.134766	241.021027
10588.826596	5127.311667	982.968750	218.320374
10588.826596	5127.311667	981.801758	231.969604
10588.826596	5127.311667	980.635742	66.544556
10588.826596	5127.311667	979.468750	105.581978
10588.826596	5127.311667	978.301758	175.675064
10588.826596	5127.311667	977.133789	215.919357
10588.826596	5127.311667	975.966797	45.636909
10588.826596	5127.311667	974.798828	5.516238
10588.826596	5127.311667	973.630859	95.961121
10588.826596	5127.311667	972.461914	-74.071587
10588.826596	5127.311667	971.293945	-18.937975
10588.826596	5127.311667	970.125000	140.830170
10588.826596	5127.311667	968.956055	-49.651894
10588.826596	5127.311667	967.786133	150.610733
10588.826596	5127.311667	966.617188	-13.274561
10588.826596	5127.311667	965.447266	-39.768364
10588.826596	5127.311667	964.276367	-120.651299
10588.826596	5127.311667	963.106445	-51.461414
10588.826596	5127.311667	961.935547	65.798157
10588.826596	5127.311667	960.764648	60.473240
10588.826596	5127.311667	959.593750	-10.597617
10588.826596	5127.311667	958.422852	-89.359550
10588.826596	5127.311667	957.250977	5.248649
10588.826596	5127.311667	956.079102	-30.505281
10588.826596	5127.311667	954.907227	-8.724190
10588.826596	5127.311667	953.734375	-218.875214
10588.826596	5127.311667	952.562500	8.064334
10588.826596	5127.311667	951.389648	3.037924
10588.826596	5127.311667	950.215820	-10.845410
10588.826596	5127.311667	949.042969	98.587975
10588.826596	5127.311667	947.869141	44.103737
10588.826596	5127.311667	946.695313	-46.449722
10588.826596	5127.311667	945.521484	-22.884731
10588.826596	5127.311667	944.346680	-70.447311
10588.826596	5127.311667	943.172852	-22.752783
10588.826596	5127.311667	941.998047	-20.471617
10588.826596	5127.311667	940.822266	15.349962
10588.826596	5127.311667	939.647461	51.043945
10588.826596	5127.311667	938.471680	-56.369755
10588.826596	5127.311667	937.295898	-3.888373
10588.826596	5127.311667	936.119141	-154.459656
10588.826596	5127.311667	934.943359	-49.490799
10588.826596	5127.311667	933.766602	105.566856
10588.826596	5127.311667	932.589844	26.715612
10588.826596	5127.311667	931.413086	124.434654
10588.826596	5127.311667	930.235352	236.332352
10588.826596	5127.311667	929.057617	26.368069
10588.826596	5127.311667	927.879883	57.216782
10588.826596	5127.311667	926.702148	2.238536
10588.826596	5127.311667	925.523438	147.495773
10588.826596	5127.311667	924.344727	44.844364
10588.826596	5127.311667	923.166016	89.955872
10588.826596	5127.311667	921.987305	192.212799
10588.826596	5127.311667	920.807617	56.245426
10588.826596	5127.311667	919.627930	57.109356
10588.826596	5127.311667	919.497070	65.683769
10588.826596	5127.311667	918.331055	105.957405
10588.826596	5127.311667	917.165039	89.077995
10588.826596	5127.311667	915.999023	-3.959164
10588.826596	5127.311667	914.833008	98.150284
10588.826596	5127.311667	913.666016	-23.409710
10588.826596	5127.311667	912.499023	-64.058128
10588.826596	5127.311667	911.332031	-244.997452
10588.826596	5127.311667	910.165039	42.501015
10588.826596	5127.311667	908.997070	11.356050
10588.826596	5127.311667	907.830078	-36.418385
10588.826596	5127.311667	906.661133	-3.390945
10588.826596	5127.311667	905.493164	8.236835
10588.826596	5127.311667	904.325195	-82.273972
10588.826596	5127.311667	903.156250	-113.386436
10588.826596	5127.311667	901.987305	-44.777328
10588.826596	5127.311667	900.818359	-142.356155
10588.826596	5127.311667	899.648438	-71.404373
10588.826596	5127.311667	898.478516	-138.100693
10588.826596	5127.311667	897.308594	-79.047485
10588.826596	5127.311667	896.138672	-29.509283
10588.826596	5127.311667	894.968750	-86.700279
10588.826596	5127.311667	893.797852	-75.119232
10588.826596	5127.311667	892.626953	-46.954121
10588.826596	5127.311667	891.456055	-59.090546
10588.826596	5127.311667	890.284180	-78.331963
10588.826596	5127.311667	889.113281	35.083729
10588.826596	5127.311667	887.941406	56.086098
10588.826596	5127.311667	886.768555	-10.532242
10588.826596	5127.311667	885.596680	105.159752
10588.826596	5127.311667	884.423828	-11.150543
10588.826596	5127.311667	883.250977	26.399181
10588.826596	5127.311667	882.078125	11.881320
10588.826596	5127.311667	880.905273	54.137791
10588.826596	5127.311667	879.731445	63.265987
10588.826596	5127.311667	878.557617	79.482224
10588.826596	5127.311667	877.383789	-27.236322
10588.826596	5127.311667	876.209961	-46.464252
10588.826596	5127.311667	875.035156	97.362129
10588.826596	5127.311667	873.860352	19.051411
10588.826596	5127.311667	872.685547	-61.591114
10588.826596	5127.311667	871.510742	23.107512
10588.826596	5127.311667	870.334961	133.742203
10588.826596	5127.311667	869.159180	12.993156
10588.826596	5127.311667	867.983398	26.818460
10588.826596	5127.311667	866.807617	127.943314
10588.826596	5127.311667	865.630859	-23.401136
10588.826596	5127.311667	864.454102	44.670353
10588.826596	5127.311667	863.277344	-50.000328
10588.826596	5127.311667	862.100586	168.939926
10588.826596	5127.311667	860.922852	161.498627
10588.826596	5127.311667	859.745117	-46.260773
10588.826596	5127.311667	858.567383	130.131042
10588.826596	5127.311667	857.389648	-70.469887
10588.826596	5127.311667	856.210938	9.288642
10588.826596	5127.311667	855.032227	8.952024
10588.826596	5127.311667	853.853516	41.575500
10588.826596	5127.311667	852.674805	-29.381886
10588.826596	5127.311667	851.495117	-25.002985
10588.826596	5127.311667	850.315430	47.606701
10588.826596	5127.311667	849.135742	-39.773483
10588.826596	5127.311667	847.956055	185.682693
10588.826596	5127.311667	846.775391	142.987076
10588.826596	5127.311667	845.595703	29.782129
10588.826596	5127.311667	844.415039	-24.615046
10588.826596	5127.311667	843.233398	-90.738579
10588.826596	5127.311667	842.052734	103.956299
10588.826596	5127.311667	840.871094	49.580162
10588.826596	5127.311667	839.689453	122.045540
10588.826596	5127.311667	838.506836	-26.231422
10588.826596	5127.311667	837.325195	32.135818
10588.826596	5127.311667	836.142578	-5.748513
10588.826596	5127.311667	834.959961	-20.151102
10588.826596	5127.311667	833.777344	31.142912
10588.826596	5127.311667	832.593750	37.851414
10588.826596	5127.311667	831.410156	-44.557430
10588.826596	5127.311667	830.226563	53.605839
10588.826596	5127.311667	829.042969	-17.049400
10588.826596	5127.311667	827.858398	-82.987404
10588.826596	5127.311667	826.673828	-38.767365
10588.826596	5127.311667	825.489258	14.805538
10588.826596	5127.311667	824.304688	42.593102
10588.826596	5127.311667	823.120117	-20.957909
10588.826596	5127.311667	821.934570	-39.997795
10588.826596	5127.311667	820.749023	15.875164
10588.826596	5127.311667	819.562500	134.914474
10588.826596	5127.311667	818.376953	-12.833240
10588.826596	5127.311667	817.190430	-71.624626
10588.826596	5127.311667	816.003906	66.071419
10588.826596	5127.311667	814.817383	30.672819
10588.826596	5127.311667	813.629883	-39.778851
10588.826596	5127.311667	812.442383	118.864204
10588.826596	5127.311667	811.254883	-54.399536
10588.826596	5127.311667	810.067383	59.788761
10588.826596	5127.311667	808.878906	96.845169
10588.826596	5127.311667	807.690430	63.822243
10588.826596	5127.311667	806.501953	12.133008
10588.826596	5127.311667	805.313477	21.162649
10588.826596	5127.311667	804.124023	74.534737
10588.826596	5127.311667	802.934570	-14.460380
10588.826596	5127.311667	801.745117	24.898891
10588.826596	5127.311667	800.555664	-59.384602
10588.826596	5127.311667	799.365234	-106.319618
10588.826596	5127.311667	798.175781	-69.298569
10588.826596	5127.311667	796.985352	81.931610
10588.826596	5127.311667	795.793945	-16.278593
10588.826596	5127.311667	794.603516	83.613464
10588.826596	5127.311667	793.412109	43.683586
10588.826596	5127.311667	792.220703	20.074131
10588.826596	5127.311667	791.028320	17.432068
10588.826596	5127.311667	789.836914	75.322495
10588.826596	5127.311667	788.644531	-113.551376
10588.826596	5127.311667	787.452148	-16.096006
10588.826596	5127.311667	786.258789	4.534273
10588.826596	5127.311667	785.066406	160.078384
10588.826596	5127.311667	783.873047	27.157005
10588.826596	5127.311667	782.679688	75.663940
10588.826596	5127.311667	781.485352	103.225616
10588.826596	5127.311667	780.291992	116.826553
10588.826596	5127.311667	779.097656	155.983398
10588.826596	5127.311667	777.903320	-13.984762
10588.826596	5127.311667	776.708008	34.469868
10588.826596	5127.311667	775.512695	57.354355
10588.826596	5127.311667	774.318359	45.396484
10588.826596	5127.311667	773.122070	89.156891
10588.826596	5127.311667	771.926758	28.451077
10588.826596	5127.311667	770.730469	223.022202
10588.826596	5127.311667	769.534180	285.267944
10588.826596	5127.311667	768.337891	205.992325
10588.826596	5127.311667	767.141602	247.336304
10588.826596	5127.311667	765.944336	249.243591
10588.826596	5127.311667	764.747070	425.002014
10588.826596	5127.311667	763.549805	514.931702
10588.826596	5127.311667	762.351563	602.502258
10588.826596	5127.311667	761.154297	435.200134
10588.826596	5127.311667	759.956055	351.344635
10588.826596	5127.311667	758.757813	418.037537
10588.826596	5127.311667	757.558594	382.829437
10588.826596	5127.311667	756.359375	424.015015
10588.826596	5127.311667	755.160156	462.863098
10588.826596	5127.311667	753.960938	316.589294
10588.826596	5127.311667	752.761719	394.756409
10588.826596	5127.311667	751.561523	310.990143
10588.826596	5127.311667	750.361328	402.986115
10588.826596	5127.311667	749.160156	420.959381
10588.826596	5127.311667	747.959961	556.795044
10588.826596	5127.311667	746.758789	440.683685
10588.826596	5127.311667	745.557617	333.854126
10588.826596	5127.311667	744.356445	469.600067
10588.826596	5127.311667	743.154297	388.196136
10588.826596	5127.311667	741.952148	329.907288
10588.826596	5127.311667	740.750000	255.474930
10588.826596	5127.311667	739.547852	201.835846
10588.826596	5127.311667	738.344727	404.340790
10588.826596	5127.311667	737.142578	359.901764
10588.826596	5127.311667	735.939453	386.973938
10588.826596	5127.311667	734.735352	284.887115
10588.826596	5127.311667	733.532227	249.693420
10588.826596	5127.311667	732.328125	205.283569
10588.826596	5127.311667	731.124023	230.018692
10588.826596	5127.311667	729.918945	376.850555
10588.826596	5127.311667	728.714844	313.979340
10588.826596	5127.311667	727.509766	550.531433
10588.826596	5127.311667	726.303711	434.665314
10588.826596	5127.311667	725.098633	410.922424
10588.826596	5127.311667	723.892578	272.092255
10588.826596	5127.311667	722.686523	335.814331
10588.826596	5127.311667	721.480469	378.789551
10588.826596	5127.311667	720.274414	219.311081
10588.826596	5127.311667	719.067383	96.682175
10588.826596	5127.311667	717.860352	164.932007
10588.826596	5127.311667	716.653320	58.428967
10588.826596	5127.311667	715.445313	80.662758
10588.826596	5127.311667	714.238281	54.616970
10588.826596	5127.311667	713.030273	-97.787788
10588.826596	5127.311667	711.821289	-4.377528
10588.826596	5127.311667	710.613281	-14.360475
10588.826596	5127.311667	709.404297	74.369438
10588.826596	5127.311667	708.195313	-18.294237
10588.826596	5127.311667	706.986328	24.467056
10588.826596	5127.311667	705.776367	-8.524563
10588.826596	5127.311667	704.566406	-34.637226
10588.826596	5127.311667	703.356445	-14.886851
10588.826596	5127.311667	702.146484	4.837604
10588.826596	5127.311667	700.935547	45.168255
10588.826596	5127.311667	699.724609	-26.847454
10588.826596	5127.311667	698.513672	27.185213
10588.826596	5127.311667	697.302734	74.302582
10588.826596	5127.311667	696.090820	213.005844
10588.826596	5127.311667	694.878906	134.067139
10588.826596	5127.311667	693.666992	39.114075
10588.826596	5127.311667	692.455078	97.555557
10588.826596	5127.311667	691.242188	85.002098
10588.826596	5127.311667	690.029297	-19.095913
10588.826596	5127.311667	688.816406	32.394547
10588.826596	5127.311667	687.602539	54.107365
10588.826596	5127.311667	686.389648	7.185987
10588.826596	5127.311667	685.175781	10.560579
10588.826596	5127.311667	683.960938	52.769867
10588.826596	5127.311667	682.747070	33.234737
10588.826596	5127.311667	681.532227	-22.873528
10588.826596	5127.311667	680.317383	35.237411
10588.826596	5127.311667	679.102539	72.745010
10588.826596	5127.311667	677.886719	37.143383
10588.826596	5127.311667	676.670898	115.678535
10588.826596	5127.311667	675.455078	-97.996971
10588.826596	5127.311667	674.239258	42.097050
10588.826596	5127.311667	673.022461	20.121145
10588.826596	5127.311667	671.805664	73.402466
10588.826596	5127.311667	670.588867	112.951973
10588.826596	5127.311667	669.372070	90.897331
10588.826596	5127.311667	668.154297	30.073317
10588.826596	5127.311667	666.936523	-62.659622
10588.826596	5127.311667	665.718750	-57.400379
10588.826596	5127.311667	664.500977	-68.116989
10588.826596	5127.311667	663.282227	66.911484
10588.826596	5127.311667	662.063477	-32.692207
10588.826596	5127.311667	660.844727	188.729401
10588.826596	5127.311667	659.625000	-17.896288
10588.826596	5127.311667	658.405273	9.935399
10588.826596	5127.311667	657.185547	-0.952543
10588.826596	5127.311667	655.965820	-20.964163
10588.826596	5127.311667	654.745117	-136.516357
10588.826596	5127.311667	653.525391	-24.670113
10588.826596	5127.311667	652.303711	32.538654
10588.826596	5127.311667	651.083008	128.331451
10588.826596	5127.311667	649.861328	80.894615
10588.826596	5127.311667	648.640625	58.438385
10588.826596	5127.311667	647.417969	-111.681358
10588.826596	5127.311667	646.196289	122.462769
10588.826596	5127.311667	644.973633	59.049122
10588.826596	5127.311667	643.750977	-49.768391
10588.826596	5127.311667	642.528320	22.986103
10588.826596	5127.311667	641.305664	-58.613861
10588.826596	5127.311667	640.082031	132.008713
10588.826596	5127.311667	638.858398	59.426796
10588.826596	5127.311667	637.634766	102.487854
10588.826596	5127.311667	636.410156	41.211697
10588.826596	5127.311667	635.185547	45.659168
10588.826596	5127.311667	633.960938	47.805683
10588.826596	5127.311667	632.736328	6.870322
10588.826596	5127.311667	631.510742	-22.756592
10588.826596	5127.311667	630.285156	6.476635
10588.826596	5127.311667	629.059570	-11.884739
10588.826596	5127.311667	627.833984	-16.689976
10588.826596	5127.311667	626.607422	73.526848
10588.826596	5127.311667	625.380859	75.423515
10588.826596	5127.311667	624.154297	-31.304312
10588.826596	5127.311667	622.927734	67.800774
10588.826596	5127.311667	621.700195	28.888197
10588.826596	5127.311667	620.472656	84.911766
10588.826596	5127.311667	619.245117	-37.692097
10588.826596	5127.311667	618.016602	-38.247173
10588.826596	5127.311667	616.788086	4.091067
10588.826596	5127.311667	615.559570	134.472931
10588.826596	5127.311667	614.331055	-19.798937
10588.826596	5127.311667	613.101563	-85.981979
10588.826596	5127.311667	611.872070	107.435936
10588.826596	5127.311667	610.642578	81.807785
10588.826596	5127.311667	609.413086	209.597366
10588.826596	5127.311667	608.182617	-32.695518
10588.826596	5127.311667	606.952148	20.556633
10588.826596	5127.311667	605.721680	55.708767
10588.826596	5127.311667	604.491211	84.046005
10588.826596	5127.311667	603.259766	-81.521294
10588.826596	5127.311667	602.028320	39.157463
10588.826596	5127.311667	600.796875	162.001694
10588.826596	5127.311667	599.564453	122.562317
10588.826596	5127.311667	598.332031	159.678024
10588.826596	5127.311667	597.099609	68.392754
10588.826596	5127.311667	595.867188	69.411140
10588.826596	5127.311667	594.633789	-132.178406
10588.826596	5127.311667	593.400391	-43.432560
10588.826596	5127.311667	592.166992	47.489540
10588.826596	5127.311667	590.933594	127.088921
10588.826596	5127.311667	589.699219	44.699524
10588.826596	5127.311667	588.464844	5.027019
10588.826596	5127.311667	587.230469	-84.117973
10588.826596	5127.311667	585.995117	17.765913
10588.826596	5127.311667	584.760742	4.978894
10588.826596	5127.311667	583.525391	-46.031078
10588.826596	5127.311667	582.289063	73.635910
10588.826596	5127.311667	581.053711	94.416512
10588.826596	5127.311667	579.817383	9.634492
10588.826596	5127.311667	578.581055	-84.125771
10588.826596	5127.311667	577.343750	37.545151
10588.826596	5127.311667	576.107422	-24.842619
10588.826596	5127.311667	574.870117	-37.893703
10588.826596	5127.311667	573.631836	16.301142
10588.826596	5127.311667	572.394531	56.987587
10588.826596	5127.311667	571.156250	-48.089531
10588.826596	5127.311667	569.917969	91.132423
10588.826596	5127.311667	568.679688	6.188797
10588.826596	5127.311667	567.440430	-72.034584
10588.826596	5127.311667	566.202148	46.841057
10588.826596	5127.311667	564.961914	-33.669304
10588.826596	5127.311667	563.722656	35.822605
10588.826596	5127.311667	562.482422	89.579857
10588.826596	5127.311667	561.243164	-62.598122
10588.826596	5127.311667	560.001953	60.444969
10588.826596	5127.311667	558.761719	-51.468197
10588.826596	5127.311667	557.520508	-96.277344
10588.826596	5127.311667	556.279297	-22.596231
10588.826596	5127.311667	555.038086	21.959669
10588.826596	5127.311667	553.795898	-179.385147
10588.826596	5127.311667	552.554688	160.072968
10588.826596	5127.311667	551.311523	141.905823
10588.826596	5127.311667	550.069336	36.610023
10588.826596	5127.311667	548.826172	121.134209
10588.826596	5127.311667	547.583984	26.987387
10588.826596	5127.311667	546.339844	-40.370667
10588.826596	5127.311667	545.096680	57.412395
10588.826596	5127.311667	543.852539	12.327053
10588.826596	5127.311667	542.608398	-63.998917
10588.826596	5127.311667	541.364258	-60.035412
10588.826596	5127.311667	540.119141	26.393051
10588.826596	5127.311667	538.875000	-49.975655
10588.826596	5127.311667	537.628906	-88.458054
10588.826596	5127.311667	536.383789	-187.112930
10588.826596	5127.311667	535.137695	-25.104866
10588.826596	5127.311667	533.892578	-16.875971
10588.826596	5127.311667	532.645508	-4.231291
10588.826596	5127.311667	531.399414	35.100246
10588.826596	5127.311667	530.152344	36.544735
10588.826596	5127.311667	528.905273	-37.702389
10588.826596	5127.311667	527.658203	-0.697407
10588.826596	5127.311667	526.410156	-106.103394
10588.826596	5127.311667	525.163086	-109.182976
10588.826596	5127.311667	523.914063	-30.023811
10588.826596	5127.311667	522.666016	-30.949131
10588.826596	5127.311667	521.416992	-76.352913
10588.826596	5127.311667	520.167969	-277.307159
10588.826596	5127.311667	518.918945	-93.862778
10588.826596	5127.311667	517.669922	-143.738144
10588.826596	5127.311667	516.419922	-142.544205
10588.826596	5127.311667	515.169922	5.156849
10588.826596	5127.311667	513.919922	-73.636063
10588.826596	5127.311667	512.668945	-76.967560
10588.826596	5127.311667	511.417969	-15.976409
10588.826596	5127.311667	510.166992	-68.164215
10588.826596	5127.311667	508.916016	-13.897306
10588.826596	5127.311667	507.664063	20.366055
10588.826596	5127.311667	506.412109	-69.548012
10588.826596	5127.311667	505.160156	126.465332
10588.826596	5127.311667	503.907227	200.497574
10588.826596	5127.311667	502.655273	219.097214
10588.826596	5127.311667	501.402344	191.152924
10588.826596	5127.311667	500.148438	145.482376
10588.826596	5127.311667	498.895508	128.597961
10588.826596	5127.311667	497.641602	85.136826
10588.826596	5127.311667	496.387695	165.605316
10588.826596	5127.311667	495.132813	40.251526
10588.826596	5127.311667	493.878906	58.721722
10588.826596	5127.311667	492.624023	32.931221
10588.826596	5127.311667	491.368164	-39.301880
10588.826596	5127.311667	490.113281	-73.936264
10588.826596	5127.311667	488.857422	15.192801
10588.826596	5127.311667	487.601563	71.121948
10588.826596	5127.311667	486.344727	16.546875
10588.826596	5127.311667	485.088867	1.740387
10588.826596	5127.311667	483.832031	-19.704218
10588.826596	5127.311667	482.575195	122.220383
10588.826596	5127.311667	481.317383	-22.884438
10588.826596	5127.311667	480.059570	24.051619
10588.826596	5127.311667	478.801758	97.428093
10588.826596	5127.311667	477.543945	146.493622
10588.826596	5127.311667	476.285156	54.373886
10588.826596	5127.311667	475.027344	160.725479
10588.826596	5127.311667	473.767578	70.812881
10588.826596	5127.311667	472.508789	80.106552
10588.826596	5127.311667	471.249023	201.755569
10588.826596	5127.311667	469.989258	89.817451
10588.826596	5127.311667	468.729492	90.241852
10588.826596	5127.311667	467.469727	-59.089447
10588.826596	5127.311667	466.208984	77.832253
10588.826596	5127.311667	464.948242	60.600544
10588.826596	5127.311667	463.686523	-38.066959
10588.826596	5127.311667	462.425781	70.112762
10588.826596	5127.311667	461.164063	99.036446
10588.826596	5127.311667	459.901367	26.763395
10588.826596	5127.311667	458.639648	207.364670
10588.826596	5127.311667	457.376953	80.109901
10588.826596	5127.311667	456.114258	73.771240
10588.826596	5127.311667	454.851563	102.574860
10588.826596	5127.311667	453.587891	83.013420
10588.826596	5127.311667	452.324219	-52.965244
10588.826596	5127.311667	451.060547	43.860542
10588.826596	5127.311667	449.796875	70.371101
10588.826596	5127.311667	448.532227	28.802998
10588.826596	5127.311667	447.267578	-50.073769
10588.826596	5127.311667	446.002930	-69.700294
10588.826596	5127.311667	444.737305	-16.958364
10588.826596	5127.311667	443.471680	77.405815
10588.826596	5127.311667	442.206055	62.076477
10588.826596	5127.311667	440.940430	55.497086
10588.826596	5127.311667	439.673828	-14.665569
10588.826596	5127.311667	438.407227	13.776717
10588.826596	5127.311667	437.140625	46.560215
10588.826596	5127.311667	435.873047	140.621994
10588.826596	5127.311667	434.605469	-71.948502
10588.826596	5127.311667	433.337891	-74.289680
10588.826596	5127.311667	432.070313	80.928719
10588.826596	5127.311667	430.801758	50.036495
10588.826596	5127.311667	429.533203	89.132698
10588.826596	5127.311667	428.264648	136.924347
10588.826596	5127.311667	426.996094	180.282928
10588.826596	5127.311667	425.726563	186.409958
10588.826596	5127.311667	424.457031	100.682602
10588.826596	5127.311667	423.186523	-52.804810
10588.826596	5127.311667	421.916992	-9.617922
10588.826596	5127.311667	420.646484	99.033600
10588.826596	5127.311667	419.375977	54.705956
10588.826596	5127.311667	418.104492	117.335777
10588.826596	5127.311667	416.833008	123.124184
10588.826596	5127.311667	415.561523	-26.111752
10588.826596	5127.311667	414.290039	84.333618
10588.826596	5127.311667	413.017578	-1.685123
10588.826596	5127.311667	411.746094	154.387375
10588.826596	5127.311667	410.472656	107.508553
10588.826596	5127.311667	409.200195	14.801051
10588.826596	5127.311667	407.926758	11.426994
10588.826596	5127.311667	406.653320	-33.426605
10588.826596	5127.311667	405.379883	93.788483
10588.826596	5127.311667	404.105469	16.095654
10588.826596	5127.311667	402.831055	84.270630
10588.826596	5127.311667	401.556641	15.150845
10588.826596	5127.311667	400.282227	87.470596
10588.826596	5127.311667	399.006836	46.481567
10588.826596	5127.311667	397.731445	-138.204330
10588.826596	5127.311667	396.456055	16.468130
10588.826596	5127.311667	395.179688	-29.144033
10588.826596	5127.311667	393.903320	-33.530632
10588.826596	5127.311667	392.626953	-9.768188
10588.826596	5127.311667	391.350586	61.683342
10588.826596	5127.311667	390.073242	11.276277
10588.826596	5127.311667	388.795898	67.223221
10588.826596	5127.311667	387.518555	-0.805351
10588.826596	5127.311667	386.240234	33.121632
10588.826596	5127.311667	384.961914	62.546192
10588.826596	5127.311667	383.683594	-66.660965
10588.826596	5127.311667	382.405273	138.262787
10588.826596	5127.311667	381.125977	84.716187
10588.826596	5127.311667	379.846680	148.171722
10588.826596	5127.311667	378.567383	-70.532326
10588.826596	5127.311667	377.287109	51.116650
10588.826596	5127.311667	376.006836	38.112450
10588.826596	5127.311667	374.726563	81.275764
10588.826596	5127.311667	373.446289	106.884132
10588.826596	5127.311667	372.165039	39.105549
10588.826596	5127.311667	370.883789	83.778374
10588.826596	5127.311667	369.602539	82.732803
10588.826596	5127.311667	368.320313	98.771477
10588.826596	5127.311667	367.039063	40.975975
10588.826596	5127.311667	365.755859	32.720253
10588.826596	5127.311667	364.473633	160.538330
10588.826596	5127.311667	363.190430	169.051407
10588.826596	5127.311667	361.907227	136.197662
10588.826596	5127.311667	360.624023	74.968910
10588.826596	5127.311667	359.340820	45.906517
10588.826596	5127.311667	358.056641	-93.680435
10588.826596	5127.311667	356.772461	-34.711296
10588.826596	5127.311667	355.487305	15.263161
10588.826596	5127.311667	354.202148	95.127251
10588.826596	5127.311667	352.916992	-58.605709
10588.826596	5127.311667	351.631836	-33.421688
10588.826596	5127.311667	350.346680	-101.425064
10588.826596	5127.311667	349.060547	-180.571533
10588.826596	5127.311667	347.774414	-76.669212
10588.826596	5127.311667	346.487305	-63.817524
10588.826596	5127.311667	345.200195	-66.474503
10588.826596	5127.311667	343.913086	-84.641914
10588.826596	5127.311667	342.625977	-53.650894
10588.826596	5127.311667	341.338867	13.522589
10588.826596	5127.311667	340.050781	-49.091141
10588.826596	5127.311667	338.762695	-86.296242
10588.826596	5127.311667	337.473633	26.784414
10588.826596	5127.311667	336.184570	-30.799784
10588.826596	5127.311667	334.895508	16.619623
10588.826596	5127.311667	333.606445	-72.113449
10588.826596	5127.311667	332.317383	53.845093
10588.826596	5127.311667	331.027344	-31.672777
10588.826596	5127.311667	329.736328	-100.537834
10588.826596	5127.311667	328.446289	-8.656031
10588.826596	5127.311667	327.155273	-89.446861
10588.826596	5127.311667	325.864258	-11.756991
10588.826596	5127.311667	324.573242	91.046036
10588.826596	5127.311667	323.281250	113.623215
10588.826596	5127.311667	321.989258	-87.902161
10588.826596	5127.311667	320.697266	-98.889023
10588.826596	5127.311667	319.405273	-11.813880
10588.826596	5127.311667	318.112305	-17.846094
10588.826596	5127.311667	316.819336	140.634628
10588.826596	5127.311667	315.526367	-15.025747
10588.826596	5127.311667	314.232422	28.082449
10588.826596	5127.311667	312.938477	177.598434
10588.826596	5127.311667	311.644531	73.162788
10588.826596	5127.311667	310.349609	53.644821
10588.826596	5127.311667	309.054688	148.998169
10588.826596	5127.311667	307.759766	202.683350
10588.826596	5127.311667	306.464844	283.266327
10588.826596	5127.311667	305.168945	99.350571
10588.826596	5127.311667	303.873047	272.187347
10588.826596	5127.311667	302.577148	159.166367
10588.826596	5127.311667	301.281250	207.856567
10588.826596	5127.311667	299.984375	296.100983
