#X		#Y		#Wave		#Intensity
-15645.495213	5202.436667	1999.946289	31.501980
-15645.495213	5202.436667	1998.981445	166.209717
-15645.495213	5202.436667	1998.017578	-109.430412
-15645.495213	5202.436667	1997.052734	6.639790
-15645.495213	5202.436667	1996.088867	50.887833
-15645.495213	5202.436667	1995.124023	-33.630672
-15645.495213	5202.436667	1994.159180	15.691818
-15645.495213	5202.436667	1993.193359	139.345306
-15645.495213	5202.436667	1992.228516	-83.593285
-15645.495213	5202.436667	1991.262695	-1.922230
-15645.495213	5202.436667	1990.296875	0.583007
-15645.495213	5202.436667	1989.331055	60.059288
-15645.495213	5202.436667	1988.365234	164.102982
-15645.495213	5202.436667	1987.398438	13.390108
-15645.495213	5202.436667	1986.432617	48.271374
-15645.495213	5202.436667	1985.465820	75.774063
-15645.495213	5202.436667	1984.499023	56.349026
-15645.495213	5202.436667	1983.532227	-2.563061
-15645.495213	5202.436667	1982.565430	74.515129
-15645.495213	5202.436667	1981.597656	52.781075
-15645.495213	5202.436667	1980.629883	78.040443
-15645.495213	5202.436667	1979.662109	177.433701
-15645.495213	5202.436667	1978.694336	-100.980232
-15645.495213	5202.436667	1977.726563	121.948914
-15645.495213	5202.436667	1976.758789	130.082367
-15645.495213	5202.436667	1975.790039	51.872849
-15645.495213	5202.436667	1974.821289	131.659058
-15645.495213	5202.436667	1973.852539	-153.673355
-15645.495213	5202.436667	1972.883789	-236.594650
-15645.495213	5202.436667	1971.915039	-1.307971
-15645.495213	5202.436667	1970.945313	21.875053
-15645.495213	5202.436667	1969.975586	32.761215
-15645.495213	5202.436667	1969.005859	1.778259
-15645.495213	5202.436667	1968.036133	32.451107
-15645.495213	5202.436667	1967.066406	31.117203
-15645.495213	5202.436667	1966.096680	79.086655
-15645.495213	5202.436667	1965.125977	-143.858582
-15645.495213	5202.436667	1964.155273	-78.573479
-15645.495213	5202.436667	1963.184570	131.980133
-15645.495213	5202.436667	1962.213867	111.095329
-15645.495213	5202.436667	1961.242188	48.406300
-15645.495213	5202.436667	1960.271484	239.223206
-15645.495213	5202.436667	1959.299805	-5.466422
-15645.495213	5202.436667	1958.328125	94.330963
-15645.495213	5202.436667	1957.356445	-29.680370
-15645.495213	5202.436667	1956.384766	-104.442619
-15645.495213	5202.436667	1955.412109	7.684983
-15645.495213	5202.436667	1954.439453	-17.849987
-15645.495213	5202.436667	1953.467773	123.759323
-15645.495213	5202.436667	1952.495117	-29.507378
-15645.495213	5202.436667	1951.521484	1.546509
-15645.495213	5202.436667	1950.548828	-92.649643
-15645.495213	5202.436667	1949.575195	-93.477280
-15645.495213	5202.436667	1948.601563	70.214211
-15645.495213	5202.436667	1947.627930	57.122375
-15645.495213	5202.436667	1946.654297	7.239703
-15645.495213	5202.436667	1945.680664	175.784760
-15645.495213	5202.436667	1944.706055	111.211670
-15645.495213	5202.436667	1943.732422	-17.094345
-15645.495213	5202.436667	1942.757813	-8.000720
-15645.495213	5202.436667	1941.783203	-28.319307
-15645.495213	5202.436667	1940.807617	32.284492
-15645.495213	5202.436667	1939.833008	85.528320
-15645.495213	5202.436667	1938.857422	271.098633
-15645.495213	5202.436667	1937.881836	-8.921943
-15645.495213	5202.436667	1936.906250	-38.953400
-15645.495213	5202.436667	1935.930664	200.458267
-15645.495213	5202.436667	1934.955078	207.154312
-15645.495213	5202.436667	1933.978516	30.230690
-15645.495213	5202.436667	1933.001953	0.256860
-15645.495213	5202.436667	1932.025391	31.490582
-15645.495213	5202.436667	1931.048828	114.108574
-15645.495213	5202.436667	1930.072266	-145.810104
-15645.495213	5202.436667	1929.094727	-72.958908
-15645.495213	5202.436667	1928.118164	-22.136024
-15645.495213	5202.436667	1927.140625	-56.907051
-15645.495213	5202.436667	1926.163086	47.690018
-15645.495213	5202.436667	1925.184570	96.035004
-15645.495213	5202.436667	1924.207031	58.836067
-15645.495213	5202.436667	1923.228516	143.822113
-15645.495213	5202.436667	1922.250000	116.408752
-15645.495213	5202.436667	1921.271484	-64.862946
-15645.495213	5202.436667	1920.292969	95.813202
-15645.495213	5202.436667	1919.314453	51.345459
-15645.495213	5202.436667	1918.334961	-185.947784
-15645.495213	5202.436667	1917.355469	47.887188
-15645.495213	5202.436667	1916.375977	-42.902977
-15645.495213	5202.436667	1915.396484	-140.976410
-15645.495213	5202.436667	1914.416992	-160.955566
-15645.495213	5202.436667	1913.436523	138.552704
-15645.495213	5202.436667	1912.457031	99.023598
-15645.495213	5202.436667	1911.476563	-1.438774
-15645.495213	5202.436667	1910.496094	-16.553537
-15645.495213	5202.436667	1909.515625	80.436752
-15645.495213	5202.436667	1908.534180	-151.540054
-15645.495213	5202.436667	1907.552734	91.599670
-15645.495213	5202.436667	1906.572266	156.849243
-15645.495213	5202.436667	1905.590820	44.305950
-15645.495213	5202.436667	1904.608398	26.753635
-15645.495213	5202.436667	1903.626953	-10.267012
-15645.495213	5202.436667	1902.644531	-42.410145
-15645.495213	5202.436667	1901.663086	30.089558
-15645.495213	5202.436667	1900.680664	-111.535339
-15645.495213	5202.436667	1899.698242	55.806175
-15645.495213	5202.436667	1898.714844	-119.827644
-15645.495213	5202.436667	1897.732422	-61.973671
-15645.495213	5202.436667	1896.749023	-74.648376
-15645.495213	5202.436667	1895.765625	119.277870
-15645.495213	5202.436667	1894.782227	-27.094166
-15645.495213	5202.436667	1893.798828	62.263077
-15645.495213	5202.436667	1892.814453	34.976223
-15645.495213	5202.436667	1891.831055	41.697433
-15645.495213	5202.436667	1890.846680	82.404854
-15645.495213	5202.436667	1889.862305	84.244751
-15645.495213	5202.436667	1888.877930	22.963942
-15645.495213	5202.436667	1887.892578	22.371170
-15645.495213	5202.436667	1886.908203	31.479033
-15645.495213	5202.436667	1885.922852	-100.137199
-15645.495213	5202.436667	1884.937500	86.041847
-15645.495213	5202.436667	1883.952148	-64.952812
-15645.495213	5202.436667	1882.965820	7.170948
-15645.495213	5202.436667	1881.980469	-129.223602
-15645.495213	5202.436667	1880.994141	13.157037
-15645.495213	5202.436667	1880.007813	77.928955
-15645.495213	5202.436667	1879.021484	6.985986
-15645.495213	5202.436667	1878.035156	95.939728
-15645.495213	5202.436667	1877.047852	114.612083
-15645.495213	5202.436667	1876.061523	82.416725
-15645.495213	5202.436667	1875.074219	134.959091
-15645.495213	5202.436667	1874.086914	-64.272102
-15645.495213	5202.436667	1873.098633	85.061150
-15645.495213	5202.436667	1872.111328	-155.242142
-15645.495213	5202.436667	1871.123047	23.061092
-15645.495213	5202.436667	1870.135742	135.980850
-15645.495213	5202.436667	1869.147461	-29.263748
-15645.495213	5202.436667	1868.158203	11.059980
-15645.495213	5202.436667	1867.169922	-185.549103
-15645.495213	5202.436667	1866.180664	23.953728
-15645.495213	5202.436667	1865.192383	165.705078
-15645.495213	5202.436667	1864.203125	80.278435
-15645.495213	5202.436667	1863.213867	52.846291
-15645.495213	5202.436667	1862.223633	18.164513
-15645.495213	5202.436667	1861.234375	118.708672
-15645.495213	5202.436667	1860.244141	-5.325746
-15645.495213	5202.436667	1859.253906	-88.292076
-15645.495213	5202.436667	1858.263672	91.814415
-15645.495213	5202.436667	1857.273438	35.376400
-15645.495213	5202.436667	1856.282227	-30.706253
-15645.495213	5202.436667	1855.291992	178.191589
-15645.495213	5202.436667	1854.300781	30.087584
-15645.495213	5202.436667	1853.309570	-57.697720
-15645.495213	5202.436667	1852.317383	107.650063
-15645.495213	5202.436667	1851.326172	133.133133
-15645.495213	5202.436667	1850.333984	-31.778315
-15645.495213	5202.436667	1849.342773	73.198738
-15645.495213	5202.436667	1848.350586	286.516357
-15645.495213	5202.436667	1847.357422	68.639236
-15645.495213	5202.436667	1846.365234	98.846100
-15645.495213	5202.436667	1845.372070	37.541569
-15645.495213	5202.436667	1844.379883	74.934120
-15645.495213	5202.436667	1843.386719	-22.472054
-15645.495213	5202.436667	1842.393555	10.072989
-15645.495213	5202.436667	1841.399414	-39.203896
-15645.495213	5202.436667	1840.406250	-25.940800
-15645.495213	5202.436667	1839.412109	138.798492
-15645.495213	5202.436667	1838.417969	58.222504
-15645.495213	5202.436667	1837.423828	105.064529
-15645.495213	5202.436667	1836.429688	19.686314
-15645.495213	5202.436667	1835.434570	-12.813294
-15645.495213	5202.436667	1834.440430	-78.949638
-15645.495213	5202.436667	1833.445313	-53.801796
-15645.495213	5202.436667	1832.450195	-40.688015
-15645.495213	5202.436667	1831.454102	-61.213097
-15645.495213	5202.436667	1830.458984	-0.122250
-15645.495213	5202.436667	1829.462891	8.122046
-15645.495213	5202.436667	1828.466797	-46.047413
-15645.495213	5202.436667	1827.470703	-4.240064
-15645.495213	5202.436667	1826.474609	155.078705
-15645.495213	5202.436667	1825.478516	67.284317
-15645.495213	5202.436667	1824.481445	39.452541
-15645.495213	5202.436667	1823.484375	189.029938
-15645.495213	5202.436667	1822.487305	84.446136
-15645.495213	5202.436667	1821.490234	-3.339435
-15645.495213	5202.436667	1820.493164	107.771812
-15645.495213	5202.436667	1819.495117	-18.352924
-15645.495213	5202.436667	1818.498047	-36.658646
-15645.495213	5202.436667	1817.500000	31.235577
-15645.495213	5202.436667	1816.500977	51.196842
-15645.495213	5202.436667	1815.502930	13.683079
-15645.495213	5202.436667	1814.504883	-33.408257
-15645.495213	5202.436667	1813.505859	12.824625
-15645.495213	5202.436667	1812.506836	49.452499
-15645.495213	5202.436667	1811.507813	169.771729
-15645.495213	5202.436667	1810.508789	153.705124
-15645.495213	5202.436667	1809.508789	-24.976433
-15645.495213	5202.436667	1808.508789	-69.726990
-15645.495213	5202.436667	1807.508789	119.768852
-15645.495213	5202.436667	1806.508789	46.294277
-15645.495213	5202.436667	1805.508789	101.855621
-15645.495213	5202.436667	1804.508789	-126.903084
-15645.495213	5202.436667	1803.507813	-45.094841
-15645.495213	5202.436667	1802.506836	-8.707778
-15645.495213	5202.436667	1801.505859	13.322058
-15645.495213	5202.436667	1800.504883	102.165070
-15645.495213	5202.436667	1799.502930	35.820515
-15645.495213	5202.436667	1798.501953	10.051089
-15645.495213	5202.436667	1797.500000	3.357240
-15645.495213	5202.436667	1796.498047	118.298798
-15645.495213	5202.436667	1795.496094	-43.465061
-15645.495213	5202.436667	1794.493164	-76.430267
-15645.495213	5202.436667	1793.491211	93.237823
-15645.495213	5202.436667	1792.488281	-13.665573
-15645.495213	5202.436667	1791.485352	-127.695282
-15645.495213	5202.436667	1790.482422	-27.266329
-15645.495213	5202.436667	1789.478516	-112.703827
-15645.495213	5202.436667	1788.475586	-7.588000
-15645.495213	5202.436667	1787.471680	-28.739012
-15645.495213	5202.436667	1786.467773	-66.566093
-15645.495213	5202.436667	1785.463867	43.185165
-15645.495213	5202.436667	1784.459961	0.563128
-15645.495213	5202.436667	1783.455078	-137.240799
-15645.495213	5202.436667	1782.450195	41.394508
-15645.495213	5202.436667	1781.445313	134.317200
-15645.495213	5202.436667	1780.440430	-41.537125
-15645.495213	5202.436667	1779.435547	-46.153313
-15645.495213	5202.436667	1778.429688	203.570618
-15645.495213	5202.436667	1777.424805	34.879536
-15645.495213	5202.436667	1776.418945	18.313766
-15645.495213	5202.436667	1775.413086	30.246016
-15645.495213	5202.436667	1774.406250	68.282608
-15645.495213	5202.436667	1773.400391	-69.455017
-15645.495213	5202.436667	1772.393555	6.541633
-15645.495213	5202.436667	1771.386719	37.385563
-15645.495213	5202.436667	1770.379883	51.584633
-15645.495213	5202.436667	1769.373047	141.701385
-15645.495213	5202.436667	1768.365234	20.594505
-15645.495213	5202.436667	1767.358398	113.018936
-15645.495213	5202.436667	1766.350586	-0.955972
-15645.495213	5202.436667	1765.342773	43.973312
-15645.495213	5202.436667	1764.334961	-69.980263
-15645.495213	5202.436667	1763.326172	-98.576248
-15645.495213	5202.436667	1762.318359	-53.706509
-15645.495213	5202.436667	1761.309570	-25.460537
-15645.495213	5202.436667	1760.300781	40.662067
-15645.495213	5202.436667	1759.291016	149.374359
-15645.495213	5202.436667	1758.282227	165.673264
-15645.495213	5202.436667	1757.272461	13.836851
-15645.495213	5202.436667	1756.262695	-17.228153
-15645.495213	5202.436667	1755.252930	169.449020
-15645.495213	5202.436667	1754.243164	100.470985
-15645.495213	5202.436667	1753.233398	-60.769119
-15645.495213	5202.436667	1752.222656	-39.826889
-15645.495213	5202.436667	1751.211914	-146.619751
-15645.495213	5202.436667	1750.201172	9.077486
-15645.495213	5202.436667	1749.190430	-50.435307
-15645.495213	5202.436667	1748.179688	-27.213709
-15645.495213	5202.436667	1747.167969	12.521585
-15645.495213	5202.436667	1746.156250	42.774132
-15645.495213	5202.436667	1745.144531	108.433174
-15645.495213	5202.436667	1744.132813	155.156998
-15645.495213	5202.436667	1743.121094	-81.523041
-15645.495213	5202.436667	1742.108398	-157.586990
-15645.495213	5202.436667	1741.095703	-146.299271
-15645.495213	5202.436667	1740.083008	-118.510880
-15645.495213	5202.436667	1739.070313	95.659637
-15645.495213	5202.436667	1738.057617	-169.176300
-15645.495213	5202.436667	1737.043945	16.582766
-15645.495213	5202.436667	1736.030273	-5.270891
-15645.495213	5202.436667	1735.016602	36.528946
-15645.495213	5202.436667	1734.002930	-53.714882
-15645.495213	5202.436667	1732.989258	101.179375
-15645.495213	5202.436667	1731.974609	-85.691299
-15645.495213	5202.436667	1730.959961	-79.313347
-15645.495213	5202.436667	1729.945313	-18.774555
-15645.495213	5202.436667	1728.930664	-80.739357
-15645.495213	5202.436667	1727.916016	130.445190
-15645.495213	5202.436667	1726.900391	-28.080526
-15645.495213	5202.436667	1725.885742	-78.282990
-15645.495213	5202.436667	1724.870117	-168.490906
-15645.495213	5202.436667	1723.853516	56.600494
-15645.495213	5202.436667	1722.837891	72.230354
-15645.495213	5202.436667	1721.822266	-69.739754
-15645.495213	5202.436667	1720.805664	98.724556
-15645.495213	5202.436667	1719.789063	60.217049
-15645.495213	5202.436667	1718.772461	-112.272881
-15645.495213	5202.436667	1717.754883	-122.554153
-15645.495213	5202.436667	1716.738281	76.282936
-15645.495213	5202.436667	1715.720703	7.210757
-15645.495213	5202.436667	1714.703125	-50.104092
-15645.495213	5202.436667	1713.685547	-36.959332
-15645.495213	5202.436667	1712.667969	84.171539
-15645.495213	5202.436667	1711.649414	-109.320740
-15645.495213	5202.436667	1710.630859	16.441900
-15645.495213	5202.436667	1709.612305	-106.592163
-15645.495213	5202.436667	1708.593750	63.671944
-15645.495213	5202.436667	1707.575195	93.119125
-15645.495213	5202.436667	1706.555664	66.254333
-15645.495213	5202.436667	1705.536133	154.279907
-15645.495213	5202.436667	1704.516602	176.618866
-15645.495213	5202.436667	1703.497070	-4.977691
-15645.495213	5202.436667	1702.477539	0.956214
-15645.495213	5202.436667	1701.457031	-47.015907
-15645.495213	5202.436667	1700.437500	-31.728647
-15645.495213	5202.436667	1699.416992	140.454636
-15645.495213	5202.436667	1698.395508	87.761589
-15645.495213	5202.436667	1697.375000	53.811798
-15645.495213	5202.436667	1696.354492	59.656063
-15645.495213	5202.436667	1695.333008	60.803165
-15645.495213	5202.436667	1694.311523	-57.391117
-15645.495213	5202.436667	1693.290039	-44.546749
-15645.495213	5202.436667	1692.267578	-52.771172
-15645.495213	5202.436667	1691.246094	116.723251
-15645.495213	5202.436667	1690.223633	-29.491430
-15645.495213	5202.436667	1689.201172	86.145676
-15645.495213	5202.436667	1688.178711	243.797836
-15645.495213	5202.436667	1687.155273	167.709106
-15645.495213	5202.436667	1686.132813	21.557865
-15645.495213	5202.436667	1685.109375	-0.754828
-15645.495213	5202.436667	1684.085938	72.679634
-15645.495213	5202.436667	1683.062500	45.678799
-15645.495213	5202.436667	1682.039063	18.678389
-15645.495213	5202.436667	1681.014648	157.388275
-15645.495213	5202.436667	1679.990234	331.038391
-15645.495213	5202.436667	1678.965820	175.652328
-15645.495213	5202.436667	1677.941406	288.568176
-15645.495213	5202.436667	1676.916992	210.194290
-15645.495213	5202.436667	1675.891602	162.151688
-15645.495213	5202.436667	1674.866211	34.857788
-15645.495213	5202.436667	1673.840820	-125.027054
-15645.495213	5202.436667	1672.815430	127.618446
-15645.495213	5202.436667	1671.790039	86.590355
-15645.495213	5202.436667	1670.763672	96.814331
-15645.495213	5202.436667	1669.737305	295.679535
-15645.495213	5202.436667	1668.710938	47.375626
-15645.495213	5202.436667	1667.684570	83.191833
-15645.495213	5202.436667	1666.658203	14.242606
-15645.495213	5202.436667	1665.630859	105.889137
-15645.495213	5202.436667	1664.603516	146.305771
-15645.495213	5202.436667	1663.576172	221.595230
-15645.495213	5202.436667	1662.548828	82.870018
-15645.495213	5202.436667	1661.520508	253.471786
-15645.495213	5202.436667	1660.493164	107.809616
-15645.495213	5202.436667	1659.464844	85.393753
-15645.495213	5202.436667	1658.436523	114.112427
-15645.495213	5202.436667	1657.408203	170.700226
-15645.495213	5202.436667	1656.378906	178.469482
-15645.495213	5202.436667	1655.350586	28.291212
-15645.495213	5202.436667	1654.321289	15.177620
-15645.495213	5202.436667	1653.291992	81.007179
-15645.495213	5202.436667	1652.261719	179.304153
-15645.495213	5202.436667	1651.232422	252.033325
-15645.495213	5202.436667	1650.202148	74.115074
-15645.495213	5202.436667	1649.171875	186.266769
-15645.495213	5202.436667	1648.141602	147.599930
-15645.495213	5202.436667	1647.111328	162.285690
-15645.495213	5202.436667	1646.080078	156.091431
-15645.495213	5202.436667	1645.049805	300.587463
-15645.495213	5202.436667	1644.018555	171.522247
-15645.495213	5202.436667	1642.987305	33.236237
-15645.495213	5202.436667	1641.955078	233.264435
-15645.495213	5202.436667	1640.923828	183.042313
-15645.495213	5202.436667	1639.891602	281.058655
-15645.495213	5202.436667	1638.859375	191.477097
-15645.495213	5202.436667	1637.827148	176.012695
-15645.495213	5202.436667	1636.794922	121.204742
-15645.495213	5202.436667	1635.761719	256.178101
-15645.495213	5202.436667	1634.729492	310.123108
-15645.495213	5202.436667	1633.696289	243.751205
-15645.495213	5202.436667	1632.662109	59.445469
-15645.495213	5202.436667	1631.628906	346.946991
-15645.495213	5202.436667	1630.594727	146.511185
-15645.495213	5202.436667	1629.561523	244.344009
-15645.495213	5202.436667	1628.527344	307.469452
-15645.495213	5202.436667	1627.493164	446.821625
-15645.495213	5202.436667	1626.458008	385.134827
-15645.495213	5202.436667	1625.423828	284.211639
-15645.495213	5202.436667	1624.388672	342.665955
-15645.495213	5202.436667	1623.353516	329.526611
-15645.495213	5202.436667	1622.318359	191.744034
-15645.495213	5202.436667	1621.282227	326.347443
-15645.495213	5202.436667	1620.247070	227.852264
-15645.495213	5202.436667	1619.210938	334.719116
-15645.495213	5202.436667	1618.174805	406.949463
-15645.495213	5202.436667	1617.137695	442.253265
-15645.495213	5202.436667	1616.101563	521.359741
-15645.495213	5202.436667	1615.064453	342.250061
-15645.495213	5202.436667	1614.027344	453.617096
-15645.495213	5202.436667	1612.990234	514.250122
-15645.495213	5202.436667	1611.953125	542.610291
-15645.495213	5202.436667	1610.916016	508.772095
-15645.495213	5202.436667	1609.877930	560.159302
-15645.495213	5202.436667	1608.839844	298.386688
-15645.495213	5202.436667	1607.801758	515.555969
-15645.495213	5202.436667	1606.763672	608.358826
-15645.495213	5202.436667	1605.724609	632.092163
-15645.495213	5202.436667	1604.685547	474.065002
-15645.495213	5202.436667	1603.646484	288.502167
-15645.495213	5202.436667	1602.607422	310.004456
-15645.495213	5202.436667	1601.568359	428.080902
-15645.495213	5202.436667	1600.528320	490.939606
-15645.495213	5202.436667	1599.489258	510.114258
-15645.495213	5202.436667	1598.449219	375.315765
-15645.495213	5202.436667	1597.408203	376.133270
-15645.495213	5202.436667	1596.368164	349.397247
-15645.495213	5202.436667	1595.327148	258.368500
-15645.495213	5202.436667	1594.287109	250.053299
-15645.495213	5202.436667	1593.246094	416.228058
-15645.495213	5202.436667	1592.204102	545.616638
-15645.495213	5202.436667	1591.163086	491.376678
-15645.495213	5202.436667	1590.121094	398.157654
-15645.495213	5202.436667	1589.079102	497.682526
-15645.495213	5202.436667	1588.037109	438.923218
-15645.495213	5202.436667	1586.995117	439.817413
-15645.495213	5202.436667	1585.953125	385.699341
-15645.495213	5202.436667	1584.910156	462.264557
-15645.495213	5202.436667	1583.867188	511.311157
-15645.495213	5202.436667	1582.824219	507.648895
-15645.495213	5202.436667	1581.781250	394.038788
-15645.495213	5202.436667	1580.737305	365.226196
-15645.495213	5202.436667	1579.693359	450.935913
-15645.495213	5202.436667	1578.649414	218.381073
-15645.495213	5202.436667	1577.605469	375.072632
-15645.495213	5202.436667	1576.561523	607.240295
-15645.495213	5202.436667	1575.516602	338.215485
-15645.495213	5202.436667	1574.472656	300.373138
-15645.495213	5202.436667	1573.427734	335.748962
-15645.495213	5202.436667	1572.381836	490.036560
-15645.495213	5202.436667	1571.336914	502.525818
-15645.495213	5202.436667	1570.291016	640.747620
-15645.495213	5202.436667	1569.246094	342.403900
-15645.495213	5202.436667	1568.200195	569.748291
-15645.495213	5202.436667	1567.153320	372.080872
-15645.495213	5202.436667	1566.107422	473.732361
-15645.495213	5202.436667	1565.060547	310.446686
-15645.495213	5202.436667	1564.013672	384.699402
-15645.495213	5202.436667	1562.966797	385.888184
-15645.495213	5202.436667	1561.919922	350.575714
-15645.495213	5202.436667	1560.872070	541.198120
-15645.495213	5202.436667	1559.825195	471.680725
-15645.495213	5202.436667	1558.777344	411.327209
-15645.495213	5202.436667	1557.729492	408.028015
-15645.495213	5202.436667	1556.680664	363.701813
-15645.495213	5202.436667	1555.632813	476.711151
-15645.495213	5202.436667	1554.583984	313.905823
-15645.495213	5202.436667	1553.535156	221.823700
-15645.495213	5202.436667	1552.486328	209.537216
-15645.495213	5202.436667	1551.436523	320.274658
-15645.495213	5202.436667	1550.387695	182.752960
-15645.495213	5202.436667	1549.337891	361.798615
-15645.495213	5202.436667	1548.288086	178.826324
-15645.495213	5202.436667	1547.238281	112.025742
-15645.495213	5202.436667	1546.187500	90.779541
-15645.495213	5202.436667	1545.136719	178.769958
-15645.495213	5202.436667	1544.086914	207.605865
-15645.495213	5202.436667	1543.035156	438.854950
-15645.495213	5202.436667	1541.984375	460.843506
-15645.495213	5202.436667	1540.933594	439.650482
-15645.495213	5202.436667	1539.881836	241.193893
-15645.495213	5202.436667	1538.830078	217.817902
-15645.495213	5202.436667	1537.778320	358.058838
-15645.495213	5202.436667	1536.725586	361.968536
-15645.495213	5202.436667	1535.673828	363.628510
-15645.495213	5202.436667	1534.621094	363.036743
-15645.495213	5202.436667	1533.568359	323.873291
-15645.495213	5202.436667	1532.515625	289.286743
-15645.495213	5202.436667	1531.461914	209.346588
-15645.495213	5202.436667	1530.409180	90.891983
-15645.495213	5202.436667	1529.355469	337.724823
-15645.495213	5202.436667	1528.301758	344.075806
-15645.495213	5202.436667	1527.247070	19.379723
-15645.495213	5202.436667	1526.193359	77.980423
-15645.495213	5202.436667	1525.138672	88.978813
-15645.495213	5202.436667	1524.083984	204.242188
-15645.495213	5202.436667	1523.029297	-108.745857
-15645.495213	5202.436667	1521.974609	-102.175583
-15645.495213	5202.436667	1520.918945	-45.758537
-15645.495213	5202.436667	1519.863281	-118.412659
-15645.495213	5202.436667	1518.807617	-39.325272
-15645.495213	5202.436667	1517.751953	-71.158325
-15645.495213	5202.436667	1516.696289	-80.321800
-15645.495213	5202.436667	1515.639648	-161.864029
-15645.495213	5202.436667	1514.583008	14.541046
-15645.495213	5202.436667	1513.526367	23.534218
-15645.495213	5202.436667	1512.469727	12.196702
-15645.495213	5202.436667	1511.412109	-39.806847
-15645.495213	5202.436667	1510.355469	-57.855026
-15645.495213	5202.436667	1509.297852	-23.894066
-15645.495213	5202.436667	1508.240234	68.827721
-15645.495213	5202.436667	1507.181641	14.698715
-15645.495213	5202.436667	1506.124023	100.654556
-15645.495213	5202.436667	1505.065430	98.532433
-15645.495213	5202.436667	1504.006836	-163.198318
-15645.495213	5202.436667	1502.948242	-4.946719
-15645.495213	5202.436667	1501.888672	-38.561573
-15645.495213	5202.436667	1500.830078	92.581947
-15645.495213	5202.436667	1499.770508	68.040024
-15645.495213	5202.436667	1498.710938	5.193970
-15645.495213	5202.436667	1497.650391	-82.406464
-15645.495213	5202.436667	1496.590820	-50.449181
-15645.495213	5202.436667	1495.530273	100.991356
-15645.495213	5202.436667	1494.469727	110.418419
-15645.495213	5202.436667	1493.409180	-64.894424
-15645.495213	5202.436667	1492.348633	-59.885513
-15645.495213	5202.436667	1491.287109	-27.823305
-15645.495213	5202.436667	1490.225586	-110.590393
-15645.495213	5202.436667	1489.164063	-71.717903
-15645.495213	5202.436667	1488.102539	-30.578756
-15645.495213	5202.436667	1487.041016	64.585968
-15645.495213	5202.436667	1485.978516	-56.268429
-15645.495213	5202.436667	1484.916016	-48.805935
-15645.495213	5202.436667	1483.853516	-70.571358
-15645.495213	5202.436667	1482.791016	-110.277466
-15645.495213	5202.436667	1481.727539	-28.532320
-15645.495213	5202.436667	1480.664063	-115.370155
-15645.495213	5202.436667	1479.600586	-152.692230
-15645.495213	5202.436667	1478.537109	14.472277
-15645.495213	5202.436667	1477.473633	40.093189
-15645.495213	5202.436667	1476.409180	-15.115141
-15645.495213	5202.436667	1475.344727	-29.842379
-15645.495213	5202.436667	1474.280273	103.583450
-15645.495213	5202.436667	1473.215820	-406.990875
-15645.495213	5202.436667	1472.151367	-212.858231
-15645.495213	5202.436667	1471.085938	-52.516998
-15645.495213	5202.436667	1470.020508	11.504108
-15645.495213	5202.436667	1468.955078	23.924913
-15645.495213	5202.436667	1467.888672	38.536167
-15645.495213	5202.436667	1466.823242	133.540848
-15645.495213	5202.436667	1465.756836	65.553589
-15645.495213	5202.436667	1464.690430	145.150024
-15645.495213	5202.436667	1463.624023	195.322433
-15645.495213	5202.436667	1462.556641	96.285530
-15645.495213	5202.436667	1461.490234	240.693146
-15645.495213	5202.436667	1460.422852	309.341858
-15645.495213	5202.436667	1459.355469	62.782719
-15645.495213	5202.436667	1458.287109	124.466904
-15645.495213	5202.436667	1457.219727	300.203247
-15645.495213	5202.436667	1456.151367	217.329605
-15645.495213	5202.436667	1455.083008	248.044342
-15645.495213	5202.436667	1454.014648	532.892456
-15645.495213	5202.436667	1452.945313	385.288116
-15645.495213	5202.436667	1451.876953	444.230286
-15645.495213	5202.436667	1450.807617	500.095245
-15645.495213	5202.436667	1449.738281	639.251038
-15645.495213	5202.436667	1448.668945	418.337463
-15645.495213	5202.436667	1447.598633	427.672150
-15645.495213	5202.436667	1446.528320	547.596741
-15645.495213	5202.436667	1445.458008	479.624939
-15645.495213	5202.436667	1444.387695	568.312500
-15645.495213	5202.436667	1443.317383	394.841125
-15645.495213	5202.436667	1442.246094	297.515869
-15645.495213	5202.436667	1441.174805	409.419464
-15645.495213	5202.436667	1440.103516	381.760956
-15645.495213	5202.436667	1439.032227	189.403641
-15645.495213	5202.436667	1437.960938	239.209824
-15645.495213	5202.436667	1436.888672	267.631317
-15645.495213	5202.436667	1435.816406	409.988892
-15645.495213	5202.436667	1434.744141	547.161499
-15645.495213	5202.436667	1433.670898	616.661560
-15645.495213	5202.436667	1432.598633	551.759216
-15645.495213	5202.436667	1431.525391	586.459778
-15645.495213	5202.436667	1430.452148	579.508728
-15645.495213	5202.436667	1429.378906	593.693176
-15645.495213	5202.436667	1428.304688	659.697510
-15645.495213	5202.436667	1427.231445	526.554321
-15645.495213	5202.436667	1426.157227	485.974304
-15645.495213	5202.436667	1425.083008	183.445831
-15645.495213	5202.436667	1424.007813	403.336121
-15645.495213	5202.436667	1422.933594	352.396210
-15645.495213	5202.436667	1421.858398	175.503998
-15645.495213	5202.436667	1420.783203	184.359695
-15645.495213	5202.436667	1419.708008	302.066833
-15645.495213	5202.436667	1418.631836	184.085480
-15645.495213	5202.436667	1417.555664	-39.668438
-15645.495213	5202.436667	1416.479492	44.948620
-15645.495213	5202.436667	1415.403320	-51.434464
-15645.495213	5202.436667	1414.327148	55.955730
-15645.495213	5202.436667	1413.250000	24.191753
-15645.495213	5202.436667	1412.173828	1.286659
-15645.495213	5202.436667	1411.096680	-20.972792
-15645.495213	5202.436667	1410.018555	-6.613873
-15645.495213	5202.436667	1408.941406	129.133102
-15645.495213	5202.436667	1407.863281	111.782608
-15645.495213	5202.436667	1406.785156	-114.877693
-15645.495213	5202.436667	1405.707031	-193.936722
-15645.495213	5202.436667	1404.628906	-51.753906
-15645.495213	5202.436667	1403.549805	-88.810112
-15645.495213	5202.436667	1402.470703	36.516132
-15645.495213	5202.436667	1401.391602	138.541183
-15645.495213	5202.436667	1400.312500	-98.356102
-15645.495213	5202.436667	1399.233398	-189.856445
-15645.495213	5202.436667	1398.153320	-102.338028
-15645.495213	5202.436667	1397.073242	100.182739
-15645.495213	5202.436667	1395.993164	127.546631
-15645.495213	5202.436667	1394.913086	-25.980793
-15645.495213	5202.436667	1393.832031	93.469460
-15645.495213	5202.436667	1392.750977	105.916016
-15645.495213	5202.436667	1391.669922	61.823658
-15645.495213	5202.436667	1390.588867	107.213791
-15645.495213	5202.436667	1389.506836	196.256302
-15645.495213	5202.436667	1388.425781	133.624908
-15645.495213	5202.436667	1387.343750	58.610630
-15645.495213	5202.436667	1386.261719	197.935043
-15645.495213	5202.436667	1385.178711	154.614838
-15645.495213	5202.436667	1384.096680	239.242386
-15645.495213	5202.436667	1383.013672	195.293564
-15645.495213	5202.436667	1381.930664	183.260284
-15645.495213	5202.436667	1380.846680	57.140797
-15645.495213	5202.436667	1379.763672	221.394424
-15645.495213	5202.436667	1378.679688	288.553894
-15645.495213	5202.436667	1377.595703	-10.389956
-15645.495213	5202.436667	1376.511719	178.498306
-15645.495213	5202.436667	1375.427734	111.159988
-15645.495213	5202.436667	1374.342773	202.839600
-15645.495213	5202.436667	1373.257813	66.002441
-15645.495213	5202.436667	1372.172852	246.302689
-15645.495213	5202.436667	1371.087891	241.097656
-15645.495213	5202.436667	1370.001953	189.475723
-15645.495213	5202.436667	1368.916992	137.632858
-15645.495213	5202.436667	1367.831055	184.761581
-15645.495213	5202.436667	1366.744141	7.115780
-15645.495213	5202.436667	1365.658203	40.210567
-15645.495213	5202.436667	1364.571289	62.318714
-15645.495213	5202.436667	1363.484375	65.905228
-15645.495213	5202.436667	1362.397461	-17.981201
-15645.495213	5202.436667	1361.310547	102.929810
-15645.495213	5202.436667	1360.222656	206.947586
-15645.495213	5202.436667	1359.135742	29.944298
-15645.495213	5202.436667	1358.047852	70.759476
-15645.495213	5202.436667	1356.958984	174.853027
-15645.495213	5202.436667	1355.871094	88.905540
-15645.495213	5202.436667	1354.782227	95.341660
-15645.495213	5202.436667	1353.693359	30.999151
-15645.495213	5202.436667	1352.604492	189.691345
-15645.495213	5202.436667	1351.515625	116.474731
-15645.495213	5202.436667	1350.425781	160.120789
-15645.495213	5202.436667	1349.335938	262.257202
-15645.495213	5202.436667	1348.246094	70.573257
-15645.495213	5202.436667	1347.156250	23.933071
-15645.495213	5202.436667	1346.066406	142.239792
-15645.495213	5202.436667	1344.975586	83.907608
-15645.495213	5202.436667	1343.884766	88.369728
-15645.495213	5202.436667	1342.793945	64.235344
-15645.495213	5202.436667	1341.702148	-33.002174
-15645.495213	5202.436667	1340.611328	92.168991
-15645.495213	5202.436667	1339.519531	81.636154
-15645.495213	5202.436667	1338.427734	145.599930
-15645.495213	5202.436667	1337.334961	123.924904
-15645.495213	5202.436667	1336.243164	185.590408
-15645.495213	5202.436667	1335.150391	221.319916
-15645.495213	5202.436667	1334.057617	239.448715
-15645.495213	5202.436667	1332.964844	95.111374
-15645.495213	5202.436667	1331.871094	233.185272
-15645.495213	5202.436667	1330.778320	300.315521
-15645.495213	5202.436667	1329.684570	101.498291
-15645.495213	5202.436667	1328.590820	105.344109
-15645.495213	5202.436667	1327.496094	153.854477
-15645.495213	5202.436667	1326.402344	25.914515
-15645.495213	5202.436667	1325.307617	157.442474
-15645.495213	5202.436667	1324.212891	152.825134
-15645.495213	5202.436667	1323.117188	64.609993
-15645.495213	5202.436667	1322.022461	63.323563
-15645.495213	5202.436667	1320.926758	109.761246
-15645.495213	5202.436667	1319.831055	152.998184
-15645.495213	5202.436667	1318.735352	238.416031
-15645.495213	5202.436667	1317.638672	93.731308
-15645.495213	5202.436667	1316.542969	-116.594147
-15645.495213	5202.436667	1315.446289	41.334892
-15645.495213	5202.436667	1314.349609	75.101265
-15645.495213	5202.436667	1313.251953	70.250702
-15645.495213	5202.436667	1312.155273	-18.958277
-15645.495213	5202.436667	1311.057617	18.222263
-15645.495213	5202.436667	1309.959961	-180.045837
-15645.495213	5202.436667	1308.862305	81.427658
-15645.495213	5202.436667	1307.763672	-103.740150
-15645.495213	5202.436667	1306.665039	4.705299
-15645.495213	5202.436667	1305.566406	-19.151258
-15645.495213	5202.436667	1304.467773	-115.904770
-15645.495213	5202.436667	1303.369141	-132.574997
-15645.495213	5202.436667	1302.269531	-130.633575
-15645.495213	5202.436667	1301.169922	19.155378
-15645.495213	5202.436667	1300.070313	-111.970093
-15645.495213	5202.436667	1298.970703	113.298378
-15645.495213	5202.436667	1297.870117	2.565401
-15645.495213	5202.436667	1296.769531	-60.080696
-15645.495213	5202.436667	1295.668945	195.784653
-15645.495213	5202.436667	1294.568359	110.059669
-15645.495213	5202.436667	1293.466797	216.347061
-15645.495213	5202.436667	1292.366211	209.970978
-15645.495213	5202.436667	1291.264648	10.611721
-15645.495213	5202.436667	1290.162109	106.401917
-15645.495213	5202.436667	1289.060547	86.987869
-15645.495213	5202.436667	1287.958008	-47.103344
-15645.495213	5202.436667	1286.855469	193.131470
-15645.495213	5202.436667	1285.752930	3.754588
-15645.495213	5202.436667	1284.650391	-84.076050
-15645.495213	5202.436667	1283.546875	85.142830
-15645.495213	5202.436667	1282.444336	2.394205
-15645.495213	5202.436667	1281.339844	55.206982
-15645.495213	5202.436667	1280.236328	130.420898
-15645.495213	5202.436667	1279.132813	99.566597
-15645.495213	5202.436667	1278.028320	25.807570
-15645.495213	5202.436667	1276.923828	31.285515
-15645.495213	5202.436667	1275.819336	62.910339
-15645.495213	5202.436667	1274.713867	158.136597
-15645.495213	5202.436667	1273.608398	42.874512
-15645.495213	5202.436667	1272.503906	77.247086
-15645.495213	5202.436667	1271.397461	102.545372
-15645.495213	5202.436667	1270.291992	111.082314
-15645.495213	5202.436667	1269.185547	149.477341
-15645.495213	5202.436667	1268.080078	127.689606
-15645.495213	5202.436667	1266.972656	136.245636
-15645.495213	5202.436667	1265.866211	49.861549
-15645.495213	5202.436667	1264.759766	116.073029
-15645.495213	5202.436667	1263.652344	30.284981
-15645.495213	5202.436667	1262.544922	-7.976342
-15645.495213	5202.436667	1261.436523	18.082657
-15645.495213	5202.436667	1260.329102	62.548832
-15645.495213	5202.436667	1259.220703	7.212762
-15645.495213	5202.436667	1258.112305	27.361397
-15645.495213	5202.436667	1257.003906	35.442715
-15645.495213	5202.436667	1255.895508	-14.402915
-15645.495213	5202.436667	1254.786133	-65.416985
-15645.495213	5202.436667	1253.676758	-45.827259
-15645.495213	5202.436667	1252.567383	18.736132
-15645.495213	5202.436667	1251.458008	-46.170441
-15645.495213	5202.436667	1250.347656	-37.193695
-15645.495213	5202.436667	1249.237305	26.425871
-15645.495213	5202.436667	1248.126953	-12.900874
-15645.495213	5202.436667	1247.016602	-80.407585
-15645.495213	5202.436667	1245.905273	28.192640
-15645.495213	5202.436667	1244.793945	-215.348541
-15645.495213	5202.436667	1243.682617	-104.568512
-15645.495213	5202.436667	1242.571289	-40.010487
-15645.495213	5202.436667	1241.459961	-144.013611
-15645.495213	5202.436667	1240.347656	-142.766495
-15645.495213	5202.436667	1239.235352	-158.048813
-15645.495213	5202.436667	1238.123047	-14.595184
-15645.495213	5202.436667	1237.009766	-31.719221
-15645.495213	5202.436667	1235.897461	91.098091
-15645.495213	5202.436667	1234.784180	21.563793
-15645.495213	5202.436667	1233.670898	-15.373288
-15645.495213	5202.436667	1232.556641	-14.437862
-15645.495213	5202.436667	1231.443359	-134.981094
-15645.495213	5202.436667	1230.329102	-51.861313
-15645.495213	5202.436667	1229.214844	-11.869952
-15645.495213	5202.436667	1228.099609	-85.000252
-15645.495213	5202.436667	1226.985352	-110.038979
-15645.495213	5202.436667	1225.870117	35.422203
-15645.495213	5202.436667	1224.754883	0.428737
-15645.495213	5202.436667	1223.639648	-153.512802
-15645.495213	5202.436667	1222.523438	-167.718857
-15645.495213	5202.436667	1221.408203	-41.931320
-15645.495213	5202.436667	1220.291992	6.543336
-15645.495213	5202.436667	1219.174805	-120.886925
-15645.495213	5202.436667	1218.058594	-114.206207
-15645.495213	5202.436667	1216.941406	-58.076420
-15645.495213	5202.436667	1215.824219	-72.434570
-15645.495213	5202.436667	1214.707031	-31.840481
-15645.495213	5202.436667	1213.589844	-82.816872
-15645.495213	5202.436667	1212.471680	-111.811005
-15645.495213	5202.436667	1211.353516	-20.793106
-15645.495213	5202.436667	1210.235352	-114.314217
-15645.495213	5202.436667	1209.117188	-45.998600
-15645.495213	5202.436667	1207.998047	-44.156803
-15645.495213	5202.436667	1206.878906	-16.911396
-15645.495213	5202.436667	1205.759766	-11.560485
-15645.495213	5202.436667	1204.640625	6.031427
-15645.495213	5202.436667	1203.520508	-28.285059
-15645.495213	5202.436667	1202.401367	25.788113
-15645.495213	5202.436667	1201.281250	52.759037
-15645.495213	5202.436667	1200.160156	119.301300
-15645.495213	5202.436667	1199.040039	38.070374
-15645.495213	5202.436667	1197.918945	208.121231
-15645.495213	5202.436667	1196.797852	144.147705
-15645.495213	5202.436667	1195.676758	34.570461
-15645.495213	5202.436667	1194.555664	109.012291
-15645.495213	5202.436667	1193.433594	111.189041
-15645.495213	5202.436667	1192.311523	175.736938
-15645.495213	5202.436667	1191.189453	142.585419
-15645.495213	5202.436667	1190.066406	121.680809
-15645.495213	5202.436667	1188.944336	103.016479
-15645.495213	5202.436667	1187.821289	190.762650
-15645.495213	5202.436667	1186.698242	184.092636
-15645.495213	5202.436667	1185.574219	156.502579
-15645.495213	5202.436667	1184.451172	54.189972
-15645.495213	5202.436667	1183.327148	211.557419
-15645.495213	5202.436667	1182.203125	229.196259
-15645.495213	5202.436667	1181.078125	236.419968
-15645.495213	5202.436667	1179.954102	80.246399
-15645.495213	5202.436667	1178.829102	183.877945
-15645.495213	5202.436667	1177.704102	139.392288
-15645.495213	5202.436667	1176.579102	174.303818
-15645.495213	5202.436667	1175.453125	333.160431
-15645.495213	5202.436667	1174.327148	207.653061
-15645.495213	5202.436667	1173.201172	350.760010
-15645.495213	5202.436667	1172.075195	206.492783
-15645.495213	5202.436667	1170.949219	157.162689
-15645.495213	5202.436667	1169.822266	206.561707
-15645.495213	5202.436667	1168.695313	102.591759
-15645.495213	5202.436667	1167.568359	8.991899
-15645.495213	5202.436667	1166.440430	-25.329697
-15645.495213	5202.436667	1165.313477	7.697675
-15645.495213	5202.436667	1164.185547	102.872032
-15645.495213	5202.436667	1163.057617	-13.716199
-15645.495213	5202.436667	1161.928711	72.588219
-15645.495213	5202.436667	1160.800781	79.854095
-15645.495213	5202.436667	1159.671875	-58.500492
-15645.495213	5202.436667	1158.541992	35.582844
-15645.495213	5202.436667	1157.413086	-26.125881
-15645.495213	5202.436667	1156.283203	9.759162
-15645.495213	5202.436667	1155.154297	86.873253
-15645.495213	5202.436667	1154.023438	28.753695
-15645.495213	5202.436667	1152.893555	93.735855
-15645.495213	5202.436667	1151.763672	44.480801
-15645.495213	5202.436667	1150.632813	-75.528152
-15645.495213	5202.436667	1149.501953	-33.880165
-15645.495213	5202.436667	1148.370117	-39.332176
-15645.495213	5202.436667	1147.239258	-43.457771
-15645.495213	5202.436667	1146.107422	-42.334129
-15645.495213	5202.436667	1144.975586	-118.772049
-15645.495213	5202.436667	1143.843750	-38.015846
-15645.495213	5202.436667	1142.710938	135.965591
-15645.495213	5202.436667	1141.578125	-164.653137
-15645.495213	5202.436667	1140.445313	83.321136
-15645.495213	5202.436667	1139.312500	-97.615646
-15645.495213	5202.436667	1138.178711	-155.822052
-15645.495213	5202.436667	1137.045898	131.689056
-15645.495213	5202.436667	1135.912109	72.718277
-15645.495213	5202.436667	1134.777344	80.015450
-15645.495213	5202.436667	1133.643555	-129.812134
-15645.495213	5202.436667	1132.508789	74.192345
-15645.495213	5202.436667	1131.374023	51.687946
-15645.495213	5202.436667	1130.239258	-115.808884
-15645.495213	5202.436667	1129.104492	213.592331
-15645.495213	5202.436667	1127.968750	94.228279
-15645.495213	5202.436667	1126.833008	7.841067
-15645.495213	5202.436667	1125.697266	74.703018
-15645.495213	5202.436667	1124.560547	-7.693950
-15645.495213	5202.436667	1123.424805	178.182495
-15645.495213	5202.436667	1122.288086	96.988213
-15645.495213	5202.436667	1121.151367	129.064987
-15645.495213	5202.436667	1120.013672	226.320724
-15645.495213	5202.436667	1118.876953	197.597412
-15645.495213	5202.436667	1117.739258	260.340881
-15645.495213	5202.436667	1116.601563	348.429077
-15645.495213	5202.436667	1115.462891	348.953491
-15645.495213	5202.436667	1114.324219	396.921997
-15645.495213	5202.436667	1113.186523	491.050537
-15645.495213	5202.436667	1112.046875	354.812897
-15645.495213	5202.436667	1110.908203	553.104187
-15645.495213	5202.436667	1109.769531	553.818604
-15645.495213	5202.436667	1108.629883	549.022156
-15645.495213	5202.436667	1107.490234	486.223816
-15645.495213	5202.436667	1106.349609	560.179016
-15645.495213	5202.436667	1105.209961	281.440948
-15645.495213	5202.436667	1104.069336	399.533356
-15645.495213	5202.436667	1102.928711	387.620483
-15645.495213	5202.436667	1101.787109	287.269257
-15645.495213	5202.436667	1100.646484	282.576996
-15645.495213	5202.436667	1099.504883	166.534073
-15645.495213	5202.436667	1098.363281	169.697418
-15645.495213	5202.436667	1097.221680	151.121597
-15645.495213	5202.436667	1096.079102	250.169418
-15645.495213	5202.436667	1094.936523	280.767944
-15645.495213	5202.436667	1093.793945	257.341888
-15645.495213	5202.436667	1092.651367	188.503510
-15645.495213	5202.436667	1091.507813	98.962189
-15645.495213	5202.436667	1090.364258	130.521057
-15645.495213	5202.436667	1089.220703	217.799179
-15645.495213	5202.436667	1088.077148	219.919540
-15645.495213	5202.436667	1086.933594	94.286377
-15645.495213	5202.436667	1085.789063	22.482563
-15645.495213	5202.436667	1084.644531	359.440704
-15645.495213	5202.436667	1083.499023	388.402802
-15645.495213	5202.436667	1082.354492	331.413452
-15645.495213	5202.436667	1081.208984	308.883514
-15645.495213	5202.436667	1080.063477	188.214905
-15645.495213	5202.436667	1078.917969	138.577484
-15645.495213	5202.436667	1077.771484	169.176590
-15645.495213	5202.436667	1076.625977	105.883621
-15645.495213	5202.436667	1075.479492	205.012619
-15645.495213	5202.436667	1074.332031	7.823293
-15645.495213	5202.436667	1073.185547	-79.133713
-15645.495213	5202.436667	1072.038086	53.148460
-15645.495213	5202.436667	1070.890625	36.968334
-15645.495213	5202.436667	1069.743164	140.702835
-15645.495213	5202.436667	1068.594727	-24.121988
-15645.495213	5202.436667	1067.447266	-23.144762
-15645.495213	5202.436667	1066.298828	-51.748413
-15645.495213	5202.436667	1065.149414	2.595319
-15645.495213	5202.436667	1064.000977	34.259605
-15645.495213	5202.436667	1062.851563	90.024529
-15645.495213	5202.436667	1061.702148	-93.278534
-15645.495213	5202.436667	1060.552734	-94.990921
-15645.495213	5202.436667	1059.402344	-142.856674
-15645.495213	5202.436667	1058.252930	-80.351585
-15645.495213	5202.436667	1057.102539	0.447841
-15645.495213	5202.436667	1055.951172	-98.200134
-15645.495213	5202.436667	1054.800781	-63.454792
-15645.495213	5202.436667	1053.649414	-74.897118
-15645.495213	5202.436667	1052.498047	-5.745893
-15645.495213	5202.436667	1051.346680	-94.607071
-15645.495213	5202.436667	1050.194336	90.561806
-15645.495213	5202.436667	1049.042969	-42.146423
-15645.495213	5202.436667	1047.890625	151.667099
-15645.495213	5202.436667	1046.738281	122.044411
-15645.495213	5202.436667	1045.584961	69.826271
-15645.495213	5202.436667	1044.431641	163.437561
-15645.495213	5202.436667	1043.278320	-35.254036
-15645.495213	5202.436667	1042.125000	123.876038
-15645.495213	5202.436667	1040.971680	35.321445
-15645.495213	5202.436667	1039.817383	128.010773
-15645.495213	5202.436667	1038.663086	57.890972
-15645.495213	5202.436667	1037.508789	27.150047
-15645.495213	5202.436667	1036.353516	67.147697
-15645.495213	5202.436667	1035.198242	-149.918106
-15645.495213	5202.436667	1034.042969	98.749054
-15645.495213	5202.436667	1032.887695	164.368469
-15645.495213	5202.436667	1031.732422	232.060287
-15645.495213	5202.436667	1030.576172	90.945374
-15645.495213	5202.436667	1029.419922	129.171494
-15645.495213	5202.436667	1028.263672	223.834885
-15645.495213	5202.436667	1027.106445	144.634003
-15645.495213	5202.436667	1025.949219	170.214706
-15645.495213	5202.436667	1024.792969	181.003647
-15645.495213	5202.436667	1023.634766	198.145386
-15645.495213	5202.436667	1022.477539	41.914433
-15645.495213	5202.436667	1021.319336	125.296448
-15645.495213	5202.436667	1020.161133	-78.880501
-15645.495213	5202.436667	1019.002930	16.002285
-15645.495213	5202.436667	1017.843750	-75.186401
-15645.495213	5202.436667	1016.684570	8.431343
-15645.495213	5202.436667	1015.525391	-26.949585
-15645.495213	5202.436667	1014.366211	68.103989
-15645.495213	5202.436667	1013.207031	-35.082176
-15645.495213	5202.436667	1012.046875	-42.662796
-15645.495213	5202.436667	1010.886719	-86.343872
-15645.495213	5202.436667	1009.726563	-159.150238
-15645.495213	5202.436667	1008.565430	26.487986
-15645.495213	5202.436667	1007.404297	87.896080
-15645.495213	5202.436667	1006.243164	50.779694
-15645.495213	5202.436667	1005.082031	-31.545650
-15645.495213	5202.436667	1003.920898	185.040253
-15645.495213	5202.436667	1002.758789	176.588623
-15645.495213	5202.436667	1001.596680	182.386780
-15645.495213	5202.436667	1000.433594	326.113373
-15645.495213	5202.436667	999.271484	252.383972
-15645.495213	5202.436667	998.108398	147.244797
-15645.495213	5202.436667	996.945313	61.689224
-15645.495213	5202.436667	995.782227	74.097252
-15645.495213	5202.436667	994.618164	120.682137
-15645.495213	5202.436667	993.454102	334.969574
-15645.495213	5202.436667	992.290039	80.057274
-15645.495213	5202.436667	991.125977	239.153870
-15645.495213	5202.436667	989.960938	292.699615
-15645.495213	5202.436667	988.796875	13.519857
-15645.495213	5202.436667	987.630859	104.123146
-15645.495213	5202.436667	986.465820	162.335098
-15645.495213	5202.436667	985.300781	72.539352
-15645.495213	5202.436667	984.134766	19.239113
-15645.495213	5202.436667	982.968750	112.646210
-15645.495213	5202.436667	981.801758	64.510422
-15645.495213	5202.436667	980.635742	63.726547
-15645.495213	5202.436667	979.468750	50.016201
-15645.495213	5202.436667	978.301758	154.422302
-15645.495213	5202.436667	977.133789	86.168724
-15645.495213	5202.436667	975.966797	114.234818
-15645.495213	5202.436667	974.798828	-59.890793
-15645.495213	5202.436667	973.630859	50.640526
-15645.495213	5202.436667	972.461914	21.025251
-15645.495213	5202.436667	971.293945	161.070480
-15645.495213	5202.436667	970.125000	283.655365
-15645.495213	5202.436667	968.956055	75.628113
-15645.495213	5202.436667	967.786133	182.105072
-15645.495213	5202.436667	966.617188	135.517441
-15645.495213	5202.436667	965.447266	112.659843
-15645.495213	5202.436667	964.276367	138.119263
-15645.495213	5202.436667	963.106445	8.988616
-15645.495213	5202.436667	961.935547	100.657150
-15645.495213	5202.436667	960.764648	116.891602
-15645.495213	5202.436667	959.593750	211.187210
-15645.495213	5202.436667	958.422852	-52.535480
-15645.495213	5202.436667	957.250977	83.789505
-15645.495213	5202.436667	956.079102	177.656464
-15645.495213	5202.436667	954.907227	173.409302
-15645.495213	5202.436667	953.734375	233.133484
-15645.495213	5202.436667	952.562500	312.110077
-15645.495213	5202.436667	951.389648	258.720825
-15645.495213	5202.436667	950.215820	266.198792
-15645.495213	5202.436667	949.042969	559.088745
-15645.495213	5202.436667	947.869141	518.094604
-15645.495213	5202.436667	946.695313	663.145935
-15645.495213	5202.436667	945.521484	666.329712
-15645.495213	5202.436667	944.346680	649.644897
-15645.495213	5202.436667	943.172852	618.115417
-15645.495213	5202.436667	941.998047	476.386536
-15645.495213	5202.436667	940.822266	535.219177
-15645.495213	5202.436667	939.647461	386.314392
-15645.495213	5202.436667	938.471680	176.296555
-15645.495213	5202.436667	937.295898	173.989182
-15645.495213	5202.436667	936.119141	142.541580
-15645.495213	5202.436667	934.943359	145.320999
-15645.495213	5202.436667	933.766602	268.240234
-15645.495213	5202.436667	932.589844	-22.551928
-15645.495213	5202.436667	931.413086	-142.050995
-15645.495213	5202.436667	930.235352	-41.242920
-15645.495213	5202.436667	929.057617	-26.112698
-15645.495213	5202.436667	927.879883	-62.376019
-15645.495213	5202.436667	926.702148	45.698196
-15645.495213	5202.436667	925.523438	33.900318
-15645.495213	5202.436667	924.344727	66.138451
-15645.495213	5202.436667	923.166016	88.549438
-15645.495213	5202.436667	921.987305	5.855079
-15645.495213	5202.436667	920.807617	-76.810043
-15645.495213	5202.436667	919.627930	-74.821014
-15645.495213	5202.436667	919.497070	-137.237000
-15645.495213	5202.436667	918.331055	-36.668690
-15645.495213	5202.436667	917.165039	-70.471680
-15645.495213	5202.436667	915.999023	56.888321
-15645.495213	5202.436667	914.833008	-15.993848
-15645.495213	5202.436667	913.666016	128.377182
-15645.495213	5202.436667	912.499023	223.877365
-15645.495213	5202.436667	911.332031	-53.952209
-15645.495213	5202.436667	910.165039	-17.008871
-15645.495213	5202.436667	908.997070	34.547455
-15645.495213	5202.436667	907.830078	195.798157
-15645.495213	5202.436667	906.661133	242.404358
-15645.495213	5202.436667	905.493164	-54.673267
-15645.495213	5202.436667	904.325195	157.653885
-15645.495213	5202.436667	903.156250	-22.353251
-15645.495213	5202.436667	901.987305	31.544104
-15645.495213	5202.436667	900.818359	148.732269
-15645.495213	5202.436667	899.648438	80.823257
-15645.495213	5202.436667	898.478516	107.875160
-15645.495213	5202.436667	897.308594	117.873932
-15645.495213	5202.436667	896.138672	159.496902
-15645.495213	5202.436667	894.968750	157.306671
-15645.495213	5202.436667	893.797852	174.572922
-15645.495213	5202.436667	892.626953	109.145279
-15645.495213	5202.436667	891.456055	172.600021
-15645.495213	5202.436667	890.284180	160.670181
-15645.495213	5202.436667	889.113281	-45.688202
-15645.495213	5202.436667	887.941406	78.493324
-15645.495213	5202.436667	886.768555	-74.323746
-15645.495213	5202.436667	885.596680	149.386948
-15645.495213	5202.436667	884.423828	-102.953537
-15645.495213	5202.436667	883.250977	-42.001411
-15645.495213	5202.436667	882.078125	45.622799
-15645.495213	5202.436667	880.905273	101.657448
-15645.495213	5202.436667	879.731445	147.962006
-15645.495213	5202.436667	878.557617	203.946686
-15645.495213	5202.436667	877.383789	-14.162398
-15645.495213	5202.436667	876.209961	3.026934
-15645.495213	5202.436667	875.035156	-79.192276
-15645.495213	5202.436667	873.860352	-86.240883
-15645.495213	5202.436667	872.685547	221.750320
-15645.495213	5202.436667	871.510742	144.372223
-15645.495213	5202.436667	870.334961	33.109722
-15645.495213	5202.436667	869.159180	81.735352
-15645.495213	5202.436667	867.983398	-34.318230
-15645.495213	5202.436667	866.807617	96.605782
-15645.495213	5202.436667	865.630859	4.795989
-15645.495213	5202.436667	864.454102	-130.538071
-15645.495213	5202.436667	863.277344	143.063095
-15645.495213	5202.436667	862.100586	5.331017
-15645.495213	5202.436667	860.922852	-112.998474
-15645.495213	5202.436667	859.745117	54.033669
-15645.495213	5202.436667	858.567383	-214.144287
-15645.495213	5202.436667	857.389648	-3.660734
-15645.495213	5202.436667	856.210938	90.745567
-15645.495213	5202.436667	855.032227	25.657677
-15645.495213	5202.436667	853.853516	-36.991268
-15645.495213	5202.436667	852.674805	30.790947
-15645.495213	5202.436667	851.495117	16.452057
-15645.495213	5202.436667	850.315430	9.357845
-15645.495213	5202.436667	849.135742	60.187527
-15645.495213	5202.436667	847.956055	130.297073
-15645.495213	5202.436667	846.775391	-132.545471
-15645.495213	5202.436667	845.595703	55.756672
-15645.495213	5202.436667	844.415039	2.831339
-15645.495213	5202.436667	843.233398	125.929024
-15645.495213	5202.436667	842.052734	140.499542
-15645.495213	5202.436667	840.871094	80.352844
-15645.495213	5202.436667	839.689453	-15.914819
-15645.495213	5202.436667	838.506836	-80.826469
-15645.495213	5202.436667	837.325195	-22.881983
-15645.495213	5202.436667	836.142578	42.261761
-15645.495213	5202.436667	834.959961	-61.150551
-15645.495213	5202.436667	833.777344	-195.814743
-15645.495213	5202.436667	832.593750	23.335520
-15645.495213	5202.436667	831.410156	-159.415054
-15645.495213	5202.436667	830.226563	110.148354
-15645.495213	5202.436667	829.042969	264.155609
-15645.495213	5202.436667	827.858398	-7.507658
-15645.495213	5202.436667	826.673828	350.800690
-15645.495213	5202.436667	825.489258	221.035721
-15645.495213	5202.436667	824.304688	86.515244
-15645.495213	5202.436667	823.120117	132.239731
-15645.495213	5202.436667	821.934570	132.304245
-15645.495213	5202.436667	820.749023	17.090197
-15645.495213	5202.436667	819.562500	36.382099
-15645.495213	5202.436667	818.376953	79.667419
-15645.495213	5202.436667	817.190430	36.529877
-15645.495213	5202.436667	816.003906	166.178024
-15645.495213	5202.436667	814.817383	-32.907722
-15645.495213	5202.436667	813.629883	-128.773453
-15645.495213	5202.436667	812.442383	-3.977194
-15645.495213	5202.436667	811.254883	197.487808
-15645.495213	5202.436667	810.067383	-46.997654
-15645.495213	5202.436667	808.878906	163.973450
-15645.495213	5202.436667	807.690430	-113.956230
-15645.495213	5202.436667	806.501953	267.023743
-15645.495213	5202.436667	805.313477	199.951904
-15645.495213	5202.436667	804.124023	135.299698
-15645.495213	5202.436667	802.934570	190.377716
-15645.495213	5202.436667	801.745117	350.748871
-15645.495213	5202.436667	800.555664	314.811005
-15645.495213	5202.436667	799.365234	104.220650
-15645.495213	5202.436667	798.175781	85.084930
-15645.495213	5202.436667	796.985352	-58.412964
-15645.495213	5202.436667	795.793945	32.480267
-15645.495213	5202.436667	794.603516	137.674042
-15645.495213	5202.436667	793.412109	44.435509
-15645.495213	5202.436667	792.220703	10.972229
-15645.495213	5202.436667	791.028320	108.925522
-15645.495213	5202.436667	789.836914	-180.137955
-15645.495213	5202.436667	788.644531	37.213451
-15645.495213	5202.436667	787.452148	-153.828308
-15645.495213	5202.436667	786.258789	-17.747435
-15645.495213	5202.436667	785.066406	-125.174995
-15645.495213	5202.436667	783.873047	-101.320015
-15645.495213	5202.436667	782.679688	89.519730
-15645.495213	5202.436667	781.485352	-46.501339
-15645.495213	5202.436667	780.291992	125.157639
-15645.495213	5202.436667	779.097656	-41.821804
-15645.495213	5202.436667	777.903320	196.498413
-15645.495213	5202.436667	776.708008	29.561756
-15645.495213	5202.436667	775.512695	131.938629
-15645.495213	5202.436667	774.318359	-27.783443
-15645.495213	5202.436667	773.122070	160.294022
-15645.495213	5202.436667	771.926758	24.431932
-15645.495213	5202.436667	770.730469	-68.526176
-15645.495213	5202.436667	769.534180	-9.114854
-15645.495213	5202.436667	768.337891	-2.091088
-15645.495213	5202.436667	767.141602	-35.526321
-15645.495213	5202.436667	765.944336	52.364632
-15645.495213	5202.436667	764.747070	87.888054
-15645.495213	5202.436667	763.549805	40.164879
-15645.495213	5202.436667	762.351563	68.528122
-15645.495213	5202.436667	761.154297	32.696018
-15645.495213	5202.436667	759.956055	125.192169
-15645.495213	5202.436667	758.757813	-136.357285
-15645.495213	5202.436667	757.558594	-84.261963
-15645.495213	5202.436667	756.359375	-129.566132
-15645.495213	5202.436667	755.160156	29.333078
-15645.495213	5202.436667	753.960938	81.332451
-15645.495213	5202.436667	752.761719	-63.687824
-15645.495213	5202.436667	751.561523	144.899628
-15645.495213	5202.436667	750.361328	59.216076
-15645.495213	5202.436667	749.160156	-16.953409
-15645.495213	5202.436667	747.959961	-85.989067
-15645.495213	5202.436667	746.758789	74.969910
-15645.495213	5202.436667	745.557617	-69.929291
-15645.495213	5202.436667	744.356445	135.965012
-15645.495213	5202.436667	743.154297	268.311829
-15645.495213	5202.436667	741.952148	113.954193
-15645.495213	5202.436667	740.750000	-99.561226
-15645.495213	5202.436667	739.547852	46.923103
-15645.495213	5202.436667	738.344727	131.782471
-15645.495213	5202.436667	737.142578	29.606035
-15645.495213	5202.436667	735.939453	69.446312
-15645.495213	5202.436667	734.735352	16.986189
-15645.495213	5202.436667	733.532227	196.347595
-15645.495213	5202.436667	732.328125	179.331024
-15645.495213	5202.436667	731.124023	176.494431
-15645.495213	5202.436667	729.918945	-60.385620
-15645.495213	5202.436667	728.714844	244.052155
-15645.495213	5202.436667	727.509766	203.355728
-15645.495213	5202.436667	726.303711	-31.060600
-15645.495213	5202.436667	725.098633	183.382294
-15645.495213	5202.436667	723.892578	-39.153419
-15645.495213	5202.436667	722.686523	231.836548
-15645.495213	5202.436667	721.480469	16.434998
-15645.495213	5202.436667	720.274414	133.869278
-15645.495213	5202.436667	719.067383	27.085285
-15645.495213	5202.436667	717.860352	111.411102
-15645.495213	5202.436667	716.653320	-115.639809
-15645.495213	5202.436667	715.445313	110.130379
-15645.495213	5202.436667	714.238281	246.202850
-15645.495213	5202.436667	713.030273	195.995377
-15645.495213	5202.436667	711.821289	169.358826
-15645.495213	5202.436667	710.613281	24.912636
-15645.495213	5202.436667	709.404297	163.177536
-15645.495213	5202.436667	708.195313	204.808884
-15645.495213	5202.436667	706.986328	114.549133
-15645.495213	5202.436667	705.776367	325.632141
-15645.495213	5202.436667	704.566406	136.498428
-15645.495213	5202.436667	703.356445	48.609241
-15645.495213	5202.436667	702.146484	-20.441393
-15645.495213	5202.436667	700.935547	-30.678967
-15645.495213	5202.436667	699.724609	-50.337193
-15645.495213	5202.436667	698.513672	0.526601
-15645.495213	5202.436667	697.302734	44.297966
-15645.495213	5202.436667	696.090820	-97.628723
-15645.495213	5202.436667	694.878906	-58.593575
-15645.495213	5202.436667	693.666992	81.417885
-15645.495213	5202.436667	692.455078	-20.559877
-15645.495213	5202.436667	691.242188	60.640411
-15645.495213	5202.436667	690.029297	15.012700
-15645.495213	5202.436667	688.816406	13.979174
-15645.495213	5202.436667	687.602539	-144.301254
-15645.495213	5202.436667	686.389648	105.697762
-15645.495213	5202.436667	685.175781	125.693626
-15645.495213	5202.436667	683.960938	-20.849045
-15645.495213	5202.436667	682.747070	27.257826
-15645.495213	5202.436667	681.532227	-98.148331
-15645.495213	5202.436667	680.317383	125.688309
-15645.495213	5202.436667	679.102539	84.625488
-15645.495213	5202.436667	677.886719	-45.466072
-15645.495213	5202.436667	676.670898	-27.965267
-15645.495213	5202.436667	675.455078	101.908516
-15645.495213	5202.436667	674.239258	79.523285
-15645.495213	5202.436667	673.022461	80.532402
-15645.495213	5202.436667	671.805664	34.712349
-15645.495213	5202.436667	670.588867	59.080551
-15645.495213	5202.436667	669.372070	-80.333832
-15645.495213	5202.436667	668.154297	-6.884826
-15645.495213	5202.436667	666.936523	124.966339
-15645.495213	5202.436667	665.718750	6.593556
-15645.495213	5202.436667	664.500977	91.591911
-15645.495213	5202.436667	663.282227	8.279192
-15645.495213	5202.436667	662.063477	30.111252
-15645.495213	5202.436667	660.844727	-64.881264
-15645.495213	5202.436667	659.625000	127.385986
-15645.495213	5202.436667	658.405273	186.461212
-15645.495213	5202.436667	657.185547	49.401924
-15645.495213	5202.436667	655.965820	-64.286118
-15645.495213	5202.436667	654.745117	-154.618256
-15645.495213	5202.436667	653.525391	158.646835
-15645.495213	5202.436667	652.303711	54.260139
-15645.495213	5202.436667	651.083008	45.498318
-15645.495213	5202.436667	649.861328	143.958160
-15645.495213	5202.436667	648.640625	55.879185
-15645.495213	5202.436667	647.417969	-39.180191
-15645.495213	5202.436667	646.196289	40.517380
-15645.495213	5202.436667	644.973633	87.543159
-15645.495213	5202.436667	643.750977	-40.146152
-15645.495213	5202.436667	642.528320	46.406925
-15645.495213	5202.436667	641.305664	18.828808
-15645.495213	5202.436667	640.082031	5.199681
-15645.495213	5202.436667	638.858398	100.916298
-15645.495213	5202.436667	637.634766	59.304806
-15645.495213	5202.436667	636.410156	29.313992
-15645.495213	5202.436667	635.185547	90.002312
-15645.495213	5202.436667	633.960938	66.939087
-15645.495213	5202.436667	632.736328	2.017872
-15645.495213	5202.436667	631.510742	88.156639
-15645.495213	5202.436667	630.285156	127.762077
-15645.495213	5202.436667	629.059570	211.460678
-15645.495213	5202.436667	627.833984	127.875999
-15645.495213	5202.436667	626.607422	206.841476
-15645.495213	5202.436667	625.380859	146.454330
-15645.495213	5202.436667	624.154297	188.191681
-15645.495213	5202.436667	622.927734	127.780602
-15645.495213	5202.436667	621.700195	-53.274612
-15645.495213	5202.436667	620.472656	27.829920
-15645.495213	5202.436667	619.245117	85.683136
-15645.495213	5202.436667	618.016602	-132.426056
-15645.495213	5202.436667	616.788086	-30.573576
-15645.495213	5202.436667	615.559570	64.256294
-15645.495213	5202.436667	614.331055	-91.227364
-15645.495213	5202.436667	613.101563	-56.710316
-15645.495213	5202.436667	611.872070	-26.866503
-15645.495213	5202.436667	610.642578	81.669418
-15645.495213	5202.436667	609.413086	104.473747
-15645.495213	5202.436667	608.182617	-166.717941
-15645.495213	5202.436667	606.952148	34.266212
-15645.495213	5202.436667	605.721680	-26.304108
-15645.495213	5202.436667	604.491211	-126.198288
-15645.495213	5202.436667	603.259766	-20.248672
-15645.495213	5202.436667	602.028320	-60.036213
-15645.495213	5202.436667	600.796875	-39.728710
-15645.495213	5202.436667	599.564453	12.901525
-15645.495213	5202.436667	598.332031	5.405448
-15645.495213	5202.436667	597.099609	9.439504
-15645.495213	5202.436667	595.867188	-14.269547
-15645.495213	5202.436667	594.633789	1.262775
-15645.495213	5202.436667	593.400391	-193.330429
-15645.495213	5202.436667	592.166992	-196.280884
-15645.495213	5202.436667	590.933594	52.292011
-15645.495213	5202.436667	589.699219	139.226227
-15645.495213	5202.436667	588.464844	11.569986
-15645.495213	5202.436667	587.230469	84.591125
-15645.495213	5202.436667	585.995117	132.193970
-15645.495213	5202.436667	584.760742	-36.943031
-15645.495213	5202.436667	583.525391	22.144760
-15645.495213	5202.436667	582.289063	48.923401
-15645.495213	5202.436667	581.053711	-51.040363
-15645.495213	5202.436667	579.817383	141.538849
-15645.495213	5202.436667	578.581055	152.090805
-15645.495213	5202.436667	577.343750	77.428955
-15645.495213	5202.436667	576.107422	-105.408104
-15645.495213	5202.436667	574.870117	22.496239
-15645.495213	5202.436667	573.631836	122.714058
-15645.495213	5202.436667	572.394531	98.650261
-15645.495213	5202.436667	571.156250	125.173553
-15645.495213	5202.436667	569.917969	73.486824
-15645.495213	5202.436667	568.679688	67.781837
-15645.495213	5202.436667	567.440430	131.012131
-15645.495213	5202.436667	566.202148	42.535427
-15645.495213	5202.436667	564.961914	20.702261
-15645.495213	5202.436667	563.722656	28.722927
-15645.495213	5202.436667	562.482422	9.164235
-15645.495213	5202.436667	561.243164	86.029533
-15645.495213	5202.436667	560.001953	34.296703
-15645.495213	5202.436667	558.761719	-63.327713
-15645.495213	5202.436667	557.520508	52.460823
-15645.495213	5202.436667	556.279297	-113.977844
-15645.495213	5202.436667	555.038086	88.896767
-15645.495213	5202.436667	553.795898	14.212925
-15645.495213	5202.436667	552.554688	-120.056572
-15645.495213	5202.436667	551.311523	45.972702
-15645.495213	5202.436667	550.069336	40.053947
-15645.495213	5202.436667	548.826172	164.714264
-15645.495213	5202.436667	547.583984	55.672615
-15645.495213	5202.436667	546.339844	88.648811
-15645.495213	5202.436667	545.096680	46.045094
-15645.495213	5202.436667	543.852539	53.807949
-15645.495213	5202.436667	542.608398	237.780777
-15645.495213	5202.436667	541.364258	208.870331
-15645.495213	5202.436667	540.119141	177.674088
-15645.495213	5202.436667	538.875000	89.306656
-15645.495213	5202.436667	537.628906	113.011192
-15645.495213	5202.436667	536.383789	200.712540
-15645.495213	5202.436667	535.137695	-88.767372
-15645.495213	5202.436667	533.892578	58.341389
-15645.495213	5202.436667	532.645508	152.830261
-15645.495213	5202.436667	531.399414	119.359512
-15645.495213	5202.436667	530.152344	-62.543861
-15645.495213	5202.436667	528.905273	34.178955
-15645.495213	5202.436667	527.658203	110.312172
-15645.495213	5202.436667	526.410156	-82.896332
-15645.495213	5202.436667	525.163086	-262.332825
-15645.495213	5202.436667	523.914063	-85.820648
-15645.495213	5202.436667	522.666016	6.227279
-15645.495213	5202.436667	521.416992	98.232941
-15645.495213	5202.436667	520.167969	60.250298
-15645.495213	5202.436667	518.918945	-146.384201
-15645.495213	5202.436667	517.669922	-184.297455
-15645.495213	5202.436667	516.419922	60.316978
-15645.495213	5202.436667	515.169922	-25.457640
-15645.495213	5202.436667	513.919922	-58.815140
-15645.495213	5202.436667	512.668945	-96.710770
-15645.495213	5202.436667	511.417969	81.668190
-15645.495213	5202.436667	510.166992	-4.027849
-15645.495213	5202.436667	508.916016	-32.798397
-15645.495213	5202.436667	507.664063	86.314880
-15645.495213	5202.436667	506.412109	30.252098
-15645.495213	5202.436667	505.160156	-57.615646
-15645.495213	5202.436667	503.907227	11.425828
-15645.495213	5202.436667	502.655273	-55.931282
-15645.495213	5202.436667	501.402344	22.183781
-15645.495213	5202.436667	500.148438	-22.415522
-15645.495213	5202.436667	498.895508	-53.357372
-15645.495213	5202.436667	497.641602	-159.221680
-15645.495213	5202.436667	496.387695	-47.063541
-15645.495213	5202.436667	495.132813	-50.716644
-15645.495213	5202.436667	493.878906	29.615538
-15645.495213	5202.436667	492.624023	-30.758699
-15645.495213	5202.436667	491.368164	-18.504482
-15645.495213	5202.436667	490.113281	64.066223
-15645.495213	5202.436667	488.857422	-66.540031
-15645.495213	5202.436667	487.601563	-85.992271
-15645.495213	5202.436667	486.344727	-48.760426
-15645.495213	5202.436667	485.088867	-38.724472
-15645.495213	5202.436667	483.832031	27.958580
-15645.495213	5202.436667	482.575195	37.997536
-15645.495213	5202.436667	481.317383	43.514236
-15645.495213	5202.436667	480.059570	64.891251
-15645.495213	5202.436667	478.801758	-108.402946
-15645.495213	5202.436667	477.543945	-247.661133
-15645.495213	5202.436667	476.285156	-24.816698
-15645.495213	5202.436667	475.027344	-14.700137
-15645.495213	5202.436667	473.767578	29.349501
-15645.495213	5202.436667	472.508789	-66.800209
-15645.495213	5202.436667	471.249023	-47.597752
-15645.495213	5202.436667	469.989258	21.335732
-15645.495213	5202.436667	468.729492	124.150658
-15645.495213	5202.436667	467.469727	-14.806805
-15645.495213	5202.436667	466.208984	-15.905194
-15645.495213	5202.436667	464.948242	23.660461
-15645.495213	5202.436667	463.686523	60.964447
-15645.495213	5202.436667	462.425781	105.039497
-15645.495213	5202.436667	461.164063	169.419479
-15645.495213	5202.436667	459.901367	17.175022
-15645.495213	5202.436667	458.639648	-31.219425
-15645.495213	5202.436667	457.376953	-29.962940
-15645.495213	5202.436667	456.114258	-28.694237
-15645.495213	5202.436667	454.851563	83.052139
-15645.495213	5202.436667	453.587891	-32.883621
-15645.495213	5202.436667	452.324219	108.132553
-15645.495213	5202.436667	451.060547	127.440506
-15645.495213	5202.436667	449.796875	25.118799
-15645.495213	5202.436667	448.532227	136.786774
-15645.495213	5202.436667	447.267578	5.256507
-15645.495213	5202.436667	446.002930	53.870571
-15645.495213	5202.436667	444.737305	91.218399
-15645.495213	5202.436667	443.471680	63.307186
-15645.495213	5202.436667	442.206055	190.631714
-15645.495213	5202.436667	440.940430	178.466446
-15645.495213	5202.436667	439.673828	132.581299
-15645.495213	5202.436667	438.407227	273.309387
-15645.495213	5202.436667	437.140625	303.847900
-15645.495213	5202.436667	435.873047	251.230667
-15645.495213	5202.436667	434.605469	279.514771
-15645.495213	5202.436667	433.337891	494.213593
-15645.495213	5202.436667	432.070313	580.815491
-15645.495213	5202.436667	430.801758	716.768188
-15645.495213	5202.436667	429.533203	933.463928
-15645.495213	5202.436667	428.264648	983.990906
-15645.495213	5202.436667	426.996094	920.059448
-15645.495213	5202.436667	425.726563	829.225342
-15645.495213	5202.436667	424.457031	633.011353
-15645.495213	5202.436667	423.186523	510.860687
-15645.495213	5202.436667	421.916992	554.638062
-15645.495213	5202.436667	420.646484	528.897644
-15645.495213	5202.436667	419.375977	465.055481
-15645.495213	5202.436667	418.104492	291.443604
-15645.495213	5202.436667	416.833008	258.990082
-15645.495213	5202.436667	415.561523	226.523575
-15645.495213	5202.436667	414.290039	247.773544
-15645.495213	5202.436667	413.017578	163.778549
-15645.495213	5202.436667	411.746094	111.117119
-15645.495213	5202.436667	410.472656	192.680405
-15645.495213	5202.436667	409.200195	137.719040
-15645.495213	5202.436667	407.926758	67.081718
-15645.495213	5202.436667	406.653320	-86.300674
-15645.495213	5202.436667	405.379883	80.000267
-15645.495213	5202.436667	404.105469	51.733562
-15645.495213	5202.436667	402.831055	128.442139
-15645.495213	5202.436667	401.556641	162.611649
-15645.495213	5202.436667	400.282227	87.260857
-15645.495213	5202.436667	399.006836	-57.350174
-15645.495213	5202.436667	397.731445	63.699074
-15645.495213	5202.436667	396.456055	66.321495
-15645.495213	5202.436667	395.179688	84.481651
-15645.495213	5202.436667	393.903320	-33.546665
-15645.495213	5202.436667	392.626953	249.891205
-15645.495213	5202.436667	391.350586	-57.863186
-15645.495213	5202.436667	390.073242	-53.440372
-15645.495213	5202.436667	388.795898	80.165527
-15645.495213	5202.436667	387.518555	218.061234
-15645.495213	5202.436667	386.240234	-69.797585
-15645.495213	5202.436667	384.961914	130.208008
-15645.495213	5202.436667	383.683594	183.005997
-15645.495213	5202.436667	382.405273	208.929031
-15645.495213	5202.436667	381.125977	114.483971
-15645.495213	5202.436667	379.846680	275.895874
-15645.495213	5202.436667	378.567383	243.489532
-15645.495213	5202.436667	377.287109	175.341248
-15645.495213	5202.436667	376.006836	276.104065
-15645.495213	5202.436667	374.726563	174.286301
-15645.495213	5202.436667	373.446289	205.733978
-15645.495213	5202.436667	372.165039	43.592907
-15645.495213	5202.436667	370.883789	99.118881
-15645.495213	5202.436667	369.602539	-9.997465
-15645.495213	5202.436667	368.320313	-54.859440
-15645.495213	5202.436667	367.039063	-11.078178
-15645.495213	5202.436667	365.755859	132.367981
-15645.495213	5202.436667	364.473633	157.865952
-15645.495213	5202.436667	363.190430	-269.661255
-15645.495213	5202.436667	361.907227	32.783401
-15645.495213	5202.436667	360.624023	53.088753
-15645.495213	5202.436667	359.340820	28.754198
-15645.495213	5202.436667	358.056641	141.629654
-15645.495213	5202.436667	356.772461	-27.397392
-15645.495213	5202.436667	355.487305	71.543510
-15645.495213	5202.436667	354.202148	1.708909
-15645.495213	5202.436667	352.916992	-44.047588
-15645.495213	5202.436667	351.631836	67.154228
-15645.495213	5202.436667	350.346680	5.221651
-15645.495213	5202.436667	349.060547	31.517651
-15645.495213	5202.436667	347.774414	134.909958
-15645.495213	5202.436667	346.487305	113.930786
-15645.495213	5202.436667	345.200195	35.036213
-15645.495213	5202.436667	343.913086	0.012449
-15645.495213	5202.436667	342.625977	-42.051350
-15645.495213	5202.436667	341.338867	1.707595
-15645.495213	5202.436667	340.050781	-69.968681
-15645.495213	5202.436667	338.762695	-64.716431
-15645.495213	5202.436667	337.473633	-75.422424
-15645.495213	5202.436667	336.184570	-49.056889
-15645.495213	5202.436667	334.895508	-182.245499
-15645.495213	5202.436667	333.606445	-101.688942
-15645.495213	5202.436667	332.317383	-79.110245
-15645.495213	5202.436667	331.027344	95.200737
-15645.495213	5202.436667	329.736328	63.610798
-15645.495213	5202.436667	328.446289	-94.307144
-15645.495213	5202.436667	327.155273	45.026093
-15645.495213	5202.436667	325.864258	0.621543
-15645.495213	5202.436667	324.573242	-33.381283
-15645.495213	5202.436667	323.281250	236.174866
-15645.495213	5202.436667	321.989258	110.416435
-15645.495213	5202.436667	320.697266	149.277649
-15645.495213	5202.436667	319.405273	-39.509800
-15645.495213	5202.436667	318.112305	-151.882309
-15645.495213	5202.436667	316.819336	124.802612
-15645.495213	5202.436667	315.526367	52.732380
-15645.495213	5202.436667	314.232422	39.301533
-15645.495213	5202.436667	312.938477	11.847235
-15645.495213	5202.436667	311.644531	146.368057
-15645.495213	5202.436667	310.349609	176.554108
-15645.495213	5202.436667	309.054688	-49.275593
-15645.495213	5202.436667	307.759766	58.279438
-15645.495213	5202.436667	306.464844	-134.116119
-15645.495213	5202.436667	305.168945	68.176216
-15645.495213	5202.436667	303.873047	113.378548
-15645.495213	5202.436667	302.577148	161.934311
-15645.495213	5202.436667	301.281250	198.441711
-15645.495213	5202.436667	299.984375	84.514572
