#X		#Y		#Wave		#Intensity
9926.343085	4220.566667	1999.946289	-55.152813
9926.343085	4220.566667	1998.981445	-49.753635
9926.343085	4220.566667	1998.017578	127.945465
9926.343085	4220.566667	1997.052734	15.598007
9926.343085	4220.566667	1996.088867	51.910175
9926.343085	4220.566667	1995.124023	23.762344
9926.343085	4220.566667	1994.159180	57.504105
9926.343085	4220.566667	1993.193359	-62.334270
9926.343085	4220.566667	1992.228516	80.270065
9926.343085	4220.566667	1991.262695	27.231779
9926.343085	4220.566667	1990.296875	-6.024241
9926.343085	4220.566667	1989.331055	22.557917
9926.343085	4220.566667	1988.365234	53.567844
9926.343085	4220.566667	1987.398438	-103.454720
9926.343085	4220.566667	1986.432617	38.787334
9926.343085	4220.566667	1985.465820	121.601234
9926.343085	4220.566667	1984.499023	-10.724238
9926.343085	4220.566667	1983.532227	153.569870
9926.343085	4220.566667	1982.565430	43.466145
9926.343085	4220.566667	1981.597656	-56.744499
9926.343085	4220.566667	1980.629883	122.197021
9926.343085	4220.566667	1979.662109	-52.145706
9926.343085	4220.566667	1978.694336	-100.513306
9926.343085	4220.566667	1977.726563	-47.664963
9926.343085	4220.566667	1976.758789	101.407204
9926.343085	4220.566667	1975.790039	67.762917
9926.343085	4220.566667	1974.821289	51.377674
9926.343085	4220.566667	1973.852539	-2.034145
9926.343085	4220.566667	1972.883789	-48.051613
9926.343085	4220.566667	1971.915039	-22.558012
9926.343085	4220.566667	1970.945313	-26.687166
9926.343085	4220.566667	1969.975586	8.604845
9926.343085	4220.566667	1969.005859	-79.380241
9926.343085	4220.566667	1968.036133	74.150986
9926.343085	4220.566667	1967.066406	77.304459
9926.343085	4220.566667	1966.096680	-47.664513
9926.343085	4220.566667	1965.125977	-106.109192
9926.343085	4220.566667	1964.155273	138.336685
9926.343085	4220.566667	1963.184570	60.139820
9926.343085	4220.566667	1962.213867	-52.510914
9926.343085	4220.566667	1961.242188	-19.933249
9926.343085	4220.566667	1960.271484	157.793564
9926.343085	4220.566667	1959.299805	-8.999055
9926.343085	4220.566667	1958.328125	80.067886
9926.343085	4220.566667	1957.356445	-7.988663
9926.343085	4220.566667	1956.384766	93.301353
9926.343085	4220.566667	1955.412109	179.783615
9926.343085	4220.566667	1954.439453	175.271729
9926.343085	4220.566667	1953.467773	8.550100
9926.343085	4220.566667	1952.495117	92.489342
9926.343085	4220.566667	1951.521484	208.314789
9926.343085	4220.566667	1950.548828	240.572952
9926.343085	4220.566667	1949.575195	-7.144466
9926.343085	4220.566667	1948.601563	138.047012
9926.343085	4220.566667	1947.627930	0.871740
9926.343085	4220.566667	1946.654297	13.443262
9926.343085	4220.566667	1945.680664	-37.805576
9926.343085	4220.566667	1944.706055	-57.157795
9926.343085	4220.566667	1943.732422	70.657898
9926.343085	4220.566667	1942.757813	110.120613
9926.343085	4220.566667	1941.783203	-17.182480
9926.343085	4220.566667	1940.807617	-24.327955
9926.343085	4220.566667	1939.833008	196.467285
9926.343085	4220.566667	1938.857422	81.426842
9926.343085	4220.566667	1937.881836	47.271202
9926.343085	4220.566667	1936.906250	-23.631783
9926.343085	4220.566667	1935.930664	-62.681862
9926.343085	4220.566667	1934.955078	-62.550259
9926.343085	4220.566667	1933.978516	40.397251
9926.343085	4220.566667	1933.001953	-54.987457
9926.343085	4220.566667	1932.025391	-116.085602
9926.343085	4220.566667	1931.048828	60.183525
9926.343085	4220.566667	1930.072266	18.632538
9926.343085	4220.566667	1929.094727	-8.241146
9926.343085	4220.566667	1928.118164	-91.366112
9926.343085	4220.566667	1927.140625	180.075089
9926.343085	4220.566667	1926.163086	116.476364
9926.343085	4220.566667	1925.184570	38.222275
9926.343085	4220.566667	1924.207031	87.063499
9926.343085	4220.566667	1923.228516	69.901848
9926.343085	4220.566667	1922.250000	-35.209568
9926.343085	4220.566667	1921.271484	-20.615404
9926.343085	4220.566667	1920.292969	25.706869
9926.343085	4220.566667	1919.314453	10.961415
9926.343085	4220.566667	1918.334961	130.465775
9926.343085	4220.566667	1917.355469	54.665180
9926.343085	4220.566667	1916.375977	76.486443
9926.343085	4220.566667	1915.396484	-45.655357
9926.343085	4220.566667	1914.416992	-23.847584
9926.343085	4220.566667	1913.436523	-67.909500
9926.343085	4220.566667	1912.457031	56.279434
9926.343085	4220.566667	1911.476563	-48.751881
9926.343085	4220.566667	1910.496094	102.172813
9926.343085	4220.566667	1909.515625	50.761040
9926.343085	4220.566667	1908.534180	91.942001
9926.343085	4220.566667	1907.552734	89.246460
9926.343085	4220.566667	1906.572266	71.927872
9926.343085	4220.566667	1905.590820	88.694183
9926.343085	4220.566667	1904.608398	207.697220
9926.343085	4220.566667	1903.626953	144.077698
9926.343085	4220.566667	1902.644531	-43.654766
9926.343085	4220.566667	1901.663086	16.871569
9926.343085	4220.566667	1900.680664	23.838142
9926.343085	4220.566667	1899.698242	-100.560646
9926.343085	4220.566667	1898.714844	-47.393314
9926.343085	4220.566667	1897.732422	22.763702
9926.343085	4220.566667	1896.749023	75.862747
9926.343085	4220.566667	1895.765625	-70.378815
9926.343085	4220.566667	1894.782227	53.167416
9926.343085	4220.566667	1893.798828	60.029713
9926.343085	4220.566667	1892.814453	1.285968
9926.343085	4220.566667	1891.831055	-79.306160
9926.343085	4220.566667	1890.846680	-157.453659
9926.343085	4220.566667	1889.862305	126.168312
9926.343085	4220.566667	1888.877930	-66.102882
9926.343085	4220.566667	1887.892578	-52.024876
9926.343085	4220.566667	1886.908203	-37.962948
9926.343085	4220.566667	1885.922852	-106.406937
9926.343085	4220.566667	1884.937500	89.552040
9926.343085	4220.566667	1883.952148	139.915390
9926.343085	4220.566667	1882.965820	30.215456
9926.343085	4220.566667	1881.980469	-55.212257
9926.343085	4220.566667	1880.994141	12.074901
9926.343085	4220.566667	1880.007813	144.753448
9926.343085	4220.566667	1879.021484	-42.451096
9926.343085	4220.566667	1878.035156	-21.270746
9926.343085	4220.566667	1877.047852	-60.662987
9926.343085	4220.566667	1876.061523	28.287905
9926.343085	4220.566667	1875.074219	-127.337387
9926.343085	4220.566667	1874.086914	39.022472
9926.343085	4220.566667	1873.098633	-0.409392
9926.343085	4220.566667	1872.111328	40.011841
9926.343085	4220.566667	1871.123047	27.178272
9926.343085	4220.566667	1870.135742	-48.551361
9926.343085	4220.566667	1869.147461	-22.699076
9926.343085	4220.566667	1868.158203	90.171036
9926.343085	4220.566667	1867.169922	-87.105637
9926.343085	4220.566667	1866.180664	76.461487
9926.343085	4220.566667	1865.192383	5.551600
9926.343085	4220.566667	1864.203125	82.031700
9926.343085	4220.566667	1863.213867	76.337288
9926.343085	4220.566667	1862.223633	44.060951
9926.343085	4220.566667	1861.234375	-12.363625
9926.343085	4220.566667	1860.244141	6.057403
9926.343085	4220.566667	1859.253906	-31.061214
9926.343085	4220.566667	1858.263672	88.686684
9926.343085	4220.566667	1857.273438	80.489967
9926.343085	4220.566667	1856.282227	-137.603775
9926.343085	4220.566667	1855.291992	42.349056
9926.343085	4220.566667	1854.300781	104.050644
9926.343085	4220.566667	1853.309570	-109.150299
9926.343085	4220.566667	1852.317383	212.870895
9926.343085	4220.566667	1851.326172	31.029161
9926.343085	4220.566667	1850.333984	27.557299
9926.343085	4220.566667	1849.342773	113.215508
9926.343085	4220.566667	1848.350586	13.343966
9926.343085	4220.566667	1847.357422	-60.017429
9926.343085	4220.566667	1846.365234	61.675793
9926.343085	4220.566667	1845.372070	-4.478474
9926.343085	4220.566667	1844.379883	-34.516754
9926.343085	4220.566667	1843.386719	75.016701
9926.343085	4220.566667	1842.393555	105.090401
9926.343085	4220.566667	1841.399414	-76.564217
9926.343085	4220.566667	1840.406250	92.993996
9926.343085	4220.566667	1839.412109	173.492615
9926.343085	4220.566667	1838.417969	126.515480
9926.343085	4220.566667	1837.423828	105.980942
9926.343085	4220.566667	1836.429688	22.948483
9926.343085	4220.566667	1835.434570	-52.864708
9926.343085	4220.566667	1834.440430	15.484166
9926.343085	4220.566667	1833.445313	90.993019
9926.343085	4220.566667	1832.450195	-23.269375
9926.343085	4220.566667	1831.454102	-29.458941
9926.343085	4220.566667	1830.458984	77.169502
9926.343085	4220.566667	1829.462891	32.522919
9926.343085	4220.566667	1828.466797	-110.515884
9926.343085	4220.566667	1827.470703	-37.581257
9926.343085	4220.566667	1826.474609	-7.872019
9926.343085	4220.566667	1825.478516	-66.934143
9926.343085	4220.566667	1824.481445	41.861485
9926.343085	4220.566667	1823.484375	117.031555
9926.343085	4220.566667	1822.487305	-179.388855
9926.343085	4220.566667	1821.490234	-29.948645
9926.343085	4220.566667	1820.493164	30.758362
9926.343085	4220.566667	1819.495117	-61.904430
9926.343085	4220.566667	1818.498047	-20.415531
9926.343085	4220.566667	1817.500000	-12.491433
9926.343085	4220.566667	1816.500977	-52.479424
9926.343085	4220.566667	1815.502930	99.041504
9926.343085	4220.566667	1814.504883	-51.087246
9926.343085	4220.566667	1813.505859	16.579182
9926.343085	4220.566667	1812.506836	62.667545
9926.343085	4220.566667	1811.507813	-6.101515
9926.343085	4220.566667	1810.508789	51.892056
9926.343085	4220.566667	1809.508789	162.446075
9926.343085	4220.566667	1808.508789	43.428085
9926.343085	4220.566667	1807.508789	-30.149744
9926.343085	4220.566667	1806.508789	118.533325
9926.343085	4220.566667	1805.508789	25.813173
9926.343085	4220.566667	1804.508789	195.888977
9926.343085	4220.566667	1803.507813	17.159983
9926.343085	4220.566667	1802.506836	-82.717529
9926.343085	4220.566667	1801.505859	108.705109
9926.343085	4220.566667	1800.504883	173.517700
9926.343085	4220.566667	1799.502930	61.668270
9926.343085	4220.566667	1798.501953	140.740585
9926.343085	4220.566667	1797.500000	-14.046010
9926.343085	4220.566667	1796.498047	26.800785
9926.343085	4220.566667	1795.496094	67.610527
9926.343085	4220.566667	1794.493164	-56.143456
9926.343085	4220.566667	1793.491211	-129.805420
9926.343085	4220.566667	1792.488281	87.323288
9926.343085	4220.566667	1791.485352	-3.064727
9926.343085	4220.566667	1790.482422	125.759018
9926.343085	4220.566667	1789.478516	135.401566
9926.343085	4220.566667	1788.475586	125.969040
9926.343085	4220.566667	1787.471680	-59.697025
9926.343085	4220.566667	1786.467773	161.801666
9926.343085	4220.566667	1785.463867	-59.549095
9926.343085	4220.566667	1784.459961	16.649134
9926.343085	4220.566667	1783.455078	-126.115379
9926.343085	4220.566667	1782.450195	-0.021416
9926.343085	4220.566667	1781.445313	11.833357
9926.343085	4220.566667	1780.440430	166.346878
9926.343085	4220.566667	1779.435547	-26.354898
9926.343085	4220.566667	1778.429688	87.648361
9926.343085	4220.566667	1777.424805	-19.446440
9926.343085	4220.566667	1776.418945	16.050947
9926.343085	4220.566667	1775.413086	1.620581
9926.343085	4220.566667	1774.406250	27.551847
9926.343085	4220.566667	1773.400391	60.579914
9926.343085	4220.566667	1772.393555	-63.145657
9926.343085	4220.566667	1771.386719	-63.397156
9926.343085	4220.566667	1770.379883	107.227760
9926.343085	4220.566667	1769.373047	33.333591
9926.343085	4220.566667	1768.365234	32.994785
9926.343085	4220.566667	1767.358398	141.760223
9926.343085	4220.566667	1766.350586	-27.039116
9926.343085	4220.566667	1765.342773	167.016510
9926.343085	4220.566667	1764.334961	140.485199
9926.343085	4220.566667	1763.326172	35.714760
9926.343085	4220.566667	1762.318359	6.804573
9926.343085	4220.566667	1761.309570	75.030258
9926.343085	4220.566667	1760.300781	55.552372
9926.343085	4220.566667	1759.291016	36.056042
9926.343085	4220.566667	1758.282227	-180.008606
9926.343085	4220.566667	1757.272461	141.455185
9926.343085	4220.566667	1756.262695	55.604660
9926.343085	4220.566667	1755.252930	52.603413
9926.343085	4220.566667	1754.243164	82.710754
9926.343085	4220.566667	1753.233398	84.393532
9926.343085	4220.566667	1752.222656	78.953934
9926.343085	4220.566667	1751.211914	-68.406288
9926.343085	4220.566667	1750.201172	112.942314
9926.343085	4220.566667	1749.190430	57.788845
9926.343085	4220.566667	1748.179688	158.636276
9926.343085	4220.566667	1747.167969	67.999626
9926.343085	4220.566667	1746.156250	38.807789
9926.343085	4220.566667	1745.144531	35.590614
9926.343085	4220.566667	1744.132813	65.419441
9926.343085	4220.566667	1743.121094	-25.216404
9926.343085	4220.566667	1742.108398	-37.931904
9926.343085	4220.566667	1741.095703	46.117004
9926.343085	4220.566667	1740.083008	19.190153
9926.343085	4220.566667	1739.070313	140.907242
9926.343085	4220.566667	1738.057617	-67.725334
9926.343085	4220.566667	1737.043945	-64.019875
9926.343085	4220.566667	1736.030273	67.008881
9926.343085	4220.566667	1735.016602	-30.741032
9926.343085	4220.566667	1734.002930	36.540516
9926.343085	4220.566667	1732.989258	96.705154
9926.343085	4220.566667	1731.974609	147.395081
9926.343085	4220.566667	1730.959961	28.412571
9926.343085	4220.566667	1729.945313	97.899788
9926.343085	4220.566667	1728.930664	-2.228637
9926.343085	4220.566667	1727.916016	-55.245560
9926.343085	4220.566667	1726.900391	21.213781
9926.343085	4220.566667	1725.885742	90.566589
9926.343085	4220.566667	1724.870117	101.035454
9926.343085	4220.566667	1723.853516	160.885071
9926.343085	4220.566667	1722.837891	30.151875
9926.343085	4220.566667	1721.822266	115.828064
9926.343085	4220.566667	1720.805664	18.029768
9926.343085	4220.566667	1719.789063	-11.570899
9926.343085	4220.566667	1718.772461	-10.622274
9926.343085	4220.566667	1717.754883	25.554234
9926.343085	4220.566667	1716.738281	-15.838693
9926.343085	4220.566667	1715.720703	-19.651506
9926.343085	4220.566667	1714.703125	16.446688
9926.343085	4220.566667	1713.685547	-6.196830
9926.343085	4220.566667	1712.667969	-49.982338
9926.343085	4220.566667	1711.649414	-32.741104
9926.343085	4220.566667	1710.630859	-27.260319
9926.343085	4220.566667	1709.612305	-56.999340
9926.343085	4220.566667	1708.593750	-86.746132
9926.343085	4220.566667	1707.575195	71.152740
9926.343085	4220.566667	1706.555664	8.517804
9926.343085	4220.566667	1705.536133	-61.146061
9926.343085	4220.566667	1704.516602	-67.505234
9926.343085	4220.566667	1703.497070	12.842274
9926.343085	4220.566667	1702.477539	76.736916
9926.343085	4220.566667	1701.457031	-42.166386
9926.343085	4220.566667	1700.437500	-39.227398
9926.343085	4220.566667	1699.416992	40.975891
9926.343085	4220.566667	1698.395508	8.728242
9926.343085	4220.566667	1697.375000	-70.342720
9926.343085	4220.566667	1696.354492	2.745544
9926.343085	4220.566667	1695.333008	-50.591377
9926.343085	4220.566667	1694.311523	80.920631
9926.343085	4220.566667	1693.290039	160.898407
9926.343085	4220.566667	1692.267578	102.827805
9926.343085	4220.566667	1691.246094	-95.539825
9926.343085	4220.566667	1690.223633	150.368652
9926.343085	4220.566667	1689.201172	-106.409386
9926.343085	4220.566667	1688.178711	-124.719994
9926.343085	4220.566667	1687.155273	-150.054901
9926.343085	4220.566667	1686.132813	79.256325
9926.343085	4220.566667	1685.109375	67.874092
9926.343085	4220.566667	1684.085938	33.127342
9926.343085	4220.566667	1683.062500	-20.301146
9926.343085	4220.566667	1682.039063	33.658607
9926.343085	4220.566667	1681.014648	43.231586
9926.343085	4220.566667	1679.990234	-129.228775
9926.343085	4220.566667	1678.965820	-84.662766
9926.343085	4220.566667	1677.941406	67.171478
9926.343085	4220.566667	1676.916992	109.320023
9926.343085	4220.566667	1675.891602	41.841789
9926.343085	4220.566667	1674.866211	198.176682
9926.343085	4220.566667	1673.840820	7.144693
9926.343085	4220.566667	1672.815430	142.423721
9926.343085	4220.566667	1671.790039	-22.923079
9926.343085	4220.566667	1670.763672	149.547928
9926.343085	4220.566667	1669.737305	-13.441055
9926.343085	4220.566667	1668.710938	93.733673
9926.343085	4220.566667	1667.684570	233.447784
9926.343085	4220.566667	1666.658203	235.760986
9926.343085	4220.566667	1665.630859	16.968958
9926.343085	4220.566667	1664.603516	23.945305
9926.343085	4220.566667	1663.576172	172.811783
9926.343085	4220.566667	1662.548828	133.212128
9926.343085	4220.566667	1661.520508	112.213432
9926.343085	4220.566667	1660.493164	81.915901
9926.343085	4220.566667	1659.464844	74.857361
9926.343085	4220.566667	1658.436523	72.437859
9926.343085	4220.566667	1657.408203	202.454453
9926.343085	4220.566667	1656.378906	225.537170
9926.343085	4220.566667	1655.350586	14.008515
9926.343085	4220.566667	1654.321289	204.300232
9926.343085	4220.566667	1653.291992	122.852478
9926.343085	4220.566667	1652.261719	208.559418
9926.343085	4220.566667	1651.232422	113.194786
9926.343085	4220.566667	1650.202148	94.426598
9926.343085	4220.566667	1649.171875	91.895721
9926.343085	4220.566667	1648.141602	186.778122
9926.343085	4220.566667	1647.111328	286.252228
9926.343085	4220.566667	1646.080078	295.242889
9926.343085	4220.566667	1645.049805	410.865265
9926.343085	4220.566667	1644.018555	296.966003
9926.343085	4220.566667	1642.987305	241.035141
9926.343085	4220.566667	1641.955078	342.659668
9926.343085	4220.566667	1640.923828	407.178345
9926.343085	4220.566667	1639.891602	244.689774
9926.343085	4220.566667	1638.859375	149.406189
9926.343085	4220.566667	1637.827148	211.577759
9926.343085	4220.566667	1636.794922	320.010345
9926.343085	4220.566667	1635.761719	324.247437
9926.343085	4220.566667	1634.729492	272.950684
9926.343085	4220.566667	1633.696289	233.226868
9926.343085	4220.566667	1632.662109	443.293945
9926.343085	4220.566667	1631.628906	290.229126
9926.343085	4220.566667	1630.594727	206.570282
9926.343085	4220.566667	1629.561523	273.190094
9926.343085	4220.566667	1628.527344	152.575668
9926.343085	4220.566667	1627.493164	253.820160
9926.343085	4220.566667	1626.458008	147.098846
9926.343085	4220.566667	1625.423828	148.974319
9926.343085	4220.566667	1624.388672	321.723236
9926.343085	4220.566667	1623.353516	240.429504
9926.343085	4220.566667	1622.318359	293.046417
9926.343085	4220.566667	1621.282227	248.699432
9926.343085	4220.566667	1620.247070	391.274933
9926.343085	4220.566667	1619.210938	111.599335
9926.343085	4220.566667	1618.174805	325.633972
9926.343085	4220.566667	1617.137695	124.472610
9926.343085	4220.566667	1616.101563	315.355072
9926.343085	4220.566667	1615.064453	416.249939
9926.343085	4220.566667	1614.027344	388.033020
9926.343085	4220.566667	1612.990234	263.041992
9926.343085	4220.566667	1611.953125	416.864899
9926.343085	4220.566667	1610.916016	453.148895
9926.343085	4220.566667	1609.877930	581.529236
9926.343085	4220.566667	1608.839844	640.780273
9926.343085	4220.566667	1607.801758	548.067200
9926.343085	4220.566667	1606.763672	517.531799
9926.343085	4220.566667	1605.724609	682.600342
9926.343085	4220.566667	1604.685547	688.851868
9926.343085	4220.566667	1603.646484	524.876892
9926.343085	4220.566667	1602.607422	604.746887
9926.343085	4220.566667	1601.568359	514.428345
9926.343085	4220.566667	1600.528320	449.426117
9926.343085	4220.566667	1599.489258	745.317017
9926.343085	4220.566667	1598.449219	512.534912
9926.343085	4220.566667	1597.408203	555.548706
9926.343085	4220.566667	1596.368164	518.150085
9926.343085	4220.566667	1595.327148	577.220581
9926.343085	4220.566667	1594.287109	521.460999
9926.343085	4220.566667	1593.246094	484.083099
9926.343085	4220.566667	1592.204102	531.642212
9926.343085	4220.566667	1591.163086	393.300507
9926.343085	4220.566667	1590.121094	390.381104
9926.343085	4220.566667	1589.079102	449.400909
9926.343085	4220.566667	1588.037109	441.885101
9926.343085	4220.566667	1586.995117	523.804016
9926.343085	4220.566667	1585.953125	475.010376
9926.343085	4220.566667	1584.910156	543.134094
9926.343085	4220.566667	1583.867188	505.810822
9926.343085	4220.566667	1582.824219	402.055328
9926.343085	4220.566667	1581.781250	477.030457
9926.343085	4220.566667	1580.737305	375.609711
9926.343085	4220.566667	1579.693359	459.718292
9926.343085	4220.566667	1578.649414	388.108826
9926.343085	4220.566667	1577.605469	472.186707
9926.343085	4220.566667	1576.561523	595.141113
9926.343085	4220.566667	1575.516602	402.275360
9926.343085	4220.566667	1574.472656	463.432159
9926.343085	4220.566667	1573.427734	659.512268
9926.343085	4220.566667	1572.381836	382.137970
9926.343085	4220.566667	1571.336914	363.243286
9926.343085	4220.566667	1570.291016	467.795471
9926.343085	4220.566667	1569.246094	403.188904
9926.343085	4220.566667	1568.200195	432.292755
9926.343085	4220.566667	1567.153320	493.368896
9926.343085	4220.566667	1566.107422	355.709686
9926.343085	4220.566667	1565.060547	435.055389
9926.343085	4220.566667	1564.013672	486.975067
9926.343085	4220.566667	1562.966797	392.779968
9926.343085	4220.566667	1561.919922	396.768097
9926.343085	4220.566667	1560.872070	508.004517
9926.343085	4220.566667	1559.825195	493.727783
9926.343085	4220.566667	1558.777344	454.365204
9926.343085	4220.566667	1557.729492	499.404816
9926.343085	4220.566667	1556.680664	471.463440
9926.343085	4220.566667	1555.632813	325.002747
9926.343085	4220.566667	1554.583984	390.567261
9926.343085	4220.566667	1553.535156	483.457001
9926.343085	4220.566667	1552.486328	435.061279
9926.343085	4220.566667	1551.436523	448.188385
9926.343085	4220.566667	1550.387695	377.059143
9926.343085	4220.566667	1549.337891	515.440369
9926.343085	4220.566667	1548.288086	473.928436
9926.343085	4220.566667	1547.238281	293.600067
9926.343085	4220.566667	1546.187500	502.477051
9926.343085	4220.566667	1545.136719	490.587799
9926.343085	4220.566667	1544.086914	512.836609
9926.343085	4220.566667	1543.035156	639.691284
9926.343085	4220.566667	1541.984375	448.173615
9926.343085	4220.566667	1540.933594	686.408386
9926.343085	4220.566667	1539.881836	272.220062
9926.343085	4220.566667	1538.830078	430.871429
9926.343085	4220.566667	1537.778320	475.865997
9926.343085	4220.566667	1536.725586	389.094727
9926.343085	4220.566667	1535.673828	132.036453
9926.343085	4220.566667	1534.621094	392.802490
9926.343085	4220.566667	1533.568359	401.477814
9926.343085	4220.566667	1532.515625	455.554199
9926.343085	4220.566667	1531.461914	250.908524
9926.343085	4220.566667	1530.409180	162.072693
9926.343085	4220.566667	1529.355469	288.780731
9926.343085	4220.566667	1528.301758	331.532043
9926.343085	4220.566667	1527.247070	415.087280
9926.343085	4220.566667	1526.193359	335.394287
9926.343085	4220.566667	1525.138672	237.604172
9926.343085	4220.566667	1524.083984	191.986313
9926.343085	4220.566667	1523.029297	96.550598
9926.343085	4220.566667	1521.974609	322.839142
9926.343085	4220.566667	1520.918945	132.308029
9926.343085	4220.566667	1519.863281	195.479477
9926.343085	4220.566667	1518.807617	290.333130
9926.343085	4220.566667	1517.751953	357.997986
9926.343085	4220.566667	1516.696289	117.868736
9926.343085	4220.566667	1515.639648	196.873154
9926.343085	4220.566667	1514.583008	67.736542
9926.343085	4220.566667	1513.526367	103.770561
9926.343085	4220.566667	1512.469727	24.476784
9926.343085	4220.566667	1511.412109	69.568207
9926.343085	4220.566667	1510.355469	173.429260
9926.343085	4220.566667	1509.297852	-36.875511
9926.343085	4220.566667	1508.240234	-41.469498
9926.343085	4220.566667	1507.181641	-95.753433
9926.343085	4220.566667	1506.124023	-77.721916
9926.343085	4220.566667	1505.065430	1.280543
9926.343085	4220.566667	1504.006836	-143.248428
9926.343085	4220.566667	1502.948242	-172.586090
9926.343085	4220.566667	1501.888672	-10.074476
9926.343085	4220.566667	1500.830078	-77.758156
9926.343085	4220.566667	1499.770508	-34.865788
9926.343085	4220.566667	1498.710938	89.220299
9926.343085	4220.566667	1497.650391	-43.806747
9926.343085	4220.566667	1496.590820	93.787193
9926.343085	4220.566667	1495.530273	-39.159519
9926.343085	4220.566667	1494.469727	80.372574
9926.343085	4220.566667	1493.409180	62.425053
9926.343085	4220.566667	1492.348633	80.543427
9926.343085	4220.566667	1491.287109	87.402863
9926.343085	4220.566667	1490.225586	-58.854218
9926.343085	4220.566667	1489.164063	4.345521
9926.343085	4220.566667	1488.102539	-69.775673
9926.343085	4220.566667	1487.041016	-166.357849
9926.343085	4220.566667	1485.978516	-100.883980
9926.343085	4220.566667	1484.916016	-78.131142
9926.343085	4220.566667	1483.853516	-134.158844
9926.343085	4220.566667	1482.791016	-97.914757
9926.343085	4220.566667	1481.727539	-32.445259
9926.343085	4220.566667	1480.664063	-61.394215
9926.343085	4220.566667	1479.600586	17.558760
9926.343085	4220.566667	1478.537109	-18.104326
9926.343085	4220.566667	1477.473633	-73.886337
9926.343085	4220.566667	1476.409180	7.316334
9926.343085	4220.566667	1475.344727	7.630722
9926.343085	4220.566667	1474.280273	79.816170
9926.343085	4220.566667	1473.215820	-20.797176
9926.343085	4220.566667	1472.151367	-60.679470
9926.343085	4220.566667	1471.085938	90.158707
9926.343085	4220.566667	1470.020508	133.099182
9926.343085	4220.566667	1468.955078	70.862244
9926.343085	4220.566667	1467.888672	-105.708160
9926.343085	4220.566667	1466.823242	163.563034
9926.343085	4220.566667	1465.756836	150.878845
9926.343085	4220.566667	1464.690430	211.498932
9926.343085	4220.566667	1463.624023	402.130371
9926.343085	4220.566667	1462.556641	237.156769
9926.343085	4220.566667	1461.490234	155.087463
9926.343085	4220.566667	1460.422852	240.378098
9926.343085	4220.566667	1459.355469	158.514297
9926.343085	4220.566667	1458.287109	235.599457
9926.343085	4220.566667	1457.219727	299.192596
9926.343085	4220.566667	1456.151367	125.433998
9926.343085	4220.566667	1455.083008	432.522186
9926.343085	4220.566667	1454.014648	178.627060
9926.343085	4220.566667	1452.945313	186.072830
9926.343085	4220.566667	1451.876953	186.345062
9926.343085	4220.566667	1450.807617	145.229767
9926.343085	4220.566667	1449.738281	160.226089
9926.343085	4220.566667	1448.668945	149.054764
9926.343085	4220.566667	1447.598633	64.542007
9926.343085	4220.566667	1446.528320	213.594101
9926.343085	4220.566667	1445.458008	-5.342606
9926.343085	4220.566667	1444.387695	44.231895
9926.343085	4220.566667	1443.317383	-5.668699
9926.343085	4220.566667	1442.246094	35.052414
9926.343085	4220.566667	1441.174805	46.741871
9926.343085	4220.566667	1440.103516	120.502235
9926.343085	4220.566667	1439.032227	-30.175257
9926.343085	4220.566667	1437.960938	-89.332588
9926.343085	4220.566667	1436.888672	39.687668
9926.343085	4220.566667	1435.816406	15.737923
9926.343085	4220.566667	1434.744141	136.188309
9926.343085	4220.566667	1433.670898	74.200195
9926.343085	4220.566667	1432.598633	56.267292
9926.343085	4220.566667	1431.525391	-107.327682
9926.343085	4220.566667	1430.452148	-139.586899
9926.343085	4220.566667	1429.378906	55.243546
9926.343085	4220.566667	1428.304688	207.604416
9926.343085	4220.566667	1427.231445	-70.421906
9926.343085	4220.566667	1426.157227	19.068571
9926.343085	4220.566667	1425.083008	28.511065
9926.343085	4220.566667	1424.007813	113.680397
9926.343085	4220.566667	1422.933594	41.667576
9926.343085	4220.566667	1421.858398	37.252720
9926.343085	4220.566667	1420.783203	56.335812
9926.343085	4220.566667	1419.708008	-21.242334
9926.343085	4220.566667	1418.631836	-26.545675
9926.343085	4220.566667	1417.555664	-78.976051
9926.343085	4220.566667	1416.479492	36.669655
9926.343085	4220.566667	1415.403320	55.725418
9926.343085	4220.566667	1414.327148	-90.558769
9926.343085	4220.566667	1413.250000	156.587204
9926.343085	4220.566667	1412.173828	-8.066374
9926.343085	4220.566667	1411.096680	72.866470
9926.343085	4220.566667	1410.018555	107.632843
9926.343085	4220.566667	1408.941406	-57.392578
9926.343085	4220.566667	1407.863281	35.276859
9926.343085	4220.566667	1406.785156	180.773300
9926.343085	4220.566667	1405.707031	70.146523
9926.343085	4220.566667	1404.628906	105.619164
9926.343085	4220.566667	1403.549805	174.306213
9926.343085	4220.566667	1402.470703	78.645424
9926.343085	4220.566667	1401.391602	231.073273
9926.343085	4220.566667	1400.312500	77.183479
9926.343085	4220.566667	1399.233398	27.161575
9926.343085	4220.566667	1398.153320	26.797445
9926.343085	4220.566667	1397.073242	218.841217
9926.343085	4220.566667	1395.993164	117.912010
9926.343085	4220.566667	1394.913086	225.389664
9926.343085	4220.566667	1393.832031	75.199890
9926.343085	4220.566667	1392.750977	-6.065477
9926.343085	4220.566667	1391.669922	112.722443
9926.343085	4220.566667	1390.588867	206.567520
9926.343085	4220.566667	1389.506836	207.274429
9926.343085	4220.566667	1388.425781	49.220070
9926.343085	4220.566667	1387.343750	33.052887
9926.343085	4220.566667	1386.261719	59.265011
9926.343085	4220.566667	1385.178711	120.267624
9926.343085	4220.566667	1384.096680	-8.791033
9926.343085	4220.566667	1383.013672	74.525711
9926.343085	4220.566667	1381.930664	253.050751
9926.343085	4220.566667	1380.846680	132.624985
9926.343085	4220.566667	1379.763672	310.862366
9926.343085	4220.566667	1378.679688	281.923309
9926.343085	4220.566667	1377.595703	291.789093
9926.343085	4220.566667	1376.511719	151.287750
9926.343085	4220.566667	1375.427734	342.672180
9926.343085	4220.566667	1374.342773	155.034409
9926.343085	4220.566667	1373.257813	242.998184
9926.343085	4220.566667	1372.172852	416.860291
9926.343085	4220.566667	1371.087891	357.384399
9926.343085	4220.566667	1370.001953	368.925262
9926.343085	4220.566667	1368.916992	315.040741
9926.343085	4220.566667	1367.831055	321.831116
9926.343085	4220.566667	1366.744141	174.729980
9926.343085	4220.566667	1365.658203	209.319519
9926.343085	4220.566667	1364.571289	405.413940
9926.343085	4220.566667	1363.484375	87.927841
9926.343085	4220.566667	1362.397461	64.840668
9926.343085	4220.566667	1361.310547	146.869141
9926.343085	4220.566667	1360.222656	-0.927690
9926.343085	4220.566667	1359.135742	114.622963
9926.343085	4220.566667	1358.047852	165.112869
9926.343085	4220.566667	1356.958984	165.084000
9926.343085	4220.566667	1355.871094	80.568443
9926.343085	4220.566667	1354.782227	122.364113
9926.343085	4220.566667	1353.693359	273.288757
9926.343085	4220.566667	1352.604492	228.494659
9926.343085	4220.566667	1351.515625	67.265953
9926.343085	4220.566667	1350.425781	109.951828
9926.343085	4220.566667	1349.335938	46.335804
9926.343085	4220.566667	1348.246094	89.577965
9926.343085	4220.566667	1347.156250	120.332558
9926.343085	4220.566667	1346.066406	106.824112
9926.343085	4220.566667	1344.975586	37.956612
9926.343085	4220.566667	1343.884766	280.966614
9926.343085	4220.566667	1342.793945	303.702667
9926.343085	4220.566667	1341.702148	141.441864
9926.343085	4220.566667	1340.611328	162.477509
9926.343085	4220.566667	1339.519531	143.293549
9926.343085	4220.566667	1338.427734	147.295364
9926.343085	4220.566667	1337.334961	328.686859
9926.343085	4220.566667	1336.243164	107.045425
9926.343085	4220.566667	1335.150391	135.042587
9926.343085	4220.566667	1334.057617	243.894241
9926.343085	4220.566667	1332.964844	202.361053
9926.343085	4220.566667	1331.871094	81.261276
9926.343085	4220.566667	1330.778320	138.718002
9926.343085	4220.566667	1329.684570	207.967392
9926.343085	4220.566667	1328.590820	249.076813
9926.343085	4220.566667	1327.496094	188.141922
9926.343085	4220.566667	1326.402344	59.424347
9926.343085	4220.566667	1325.307617	3.872306
9926.343085	4220.566667	1324.212891	151.647827
9926.343085	4220.566667	1323.117188	52.964767
9926.343085	4220.566667	1322.022461	185.150101
9926.343085	4220.566667	1320.926758	-7.370327
9926.343085	4220.566667	1319.831055	190.049835
9926.343085	4220.566667	1318.735352	-23.519159
9926.343085	4220.566667	1317.638672	215.096573
9926.343085	4220.566667	1316.542969	134.958221
9926.343085	4220.566667	1315.446289	82.928329
9926.343085	4220.566667	1314.349609	-14.865401
9926.343085	4220.566667	1313.251953	150.376968
9926.343085	4220.566667	1312.155273	226.533890
9926.343085	4220.566667	1311.057617	212.238525
9926.343085	4220.566667	1309.959961	266.731812
9926.343085	4220.566667	1308.862305	117.154312
9926.343085	4220.566667	1307.763672	55.987648
9926.343085	4220.566667	1306.665039	34.586025
9926.343085	4220.566667	1305.566406	194.599762
9926.343085	4220.566667	1304.467773	136.919388
9926.343085	4220.566667	1303.369141	177.092728
9926.343085	4220.566667	1302.269531	130.770416
9926.343085	4220.566667	1301.169922	-36.220787
9926.343085	4220.566667	1300.070313	-21.678780
9926.343085	4220.566667	1298.970703	80.166870
9926.343085	4220.566667	1297.870117	38.180740
9926.343085	4220.566667	1296.769531	4.582128
9926.343085	4220.566667	1295.668945	-38.978645
9926.343085	4220.566667	1294.568359	64.097969
9926.343085	4220.566667	1293.466797	-6.058753
9926.343085	4220.566667	1292.366211	-68.776901
9926.343085	4220.566667	1291.264648	142.225616
9926.343085	4220.566667	1290.162109	60.429245
9926.343085	4220.566667	1289.060547	67.482368
9926.343085	4220.566667	1287.958008	60.896652
9926.343085	4220.566667	1286.855469	112.228188
9926.343085	4220.566667	1285.752930	50.845070
9926.343085	4220.566667	1284.650391	52.495285
9926.343085	4220.566667	1283.546875	125.143204
9926.343085	4220.566667	1282.444336	152.539597
9926.343085	4220.566667	1281.339844	110.797462
9926.343085	4220.566667	1280.236328	116.905243
9926.343085	4220.566667	1279.132813	77.495293
9926.343085	4220.566667	1278.028320	-38.626156
9926.343085	4220.566667	1276.923828	82.230659
9926.343085	4220.566667	1275.819336	34.313725
9926.343085	4220.566667	1274.713867	238.002563
9926.343085	4220.566667	1273.608398	129.309158
9926.343085	4220.566667	1272.503906	-40.621727
9926.343085	4220.566667	1271.397461	-82.142563
9926.343085	4220.566667	1270.291992	-5.196890
9926.343085	4220.566667	1269.185547	-27.089006
9926.343085	4220.566667	1268.080078	27.239155
9926.343085	4220.566667	1266.972656	28.398165
9926.343085	4220.566667	1265.866211	-90.515625
9926.343085	4220.566667	1264.759766	-93.026917
9926.343085	4220.566667	1263.652344	-74.540237
9926.343085	4220.566667	1262.544922	54.095932
9926.343085	4220.566667	1261.436523	-132.407684
9926.343085	4220.566667	1260.329102	-98.070335
9926.343085	4220.566667	1259.220703	-70.888466
9926.343085	4220.566667	1258.112305	-62.009430
9926.343085	4220.566667	1257.003906	-209.176437
9926.343085	4220.566667	1255.895508	-106.135628
9926.343085	4220.566667	1254.786133	-143.578552
9926.343085	4220.566667	1253.676758	-171.935791
9926.343085	4220.566667	1252.567383	-15.609747
9926.343085	4220.566667	1251.458008	-90.654167
9926.343085	4220.566667	1250.347656	-111.932411
9926.343085	4220.566667	1249.237305	-130.703262
9926.343085	4220.566667	1248.126953	-52.740181
9926.343085	4220.566667	1247.016602	7.066159
9926.343085	4220.566667	1245.905273	-85.680763
9926.343085	4220.566667	1244.793945	-35.136230
9926.343085	4220.566667	1243.682617	61.209476
9926.343085	4220.566667	1242.571289	17.492069
9926.343085	4220.566667	1241.459961	-4.242592
9926.343085	4220.566667	1240.347656	54.041653
9926.343085	4220.566667	1239.235352	29.017586
9926.343085	4220.566667	1238.123047	25.037712
9926.343085	4220.566667	1237.009766	184.879440
9926.343085	4220.566667	1235.897461	-21.225016
9926.343085	4220.566667	1234.784180	72.820221
9926.343085	4220.566667	1233.670898	105.908569
9926.343085	4220.566667	1232.556641	-9.494016
9926.343085	4220.566667	1231.443359	-68.256981
9926.343085	4220.566667	1230.329102	21.306459
9926.343085	4220.566667	1229.214844	24.896343
9926.343085	4220.566667	1228.099609	40.355606
9926.343085	4220.566667	1226.985352	-14.061251
9926.343085	4220.566667	1225.870117	51.416641
9926.343085	4220.566667	1224.754883	67.774429
9926.343085	4220.566667	1223.639648	287.835327
9926.343085	4220.566667	1222.523438	80.325180
9926.343085	4220.566667	1221.408203	135.500305
9926.343085	4220.566667	1220.291992	49.808449
9926.343085	4220.566667	1219.174805	137.162720
9926.343085	4220.566667	1218.058594	66.498131
9926.343085	4220.566667	1216.941406	244.839630
9926.343085	4220.566667	1215.824219	89.746490
9926.343085	4220.566667	1214.707031	32.677715
9926.343085	4220.566667	1213.589844	51.062973
9926.343085	4220.566667	1212.471680	247.017822
9926.343085	4220.566667	1211.353516	173.582977
9926.343085	4220.566667	1210.235352	93.692017
9926.343085	4220.566667	1209.117188	25.047081
9926.343085	4220.566667	1207.998047	23.750120
9926.343085	4220.566667	1206.878906	38.603508
9926.343085	4220.566667	1205.759766	118.683418
9926.343085	4220.566667	1204.640625	68.865829
9926.343085	4220.566667	1203.520508	224.064255
9926.343085	4220.566667	1202.401367	84.440948
9926.343085	4220.566667	1201.281250	79.140335
9926.343085	4220.566667	1200.160156	34.770855
9926.343085	4220.566667	1199.040039	18.871643
9926.343085	4220.566667	1197.918945	-22.995810
9926.343085	4220.566667	1196.797852	144.561600
9926.343085	4220.566667	1195.676758	37.550732
9926.343085	4220.566667	1194.555664	91.567291
9926.343085	4220.566667	1193.433594	-11.359857
9926.343085	4220.566667	1192.311523	54.327400
9926.343085	4220.566667	1191.189453	-36.040848
9926.343085	4220.566667	1190.066406	-198.230621
9926.343085	4220.566667	1188.944336	165.129059
9926.343085	4220.566667	1187.821289	11.504209
9926.343085	4220.566667	1186.698242	-220.289322
9926.343085	4220.566667	1185.574219	-59.350510
9926.343085	4220.566667	1184.451172	28.611469
9926.343085	4220.566667	1183.327148	62.253139
9926.343085	4220.566667	1182.203125	-42.904598
9926.343085	4220.566667	1181.078125	25.996368
9926.343085	4220.566667	1179.954102	-8.302060
9926.343085	4220.566667	1178.829102	-35.009476
9926.343085	4220.566667	1177.704102	-61.683132
9926.343085	4220.566667	1176.579102	-105.155029
9926.343085	4220.566667	1175.453125	-33.790623
9926.343085	4220.566667	1174.327148	-85.563225
9926.343085	4220.566667	1173.201172	-49.519669
9926.343085	4220.566667	1172.075195	19.289305
9926.343085	4220.566667	1170.949219	190.830536
9926.343085	4220.566667	1169.822266	140.120468
9926.343085	4220.566667	1168.695313	11.382999
9926.343085	4220.566667	1167.568359	-65.504860
9926.343085	4220.566667	1166.440430	-27.490507
9926.343085	4220.566667	1165.313477	10.864946
9926.343085	4220.566667	1164.185547	-49.013981
9926.343085	4220.566667	1163.057617	14.099504
9926.343085	4220.566667	1161.928711	-14.131592
9926.343085	4220.566667	1160.800781	-160.103424
9926.343085	4220.566667	1159.671875	39.338100
9926.343085	4220.566667	1158.541992	-30.056904
9926.343085	4220.566667	1157.413086	-3.062610
9926.343085	4220.566667	1156.283203	73.169510
9926.343085	4220.566667	1155.154297	-7.428697
9926.343085	4220.566667	1154.023438	-171.882721
9926.343085	4220.566667	1152.893555	-25.185497
9926.343085	4220.566667	1151.763672	99.466690
9926.343085	4220.566667	1150.632813	18.150084
9926.343085	4220.566667	1149.501953	115.035675
9926.343085	4220.566667	1148.370117	-54.612770
9926.343085	4220.566667	1147.239258	72.894234
9926.343085	4220.566667	1146.107422	127.796082
9926.343085	4220.566667	1144.975586	-8.359325
9926.343085	4220.566667	1143.843750	-41.020157
9926.343085	4220.566667	1142.710938	-15.969450
9926.343085	4220.566667	1141.578125	5.739098
9926.343085	4220.566667	1140.445313	-63.915916
9926.343085	4220.566667	1139.312500	-48.883636
9926.343085	4220.566667	1138.178711	-39.950943
9926.343085	4220.566667	1137.045898	-36.661976
9926.343085	4220.566667	1135.912109	-51.899162
9926.343085	4220.566667	1134.777344	65.901100
9926.343085	4220.566667	1133.643555	-25.642317
9926.343085	4220.566667	1132.508789	-42.368790
9926.343085	4220.566667	1131.374023	64.579987
9926.343085	4220.566667	1130.239258	32.753910
9926.343085	4220.566667	1129.104492	-20.026621
9926.343085	4220.566667	1127.968750	-34.085464
9926.343085	4220.566667	1126.833008	137.434647
9926.343085	4220.566667	1125.697266	-100.200546
9926.343085	4220.566667	1124.560547	-45.501404
9926.343085	4220.566667	1123.424805	-30.960609
9926.343085	4220.566667	1122.288086	-11.597942
9926.343085	4220.566667	1121.151367	-72.744667
9926.343085	4220.566667	1120.013672	14.544994
9926.343085	4220.566667	1118.876953	50.041908
9926.343085	4220.566667	1117.739258	89.264503
9926.343085	4220.566667	1116.601563	16.051390
9926.343085	4220.566667	1115.462891	68.430435
9926.343085	4220.566667	1114.324219	-53.000019
9926.343085	4220.566667	1113.186523	35.537994
9926.343085	4220.566667	1112.046875	52.135811
9926.343085	4220.566667	1110.908203	103.920082
9926.343085	4220.566667	1109.769531	-4.121315
9926.343085	4220.566667	1108.629883	140.618698
9926.343085	4220.566667	1107.490234	37.792080
9926.343085	4220.566667	1106.349609	-90.856354
9926.343085	4220.566667	1105.209961	9.585497
9926.343085	4220.566667	1104.069336	64.272194
9926.343085	4220.566667	1102.928711	-106.235184
9926.343085	4220.566667	1101.787109	83.060204
9926.343085	4220.566667	1100.646484	5.581070
9926.343085	4220.566667	1099.504883	-62.626289
9926.343085	4220.566667	1098.363281	-0.370965
9926.343085	4220.566667	1097.221680	156.118637
9926.343085	4220.566667	1096.079102	132.197845
9926.343085	4220.566667	1094.936523	0.668845
9926.343085	4220.566667	1093.793945	59.757332
9926.343085	4220.566667	1092.651367	128.146057
9926.343085	4220.566667	1091.507813	77.666954
9926.343085	4220.566667	1090.364258	220.929779
9926.343085	4220.566667	1089.220703	78.532310
9926.343085	4220.566667	1088.077148	-69.526306
9926.343085	4220.566667	1086.933594	11.298970
9926.343085	4220.566667	1085.789063	116.287453
9926.343085	4220.566667	1084.644531	60.714813
9926.343085	4220.566667	1083.499023	8.051795
9926.343085	4220.566667	1082.354492	99.777229
9926.343085	4220.566667	1081.208984	12.469229
9926.343085	4220.566667	1080.063477	-73.193291
9926.343085	4220.566667	1078.917969	45.611088
9926.343085	4220.566667	1077.771484	81.884468
9926.343085	4220.566667	1076.625977	79.465836
9926.343085	4220.566667	1075.479492	-59.453224
9926.343085	4220.566667	1074.332031	-6.429170
9926.343085	4220.566667	1073.185547	25.164001
9926.343085	4220.566667	1072.038086	74.554108
9926.343085	4220.566667	1070.890625	-56.274406
9926.343085	4220.566667	1069.743164	35.156132
9926.343085	4220.566667	1068.594727	72.575508
9926.343085	4220.566667	1067.447266	201.248215
9926.343085	4220.566667	1066.298828	100.512596
9926.343085	4220.566667	1065.149414	-29.463163
9926.343085	4220.566667	1064.000977	87.930016
9926.343085	4220.566667	1062.851563	120.037460
9926.343085	4220.566667	1061.702148	212.866898
9926.343085	4220.566667	1060.552734	100.787590
9926.343085	4220.566667	1059.402344	59.764866
9926.343085	4220.566667	1058.252930	65.258186
9926.343085	4220.566667	1057.102539	-21.429899
9926.343085	4220.566667	1055.951172	79.732071
9926.343085	4220.566667	1054.800781	-98.109055
9926.343085	4220.566667	1053.649414	-13.365441
9926.343085	4220.566667	1052.498047	71.114037
9926.343085	4220.566667	1051.346680	38.578533
9926.343085	4220.566667	1050.194336	36.461300
9926.343085	4220.566667	1049.042969	103.794716
9926.343085	4220.566667	1047.890625	309.759583
9926.343085	4220.566667	1046.738281	-3.553577
9926.343085	4220.566667	1045.584961	-32.288631
9926.343085	4220.566667	1044.431641	1.151697
9926.343085	4220.566667	1043.278320	149.359344
9926.343085	4220.566667	1042.125000	171.814896
9926.343085	4220.566667	1040.971680	69.438438
9926.343085	4220.566667	1039.817383	13.491522
9926.343085	4220.566667	1038.663086	42.681644
9926.343085	4220.566667	1037.508789	45.174961
9926.343085	4220.566667	1036.353516	-22.541313
9926.343085	4220.566667	1035.198242	3.665060
9926.343085	4220.566667	1034.042969	162.826447
9926.343085	4220.566667	1032.887695	130.012299
9926.343085	4220.566667	1031.732422	256.907349
9926.343085	4220.566667	1030.576172	161.582870
9926.343085	4220.566667	1029.419922	4.248175
9926.343085	4220.566667	1028.263672	64.003960
9926.343085	4220.566667	1027.106445	31.695045
9926.343085	4220.566667	1025.949219	48.260124
9926.343085	4220.566667	1024.792969	-66.980370
9926.343085	4220.566667	1023.634766	-165.135651
9926.343085	4220.566667	1022.477539	67.146912
9926.343085	4220.566667	1021.319336	148.385132
9926.343085	4220.566667	1020.161133	-148.651382
9926.343085	4220.566667	1019.002930	96.576553
9926.343085	4220.566667	1017.843750	-218.094833
9926.343085	4220.566667	1016.684570	29.942888
9926.343085	4220.566667	1015.525391	108.748413
9926.343085	4220.566667	1014.366211	-14.722073
9926.343085	4220.566667	1013.207031	5.637996
9926.343085	4220.566667	1012.046875	64.599533
9926.343085	4220.566667	1010.886719	166.231766
9926.343085	4220.566667	1009.726563	-141.191757
9926.343085	4220.566667	1008.565430	47.084320
9926.343085	4220.566667	1007.404297	-23.908934
9926.343085	4220.566667	1006.243164	48.829575
9926.343085	4220.566667	1005.082031	-50.089699
9926.343085	4220.566667	1003.920898	31.659540
9926.343085	4220.566667	1002.758789	-47.367420
9926.343085	4220.566667	1001.596680	23.359364
9926.343085	4220.566667	1000.433594	102.928436
9926.343085	4220.566667	999.271484	54.457012
9926.343085	4220.566667	998.108398	-30.716778
9926.343085	4220.566667	996.945313	-111.922470
9926.343085	4220.566667	995.782227	243.785355
9926.343085	4220.566667	994.618164	125.867432
9926.343085	4220.566667	993.454102	162.941406
9926.343085	4220.566667	992.290039	151.434128
9926.343085	4220.566667	991.125977	71.023453
9926.343085	4220.566667	989.960938	91.264931
9926.343085	4220.566667	988.796875	71.912987
9926.343085	4220.566667	987.630859	177.475998
9926.343085	4220.566667	986.465820	21.894007
9926.343085	4220.566667	985.300781	70.558548
9926.343085	4220.566667	984.134766	182.935471
9926.343085	4220.566667	982.968750	157.732010
9926.343085	4220.566667	981.801758	113.253906
9926.343085	4220.566667	980.635742	98.230766
9926.343085	4220.566667	979.468750	116.373642
9926.343085	4220.566667	978.301758	143.727539
9926.343085	4220.566667	977.133789	16.618807
9926.343085	4220.566667	975.966797	76.436989
9926.343085	4220.566667	974.798828	150.294708
9926.343085	4220.566667	973.630859	60.356964
9926.343085	4220.566667	972.461914	35.758823
9926.343085	4220.566667	971.293945	78.775322
9926.343085	4220.566667	970.125000	154.945084
9926.343085	4220.566667	968.956055	120.015038
9926.343085	4220.566667	967.786133	76.069550
9926.343085	4220.566667	966.617188	47.533825
9926.343085	4220.566667	965.447266	209.679138
9926.343085	4220.566667	964.276367	207.967529
9926.343085	4220.566667	963.106445	69.110153
9926.343085	4220.566667	961.935547	94.313026
9926.343085	4220.566667	960.764648	147.853104
9926.343085	4220.566667	959.593750	147.492172
9926.343085	4220.566667	958.422852	106.744904
9926.343085	4220.566667	957.250977	167.140274
9926.343085	4220.566667	956.079102	94.751991
9926.343085	4220.566667	954.907227	50.798843
9926.343085	4220.566667	953.734375	156.676086
9926.343085	4220.566667	952.562500	0.549414
9926.343085	4220.566667	951.389648	144.829422
9926.343085	4220.566667	950.215820	66.027939
9926.343085	4220.566667	949.042969	249.030212
9926.343085	4220.566667	947.869141	239.376892
9926.343085	4220.566667	946.695313	82.784012
9926.343085	4220.566667	945.521484	-3.164412
9926.343085	4220.566667	944.346680	-12.496750
9926.343085	4220.566667	943.172852	-31.193306
9926.343085	4220.566667	941.998047	115.817123
9926.343085	4220.566667	940.822266	-117.432167
9926.343085	4220.566667	939.647461	-104.625763
9926.343085	4220.566667	938.471680	-7.969636
9926.343085	4220.566667	937.295898	-9.881786
9926.343085	4220.566667	936.119141	171.603745
9926.343085	4220.566667	934.943359	20.457401
9926.343085	4220.566667	933.766602	-94.346886
9926.343085	4220.566667	932.589844	14.801081
9926.343085	4220.566667	931.413086	244.226486
9926.343085	4220.566667	930.235352	21.269428
9926.343085	4220.566667	929.057617	108.823219
9926.343085	4220.566667	927.879883	92.931786
9926.343085	4220.566667	926.702148	238.249374
9926.343085	4220.566667	925.523438	-136.006821
9926.343085	4220.566667	924.344727	187.365936
9926.343085	4220.566667	923.166016	-90.490791
9926.343085	4220.566667	921.987305	38.115326
9926.343085	4220.566667	920.807617	-47.219513
9926.343085	4220.566667	919.627930	-41.854233
9926.343085	4220.566667	919.497070	-52.569092
9926.343085	4220.566667	918.331055	11.147243
9926.343085	4220.566667	917.165039	-21.218462
9926.343085	4220.566667	915.999023	114.590569
9926.343085	4220.566667	914.833008	31.860418
9926.343085	4220.566667	913.666016	-5.179769
9926.343085	4220.566667	912.499023	130.654846
9926.343085	4220.566667	911.332031	86.480415
9926.343085	4220.566667	910.165039	87.948227
9926.343085	4220.566667	908.997070	202.201599
9926.343085	4220.566667	907.830078	-86.488686
9926.343085	4220.566667	906.661133	-101.656319
9926.343085	4220.566667	905.493164	103.773247
9926.343085	4220.566667	904.325195	16.730444
9926.343085	4220.566667	903.156250	30.413406
9926.343085	4220.566667	901.987305	104.024269
9926.343085	4220.566667	900.818359	158.476990
9926.343085	4220.566667	899.648438	62.064491
9926.343085	4220.566667	898.478516	257.851135
9926.343085	4220.566667	897.308594	75.343628
9926.343085	4220.566667	896.138672	161.016495
9926.343085	4220.566667	894.968750	74.393028
9926.343085	4220.566667	893.797852	-62.398750
9926.343085	4220.566667	892.626953	154.920197
9926.343085	4220.566667	891.456055	190.427856
9926.343085	4220.566667	890.284180	44.239624
9926.343085	4220.566667	889.113281	94.167336
9926.343085	4220.566667	887.941406	220.595215
9926.343085	4220.566667	886.768555	12.469512
9926.343085	4220.566667	885.596680	112.649734
9926.343085	4220.566667	884.423828	52.791744
9926.343085	4220.566667	883.250977	90.904816
9926.343085	4220.566667	882.078125	243.642105
9926.343085	4220.566667	880.905273	-30.949190
9926.343085	4220.566667	879.731445	102.729439
9926.343085	4220.566667	878.557617	-2.231320
9926.343085	4220.566667	877.383789	5.010639
9926.343085	4220.566667	876.209961	69.528389
9926.343085	4220.566667	875.035156	-59.104874
9926.343085	4220.566667	873.860352	-35.062748
9926.343085	4220.566667	872.685547	-106.347366
9926.343085	4220.566667	871.510742	-27.426207
9926.343085	4220.566667	870.334961	18.141207
9926.343085	4220.566667	869.159180	-29.186520
9926.343085	4220.566667	867.983398	-97.899323
9926.343085	4220.566667	866.807617	40.620262
9926.343085	4220.566667	865.630859	-35.153030
9926.343085	4220.566667	864.454102	-48.975544
9926.343085	4220.566667	863.277344	87.167648
9926.343085	4220.566667	862.100586	42.455524
9926.343085	4220.566667	860.922852	21.586529
9926.343085	4220.566667	859.745117	0.756356
9926.343085	4220.566667	858.567383	60.812923
9926.343085	4220.566667	857.389648	68.571915
9926.343085	4220.566667	856.210938	-78.135338
9926.343085	4220.566667	855.032227	105.568886
9926.343085	4220.566667	853.853516	-10.139874
9926.343085	4220.566667	852.674805	97.518890
9926.343085	4220.566667	851.495117	-41.826538
9926.343085	4220.566667	850.315430	30.241007
9926.343085	4220.566667	849.135742	0.226146
9926.343085	4220.566667	847.956055	-15.507122
9926.343085	4220.566667	846.775391	16.259888
9926.343085	4220.566667	845.595703	-127.530594
9926.343085	4220.566667	844.415039	-71.978523
9926.343085	4220.566667	843.233398	-4.558230
9926.343085	4220.566667	842.052734	-150.539536
9926.343085	4220.566667	840.871094	42.562191
9926.343085	4220.566667	839.689453	76.816231
9926.343085	4220.566667	838.506836	13.935038
9926.343085	4220.566667	837.325195	-48.900700
9926.343085	4220.566667	836.142578	122.813812
9926.343085	4220.566667	834.959961	48.197559
9926.343085	4220.566667	833.777344	82.548584
9926.343085	4220.566667	832.593750	-48.783863
9926.343085	4220.566667	831.410156	-38.038292
9926.343085	4220.566667	830.226563	-10.710124
9926.343085	4220.566667	829.042969	-108.750366
9926.343085	4220.566667	827.858398	122.041847
9926.343085	4220.566667	826.673828	-68.156532
9926.343085	4220.566667	825.489258	176.764023
9926.343085	4220.566667	824.304688	12.679146
9926.343085	4220.566667	823.120117	229.167618
9926.343085	4220.566667	821.934570	20.298054
9926.343085	4220.566667	820.749023	-18.380163
9926.343085	4220.566667	819.562500	-0.332093
9926.343085	4220.566667	818.376953	74.394814
9926.343085	4220.566667	817.190430	125.509445
9926.343085	4220.566667	816.003906	-137.300201
9926.343085	4220.566667	814.817383	48.387890
9926.343085	4220.566667	813.629883	-72.690132
9926.343085	4220.566667	812.442383	-172.468872
9926.343085	4220.566667	811.254883	-33.991661
9926.343085	4220.566667	810.067383	-190.289642
9926.343085	4220.566667	808.878906	-101.328270
9926.343085	4220.566667	807.690430	-66.594475
9926.343085	4220.566667	806.501953	27.052473
9926.343085	4220.566667	805.313477	66.491104
9926.343085	4220.566667	804.124023	-54.233749
9926.343085	4220.566667	802.934570	22.924610
9926.343085	4220.566667	801.745117	-50.619171
9926.343085	4220.566667	800.555664	31.245840
9926.343085	4220.566667	799.365234	0.130914
9926.343085	4220.566667	798.175781	-52.140312
9926.343085	4220.566667	796.985352	10.905105
9926.343085	4220.566667	795.793945	104.521660
9926.343085	4220.566667	794.603516	-51.158463
9926.343085	4220.566667	793.412109	-37.477722
9926.343085	4220.566667	792.220703	65.532829
9926.343085	4220.566667	791.028320	58.065075
9926.343085	4220.566667	789.836914	-17.533077
9926.343085	4220.566667	788.644531	83.102524
9926.343085	4220.566667	787.452148	-74.641747
9926.343085	4220.566667	786.258789	-79.674080
9926.343085	4220.566667	785.066406	-117.568024
9926.343085	4220.566667	783.873047	15.914151
9926.343085	4220.566667	782.679688	69.563087
9926.343085	4220.566667	781.485352	-36.336044
9926.343085	4220.566667	780.291992	-60.089264
9926.343085	4220.566667	779.097656	103.799980
9926.343085	4220.566667	777.903320	284.042206
9926.343085	4220.566667	776.708008	269.650665
9926.343085	4220.566667	775.512695	173.240112
9926.343085	4220.566667	774.318359	161.227646
9926.343085	4220.566667	773.122070	128.154221
9926.343085	4220.566667	771.926758	270.765564
9926.343085	4220.566667	770.730469	242.377579
9926.343085	4220.566667	769.534180	244.442947
9926.343085	4220.566667	768.337891	117.764923
9926.343085	4220.566667	767.141602	255.603790
9926.343085	4220.566667	765.944336	454.231537
9926.343085	4220.566667	764.747070	474.986572
9926.343085	4220.566667	763.549805	229.101364
9926.343085	4220.566667	762.351563	308.365417
9926.343085	4220.566667	761.154297	273.033234
9926.343085	4220.566667	759.956055	60.078377
9926.343085	4220.566667	758.757813	279.547791
9926.343085	4220.566667	757.558594	178.836960
9926.343085	4220.566667	756.359375	244.022095
9926.343085	4220.566667	755.160156	159.707687
9926.343085	4220.566667	753.960938	276.237488
9926.343085	4220.566667	752.761719	184.944077
9926.343085	4220.566667	751.561523	159.046127
9926.343085	4220.566667	750.361328	266.168213
9926.343085	4220.566667	749.160156	53.620323
9926.343085	4220.566667	747.959961	27.755610
9926.343085	4220.566667	746.758789	172.146225
9926.343085	4220.566667	745.557617	69.322029
9926.343085	4220.566667	744.356445	241.606735
9926.343085	4220.566667	743.154297	143.468048
9926.343085	4220.566667	741.952148	68.665314
9926.343085	4220.566667	740.750000	129.006638
9926.343085	4220.566667	739.547852	98.478363
9926.343085	4220.566667	738.344727	40.016888
9926.343085	4220.566667	737.142578	70.036499
9926.343085	4220.566667	735.939453	-7.032862
9926.343085	4220.566667	734.735352	157.957703
9926.343085	4220.566667	733.532227	162.318527
9926.343085	4220.566667	732.328125	-3.142078
9926.343085	4220.566667	731.124023	138.455902
9926.343085	4220.566667	729.918945	203.255844
9926.343085	4220.566667	728.714844	47.155567
9926.343085	4220.566667	727.509766	123.544830
9926.343085	4220.566667	726.303711	25.610125
9926.343085	4220.566667	725.098633	122.855789
9926.343085	4220.566667	723.892578	155.014282
9926.343085	4220.566667	722.686523	108.184952
9926.343085	4220.566667	721.480469	5.635385
9926.343085	4220.566667	720.274414	47.039413
9926.343085	4220.566667	719.067383	-53.158443
9926.343085	4220.566667	717.860352	-44.270397
9926.343085	4220.566667	716.653320	103.792435
9926.343085	4220.566667	715.445313	-19.592369
9926.343085	4220.566667	714.238281	98.221901
9926.343085	4220.566667	713.030273	197.427399
9926.343085	4220.566667	711.821289	284.988922
9926.343085	4220.566667	710.613281	168.548416
9926.343085	4220.566667	709.404297	114.702698
9926.343085	4220.566667	708.195313	44.643623
9926.343085	4220.566667	706.986328	48.706650
9926.343085	4220.566667	705.776367	224.103699
9926.343085	4220.566667	704.566406	123.912903
9926.343085	4220.566667	703.356445	16.798347
9926.343085	4220.566667	702.146484	-34.755562
9926.343085	4220.566667	700.935547	45.570930
9926.343085	4220.566667	699.724609	137.406326
9926.343085	4220.566667	698.513672	-46.025204
9926.343085	4220.566667	697.302734	73.487793
9926.343085	4220.566667	696.090820	35.738140
9926.343085	4220.566667	694.878906	9.535106
9926.343085	4220.566667	693.666992	-28.236012
9926.343085	4220.566667	692.455078	-40.605434
9926.343085	4220.566667	691.242188	106.380707
9926.343085	4220.566667	690.029297	-56.160606
9926.343085	4220.566667	688.816406	-45.504208
9926.343085	4220.566667	687.602539	73.613754
9926.343085	4220.566667	686.389648	-33.515923
9926.343085	4220.566667	685.175781	193.934708
9926.343085	4220.566667	683.960938	195.199020
9926.343085	4220.566667	682.747070	164.137802
9926.343085	4220.566667	681.532227	123.841553
9926.343085	4220.566667	680.317383	134.249741
9926.343085	4220.566667	679.102539	-25.938343
9926.343085	4220.566667	677.886719	-57.039074
9926.343085	4220.566667	676.670898	-16.737896
9926.343085	4220.566667	675.455078	-27.161665
9926.343085	4220.566667	674.239258	-81.369362
9926.343085	4220.566667	673.022461	-13.552484
9926.343085	4220.566667	671.805664	26.578762
9926.343085	4220.566667	670.588867	82.769119
9926.343085	4220.566667	669.372070	28.453760
9926.343085	4220.566667	668.154297	8.639331
9926.343085	4220.566667	666.936523	-71.002403
9926.343085	4220.566667	665.718750	-24.172001
9926.343085	4220.566667	664.500977	45.593079
9926.343085	4220.566667	663.282227	80.818909
9926.343085	4220.566667	662.063477	115.993309
9926.343085	4220.566667	660.844727	158.008514
9926.343085	4220.566667	659.625000	52.958397
9926.343085	4220.566667	658.405273	55.856270
9926.343085	4220.566667	657.185547	-33.131195
9926.343085	4220.566667	655.965820	134.993240
9926.343085	4220.566667	654.745117	78.086510
9926.343085	4220.566667	653.525391	55.579781
9926.343085	4220.566667	652.303711	115.643997
9926.343085	4220.566667	651.083008	159.581726
9926.343085	4220.566667	649.861328	13.127533
9926.343085	4220.566667	648.640625	86.793411
9926.343085	4220.566667	647.417969	-34.445366
9926.343085	4220.566667	646.196289	48.288895
9926.343085	4220.566667	644.973633	140.116730
9926.343085	4220.566667	643.750977	147.103683
9926.343085	4220.566667	642.528320	-6.276391
9926.343085	4220.566667	641.305664	-15.374801
9926.343085	4220.566667	640.082031	183.823730
9926.343085	4220.566667	638.858398	46.431793
9926.343085	4220.566667	637.634766	-102.387276
9926.343085	4220.566667	636.410156	32.516979
9926.343085	4220.566667	635.185547	176.469666
9926.343085	4220.566667	633.960938	180.815308
9926.343085	4220.566667	632.736328	98.229477
9926.343085	4220.566667	631.510742	-46.082321
9926.343085	4220.566667	630.285156	-18.966675
9926.343085	4220.566667	629.059570	-42.177673
9926.343085	4220.566667	627.833984	-51.716953
9926.343085	4220.566667	626.607422	151.121353
9926.343085	4220.566667	625.380859	38.699322
9926.343085	4220.566667	624.154297	97.508507
9926.343085	4220.566667	622.927734	30.705013
9926.343085	4220.566667	621.700195	-127.395065
9926.343085	4220.566667	620.472656	161.719452
9926.343085	4220.566667	619.245117	35.501099
9926.343085	4220.566667	618.016602	146.479721
9926.343085	4220.566667	616.788086	36.190598
9926.343085	4220.566667	615.559570	60.400700
9926.343085	4220.566667	614.331055	86.833076
9926.343085	4220.566667	613.101563	-12.117290
9926.343085	4220.566667	611.872070	150.921463
9926.343085	4220.566667	610.642578	29.127493
9926.343085	4220.566667	609.413086	91.794182
9926.343085	4220.566667	608.182617	131.623032
9926.343085	4220.566667	606.952148	112.204353
9926.343085	4220.566667	605.721680	106.400406
9926.343085	4220.566667	604.491211	193.838593
9926.343085	4220.566667	603.259766	92.385338
9926.343085	4220.566667	602.028320	154.679474
9926.343085	4220.566667	600.796875	260.102325
9926.343085	4220.566667	599.564453	35.796593
9926.343085	4220.566667	598.332031	177.473511
9926.343085	4220.566667	597.099609	19.084269
9926.343085	4220.566667	595.867188	10.661111
9926.343085	4220.566667	594.633789	83.968666
9926.343085	4220.566667	593.400391	254.847763
9926.343085	4220.566667	592.166992	194.017685
9926.343085	4220.566667	590.933594	24.206017
9926.343085	4220.566667	589.699219	85.911156
9926.343085	4220.566667	588.464844	220.150391
9926.343085	4220.566667	587.230469	63.911575
9926.343085	4220.566667	585.995117	123.159332
9926.343085	4220.566667	584.760742	102.966125
9926.343085	4220.566667	583.525391	7.922680
9926.343085	4220.566667	582.289063	132.735046
9926.343085	4220.566667	581.053711	-5.426394
9926.343085	4220.566667	579.817383	187.209534
9926.343085	4220.566667	578.581055	246.071640
9926.343085	4220.566667	577.343750	279.952423
9926.343085	4220.566667	576.107422	162.067535
9926.343085	4220.566667	574.870117	216.230362
9926.343085	4220.566667	573.631836	247.692886
9926.343085	4220.566667	572.394531	236.100723
9926.343085	4220.566667	571.156250	206.370529
9926.343085	4220.566667	569.917969	233.150681
9926.343085	4220.566667	568.679688	314.144012
9926.343085	4220.566667	567.440430	263.931824
9926.343085	4220.566667	566.202148	202.390594
9926.343085	4220.566667	564.961914	14.282893
9926.343085	4220.566667	563.722656	212.558014
9926.343085	4220.566667	562.482422	26.695635
9926.343085	4220.566667	561.243164	114.130676
9926.343085	4220.566667	560.001953	86.333748
9926.343085	4220.566667	558.761719	72.046143
9926.343085	4220.566667	557.520508	100.603729
9926.343085	4220.566667	556.279297	83.975159
9926.343085	4220.566667	555.038086	180.107956
9926.343085	4220.566667	553.795898	127.294571
9926.343085	4220.566667	552.554688	51.907444
9926.343085	4220.566667	551.311523	55.421867
9926.343085	4220.566667	550.069336	230.196625
9926.343085	4220.566667	548.826172	170.484100
9926.343085	4220.566667	547.583984	-24.433260
9926.343085	4220.566667	546.339844	210.941895
9926.343085	4220.566667	545.096680	45.293484
9926.343085	4220.566667	543.852539	-86.549690
9926.343085	4220.566667	542.608398	-103.569199
9926.343085	4220.566667	541.364258	50.428146
9926.343085	4220.566667	540.119141	24.304274
9926.343085	4220.566667	538.875000	-40.096355
9926.343085	4220.566667	537.628906	124.914833
9926.343085	4220.566667	536.383789	22.211945
9926.343085	4220.566667	535.137695	79.141411
9926.343085	4220.566667	533.892578	-82.030151
9926.343085	4220.566667	532.645508	-72.374313
9926.343085	4220.566667	531.399414	110.241730
9926.343085	4220.566667	530.152344	-66.671768
9926.343085	4220.566667	528.905273	-32.438271
9926.343085	4220.566667	527.658203	-52.146301
9926.343085	4220.566667	526.410156	-9.025544
9926.343085	4220.566667	525.163086	-51.249870
9926.343085	4220.566667	523.914063	38.900528
9926.343085	4220.566667	522.666016	-140.239243
9926.343085	4220.566667	521.416992	-61.396648
9926.343085	4220.566667	520.167969	-146.326080
9926.343085	4220.566667	518.918945	-45.168808
9926.343085	4220.566667	517.669922	-96.513809
9926.343085	4220.566667	516.419922	-112.014351
9926.343085	4220.566667	515.169922	27.054762
9926.343085	4220.566667	513.919922	-17.656708
9926.343085	4220.566667	512.668945	7.045065
9926.343085	4220.566667	511.417969	-169.818756
9926.343085	4220.566667	510.166992	9.302967
9926.343085	4220.566667	508.916016	0.308996
9926.343085	4220.566667	507.664063	-42.278347
9926.343085	4220.566667	506.412109	-53.559868
9926.343085	4220.566667	505.160156	55.913490
9926.343085	4220.566667	503.907227	46.787975
9926.343085	4220.566667	502.655273	-152.404739
9926.343085	4220.566667	501.402344	-5.076616
9926.343085	4220.566667	500.148438	-177.417358
9926.343085	4220.566667	498.895508	59.162437
9926.343085	4220.566667	497.641602	-48.398758
9926.343085	4220.566667	496.387695	161.190002
9926.343085	4220.566667	495.132813	-49.119106
9926.343085	4220.566667	493.878906	120.136055
9926.343085	4220.566667	492.624023	21.461105
9926.343085	4220.566667	491.368164	-1.332259
9926.343085	4220.566667	490.113281	56.167908
9926.343085	4220.566667	488.857422	155.992935
9926.343085	4220.566667	487.601563	32.748314
9926.343085	4220.566667	486.344727	179.297119
9926.343085	4220.566667	485.088867	87.248718
9926.343085	4220.566667	483.832031	66.524811
9926.343085	4220.566667	482.575195	14.588348
9926.343085	4220.566667	481.317383	-12.850068
9926.343085	4220.566667	480.059570	51.005527
9926.343085	4220.566667	478.801758	-76.683624
9926.343085	4220.566667	477.543945	-66.325638
9926.343085	4220.566667	476.285156	-44.871693
9926.343085	4220.566667	475.027344	27.723806
9926.343085	4220.566667	473.767578	-42.120468
9926.343085	4220.566667	472.508789	45.956642
9926.343085	4220.566667	471.249023	-101.748260
9926.343085	4220.566667	469.989258	173.000748
9926.343085	4220.566667	468.729492	111.963875
9926.343085	4220.566667	467.469727	-31.300367
9926.343085	4220.566667	466.208984	34.319973
9926.343085	4220.566667	464.948242	-24.511932
9926.343085	4220.566667	463.686523	-7.838041
9926.343085	4220.566667	462.425781	-0.081783
9926.343085	4220.566667	461.164063	47.599762
9926.343085	4220.566667	459.901367	-13.520267
9926.343085	4220.566667	458.639648	98.433571
9926.343085	4220.566667	457.376953	123.788841
9926.343085	4220.566667	456.114258	-1.720050
9926.343085	4220.566667	454.851563	-22.983105
9926.343085	4220.566667	453.587891	-22.098372
9926.343085	4220.566667	452.324219	-10.162519
9926.343085	4220.566667	451.060547	-51.450428
9926.343085	4220.566667	449.796875	22.457319
9926.343085	4220.566667	448.532227	47.567421
9926.343085	4220.566667	447.267578	-159.902893
9926.343085	4220.566667	446.002930	-26.339972
9926.343085	4220.566667	444.737305	-54.467800
9926.343085	4220.566667	443.471680	76.730133
9926.343085	4220.566667	442.206055	-31.138519
9926.343085	4220.566667	440.940430	15.858070
9926.343085	4220.566667	439.673828	98.183624
9926.343085	4220.566667	438.407227	23.433670
9926.343085	4220.566667	437.140625	85.744987
9926.343085	4220.566667	435.873047	81.677719
9926.343085	4220.566667	434.605469	51.051968
9926.343085	4220.566667	433.337891	27.023380
9926.343085	4220.566667	432.070313	155.373535
9926.343085	4220.566667	430.801758	38.488895
9926.343085	4220.566667	429.533203	3.300794
9926.343085	4220.566667	428.264648	51.961731
9926.343085	4220.566667	426.996094	32.135868
9926.343085	4220.566667	425.726563	107.145805
9926.343085	4220.566667	424.457031	-16.471750
9926.343085	4220.566667	423.186523	1.063603
9926.343085	4220.566667	421.916992	104.532471
9926.343085	4220.566667	420.646484	57.986797
9926.343085	4220.566667	419.375977	-12.843965
9926.343085	4220.566667	418.104492	130.044266
9926.343085	4220.566667	416.833008	257.385284
9926.343085	4220.566667	415.561523	265.661041
9926.343085	4220.566667	414.290039	174.766876
9926.343085	4220.566667	413.017578	28.798227
9926.343085	4220.566667	411.746094	146.969437
9926.343085	4220.566667	410.472656	25.130121
9926.343085	4220.566667	409.200195	215.707275
9926.343085	4220.566667	407.926758	84.950256
9926.343085	4220.566667	406.653320	130.113174
9926.343085	4220.566667	405.379883	107.007362
9926.343085	4220.566667	404.105469	9.077756
9926.343085	4220.566667	402.831055	49.567120
9926.343085	4220.566667	401.556641	215.198135
9926.343085	4220.566667	400.282227	0.590373
9926.343085	4220.566667	399.006836	135.211533
9926.343085	4220.566667	397.731445	17.132872
9926.343085	4220.566667	396.456055	92.203644
9926.343085	4220.566667	395.179688	248.345581
9926.343085	4220.566667	393.903320	97.068848
9926.343085	4220.566667	392.626953	202.447449
9926.343085	4220.566667	391.350586	123.396591
9926.343085	4220.566667	390.073242	77.149734
9926.343085	4220.566667	388.795898	92.187622
9926.343085	4220.566667	387.518555	17.206854
9926.343085	4220.566667	386.240234	115.261986
9926.343085	4220.566667	384.961914	-5.989059
9926.343085	4220.566667	383.683594	135.554260
9926.343085	4220.566667	382.405273	64.429840
9926.343085	4220.566667	381.125977	41.351929
9926.343085	4220.566667	379.846680	18.122898
9926.343085	4220.566667	378.567383	-14.017599
9926.343085	4220.566667	377.287109	43.403656
9926.343085	4220.566667	376.006836	21.858891
9926.343085	4220.566667	374.726563	-12.982963
9926.343085	4220.566667	373.446289	-30.502439
9926.343085	4220.566667	372.165039	-24.161549
9926.343085	4220.566667	370.883789	67.230148
9926.343085	4220.566667	369.602539	35.987465
9926.343085	4220.566667	368.320313	35.131832
9926.343085	4220.566667	367.039063	-44.580975
9926.343085	4220.566667	365.755859	28.390118
9926.343085	4220.566667	364.473633	175.344940
9926.343085	4220.566667	363.190430	62.199139
9926.343085	4220.566667	361.907227	-94.797325
9926.343085	4220.566667	360.624023	27.339132
9926.343085	4220.566667	359.340820	-21.011127
9926.343085	4220.566667	358.056641	0.183180
9926.343085	4220.566667	356.772461	-81.404121
9926.343085	4220.566667	355.487305	48.238876
9926.343085	4220.566667	354.202148	33.664925
9926.343085	4220.566667	352.916992	7.898952
9926.343085	4220.566667	351.631836	-55.207653
9926.343085	4220.566667	350.346680	12.096217
9926.343085	4220.566667	349.060547	4.985839
9926.343085	4220.566667	347.774414	-6.815032
9926.343085	4220.566667	346.487305	-45.089584
9926.343085	4220.566667	345.200195	-7.529533
9926.343085	4220.566667	343.913086	-74.801361
9926.343085	4220.566667	342.625977	81.656754
9926.343085	4220.566667	341.338867	-47.272789
9926.343085	4220.566667	340.050781	101.790779
9926.343085	4220.566667	338.762695	72.102753
9926.343085	4220.566667	337.473633	-44.949402
9926.343085	4220.566667	336.184570	63.624077
9926.343085	4220.566667	334.895508	-30.353720
9926.343085	4220.566667	333.606445	-37.859276
9926.343085	4220.566667	332.317383	-87.093437
9926.343085	4220.566667	331.027344	-4.352862
9926.343085	4220.566667	329.736328	103.893860
9926.343085	4220.566667	328.446289	-20.624655
9926.343085	4220.566667	327.155273	-54.489605
9926.343085	4220.566667	325.864258	8.746453
9926.343085	4220.566667	324.573242	-171.508621
9926.343085	4220.566667	323.281250	-0.979832
9926.343085	4220.566667	321.989258	-160.630096
9926.343085	4220.566667	320.697266	-52.037266
9926.343085	4220.566667	319.405273	-32.946018
9926.343085	4220.566667	318.112305	-131.493546
9926.343085	4220.566667	316.819336	-133.165680
9926.343085	4220.566667	315.526367	63.740219
9926.343085	4220.566667	314.232422	6.554747
9926.343085	4220.566667	312.938477	152.180222
9926.343085	4220.566667	311.644531	-21.094315
9926.343085	4220.566667	310.349609	34.314522
9926.343085	4220.566667	309.054688	41.367165
9926.343085	4220.566667	307.759766	138.491287
9926.343085	4220.566667	306.464844	74.788078
9926.343085	4220.566667	305.168945	70.824486
9926.343085	4220.566667	303.873047	133.046616
9926.343085	4220.566667	302.577148	174.957367
9926.343085	4220.566667	301.281250	248.399124
9926.343085	4220.566667	299.984375	249.632126
