#X		#Y		#Wave		#Intensity
9586.222340	4887.375000	1999.946289	-2.533437
9586.222340	4887.375000	1998.981445	-24.779789
9586.222340	4887.375000	1998.017578	-52.442940
9586.222340	4887.375000	1997.052734	14.057425
9586.222340	4887.375000	1996.088867	16.099552
9586.222340	4887.375000	1995.124023	62.715839
9586.222340	4887.375000	1994.159180	-14.535752
9586.222340	4887.375000	1993.193359	-44.723240
9586.222340	4887.375000	1992.228516	38.974827
9586.222340	4887.375000	1991.262695	105.301422
9586.222340	4887.375000	1990.296875	42.896320
9586.222340	4887.375000	1989.331055	-19.498171
9586.222340	4887.375000	1988.365234	31.921759
9586.222340	4887.375000	1987.398438	-5.735743
9586.222340	4887.375000	1986.432617	3.597730
9586.222340	4887.375000	1985.465820	0.553887
9586.222340	4887.375000	1984.499023	-0.027485
9586.222340	4887.375000	1983.532227	-3.090396
9586.222340	4887.375000	1982.565430	-3.691165
9586.222340	4887.375000	1981.597656	82.175484
9586.222340	4887.375000	1980.629883	79.069832
9586.222340	4887.375000	1979.662109	68.546867
9586.222340	4887.375000	1978.694336	-23.470993
9586.222340	4887.375000	1977.726563	-6.830120
9586.222340	4887.375000	1976.758789	7.327932
9586.222340	4887.375000	1975.790039	60.961002
9586.222340	4887.375000	1974.821289	-6.343756
9586.222340	4887.375000	1973.852539	15.184448
9586.222340	4887.375000	1972.883789	81.097404
9586.222340	4887.375000	1971.915039	36.000854
9586.222340	4887.375000	1970.945313	10.640177
9586.222340	4887.375000	1969.975586	22.261480
9586.222340	4887.375000	1969.005859	-99.227264
9586.222340	4887.375000	1968.036133	25.758671
9586.222340	4887.375000	1967.066406	-78.449409
9586.222340	4887.375000	1966.096680	112.988098
9586.222340	4887.375000	1965.125977	26.032583
9586.222340	4887.375000	1964.155273	-53.507591
9586.222340	4887.375000	1963.184570	-12.381945
9586.222340	4887.375000	1962.213867	11.493000
9586.222340	4887.375000	1961.242188	84.577621
9586.222340	4887.375000	1960.271484	73.967949
9586.222340	4887.375000	1959.299805	-37.511459
9586.222340	4887.375000	1958.328125	-57.941139
9586.222340	4887.375000	1957.356445	17.547028
9586.222340	4887.375000	1956.384766	46.285526
9586.222340	4887.375000	1955.412109	-40.534603
9586.222340	4887.375000	1954.439453	81.600082
9586.222340	4887.375000	1953.467773	-46.976654
9586.222340	4887.375000	1952.495117	45.624630
9586.222340	4887.375000	1951.521484	71.861626
9586.222340	4887.375000	1950.548828	102.999321
9586.222340	4887.375000	1949.575195	-8.305049
9586.222340	4887.375000	1948.601563	71.936310
9586.222340	4887.375000	1947.627930	159.510681
9586.222340	4887.375000	1946.654297	45.799313
9586.222340	4887.375000	1945.680664	45.005253
9586.222340	4887.375000	1944.706055	132.531891
9586.222340	4887.375000	1943.732422	-47.342880
9586.222340	4887.375000	1942.757813	-1.525084
9586.222340	4887.375000	1941.783203	90.863190
9586.222340	4887.375000	1940.807617	11.607876
9586.222340	4887.375000	1939.833008	50.034477
9586.222340	4887.375000	1938.857422	-7.128782
9586.222340	4887.375000	1937.881836	31.286524
9586.222340	4887.375000	1936.906250	-1.354499
9586.222340	4887.375000	1935.930664	0.306668
9586.222340	4887.375000	1934.955078	16.660273
9586.222340	4887.375000	1933.978516	-23.304405
9586.222340	4887.375000	1933.001953	-21.639177
9586.222340	4887.375000	1932.025391	75.476128
9586.222340	4887.375000	1931.048828	23.289896
9586.222340	4887.375000	1930.072266	12.714818
9586.222340	4887.375000	1929.094727	-7.639966
9586.222340	4887.375000	1928.118164	30.708946
9586.222340	4887.375000	1927.140625	22.586184
9586.222340	4887.375000	1926.163086	24.246544
9586.222340	4887.375000	1925.184570	52.793785
9586.222340	4887.375000	1924.207031	-48.189106
9586.222340	4887.375000	1923.228516	60.993835
9586.222340	4887.375000	1922.250000	79.750954
9586.222340	4887.375000	1921.271484	100.944847
9586.222340	4887.375000	1920.292969	19.569239
9586.222340	4887.375000	1919.314453	33.445217
9586.222340	4887.375000	1918.334961	-33.238014
9586.222340	4887.375000	1917.355469	-99.894653
9586.222340	4887.375000	1916.375977	36.008057
9586.222340	4887.375000	1915.396484	37.678410
9586.222340	4887.375000	1914.416992	66.181633
9586.222340	4887.375000	1913.436523	-29.702274
9586.222340	4887.375000	1912.457031	-18.261744
9586.222340	4887.375000	1911.476563	-19.013206
9586.222340	4887.375000	1910.496094	21.673782
9586.222340	4887.375000	1909.515625	-59.500805
9586.222340	4887.375000	1908.534180	59.150505
9586.222340	4887.375000	1907.552734	26.723967
9586.222340	4887.375000	1906.572266	-93.369728
9586.222340	4887.375000	1905.590820	61.754604
9586.222340	4887.375000	1904.608398	-77.774849
9586.222340	4887.375000	1903.626953	-80.932861
9586.222340	4887.375000	1902.644531	-13.508091
9586.222340	4887.375000	1901.663086	-45.872540
9586.222340	4887.375000	1900.680664	-44.162987
9586.222340	4887.375000	1899.698242	45.114719
9586.222340	4887.375000	1898.714844	44.378525
9586.222340	4887.375000	1897.732422	31.487097
9586.222340	4887.375000	1896.749023	-141.847214
9586.222340	4887.375000	1895.765625	-86.638588
9586.222340	4887.375000	1894.782227	43.885685
9586.222340	4887.375000	1893.798828	21.292944
9586.222340	4887.375000	1892.814453	-18.294765
9586.222340	4887.375000	1891.831055	46.572243
9586.222340	4887.375000	1890.846680	-34.283077
9586.222340	4887.375000	1889.862305	45.133144
9586.222340	4887.375000	1888.877930	32.279610
9586.222340	4887.375000	1887.892578	-26.679899
9586.222340	4887.375000	1886.908203	59.975025
9586.222340	4887.375000	1885.922852	13.165740
9586.222340	4887.375000	1884.937500	-2.091454
9586.222340	4887.375000	1883.952148	-46.443333
9586.222340	4887.375000	1882.965820	76.526566
9586.222340	4887.375000	1881.980469	17.634089
9586.222340	4887.375000	1880.994141	-29.116161
9586.222340	4887.375000	1880.007813	86.515495
9586.222340	4887.375000	1879.021484	1.006290
9586.222340	4887.375000	1878.035156	116.591515
9586.222340	4887.375000	1877.047852	52.908573
9586.222340	4887.375000	1876.061523	-30.121492
9586.222340	4887.375000	1875.074219	-42.908867
9586.222340	4887.375000	1874.086914	38.713348
9586.222340	4887.375000	1873.098633	38.020260
9586.222340	4887.375000	1872.111328	73.624039
9586.222340	4887.375000	1871.123047	19.702652
9586.222340	4887.375000	1870.135742	-51.129051
9586.222340	4887.375000	1869.147461	30.421391
9586.222340	4887.375000	1868.158203	-8.952743
9586.222340	4887.375000	1867.169922	-21.719852
9586.222340	4887.375000	1866.180664	-22.397055
9586.222340	4887.375000	1865.192383	63.921265
9586.222340	4887.375000	1864.203125	-21.334005
9586.222340	4887.375000	1863.213867	74.614113
9586.222340	4887.375000	1862.223633	69.089043
9586.222340	4887.375000	1861.234375	-37.851509
9586.222340	4887.375000	1860.244141	-4.725631
9586.222340	4887.375000	1859.253906	88.732658
9586.222340	4887.375000	1858.263672	61.487625
9586.222340	4887.375000	1857.273438	-6.766743
9586.222340	4887.375000	1856.282227	16.676521
9586.222340	4887.375000	1855.291992	-32.249149
9586.222340	4887.375000	1854.300781	29.773346
9586.222340	4887.375000	1853.309570	60.427219
9586.222340	4887.375000	1852.317383	-27.052490
9586.222340	4887.375000	1851.326172	13.239326
9586.222340	4887.375000	1850.333984	46.285286
9586.222340	4887.375000	1849.342773	23.904324
9586.222340	4887.375000	1848.350586	-41.828423
9586.222340	4887.375000	1847.357422	17.696552
9586.222340	4887.375000	1846.365234	-86.540192
9586.222340	4887.375000	1845.372070	-5.365374
9586.222340	4887.375000	1844.379883	63.742332
9586.222340	4887.375000	1843.386719	89.503799
9586.222340	4887.375000	1842.393555	-33.925095
9586.222340	4887.375000	1841.399414	-70.706566
9586.222340	4887.375000	1840.406250	-20.889078
9586.222340	4887.375000	1839.412109	12.073648
9586.222340	4887.375000	1838.417969	37.808689
9586.222340	4887.375000	1837.423828	15.454360
9586.222340	4887.375000	1836.429688	53.190472
9586.222340	4887.375000	1835.434570	62.073795
9586.222340	4887.375000	1834.440430	-3.525912
9586.222340	4887.375000	1833.445313	2.956409
9586.222340	4887.375000	1832.450195	-24.188828
9586.222340	4887.375000	1831.454102	42.316322
9586.222340	4887.375000	1830.458984	94.389000
9586.222340	4887.375000	1829.462891	33.627937
9586.222340	4887.375000	1828.466797	116.871895
9586.222340	4887.375000	1827.470703	75.316307
9586.222340	4887.375000	1826.474609	-21.401495
9586.222340	4887.375000	1825.478516	13.825553
9586.222340	4887.375000	1824.481445	49.034885
9586.222340	4887.375000	1823.484375	115.393898
9586.222340	4887.375000	1822.487305	-26.820190
9586.222340	4887.375000	1821.490234	-10.809644
9586.222340	4887.375000	1820.493164	-6.790403
9586.222340	4887.375000	1819.495117	33.157516
9586.222340	4887.375000	1818.498047	29.971123
9586.222340	4887.375000	1817.500000	84.255638
9586.222340	4887.375000	1816.500977	9.219674
9586.222340	4887.375000	1815.502930	56.295380
9586.222340	4887.375000	1814.504883	48.298733
9586.222340	4887.375000	1813.505859	78.586693
9586.222340	4887.375000	1812.506836	108.857712
9586.222340	4887.375000	1811.507813	76.917343
9586.222340	4887.375000	1810.508789	-67.423996
9586.222340	4887.375000	1809.508789	-32.378452
9586.222340	4887.375000	1808.508789	81.541512
9586.222340	4887.375000	1807.508789	-19.712801
9586.222340	4887.375000	1806.508789	-65.969391
9586.222340	4887.375000	1805.508789	69.377327
9586.222340	4887.375000	1804.508789	132.998398
9586.222340	4887.375000	1803.507813	89.107162
9586.222340	4887.375000	1802.506836	92.985878
9586.222340	4887.375000	1801.505859	70.592918
9586.222340	4887.375000	1800.504883	-9.089644
9586.222340	4887.375000	1799.502930	44.903225
9586.222340	4887.375000	1798.501953	46.372059
9586.222340	4887.375000	1797.500000	95.547577
9586.222340	4887.375000	1796.498047	-15.118729
9586.222340	4887.375000	1795.496094	-13.662868
9586.222340	4887.375000	1794.493164	-33.675491
9586.222340	4887.375000	1793.491211	-51.304241
9586.222340	4887.375000	1792.488281	0.186910
9586.222340	4887.375000	1791.485352	70.714577
9586.222340	4887.375000	1790.482422	5.398762
9586.222340	4887.375000	1789.478516	-21.786768
9586.222340	4887.375000	1788.475586	-1.336007
9586.222340	4887.375000	1787.471680	40.528748
9586.222340	4887.375000	1786.467773	41.895531
9586.222340	4887.375000	1785.463867	-11.495035
9586.222340	4887.375000	1784.459961	-121.991928
9586.222340	4887.375000	1783.455078	-39.721775
9586.222340	4887.375000	1782.450195	59.160583
9586.222340	4887.375000	1781.445313	10.526868
9586.222340	4887.375000	1780.440430	-0.048307
9586.222340	4887.375000	1779.435547	-15.384622
9586.222340	4887.375000	1778.429688	54.853664
9586.222340	4887.375000	1777.424805	-0.910987
9586.222340	4887.375000	1776.418945	7.494458
9586.222340	4887.375000	1775.413086	-62.515442
9586.222340	4887.375000	1774.406250	7.637941
9586.222340	4887.375000	1773.400391	-5.367236
9586.222340	4887.375000	1772.393555	-72.991554
9586.222340	4887.375000	1771.386719	-45.639511
9586.222340	4887.375000	1770.379883	26.789646
9586.222340	4887.375000	1769.373047	-19.475412
9586.222340	4887.375000	1768.365234	29.172695
9586.222340	4887.375000	1767.358398	56.442280
9586.222340	4887.375000	1766.350586	10.164889
9586.222340	4887.375000	1765.342773	42.148010
9586.222340	4887.375000	1764.334961	109.670860
9586.222340	4887.375000	1763.326172	-14.847941
9586.222340	4887.375000	1762.318359	45.528053
9586.222340	4887.375000	1761.309570	25.305338
9586.222340	4887.375000	1760.300781	16.924274
9586.222340	4887.375000	1759.291016	122.228004
9586.222340	4887.375000	1758.282227	49.868153
9586.222340	4887.375000	1757.272461	-15.373228
9586.222340	4887.375000	1756.262695	75.638115
9586.222340	4887.375000	1755.252930	79.030785
9586.222340	4887.375000	1754.243164	-28.808813
9586.222340	4887.375000	1753.233398	36.092644
9586.222340	4887.375000	1752.222656	84.398300
9586.222340	4887.375000	1751.211914	111.388481
9586.222340	4887.375000	1750.201172	3.576050
9586.222340	4887.375000	1749.190430	51.823997
9586.222340	4887.375000	1748.179688	-65.414856
9586.222340	4887.375000	1747.167969	-47.919300
9586.222340	4887.375000	1746.156250	-11.540561
9586.222340	4887.375000	1745.144531	10.638065
9586.222340	4887.375000	1744.132813	-30.974537
9586.222340	4887.375000	1743.121094	-15.910151
9586.222340	4887.375000	1742.108398	103.017456
9586.222340	4887.375000	1741.095703	25.964712
9586.222340	4887.375000	1740.083008	-67.591866
9586.222340	4887.375000	1739.070313	-47.863991
9586.222340	4887.375000	1738.057617	37.899761
9586.222340	4887.375000	1737.043945	-55.644688
9586.222340	4887.375000	1736.030273	-0.596230
9586.222340	4887.375000	1735.016602	73.280701
9586.222340	4887.375000	1734.002930	-53.258801
9586.222340	4887.375000	1732.989258	-71.345139
9586.222340	4887.375000	1731.974609	14.245181
9586.222340	4887.375000	1730.959961	62.093758
9586.222340	4887.375000	1729.945313	-3.155875
9586.222340	4887.375000	1728.930664	-7.160727
9586.222340	4887.375000	1727.916016	17.078449
9586.222340	4887.375000	1726.900391	8.335141
9586.222340	4887.375000	1725.885742	32.535690
9586.222340	4887.375000	1724.870117	-39.773163
9586.222340	4887.375000	1723.853516	-76.775795
9586.222340	4887.375000	1722.837891	10.900999
9586.222340	4887.375000	1721.822266	35.028240
9586.222340	4887.375000	1720.805664	-9.062050
9586.222340	4887.375000	1719.789063	40.893528
9586.222340	4887.375000	1718.772461	133.127151
9586.222340	4887.375000	1717.754883	-47.307041
9586.222340	4887.375000	1716.738281	21.384485
9586.222340	4887.375000	1715.720703	24.255838
9586.222340	4887.375000	1714.703125	106.972092
9586.222340	4887.375000	1713.685547	13.516409
9586.222340	4887.375000	1712.667969	-47.046268
9586.222340	4887.375000	1711.649414	19.162373
9586.222340	4887.375000	1710.630859	-13.242334
9586.222340	4887.375000	1709.612305	13.015985
9586.222340	4887.375000	1708.593750	-21.748201
9586.222340	4887.375000	1707.575195	18.548615
9586.222340	4887.375000	1706.555664	18.946804
9586.222340	4887.375000	1705.536133	7.607423
9586.222340	4887.375000	1704.516602	78.309784
9586.222340	4887.375000	1703.497070	62.248741
9586.222340	4887.375000	1702.477539	93.048576
9586.222340	4887.375000	1701.457031	102.735458
9586.222340	4887.375000	1700.437500	-67.966751
9586.222340	4887.375000	1699.416992	14.324310
9586.222340	4887.375000	1698.395508	77.835938
9586.222340	4887.375000	1697.375000	54.688560
9586.222340	4887.375000	1696.354492	106.439331
9586.222340	4887.375000	1695.333008	3.698327
9586.222340	4887.375000	1694.311523	-38.181099
9586.222340	4887.375000	1693.290039	-19.234556
9586.222340	4887.375000	1692.267578	18.401430
9586.222340	4887.375000	1691.246094	-21.157927
9586.222340	4887.375000	1690.223633	32.803768
9586.222340	4887.375000	1689.201172	-51.184536
9586.222340	4887.375000	1688.178711	2.735853
9586.222340	4887.375000	1687.155273	37.927872
9586.222340	4887.375000	1686.132813	70.758812
9586.222340	4887.375000	1685.109375	80.204971
9586.222340	4887.375000	1684.085938	-15.454635
9586.222340	4887.375000	1683.062500	80.368683
9586.222340	4887.375000	1682.039063	1.061449
9586.222340	4887.375000	1681.014648	-40.886501
9586.222340	4887.375000	1679.990234	73.514839
9586.222340	4887.375000	1678.965820	89.870766
9586.222340	4887.375000	1677.941406	36.229195
9586.222340	4887.375000	1676.916992	12.914169
9586.222340	4887.375000	1675.891602	73.535583
9586.222340	4887.375000	1674.866211	89.827415
9586.222340	4887.375000	1673.840820	31.514353
9586.222340	4887.375000	1672.815430	40.792263
9586.222340	4887.375000	1671.790039	26.755465
9586.222340	4887.375000	1670.763672	-5.925883
9586.222340	4887.375000	1669.737305	70.857498
9586.222340	4887.375000	1668.710938	98.699440
9586.222340	4887.375000	1667.684570	3.128105
9586.222340	4887.375000	1666.658203	103.106712
9586.222340	4887.375000	1665.630859	-62.270794
9586.222340	4887.375000	1664.603516	123.747261
9586.222340	4887.375000	1663.576172	-22.982834
9586.222340	4887.375000	1662.548828	65.246048
9586.222340	4887.375000	1661.520508	104.593491
9586.222340	4887.375000	1660.493164	76.492065
9586.222340	4887.375000	1659.464844	94.878998
9586.222340	4887.375000	1658.436523	36.552921
9586.222340	4887.375000	1657.408203	157.157959
9586.222340	4887.375000	1656.378906	142.959152
9586.222340	4887.375000	1655.350586	121.788803
9586.222340	4887.375000	1654.321289	100.613625
9586.222340	4887.375000	1653.291992	114.263763
9586.222340	4887.375000	1652.261719	137.181702
9586.222340	4887.375000	1651.232422	129.910065
9586.222340	4887.375000	1650.202148	136.551941
9586.222340	4887.375000	1649.171875	159.421417
9586.222340	4887.375000	1648.141602	124.282051
9586.222340	4887.375000	1647.111328	216.698898
9586.222340	4887.375000	1646.080078	107.342171
9586.222340	4887.375000	1645.049805	211.298050
9586.222340	4887.375000	1644.018555	85.740601
9586.222340	4887.375000	1642.987305	161.831131
9586.222340	4887.375000	1641.955078	105.817947
9586.222340	4887.375000	1640.923828	165.641098
9586.222340	4887.375000	1639.891602	174.478195
9586.222340	4887.375000	1638.859375	213.404938
9586.222340	4887.375000	1637.827148	152.758118
9586.222340	4887.375000	1636.794922	235.634537
9586.222340	4887.375000	1635.761719	214.328873
9586.222340	4887.375000	1634.729492	283.261200
9586.222340	4887.375000	1633.696289	236.491211
9586.222340	4887.375000	1632.662109	233.673264
9586.222340	4887.375000	1631.628906	216.975845
9586.222340	4887.375000	1630.594727	306.624786
9586.222340	4887.375000	1629.561523	264.477051
9586.222340	4887.375000	1628.527344	266.246002
9586.222340	4887.375000	1627.493164	353.499146
9586.222340	4887.375000	1626.458008	348.302307
9586.222340	4887.375000	1625.423828	204.519363
9586.222340	4887.375000	1624.388672	197.029617
9586.222340	4887.375000	1623.353516	309.593964
9586.222340	4887.375000	1622.318359	389.790680
9586.222340	4887.375000	1621.282227	262.234619
9586.222340	4887.375000	1620.247070	243.174515
9586.222340	4887.375000	1619.210938	348.692535
9586.222340	4887.375000	1618.174805	281.170135
9586.222340	4887.375000	1617.137695	206.747147
9586.222340	4887.375000	1616.101563	309.886139
9586.222340	4887.375000	1615.064453	265.442719
9586.222340	4887.375000	1614.027344	336.249573
9586.222340	4887.375000	1612.990234	178.894714
9586.222340	4887.375000	1611.953125	314.188385
9586.222340	4887.375000	1610.916016	299.701080
9586.222340	4887.375000	1609.877930	179.274933
9586.222340	4887.375000	1608.839844	263.816162
9586.222340	4887.375000	1607.801758	322.996796
9586.222340	4887.375000	1606.763672	278.576019
9586.222340	4887.375000	1605.724609	284.791992
9586.222340	4887.375000	1604.685547	314.008484
9586.222340	4887.375000	1603.646484	370.812988
9586.222340	4887.375000	1602.607422	360.895935
9586.222340	4887.375000	1601.568359	362.475983
9586.222340	4887.375000	1600.528320	295.081024
9586.222340	4887.375000	1599.489258	356.427002
9586.222340	4887.375000	1598.449219	330.417450
9586.222340	4887.375000	1597.408203	398.614319
9586.222340	4887.375000	1596.368164	381.789185
9586.222340	4887.375000	1595.327148	390.229431
9586.222340	4887.375000	1594.287109	377.999573
9586.222340	4887.375000	1593.246094	397.911133
9586.222340	4887.375000	1592.204102	385.675293
9586.222340	4887.375000	1591.163086	352.790100
9586.222340	4887.375000	1590.121094	347.447052
9586.222340	4887.375000	1589.079102	408.630707
9586.222340	4887.375000	1588.037109	258.781250
9586.222340	4887.375000	1586.995117	209.885666
9586.222340	4887.375000	1585.953125	387.981934
9586.222340	4887.375000	1584.910156	288.647095
9586.222340	4887.375000	1583.867188	331.439728
9586.222340	4887.375000	1582.824219	296.309998
9586.222340	4887.375000	1581.781250	252.030273
9586.222340	4887.375000	1580.737305	216.926605
9586.222340	4887.375000	1579.693359	374.194550
9586.222340	4887.375000	1578.649414	361.975891
9586.222340	4887.375000	1577.605469	306.269867
9586.222340	4887.375000	1576.561523	312.379120
9586.222340	4887.375000	1575.516602	325.348663
9586.222340	4887.375000	1574.472656	368.056549
9586.222340	4887.375000	1573.427734	339.840698
9586.222340	4887.375000	1572.381836	419.115845
9586.222340	4887.375000	1571.336914	402.335449
9586.222340	4887.375000	1570.291016	426.707794
9586.222340	4887.375000	1569.246094	444.217804
9586.222340	4887.375000	1568.200195	495.996185
9586.222340	4887.375000	1567.153320	451.801178
9586.222340	4887.375000	1566.107422	467.015900
9586.222340	4887.375000	1565.060547	498.210449
9586.222340	4887.375000	1564.013672	572.777222
9586.222340	4887.375000	1562.966797	528.611877
9586.222340	4887.375000	1561.919922	516.419678
9586.222340	4887.375000	1560.872070	577.254211
9586.222340	4887.375000	1559.825195	574.189575
9586.222340	4887.375000	1558.777344	520.945251
9586.222340	4887.375000	1557.729492	545.264648
9586.222340	4887.375000	1556.680664	533.094543
9586.222340	4887.375000	1555.632813	596.164063
9586.222340	4887.375000	1554.583984	650.094299
9586.222340	4887.375000	1553.535156	553.609009
9586.222340	4887.375000	1552.486328	564.247498
9586.222340	4887.375000	1551.436523	504.270203
9586.222340	4887.375000	1550.387695	514.924133
9586.222340	4887.375000	1549.337891	495.976044
9586.222340	4887.375000	1548.288086	472.487946
9586.222340	4887.375000	1547.238281	471.775146
9586.222340	4887.375000	1546.187500	502.925323
9586.222340	4887.375000	1545.136719	511.317505
9586.222340	4887.375000	1544.086914	535.637634
9586.222340	4887.375000	1543.035156	509.916107
9586.222340	4887.375000	1541.984375	491.034698
9586.222340	4887.375000	1540.933594	460.800842
9586.222340	4887.375000	1539.881836	560.141052
9586.222340	4887.375000	1538.830078	500.374817
9586.222340	4887.375000	1537.778320	558.785706
9586.222340	4887.375000	1536.725586	401.377686
9586.222340	4887.375000	1535.673828	471.155884
9586.222340	4887.375000	1534.621094	570.431458
9586.222340	4887.375000	1533.568359	363.192291
9586.222340	4887.375000	1532.515625	455.656830
9586.222340	4887.375000	1531.461914	316.617126
9586.222340	4887.375000	1530.409180	329.659760
9586.222340	4887.375000	1529.355469	354.046448
9586.222340	4887.375000	1528.301758	267.299683
9586.222340	4887.375000	1527.247070	293.972809
9586.222340	4887.375000	1526.193359	318.379303
9586.222340	4887.375000	1525.138672	281.583771
9586.222340	4887.375000	1524.083984	217.618134
9586.222340	4887.375000	1523.029297	242.052399
9586.222340	4887.375000	1521.974609	141.894547
9586.222340	4887.375000	1520.918945	234.298813
9586.222340	4887.375000	1519.863281	188.547134
9586.222340	4887.375000	1518.807617	183.575699
9586.222340	4887.375000	1517.751953	158.245270
9586.222340	4887.375000	1516.696289	189.512817
9586.222340	4887.375000	1515.639648	288.656403
9586.222340	4887.375000	1514.583008	254.303116
9586.222340	4887.375000	1513.526367	183.787079
9586.222340	4887.375000	1512.469727	135.923676
9586.222340	4887.375000	1511.412109	180.783463
9586.222340	4887.375000	1510.355469	121.661591
9586.222340	4887.375000	1509.297852	216.249603
9586.222340	4887.375000	1508.240234	175.242874
9586.222340	4887.375000	1507.181641	156.853378
9586.222340	4887.375000	1506.124023	156.554611
9586.222340	4887.375000	1505.065430	257.884186
9586.222340	4887.375000	1504.006836	149.219757
9586.222340	4887.375000	1502.948242	277.624023
9586.222340	4887.375000	1501.888672	178.050934
9586.222340	4887.375000	1500.830078	328.989014
9586.222340	4887.375000	1499.770508	130.212051
9586.222340	4887.375000	1498.710938	157.074982
9586.222340	4887.375000	1497.650391	181.684662
9586.222340	4887.375000	1496.590820	204.045807
9586.222340	4887.375000	1495.530273	118.212654
9586.222340	4887.375000	1494.469727	140.604706
9586.222340	4887.375000	1493.409180	214.827118
9586.222340	4887.375000	1492.348633	196.670563
9586.222340	4887.375000	1491.287109	153.759064
9586.222340	4887.375000	1490.225586	173.932785
9586.222340	4887.375000	1489.164063	108.558807
9586.222340	4887.375000	1488.102539	115.258362
9586.222340	4887.375000	1487.041016	38.700531
9586.222340	4887.375000	1485.978516	110.694008
9586.222340	4887.375000	1484.916016	160.185043
9586.222340	4887.375000	1483.853516	112.943321
9586.222340	4887.375000	1482.791016	74.740448
9586.222340	4887.375000	1481.727539	18.580486
9586.222340	4887.375000	1480.664063	54.629597
9586.222340	4887.375000	1479.600586	12.018523
9586.222340	4887.375000	1478.537109	-88.968666
9586.222340	4887.375000	1477.473633	-3.435848
9586.222340	4887.375000	1476.409180	-7.787334
9586.222340	4887.375000	1475.344727	-32.327023
9586.222340	4887.375000	1474.280273	-43.331646
9586.222340	4887.375000	1473.215820	-20.712460
9586.222340	4887.375000	1472.151367	4.221091
9586.222340	4887.375000	1471.085938	-24.673758
9586.222340	4887.375000	1470.020508	-37.908760
9586.222340	4887.375000	1468.955078	67.756195
9586.222340	4887.375000	1467.888672	-21.540844
9586.222340	4887.375000	1466.823242	-45.945488
9586.222340	4887.375000	1465.756836	-141.779160
9586.222340	4887.375000	1464.690430	-150.426483
9586.222340	4887.375000	1463.624023	44.747871
9586.222340	4887.375000	1462.556641	45.029999
9586.222340	4887.375000	1461.490234	20.743347
9586.222340	4887.375000	1460.422852	-56.938705
9586.222340	4887.375000	1459.355469	17.097387
9586.222340	4887.375000	1458.287109	-11.117846
9586.222340	4887.375000	1457.219727	63.248898
9586.222340	4887.375000	1456.151367	59.154346
9586.222340	4887.375000	1455.083008	-105.369095
9586.222340	4887.375000	1454.014648	64.706024
9586.222340	4887.375000	1452.945313	88.099030
9586.222340	4887.375000	1451.876953	170.885208
9586.222340	4887.375000	1450.807617	40.491459
9586.222340	4887.375000	1449.738281	116.458130
9586.222340	4887.375000	1448.668945	181.227448
9586.222340	4887.375000	1447.598633	106.527138
9586.222340	4887.375000	1446.528320	289.061798
9586.222340	4887.375000	1445.458008	238.445068
9586.222340	4887.375000	1444.387695	195.419174
9586.222340	4887.375000	1443.317383	147.181000
9586.222340	4887.375000	1442.246094	253.315765
9586.222340	4887.375000	1441.174805	242.372696
9586.222340	4887.375000	1440.103516	264.504730
9586.222340	4887.375000	1439.032227	194.985550
9586.222340	4887.375000	1437.960938	266.157593
9586.222340	4887.375000	1436.888672	309.187408
9586.222340	4887.375000	1435.816406	378.868530
9586.222340	4887.375000	1434.744141	253.362427
9586.222340	4887.375000	1433.670898	367.883331
9586.222340	4887.375000	1432.598633	351.355225
9586.222340	4887.375000	1431.525391	326.748840
9586.222340	4887.375000	1430.452148	361.446411
9586.222340	4887.375000	1429.378906	451.323792
9586.222340	4887.375000	1428.304688	383.449554
9586.222340	4887.375000	1427.231445	436.012329
9586.222340	4887.375000	1426.157227	367.015259
9586.222340	4887.375000	1425.083008	279.519745
9586.222340	4887.375000	1424.007813	309.472412
9586.222340	4887.375000	1422.933594	273.834137
9586.222340	4887.375000	1421.858398	274.272095
9586.222340	4887.375000	1420.783203	227.106796
9586.222340	4887.375000	1419.708008	221.720627
9586.222340	4887.375000	1418.631836	287.398682
9586.222340	4887.375000	1417.555664	206.014160
9586.222340	4887.375000	1416.479492	186.058807
9586.222340	4887.375000	1415.403320	182.866882
9586.222340	4887.375000	1414.327148	162.684494
9586.222340	4887.375000	1413.250000	191.149124
9586.222340	4887.375000	1412.173828	146.273254
9586.222340	4887.375000	1411.096680	181.258347
9586.222340	4887.375000	1410.018555	235.942413
9586.222340	4887.375000	1408.941406	233.841400
9586.222340	4887.375000	1407.863281	205.582001
9586.222340	4887.375000	1406.785156	195.166580
9586.222340	4887.375000	1405.707031	173.318298
9586.222340	4887.375000	1404.628906	153.379913
9586.222340	4887.375000	1403.549805	126.643166
9586.222340	4887.375000	1402.470703	151.361298
9586.222340	4887.375000	1401.391602	188.572159
9586.222340	4887.375000	1400.312500	198.259888
9586.222340	4887.375000	1399.233398	108.219154
9586.222340	4887.375000	1398.153320	211.831131
9586.222340	4887.375000	1397.073242	155.410706
9586.222340	4887.375000	1395.993164	82.761612
9586.222340	4887.375000	1394.913086	53.084747
9586.222340	4887.375000	1393.832031	98.967659
9586.222340	4887.375000	1392.750977	171.517899
9586.222340	4887.375000	1391.669922	91.745193
9586.222340	4887.375000	1390.588867	47.945698
9586.222340	4887.375000	1389.506836	71.892799
9586.222340	4887.375000	1388.425781	34.002296
9586.222340	4887.375000	1387.343750	176.374756
9586.222340	4887.375000	1386.261719	74.425430
9586.222340	4887.375000	1385.178711	63.784256
9586.222340	4887.375000	1384.096680	55.782631
9586.222340	4887.375000	1383.013672	149.253189
9586.222340	4887.375000	1381.930664	124.584518
9586.222340	4887.375000	1380.846680	50.255974
9586.222340	4887.375000	1379.763672	75.926163
9586.222340	4887.375000	1378.679688	57.213299
9586.222340	4887.375000	1377.595703	174.484863
9586.222340	4887.375000	1376.511719	138.126801
9586.222340	4887.375000	1375.427734	131.612442
9586.222340	4887.375000	1374.342773	127.247940
9586.222340	4887.375000	1373.257813	95.244186
9586.222340	4887.375000	1372.172852	137.024216
9586.222340	4887.375000	1371.087891	110.280861
9586.222340	4887.375000	1370.001953	187.880386
9586.222340	4887.375000	1368.916992	226.205322
9586.222340	4887.375000	1367.831055	164.345001
9586.222340	4887.375000	1366.744141	125.802818
9586.222340	4887.375000	1365.658203	175.786392
9586.222340	4887.375000	1364.571289	249.717178
9586.222340	4887.375000	1363.484375	142.433304
9586.222340	4887.375000	1362.397461	223.430801
9586.222340	4887.375000	1361.310547	211.899765
9586.222340	4887.375000	1360.222656	259.900024
9586.222340	4887.375000	1359.135742	200.845459
9586.222340	4887.375000	1358.047852	219.496124
9586.222340	4887.375000	1356.958984	170.772430
9586.222340	4887.375000	1355.871094	234.079590
9586.222340	4887.375000	1354.782227	256.630676
9586.222340	4887.375000	1353.693359	227.500168
9586.222340	4887.375000	1352.604492	194.438751
9586.222340	4887.375000	1351.515625	160.839859
9586.222340	4887.375000	1350.425781	187.277390
9586.222340	4887.375000	1349.335938	226.931702
9586.222340	4887.375000	1348.246094	220.004852
9586.222340	4887.375000	1347.156250	223.721130
9586.222340	4887.375000	1346.066406	162.931015
9586.222340	4887.375000	1344.975586	265.075653
9586.222340	4887.375000	1343.884766	247.300400
9586.222340	4887.375000	1342.793945	142.809753
9586.222340	4887.375000	1341.702148	249.580551
9586.222340	4887.375000	1340.611328	241.336060
9586.222340	4887.375000	1339.519531	193.511765
9586.222340	4887.375000	1338.427734	192.548111
9586.222340	4887.375000	1337.334961	157.506210
9586.222340	4887.375000	1336.243164	199.135803
9586.222340	4887.375000	1335.150391	230.427460
9586.222340	4887.375000	1334.057617	183.951401
9586.222340	4887.375000	1332.964844	176.682343
9586.222340	4887.375000	1331.871094	125.333145
9586.222340	4887.375000	1330.778320	42.350845
9586.222340	4887.375000	1329.684570	35.309666
9586.222340	4887.375000	1328.590820	52.457474
9586.222340	4887.375000	1327.496094	120.645592
9586.222340	4887.375000	1326.402344	10.537958
9586.222340	4887.375000	1325.307617	73.958939
9586.222340	4887.375000	1324.212891	28.736399
9586.222340	4887.375000	1323.117188	-24.734093
9586.222340	4887.375000	1322.022461	87.255699
9586.222340	4887.375000	1320.926758	49.930412
9586.222340	4887.375000	1319.831055	34.017986
9586.222340	4887.375000	1318.735352	68.955536
9586.222340	4887.375000	1317.638672	69.896523
9586.222340	4887.375000	1316.542969	119.173515
9586.222340	4887.375000	1315.446289	-2.590742
9586.222340	4887.375000	1314.349609	80.476128
9586.222340	4887.375000	1313.251953	11.497865
9586.222340	4887.375000	1312.155273	76.956314
9586.222340	4887.375000	1311.057617	77.425270
9586.222340	4887.375000	1309.959961	26.631042
9586.222340	4887.375000	1308.862305	-60.739014
9586.222340	4887.375000	1307.763672	11.441587
9586.222340	4887.375000	1306.665039	51.154964
9586.222340	4887.375000	1305.566406	114.597748
9586.222340	4887.375000	1304.467773	40.607174
9586.222340	4887.375000	1303.369141	33.410877
9586.222340	4887.375000	1302.269531	71.509666
9586.222340	4887.375000	1301.169922	43.893898
9586.222340	4887.375000	1300.070313	103.935715
9586.222340	4887.375000	1298.970703	-12.036674
9586.222340	4887.375000	1297.870117	13.620183
9586.222340	4887.375000	1296.769531	13.133869
9586.222340	4887.375000	1295.668945	-70.387138
9586.222340	4887.375000	1294.568359	6.034778
9586.222340	4887.375000	1293.466797	30.428366
9586.222340	4887.375000	1292.366211	-9.930143
9586.222340	4887.375000	1291.264648	108.673187
9586.222340	4887.375000	1290.162109	55.136406
9586.222340	4887.375000	1289.060547	51.704670
9586.222340	4887.375000	1287.958008	56.079037
9586.222340	4887.375000	1286.855469	28.707672
9586.222340	4887.375000	1285.752930	-15.975035
9586.222340	4887.375000	1284.650391	-3.834738
9586.222340	4887.375000	1283.546875	-33.089657
9586.222340	4887.375000	1282.444336	72.250320
9586.222340	4887.375000	1281.339844	27.377365
9586.222340	4887.375000	1280.236328	-15.461118
9586.222340	4887.375000	1279.132813	70.622864
9586.222340	4887.375000	1278.028320	8.470472
9586.222340	4887.375000	1276.923828	-2.570347
9586.222340	4887.375000	1275.819336	45.140846
9586.222340	4887.375000	1274.713867	51.465748
9586.222340	4887.375000	1273.608398	15.249830
9586.222340	4887.375000	1272.503906	92.423721
9586.222340	4887.375000	1271.397461	-39.543015
9586.222340	4887.375000	1270.291992	51.446819
9586.222340	4887.375000	1269.185547	-26.739815
9586.222340	4887.375000	1268.080078	30.100519
9586.222340	4887.375000	1266.972656	-13.409664
9586.222340	4887.375000	1265.866211	34.085739
9586.222340	4887.375000	1264.759766	42.302490
9586.222340	4887.375000	1263.652344	-1.023600
9586.222340	4887.375000	1262.544922	-56.513481
9586.222340	4887.375000	1261.436523	-78.789230
9586.222340	4887.375000	1260.329102	-137.631683
9586.222340	4887.375000	1259.220703	-58.515022
9586.222340	4887.375000	1258.112305	-32.684986
9586.222340	4887.375000	1257.003906	14.591869
9586.222340	4887.375000	1255.895508	-28.483728
9586.222340	4887.375000	1254.786133	-41.146851
9586.222340	4887.375000	1253.676758	19.392857
9586.222340	4887.375000	1252.567383	-5.384580
9586.222340	4887.375000	1251.458008	-114.586052
9586.222340	4887.375000	1250.347656	-25.375067
9586.222340	4887.375000	1249.237305	43.099728
9586.222340	4887.375000	1248.126953	28.543945
9586.222340	4887.375000	1247.016602	7.198105
9586.222340	4887.375000	1245.905273	-26.810022
9586.222340	4887.375000	1244.793945	-0.581253
9586.222340	4887.375000	1243.682617	-48.140205
9586.222340	4887.375000	1242.571289	-18.893084
9586.222340	4887.375000	1241.459961	19.750481
9586.222340	4887.375000	1240.347656	18.144850
9586.222340	4887.375000	1239.235352	37.570766
9586.222340	4887.375000	1238.123047	-8.402636
9586.222340	4887.375000	1237.009766	46.790195
9586.222340	4887.375000	1235.897461	4.443819
9586.222340	4887.375000	1234.784180	-5.995756
9586.222340	4887.375000	1233.670898	-99.115974
9586.222340	4887.375000	1232.556641	-96.911072
9586.222340	4887.375000	1231.443359	67.792122
9586.222340	4887.375000	1230.329102	25.289509
9586.222340	4887.375000	1229.214844	-30.866964
9586.222340	4887.375000	1228.099609	-34.197163
9586.222340	4887.375000	1226.985352	-15.676129
9586.222340	4887.375000	1225.870117	-20.429077
9586.222340	4887.375000	1224.754883	-27.559109
9586.222340	4887.375000	1223.639648	-20.038353
9586.222340	4887.375000	1222.523438	60.104065
9586.222340	4887.375000	1221.408203	-5.393547
9586.222340	4887.375000	1220.291992	44.202759
9586.222340	4887.375000	1219.174805	-9.927530
9586.222340	4887.375000	1218.058594	62.436306
9586.222340	4887.375000	1216.941406	-19.505713
9586.222340	4887.375000	1215.824219	-0.598647
9586.222340	4887.375000	1214.707031	-49.491386
9586.222340	4887.375000	1213.589844	47.201370
9586.222340	4887.375000	1212.471680	0.223949
9586.222340	4887.375000	1211.353516	8.856766
9586.222340	4887.375000	1210.235352	-63.907703
9586.222340	4887.375000	1209.117188	4.952803
9586.222340	4887.375000	1207.998047	39.064449
9586.222340	4887.375000	1206.878906	-8.414659
9586.222340	4887.375000	1205.759766	7.398820
9586.222340	4887.375000	1204.640625	-62.687450
9586.222340	4887.375000	1203.520508	-84.829041
9586.222340	4887.375000	1202.401367	-29.586248
9586.222340	4887.375000	1201.281250	13.011957
9586.222340	4887.375000	1200.160156	-23.377148
9586.222340	4887.375000	1199.040039	40.627544
9586.222340	4887.375000	1197.918945	-20.383301
9586.222340	4887.375000	1196.797852	-16.137072
9586.222340	4887.375000	1195.676758	17.266672
9586.222340	4887.375000	1194.555664	-34.265282
9586.222340	4887.375000	1193.433594	-66.832603
9586.222340	4887.375000	1192.311523	-56.551098
9586.222340	4887.375000	1191.189453	-24.330379
9586.222340	4887.375000	1190.066406	24.337538
9586.222340	4887.375000	1188.944336	-47.611263
9586.222340	4887.375000	1187.821289	-89.082481
9586.222340	4887.375000	1186.698242	-60.811058
9586.222340	4887.375000	1185.574219	-57.591496
9586.222340	4887.375000	1184.451172	-12.071918
9586.222340	4887.375000	1183.327148	-58.360443
9586.222340	4887.375000	1182.203125	-9.204435
9586.222340	4887.375000	1181.078125	46.530293
9586.222340	4887.375000	1179.954102	8.730566
9586.222340	4887.375000	1178.829102	-80.215179
9586.222340	4887.375000	1177.704102	-3.194428
9586.222340	4887.375000	1176.579102	-22.393152
9586.222340	4887.375000	1175.453125	-32.780693
9586.222340	4887.375000	1174.327148	-21.290424
9586.222340	4887.375000	1173.201172	-32.723053
9586.222340	4887.375000	1172.075195	-23.255762
9586.222340	4887.375000	1170.949219	-75.207329
9586.222340	4887.375000	1169.822266	-6.791015
9586.222340	4887.375000	1168.695313	-40.950897
9586.222340	4887.375000	1167.568359	-13.936663
9586.222340	4887.375000	1166.440430	18.998135
9586.222340	4887.375000	1165.313477	16.338604
9586.222340	4887.375000	1164.185547	77.492111
9586.222340	4887.375000	1163.057617	26.415478
9586.222340	4887.375000	1161.928711	48.312168
9586.222340	4887.375000	1160.800781	35.346298
9586.222340	4887.375000	1159.671875	99.805069
9586.222340	4887.375000	1158.541992	92.474182
9586.222340	4887.375000	1157.413086	121.267807
9586.222340	4887.375000	1156.283203	87.676964
9586.222340	4887.375000	1155.154297	93.011589
9586.222340	4887.375000	1154.023438	150.154984
9586.222340	4887.375000	1152.893555	105.272362
9586.222340	4887.375000	1151.763672	108.045181
9586.222340	4887.375000	1150.632813	138.351654
9586.222340	4887.375000	1149.501953	154.416992
9586.222340	4887.375000	1148.370117	67.410187
9586.222340	4887.375000	1147.239258	169.838303
9586.222340	4887.375000	1146.107422	148.406845
9586.222340	4887.375000	1144.975586	141.211929
9586.222340	4887.375000	1143.843750	115.940926
9586.222340	4887.375000	1142.710938	83.049850
9586.222340	4887.375000	1141.578125	231.434677
9586.222340	4887.375000	1140.445313	97.106972
9586.222340	4887.375000	1139.312500	99.719437
9586.222340	4887.375000	1138.178711	94.067192
9586.222340	4887.375000	1137.045898	137.049332
9586.222340	4887.375000	1135.912109	121.436386
9586.222340	4887.375000	1134.777344	4.353199
9586.222340	4887.375000	1133.643555	96.842003
9586.222340	4887.375000	1132.508789	88.645935
9586.222340	4887.375000	1131.374023	76.442543
9586.222340	4887.375000	1130.239258	149.349136
9586.222340	4887.375000	1129.104492	66.168808
9586.222340	4887.375000	1127.968750	4.737864
9586.222340	4887.375000	1126.833008	58.943134
9586.222340	4887.375000	1125.697266	40.940010
9586.222340	4887.375000	1124.560547	26.985428
9586.222340	4887.375000	1123.424805	77.150368
9586.222340	4887.375000	1122.288086	90.827957
9586.222340	4887.375000	1121.151367	143.433395
9586.222340	4887.375000	1120.013672	10.285593
9586.222340	4887.375000	1118.876953	16.397520
9586.222340	4887.375000	1117.739258	28.958115
9586.222340	4887.375000	1116.601563	35.012032
9586.222340	4887.375000	1115.462891	-39.128460
9586.222340	4887.375000	1114.324219	62.031029
9586.222340	4887.375000	1113.186523	53.919746
9586.222340	4887.375000	1112.046875	29.786419
9586.222340	4887.375000	1110.908203	58.823776
9586.222340	4887.375000	1109.769531	83.323814
9586.222340	4887.375000	1108.629883	-56.660767
9586.222340	4887.375000	1107.490234	-7.443856
9586.222340	4887.375000	1106.349609	-47.425907
9586.222340	4887.375000	1105.209961	8.775745
9586.222340	4887.375000	1104.069336	119.906662
9586.222340	4887.375000	1102.928711	2.914247
9586.222340	4887.375000	1101.787109	-29.289738
9586.222340	4887.375000	1100.646484	33.017563
9586.222340	4887.375000	1099.504883	15.463700
9586.222340	4887.375000	1098.363281	40.557899
9586.222340	4887.375000	1097.221680	12.896285
9586.222340	4887.375000	1096.079102	5.978211
9586.222340	4887.375000	1094.936523	-2.852093
9586.222340	4887.375000	1093.793945	-16.020231
9586.222340	4887.375000	1092.651367	-6.403953
9586.222340	4887.375000	1091.507813	35.291470
9586.222340	4887.375000	1090.364258	97.544601
9586.222340	4887.375000	1089.220703	20.921293
9586.222340	4887.375000	1088.077148	69.064568
9586.222340	4887.375000	1086.933594	26.984125
9586.222340	4887.375000	1085.789063	11.985633
9586.222340	4887.375000	1084.644531	5.281123
9586.222340	4887.375000	1083.499023	4.869345
9586.222340	4887.375000	1082.354492	-14.396280
9586.222340	4887.375000	1081.208984	-1.460842
9586.222340	4887.375000	1080.063477	-15.809264
9586.222340	4887.375000	1078.917969	119.630188
9586.222340	4887.375000	1077.771484	-3.754378
9586.222340	4887.375000	1076.625977	-6.544224
9586.222340	4887.375000	1075.479492	-8.575916
9586.222340	4887.375000	1074.332031	12.625084
9586.222340	4887.375000	1073.185547	4.280099
9586.222340	4887.375000	1072.038086	-54.420658
9586.222340	4887.375000	1070.890625	116.789726
9586.222340	4887.375000	1069.743164	-3.637122
9586.222340	4887.375000	1068.594727	-5.402056
9586.222340	4887.375000	1067.447266	30.715904
9586.222340	4887.375000	1066.298828	52.353867
9586.222340	4887.375000	1065.149414	-47.932804
9586.222340	4887.375000	1064.000977	15.115775
9586.222340	4887.375000	1062.851563	62.760666
9586.222340	4887.375000	1061.702148	-37.456196
9586.222340	4887.375000	1060.552734	-14.739411
9586.222340	4887.375000	1059.402344	-50.090225
9586.222340	4887.375000	1058.252930	-63.494209
9586.222340	4887.375000	1057.102539	68.177734
9586.222340	4887.375000	1055.951172	-29.947977
9586.222340	4887.375000	1054.800781	60.108753
9586.222340	4887.375000	1053.649414	62.021378
9586.222340	4887.375000	1052.498047	60.648609
9586.222340	4887.375000	1051.346680	60.187717
9586.222340	4887.375000	1050.194336	61.213783
9586.222340	4887.375000	1049.042969	-25.980949
9586.222340	4887.375000	1047.890625	-12.739261
9586.222340	4887.375000	1046.738281	-21.693331
9586.222340	4887.375000	1045.584961	-46.193668
9586.222340	4887.375000	1044.431641	64.415176
9586.222340	4887.375000	1043.278320	27.502863
9586.222340	4887.375000	1042.125000	17.177805
9586.222340	4887.375000	1040.971680	47.615082
9586.222340	4887.375000	1039.817383	11.971453
9586.222340	4887.375000	1038.663086	8.920024
9586.222340	4887.375000	1037.508789	-59.734730
9586.222340	4887.375000	1036.353516	-0.619528
9586.222340	4887.375000	1035.198242	18.311094
9586.222340	4887.375000	1034.042969	21.182419
9586.222340	4887.375000	1032.887695	102.916847
9586.222340	4887.375000	1031.732422	16.792261
9586.222340	4887.375000	1030.576172	38.971668
9586.222340	4887.375000	1029.419922	66.067993
9586.222340	4887.375000	1028.263672	119.962639
9586.222340	4887.375000	1027.106445	57.166241
9586.222340	4887.375000	1025.949219	46.016865
9586.222340	4887.375000	1024.792969	41.910740
9586.222340	4887.375000	1023.634766	104.012665
9586.222340	4887.375000	1022.477539	21.464842
9586.222340	4887.375000	1021.319336	-8.886151
9586.222340	4887.375000	1020.161133	81.404030
9586.222340	4887.375000	1019.002930	29.358646
9586.222340	4887.375000	1017.843750	32.899620
9586.222340	4887.375000	1016.684570	-3.127051
9586.222340	4887.375000	1015.525391	78.258438
9586.222340	4887.375000	1014.366211	80.961922
9586.222340	4887.375000	1013.207031	18.797182
9586.222340	4887.375000	1012.046875	35.713200
9586.222340	4887.375000	1010.886719	-44.036980
9586.222340	4887.375000	1009.726563	-38.761135
9586.222340	4887.375000	1008.565430	33.071209
9586.222340	4887.375000	1007.404297	10.228045
9586.222340	4887.375000	1006.243164	-1.745381
9586.222340	4887.375000	1005.082031	83.489151
9586.222340	4887.375000	1003.920898	141.412430
9586.222340	4887.375000	1002.758789	77.213821
9586.222340	4887.375000	1001.596680	184.584732
9586.222340	4887.375000	1000.433594	52.625130
9586.222340	4887.375000	999.271484	64.419739
9586.222340	4887.375000	998.108398	46.639133
9586.222340	4887.375000	996.945313	116.131989
9586.222340	4887.375000	995.782227	44.373985
9586.222340	4887.375000	994.618164	49.055882
9586.222340	4887.375000	993.454102	140.168243
9586.222340	4887.375000	992.290039	-73.537125
9586.222340	4887.375000	991.125977	95.802910
9586.222340	4887.375000	989.960938	123.853928
9586.222340	4887.375000	988.796875	81.065826
9586.222340	4887.375000	987.630859	134.220261
9586.222340	4887.375000	986.465820	168.713028
9586.222340	4887.375000	985.300781	124.410889
9586.222340	4887.375000	984.134766	114.510834
9586.222340	4887.375000	982.968750	77.369286
9586.222340	4887.375000	981.801758	126.557739
9586.222340	4887.375000	980.635742	14.957664
9586.222340	4887.375000	979.468750	0.200006
9586.222340	4887.375000	978.301758	41.502781
9586.222340	4887.375000	977.133789	-27.211952
9586.222340	4887.375000	975.966797	44.331894
9586.222340	4887.375000	974.798828	-74.720169
9586.222340	4887.375000	973.630859	59.014961
9586.222340	4887.375000	972.461914	82.715652
9586.222340	4887.375000	971.293945	41.213505
9586.222340	4887.375000	970.125000	-24.024275
9586.222340	4887.375000	968.956055	-8.116251
9586.222340	4887.375000	967.786133	42.008251
9586.222340	4887.375000	966.617188	57.486809
9586.222340	4887.375000	965.447266	52.738224
9586.222340	4887.375000	964.276367	71.971336
9586.222340	4887.375000	963.106445	50.011765
9586.222340	4887.375000	961.935547	100.330750
9586.222340	4887.375000	960.764648	5.285637
9586.222340	4887.375000	959.593750	-61.046547
9586.222340	4887.375000	958.422852	-63.576317
9586.222340	4887.375000	957.250977	48.269119
9586.222340	4887.375000	956.079102	5.892312
9586.222340	4887.375000	954.907227	-60.450024
9586.222340	4887.375000	953.734375	5.703073
9586.222340	4887.375000	952.562500	26.909563
9586.222340	4887.375000	951.389648	64.203285
9586.222340	4887.375000	950.215820	17.365107
9586.222340	4887.375000	949.042969	74.820473
9586.222340	4887.375000	947.869141	-18.494478
9586.222340	4887.375000	946.695313	27.324572
9586.222340	4887.375000	945.521484	-8.222243
9586.222340	4887.375000	944.346680	-28.523388
9586.222340	4887.375000	943.172852	136.773911
9586.222340	4887.375000	941.998047	25.690414
9586.222340	4887.375000	940.822266	0.936460
9586.222340	4887.375000	939.647461	-21.537003
9586.222340	4887.375000	938.471680	92.993156
9586.222340	4887.375000	937.295898	-90.953934
9586.222340	4887.375000	936.119141	21.416077
9586.222340	4887.375000	934.943359	84.890381
9586.222340	4887.375000	933.766602	-17.162193
9586.222340	4887.375000	932.589844	77.304123
9586.222340	4887.375000	931.413086	43.615879
9586.222340	4887.375000	930.235352	21.013931
9586.222340	4887.375000	929.057617	16.111935
9586.222340	4887.375000	927.879883	11.179071
9586.222340	4887.375000	926.702148	-11.418314
9586.222340	4887.375000	925.523438	-5.342955
9586.222340	4887.375000	924.344727	11.772735
9586.222340	4887.375000	923.166016	28.873228
9586.222340	4887.375000	921.987305	-9.173420
9586.222340	4887.375000	920.807617	56.428772
9586.222340	4887.375000	919.627930	56.363823
9586.222340	4887.375000	919.497070	42.621147
9586.222340	4887.375000	918.331055	-19.673336
9586.222340	4887.375000	917.165039	6.205051
9586.222340	4887.375000	915.999023	-49.458405
9586.222340	4887.375000	914.833008	-19.189693
9586.222340	4887.375000	913.666016	33.085938
9586.222340	4887.375000	912.499023	-37.979458
9586.222340	4887.375000	911.332031	-100.214851
9586.222340	4887.375000	910.165039	-52.372555
9586.222340	4887.375000	908.997070	-13.357326
9586.222340	4887.375000	907.830078	41.038918
9586.222340	4887.375000	906.661133	-135.571701
9586.222340	4887.375000	905.493164	-74.583763
9586.222340	4887.375000	904.325195	-42.211365
9586.222340	4887.375000	903.156250	-78.008698
9586.222340	4887.375000	901.987305	-63.241390
9586.222340	4887.375000	900.818359	-55.076809
9586.222340	4887.375000	899.648438	-117.227600
9586.222340	4887.375000	898.478516	-21.196451
9586.222340	4887.375000	897.308594	-96.513519
9586.222340	4887.375000	896.138672	96.080841
9586.222340	4887.375000	894.968750	3.200756
9586.222340	4887.375000	893.797852	110.089134
9586.222340	4887.375000	892.626953	4.070431
9586.222340	4887.375000	891.456055	58.252926
9586.222340	4887.375000	890.284180	59.765251
9586.222340	4887.375000	889.113281	26.184464
9586.222340	4887.375000	887.941406	7.963268
9586.222340	4887.375000	886.768555	101.548302
9586.222340	4887.375000	885.596680	-30.657188
9586.222340	4887.375000	884.423828	71.657631
9586.222340	4887.375000	883.250977	27.141220
9586.222340	4887.375000	882.078125	33.019756
9586.222340	4887.375000	880.905273	62.983532
9586.222340	4887.375000	879.731445	-36.248272
9586.222340	4887.375000	878.557617	50.628563
9586.222340	4887.375000	877.383789	1.774047
9586.222340	4887.375000	876.209961	-14.239693
9586.222340	4887.375000	875.035156	-104.630989
9586.222340	4887.375000	873.860352	-37.503819
9586.222340	4887.375000	872.685547	29.594542
9586.222340	4887.375000	871.510742	17.954473
9586.222340	4887.375000	870.334961	-35.214870
9586.222340	4887.375000	869.159180	25.281351
9586.222340	4887.375000	867.983398	13.645619
9586.222340	4887.375000	866.807617	-19.832178
9586.222340	4887.375000	865.630859	-3.062530
9586.222340	4887.375000	864.454102	48.638660
9586.222340	4887.375000	863.277344	-91.807373
9586.222340	4887.375000	862.100586	36.286938
9586.222340	4887.375000	860.922852	105.404663
9586.222340	4887.375000	859.745117	17.396889
9586.222340	4887.375000	858.567383	38.497330
9586.222340	4887.375000	857.389648	-25.470448
9586.222340	4887.375000	856.210938	-26.176224
9586.222340	4887.375000	855.032227	7.999388
9586.222340	4887.375000	853.853516	-7.971128
9586.222340	4887.375000	852.674805	6.573917
9586.222340	4887.375000	851.495117	-48.607769
9586.222340	4887.375000	850.315430	7.327311
9586.222340	4887.375000	849.135742	8.792796
9586.222340	4887.375000	847.956055	-39.822823
9586.222340	4887.375000	846.775391	-90.595589
9586.222340	4887.375000	845.595703	41.481491
9586.222340	4887.375000	844.415039	21.178881
9586.222340	4887.375000	843.233398	61.802299
9586.222340	4887.375000	842.052734	24.103119
9586.222340	4887.375000	840.871094	12.516591
9586.222340	4887.375000	839.689453	-42.550327
9586.222340	4887.375000	838.506836	11.097797
9586.222340	4887.375000	837.325195	-11.344320
9586.222340	4887.375000	836.142578	-18.565695
9586.222340	4887.375000	834.959961	58.943890
9586.222340	4887.375000	833.777344	-41.686134
9586.222340	4887.375000	832.593750	-53.238129
9586.222340	4887.375000	831.410156	-1.821021
9586.222340	4887.375000	830.226563	-13.374970
9586.222340	4887.375000	829.042969	66.227982
9586.222340	4887.375000	827.858398	-55.994240
9586.222340	4887.375000	826.673828	-113.084167
9586.222340	4887.375000	825.489258	-16.156038
9586.222340	4887.375000	824.304688	-123.103394
9586.222340	4887.375000	823.120117	-2.362984
9586.222340	4887.375000	821.934570	-46.407608
9586.222340	4887.375000	820.749023	69.935020
9586.222340	4887.375000	819.562500	17.228729
9586.222340	4887.375000	818.376953	-48.452206
9586.222340	4887.375000	817.190430	-3.649581
9586.222340	4887.375000	816.003906	-164.572235
9586.222340	4887.375000	814.817383	16.626524
9586.222340	4887.375000	813.629883	9.444092
9586.222340	4887.375000	812.442383	43.381592
9586.222340	4887.375000	811.254883	38.362110
9586.222340	4887.375000	810.067383	24.693253
9586.222340	4887.375000	808.878906	21.844103
9586.222340	4887.375000	807.690430	23.321625
9586.222340	4887.375000	806.501953	16.152409
9586.222340	4887.375000	805.313477	-49.368641
9586.222340	4887.375000	804.124023	53.686531
9586.222340	4887.375000	802.934570	37.876148
9586.222340	4887.375000	801.745117	17.753403
9586.222340	4887.375000	800.555664	73.223534
9586.222340	4887.375000	799.365234	-54.851315
9586.222340	4887.375000	798.175781	9.246857
9586.222340	4887.375000	796.985352	-8.692220
9586.222340	4887.375000	795.793945	-9.361453
9586.222340	4887.375000	794.603516	-27.287966
9586.222340	4887.375000	793.412109	10.871680
9586.222340	4887.375000	792.220703	-13.519884
9586.222340	4887.375000	791.028320	24.621876
9586.222340	4887.375000	789.836914	-21.316847
9586.222340	4887.375000	788.644531	-78.011421
9586.222340	4887.375000	787.452148	-9.714211
9586.222340	4887.375000	786.258789	-16.841188
9586.222340	4887.375000	785.066406	-77.808174
9586.222340	4887.375000	783.873047	-16.012947
9586.222340	4887.375000	782.679688	17.769884
9586.222340	4887.375000	781.485352	-43.166420
9586.222340	4887.375000	780.291992	-63.190582
9586.222340	4887.375000	779.097656	84.609673
9586.222340	4887.375000	777.903320	-10.719968
9586.222340	4887.375000	776.708008	57.435040
9586.222340	4887.375000	775.512695	52.456085
9586.222340	4887.375000	774.318359	-64.305725
9586.222340	4887.375000	773.122070	40.353729
9586.222340	4887.375000	771.926758	112.736984
9586.222340	4887.375000	770.730469	71.225761
9586.222340	4887.375000	769.534180	132.830826
9586.222340	4887.375000	768.337891	26.906595
9586.222340	4887.375000	767.141602	49.846737
9586.222340	4887.375000	765.944336	147.906387
9586.222340	4887.375000	764.747070	121.448135
9586.222340	4887.375000	763.549805	161.515793
9586.222340	4887.375000	762.351563	150.079086
9586.222340	4887.375000	761.154297	140.790527
9586.222340	4887.375000	759.956055	165.813522
9586.222340	4887.375000	758.757813	154.377823
9586.222340	4887.375000	757.558594	145.088165
9586.222340	4887.375000	756.359375	182.946259
9586.222340	4887.375000	755.160156	182.220032
9586.222340	4887.375000	753.960938	241.471115
9586.222340	4887.375000	752.761719	217.169861
9586.222340	4887.375000	751.561523	192.875534
9586.222340	4887.375000	750.361328	207.122818
9586.222340	4887.375000	749.160156	163.571823
9586.222340	4887.375000	747.959961	179.952911
9586.222340	4887.375000	746.758789	100.048859
9586.222340	4887.375000	745.557617	80.066689
9586.222340	4887.375000	744.356445	38.703522
9586.222340	4887.375000	743.154297	50.806202
9586.222340	4887.375000	741.952148	97.102524
9586.222340	4887.375000	740.750000	145.512497
9586.222340	4887.375000	739.547852	102.017410
9586.222340	4887.375000	738.344727	158.942841
9586.222340	4887.375000	737.142578	121.861755
9586.222340	4887.375000	735.939453	161.666428
9586.222340	4887.375000	734.735352	120.320320
9586.222340	4887.375000	733.532227	215.596329
9586.222340	4887.375000	732.328125	61.139668
9586.222340	4887.375000	731.124023	79.566559
9586.222340	4887.375000	729.918945	74.514793
9586.222340	4887.375000	728.714844	-24.381098
9586.222340	4887.375000	727.509766	49.474220
9586.222340	4887.375000	726.303711	133.951660
9586.222340	4887.375000	725.098633	9.509706
9586.222340	4887.375000	723.892578	-6.207717
9586.222340	4887.375000	722.686523	18.554298
9586.222340	4887.375000	721.480469	-41.903652
9586.222340	4887.375000	720.274414	38.211700
9586.222340	4887.375000	719.067383	162.998795
9586.222340	4887.375000	717.860352	19.505764
9586.222340	4887.375000	716.653320	67.611092
9586.222340	4887.375000	715.445313	-41.772129
9586.222340	4887.375000	714.238281	-14.964101
9586.222340	4887.375000	713.030273	33.093506
9586.222340	4887.375000	711.821289	0.315022
9586.222340	4887.375000	710.613281	-6.945170
9586.222340	4887.375000	709.404297	-39.719112
9586.222340	4887.375000	708.195313	76.273064
9586.222340	4887.375000	706.986328	34.978184
9586.222340	4887.375000	705.776367	-8.433631
9586.222340	4887.375000	704.566406	35.240112
9586.222340	4887.375000	703.356445	55.528263
9586.222340	4887.375000	702.146484	-6.996876
9586.222340	4887.375000	700.935547	-99.221375
9586.222340	4887.375000	699.724609	61.105392
9586.222340	4887.375000	698.513672	32.531792
9586.222340	4887.375000	697.302734	163.045654
9586.222340	4887.375000	696.090820	-20.371689
9586.222340	4887.375000	694.878906	-17.140493
9586.222340	4887.375000	693.666992	62.390884
9586.222340	4887.375000	692.455078	48.624580
9586.222340	4887.375000	691.242188	45.446171
9586.222340	4887.375000	690.029297	131.232803
9586.222340	4887.375000	688.816406	-32.957371
9586.222340	4887.375000	687.602539	25.255081
9586.222340	4887.375000	686.389648	5.095957
9586.222340	4887.375000	685.175781	37.849022
9586.222340	4887.375000	683.960938	17.668077
9586.222340	4887.375000	682.747070	-17.328444
9586.222340	4887.375000	681.532227	59.789646
9586.222340	4887.375000	680.317383	-38.677334
9586.222340	4887.375000	679.102539	40.498425
9586.222340	4887.375000	677.886719	81.572998
9586.222340	4887.375000	676.670898	25.390690
9586.222340	4887.375000	675.455078	9.366560
9586.222340	4887.375000	674.239258	-25.680515
9586.222340	4887.375000	673.022461	-22.708620
9586.222340	4887.375000	671.805664	-9.194696
9586.222340	4887.375000	670.588867	90.862991
9586.222340	4887.375000	669.372070	53.652958
9586.222340	4887.375000	668.154297	98.749527
9586.222340	4887.375000	666.936523	29.869419
9586.222340	4887.375000	665.718750	91.794891
9586.222340	4887.375000	664.500977	65.093605
9586.222340	4887.375000	663.282227	17.298576
9586.222340	4887.375000	662.063477	55.943966
9586.222340	4887.375000	660.844727	92.447289
9586.222340	4887.375000	659.625000	126.809059
9586.222340	4887.375000	658.405273	-3.200447
9586.222340	4887.375000	657.185547	58.514027
9586.222340	4887.375000	655.965820	29.625128
9586.222340	4887.375000	654.745117	15.467544
9586.222340	4887.375000	653.525391	7.612968
9586.222340	4887.375000	652.303711	35.520184
9586.222340	4887.375000	651.083008	27.624784
9586.222340	4887.375000	649.861328	68.099213
9586.222340	4887.375000	648.640625	26.506744
9586.222340	4887.375000	647.417969	117.392654
9586.222340	4887.375000	646.196289	50.536472
9586.222340	4887.375000	644.973633	57.257011
9586.222340	4887.375000	643.750977	61.852585
9586.222340	4887.375000	642.528320	-21.822268
9586.222340	4887.375000	641.305664	157.101654
9586.222340	4887.375000	640.082031	85.999901
9586.222340	4887.375000	638.858398	14.906193
9586.222340	4887.375000	637.634766	-18.391073
9586.222340	4887.375000	636.410156	9.170851
9586.222340	4887.375000	635.185547	87.061546
9586.222340	4887.375000	633.960938	89.368492
9586.222340	4887.375000	632.736328	-11.128949
9586.222340	4887.375000	631.510742	12.122396
9586.222340	4887.375000	630.285156	148.561417
9586.222340	4887.375000	629.059570	31.275129
9586.222340	4887.375000	627.833984	117.306572
9586.222340	4887.375000	626.607422	54.507431
9586.222340	4887.375000	625.380859	25.229534
9586.222340	4887.375000	624.154297	23.168045
9586.222340	4887.375000	622.927734	31.553284
9586.222340	4887.375000	621.700195	14.786924
9586.222340	4887.375000	620.472656	46.144947
9586.222340	4887.375000	619.245117	-20.890850
9586.222340	4887.375000	618.016602	16.687359
9586.222340	4887.375000	616.788086	-4.345110
9586.222340	4887.375000	615.559570	-25.393906
9586.222340	4887.375000	614.331055	45.540852
9586.222340	4887.375000	613.101563	-4.828001
9586.222340	4887.375000	611.872070	-25.940386
9586.222340	4887.375000	610.642578	-49.159214
9586.222340	4887.375000	609.413086	-22.254856
9586.222340	4887.375000	608.182617	-28.807993
9586.222340	4887.375000	606.952148	-75.061195
9586.222340	4887.375000	605.721680	6.035005
9586.222340	4887.375000	604.491211	24.449741
9586.222340	4887.375000	603.259766	-3.083024
9586.222340	4887.375000	602.028320	48.655167
9586.222340	4887.375000	600.796875	-24.816479
9586.222340	4887.375000	599.564453	41.448345
9586.222340	4887.375000	598.332031	-34.130653
9586.222340	4887.375000	597.099609	-15.893392
9586.222340	4887.375000	595.867188	-6.027922
9586.222340	4887.375000	594.633789	-33.703480
9586.222340	4887.375000	593.400391	59.440166
9586.222340	4887.375000	592.166992	96.278458
9586.222340	4887.375000	590.933594	43.527401
9586.222340	4887.375000	589.699219	42.820438
9586.222340	4887.375000	588.464844	110.778885
9586.222340	4887.375000	587.230469	5.945914
9586.222340	4887.375000	585.995117	38.454430
9586.222340	4887.375000	584.760742	85.485306
9586.222340	4887.375000	583.525391	28.476219
9586.222340	4887.375000	582.289063	-20.220850
9586.222340	4887.375000	581.053711	-56.449306
9586.222340	4887.375000	579.817383	-80.221039
9586.222340	4887.375000	578.581055	10.281765
9586.222340	4887.375000	577.343750	30.077879
9586.222340	4887.375000	576.107422	130.848740
9586.222340	4887.375000	574.870117	82.023964
9586.222340	4887.375000	573.631836	-56.089363
9586.222340	4887.375000	572.394531	61.156643
9586.222340	4887.375000	571.156250	53.800129
9586.222340	4887.375000	569.917969	-57.327972
9586.222340	4887.375000	568.679688	28.640541
9586.222340	4887.375000	567.440430	-30.641176
9586.222340	4887.375000	566.202148	3.389062
9586.222340	4887.375000	564.961914	20.787537
9586.222340	4887.375000	563.722656	-19.883038
9586.222340	4887.375000	562.482422	74.131783
9586.222340	4887.375000	561.243164	16.837236
9586.222340	4887.375000	560.001953	17.534002
9586.222340	4887.375000	558.761719	11.992341
9586.222340	4887.375000	557.520508	66.468010
9586.222340	4887.375000	556.279297	-7.450939
9586.222340	4887.375000	555.038086	32.463360
9586.222340	4887.375000	553.795898	113.714722
9586.222340	4887.375000	552.554688	29.407583
9586.222340	4887.375000	551.311523	-56.963924
9586.222340	4887.375000	550.069336	26.240788
9586.222340	4887.375000	548.826172	-31.203238
9586.222340	4887.375000	547.583984	-82.446274
9586.222340	4887.375000	546.339844	-30.373070
9586.222340	4887.375000	545.096680	-29.998301
9586.222340	4887.375000	543.852539	44.710258
9586.222340	4887.375000	542.608398	-29.333635
9586.222340	4887.375000	541.364258	1.929963
9586.222340	4887.375000	540.119141	-61.806824
9586.222340	4887.375000	538.875000	-53.304562
9586.222340	4887.375000	537.628906	-36.583389
9586.222340	4887.375000	536.383789	-46.711502
9586.222340	4887.375000	535.137695	7.075015
9586.222340	4887.375000	533.892578	13.387348
9586.222340	4887.375000	532.645508	81.515930
9586.222340	4887.375000	531.399414	-99.814713
9586.222340	4887.375000	530.152344	-72.957489
9586.222340	4887.375000	528.905273	-48.196899
9586.222340	4887.375000	527.658203	-25.531788
9586.222340	4887.375000	526.410156	-21.439148
9586.222340	4887.375000	525.163086	-58.550190
9586.222340	4887.375000	523.914063	-114.202286
9586.222340	4887.375000	522.666016	-42.248631
9586.222340	4887.375000	521.416992	-73.236717
9586.222340	4887.375000	520.167969	-96.006546
9586.222340	4887.375000	518.918945	-83.825020
9586.222340	4887.375000	517.669922	-108.686592
9586.222340	4887.375000	516.419922	-86.277840
9586.222340	4887.375000	515.169922	30.649681
9586.222340	4887.375000	513.919922	102.292946
9586.222340	4887.375000	512.668945	-0.760517
9586.222340	4887.375000	511.417969	15.348153
9586.222340	4887.375000	510.166992	0.621589
9586.222340	4887.375000	508.916016	-44.920246
9586.222340	4887.375000	507.664063	-61.728207
9586.222340	4887.375000	506.412109	-99.074715
9586.222340	4887.375000	505.160156	17.468388
9586.222340	4887.375000	503.907227	-44.543938
9586.222340	4887.375000	502.655273	-12.199566
9586.222340	4887.375000	501.402344	-49.614380
9586.222340	4887.375000	500.148438	-23.482338
9586.222340	4887.375000	498.895508	-56.821640
9586.222340	4887.375000	497.641602	-51.234108
9586.222340	4887.375000	496.387695	-0.594842
9586.222340	4887.375000	495.132813	11.078728
9586.222340	4887.375000	493.878906	45.257763
9586.222340	4887.375000	492.624023	-8.645288
9586.222340	4887.375000	491.368164	45.947338
9586.222340	4887.375000	490.113281	14.540320
9586.222340	4887.375000	488.857422	-35.292122
9586.222340	4887.375000	487.601563	58.080849
9586.222340	4887.375000	486.344727	63.441723
9586.222340	4887.375000	485.088867	48.335068
9586.222340	4887.375000	483.832031	10.723394
9586.222340	4887.375000	482.575195	36.472679
9586.222340	4887.375000	481.317383	33.578716
9586.222340	4887.375000	480.059570	40.882343
9586.222340	4887.375000	478.801758	37.950562
9586.222340	4887.375000	477.543945	104.437271
9586.222340	4887.375000	476.285156	74.908493
9586.222340	4887.375000	475.027344	73.956070
9586.222340	4887.375000	473.767578	26.037333
9586.222340	4887.375000	472.508789	33.216801
9586.222340	4887.375000	471.249023	-88.151276
9586.222340	4887.375000	469.989258	33.227104
9586.222340	4887.375000	468.729492	56.654453
9586.222340	4887.375000	467.469727	53.549973
9586.222340	4887.375000	466.208984	44.309563
9586.222340	4887.375000	464.948242	-17.929029
9586.222340	4887.375000	463.686523	11.519844
9586.222340	4887.375000	462.425781	20.571152
9586.222340	4887.375000	461.164063	72.363258
9586.222340	4887.375000	459.901367	46.739319
9586.222340	4887.375000	458.639648	27.217842
9586.222340	4887.375000	457.376953	54.491756
9586.222340	4887.375000	456.114258	83.769341
9586.222340	4887.375000	454.851563	-21.250326
9586.222340	4887.375000	453.587891	22.225330
9586.222340	4887.375000	452.324219	-29.909389
9586.222340	4887.375000	451.060547	131.423676
9586.222340	4887.375000	449.796875	101.605644
9586.222340	4887.375000	448.532227	100.226074
9586.222340	4887.375000	447.267578	7.400427
9586.222340	4887.375000	446.002930	3.968734
9586.222340	4887.375000	444.737305	33.005791
9586.222340	4887.375000	443.471680	21.401188
9586.222340	4887.375000	442.206055	13.839367
9586.222340	4887.375000	440.940430	136.145126
9586.222340	4887.375000	439.673828	126.482925
9586.222340	4887.375000	438.407227	51.885864
9586.222340	4887.375000	437.140625	34.085640
9586.222340	4887.375000	435.873047	66.957748
9586.222340	4887.375000	434.605469	-23.874166
9586.222340	4887.375000	433.337891	-31.591854
9586.222340	4887.375000	432.070313	108.595573
9586.222340	4887.375000	430.801758	62.301460
9586.222340	4887.375000	429.533203	34.229439
9586.222340	4887.375000	428.264648	89.170044
9586.222340	4887.375000	426.996094	-60.433392
9586.222340	4887.375000	425.726563	45.045666
9586.222340	4887.375000	424.457031	75.568092
9586.222340	4887.375000	423.186523	71.644348
9586.222340	4887.375000	421.916992	-3.108564
9586.222340	4887.375000	420.646484	23.256559
9586.222340	4887.375000	419.375977	27.332600
9586.222340	4887.375000	418.104492	67.755447
9586.222340	4887.375000	416.833008	-31.335911
9586.222340	4887.375000	415.561523	11.027087
9586.222340	4887.375000	414.290039	83.635956
9586.222340	4887.375000	413.017578	0.640934
9586.222340	4887.375000	411.746094	93.331436
9586.222340	4887.375000	410.472656	34.507412
9586.222340	4887.375000	409.200195	62.464516
9586.222340	4887.375000	407.926758	140.810486
9586.222340	4887.375000	406.653320	1.168493
9586.222340	4887.375000	405.379883	63.257626
9586.222340	4887.375000	404.105469	-40.110889
9586.222340	4887.375000	402.831055	62.177467
9586.222340	4887.375000	401.556641	61.555733
9586.222340	4887.375000	400.282227	-15.710123
9586.222340	4887.375000	399.006836	37.969986
9586.222340	4887.375000	397.731445	27.099148
9586.222340	4887.375000	396.456055	104.792252
9586.222340	4887.375000	395.179688	19.271105
9586.222340	4887.375000	393.903320	34.382710
9586.222340	4887.375000	392.626953	35.327911
9586.222340	4887.375000	391.350586	78.460793
9586.222340	4887.375000	390.073242	-9.282261
9586.222340	4887.375000	388.795898	39.718582
9586.222340	4887.375000	387.518555	-17.969454
9586.222340	4887.375000	386.240234	-9.369160
9586.222340	4887.375000	384.961914	99.651901
9586.222340	4887.375000	383.683594	-28.616154
9586.222340	4887.375000	382.405273	15.882794
9586.222340	4887.375000	381.125977	80.350914
9586.222340	4887.375000	379.846680	0.083872
9586.222340	4887.375000	378.567383	42.239552
9586.222340	4887.375000	377.287109	98.319412
9586.222340	4887.375000	376.006836	-2.290885
9586.222340	4887.375000	374.726563	45.527184
9586.222340	4887.375000	373.446289	47.064404
9586.222340	4887.375000	372.165039	-89.927299
9586.222340	4887.375000	370.883789	57.783806
9586.222340	4887.375000	369.602539	26.861231
9586.222340	4887.375000	368.320313	63.967884
9586.222340	4887.375000	367.039063	28.781576
9586.222340	4887.375000	365.755859	-86.689369
9586.222340	4887.375000	364.473633	-43.994534
9586.222340	4887.375000	363.190430	-9.485922
9586.222340	4887.375000	361.907227	14.841235
9586.222340	4887.375000	360.624023	51.009693
9586.222340	4887.375000	359.340820	-101.141029
9586.222340	4887.375000	358.056641	-35.289291
9586.222340	4887.375000	356.772461	-3.652084
9586.222340	4887.375000	355.487305	13.781860
9586.222340	4887.375000	354.202148	-76.963997
9586.222340	4887.375000	352.916992	-45.905827
9586.222340	4887.375000	351.631836	72.890251
9586.222340	4887.375000	350.346680	61.532536
9586.222340	4887.375000	349.060547	19.991005
9586.222340	4887.375000	347.774414	28.188971
9586.222340	4887.375000	346.487305	42.142147
9586.222340	4887.375000	345.200195	-0.048438
9586.222340	4887.375000	343.913086	39.387291
9586.222340	4887.375000	342.625977	102.510750
9586.222340	4887.375000	341.338867	-18.219591
9586.222340	4887.375000	340.050781	2.474121
9586.222340	4887.375000	338.762695	2.946587
9586.222340	4887.375000	337.473633	-8.831018
9586.222340	4887.375000	336.184570	-74.714928
9586.222340	4887.375000	334.895508	-17.283747
9586.222340	4887.375000	333.606445	-91.699989
9586.222340	4887.375000	332.317383	28.855795
9586.222340	4887.375000	331.027344	-58.126553
9586.222340	4887.375000	329.736328	-69.733742
9586.222340	4887.375000	328.446289	-9.983915
9586.222340	4887.375000	327.155273	-58.109177
9586.222340	4887.375000	325.864258	-180.204849
9586.222340	4887.375000	324.573242	-34.000359
9586.222340	4887.375000	323.281250	-97.122993
9586.222340	4887.375000	321.989258	-7.462657
9586.222340	4887.375000	320.697266	22.108942
9586.222340	4887.375000	319.405273	-22.295269
9586.222340	4887.375000	318.112305	-31.336956
9586.222340	4887.375000	316.819336	-7.024479
9586.222340	4887.375000	315.526367	100.275841
9586.222340	4887.375000	314.232422	56.105900
9586.222340	4887.375000	312.938477	-63.972157
9586.222340	4887.375000	311.644531	-35.573479
9586.222340	4887.375000	310.349609	45.898609
9586.222340	4887.375000	309.054688	55.387562
9586.222340	4887.375000	307.759766	163.557449
9586.222340	4887.375000	306.464844	92.621109
9586.222340	4887.375000	305.168945	94.530716
9586.222340	4887.375000	303.873047	181.138779
9586.222340	4887.375000	302.577148	205.681686
9586.222340	4887.375000	301.281250	267.280823
9586.222340	4887.375000	299.984375	294.544312
