#X		#Y		#Wave		#Intensity
9278.846277	4786.690000	1999.946289	114.005241
9278.846277	4786.690000	1998.981445	227.836609
9278.846277	4786.690000	1998.017578	-34.539379
9278.846277	4786.690000	1997.052734	-105.960152
9278.846277	4786.690000	1996.088867	45.674664
9278.846277	4786.690000	1995.124023	-13.263204
9278.846277	4786.690000	1994.159180	-124.149521
9278.846277	4786.690000	1993.193359	109.252365
9278.846277	4786.690000	1992.228516	13.321787
9278.846277	4786.690000	1991.262695	53.614429
9278.846277	4786.690000	1990.296875	24.637184
9278.846277	4786.690000	1989.331055	-31.508688
9278.846277	4786.690000	1988.365234	73.213631
9278.846277	4786.690000	1987.398438	49.318398
9278.846277	4786.690000	1986.432617	-239.149506
9278.846277	4786.690000	1985.465820	-297.516724
9278.846277	4786.690000	1984.499023	-165.467972
9278.846277	4786.690000	1983.532227	55.551132
9278.846277	4786.690000	1982.565430	264.171173
9278.846277	4786.690000	1981.597656	292.387115
9278.846277	4786.690000	1980.629883	46.428101
9278.846277	4786.690000	1979.662109	180.954041
9278.846277	4786.690000	1978.694336	61.120884
9278.846277	4786.690000	1977.726563	185.793594
9278.846277	4786.690000	1976.758789	48.798077
9278.846277	4786.690000	1975.790039	143.887329
9278.846277	4786.690000	1974.821289	-5.311275
9278.846277	4786.690000	1973.852539	30.614100
9278.846277	4786.690000	1972.883789	-4.969639
9278.846277	4786.690000	1971.915039	250.505600
9278.846277	4786.690000	1970.945313	-39.001938
9278.846277	4786.690000	1969.975586	-25.138483
9278.846277	4786.690000	1969.005859	146.503876
9278.846277	4786.690000	1968.036133	125.895576
9278.846277	4786.690000	1967.066406	201.423050
9278.846277	4786.690000	1966.096680	252.322327
9278.846277	4786.690000	1965.125977	327.868317
9278.846277	4786.690000	1964.155273	4.492634
9278.846277	4786.690000	1963.184570	-62.676075
9278.846277	4786.690000	1962.213867	-65.784584
9278.846277	4786.690000	1961.242188	73.893272
9278.846277	4786.690000	1960.271484	452.232452
9278.846277	4786.690000	1959.299805	109.619179
9278.846277	4786.690000	1958.328125	18.063051
9278.846277	4786.690000	1957.356445	199.557907
9278.846277	4786.690000	1956.384766	233.484314
9278.846277	4786.690000	1955.412109	230.556885
9278.846277	4786.690000	1954.439453	222.744064
9278.846277	4786.690000	1953.467773	229.707474
9278.846277	4786.690000	1952.495117	138.421722
9278.846277	4786.690000	1951.521484	-242.672043
9278.846277	4786.690000	1950.548828	120.605186
9278.846277	4786.690000	1949.575195	400.286743
9278.846277	4786.690000	1948.601563	129.930679
9278.846277	4786.690000	1947.627930	-110.840248
9278.846277	4786.690000	1946.654297	455.967743
9278.846277	4786.690000	1945.680664	183.381683
9278.846277	4786.690000	1944.706055	99.841118
9278.846277	4786.690000	1943.732422	239.569519
9278.846277	4786.690000	1942.757813	104.600601
9278.846277	4786.690000	1941.783203	92.310577
9278.846277	4786.690000	1940.807617	183.021881
9278.846277	4786.690000	1939.833008	317.838654
9278.846277	4786.690000	1938.857422	-47.291172
9278.846277	4786.690000	1937.881836	38.571026
9278.846277	4786.690000	1936.906250	87.682701
9278.846277	4786.690000	1935.930664	29.031778
9278.846277	4786.690000	1934.955078	327.955780
9278.846277	4786.690000	1933.978516	-215.439484
9278.846277	4786.690000	1933.001953	68.784431
9278.846277	4786.690000	1932.025391	-11.745894
9278.846277	4786.690000	1931.048828	186.736740
9278.846277	4786.690000	1930.072266	-192.215286
9278.846277	4786.690000	1929.094727	-8.400388
9278.846277	4786.690000	1928.118164	-230.611542
9278.846277	4786.690000	1927.140625	354.193512
9278.846277	4786.690000	1926.163086	149.160065
9278.846277	4786.690000	1925.184570	288.868683
9278.846277	4786.690000	1924.207031	294.131714
9278.846277	4786.690000	1923.228516	147.930969
9278.846277	4786.690000	1922.250000	290.065979
9278.846277	4786.690000	1921.271484	38.934795
9278.846277	4786.690000	1920.292969	-24.050911
9278.846277	4786.690000	1919.314453	-157.797791
9278.846277	4786.690000	1918.334961	-49.807171
9278.846277	4786.690000	1917.355469	-244.473038
9278.846277	4786.690000	1916.375977	288.116302
9278.846277	4786.690000	1915.396484	-87.043488
9278.846277	4786.690000	1914.416992	81.902664
9278.846277	4786.690000	1913.436523	-41.845364
9278.846277	4786.690000	1912.457031	-46.057751
9278.846277	4786.690000	1911.476563	108.212593
9278.846277	4786.690000	1910.496094	157.632111
9278.846277	4786.690000	1909.515625	87.635918
9278.846277	4786.690000	1908.534180	400.216919
9278.846277	4786.690000	1907.552734	125.605965
9278.846277	4786.690000	1906.572266	270.029938
9278.846277	4786.690000	1905.590820	88.107941
9278.846277	4786.690000	1904.608398	-139.988556
9278.846277	4786.690000	1903.626953	-102.658890
9278.846277	4786.690000	1902.644531	85.565704
9278.846277	4786.690000	1901.663086	-15.839165
9278.846277	4786.690000	1900.680664	-44.203506
9278.846277	4786.690000	1899.698242	-23.900105
9278.846277	4786.690000	1898.714844	-91.139091
9278.846277	4786.690000	1897.732422	191.787491
9278.846277	4786.690000	1896.749023	-189.053848
9278.846277	4786.690000	1895.765625	171.587143
9278.846277	4786.690000	1894.782227	94.674805
9278.846277	4786.690000	1893.798828	-55.090137
9278.846277	4786.690000	1892.814453	234.902527
9278.846277	4786.690000	1891.831055	194.475876
9278.846277	4786.690000	1890.846680	166.216049
9278.846277	4786.690000	1889.862305	50.568523
9278.846277	4786.690000	1888.877930	10.220322
9278.846277	4786.690000	1887.892578	-112.618713
9278.846277	4786.690000	1886.908203	-65.559158
9278.846277	4786.690000	1885.922852	110.073059
9278.846277	4786.690000	1884.937500	13.975333
9278.846277	4786.690000	1883.952148	223.485077
9278.846277	4786.690000	1882.965820	-27.767944
9278.846277	4786.690000	1881.980469	91.978714
9278.846277	4786.690000	1880.994141	129.278046
9278.846277	4786.690000	1880.007813	76.901634
9278.846277	4786.690000	1879.021484	111.766983
9278.846277	4786.690000	1878.035156	20.654839
9278.846277	4786.690000	1877.047852	89.429344
9278.846277	4786.690000	1876.061523	29.833399
9278.846277	4786.690000	1875.074219	-0.685476
9278.846277	4786.690000	1874.086914	-106.234596
9278.846277	4786.690000	1873.098633	54.477909
9278.846277	4786.690000	1872.111328	77.196907
9278.846277	4786.690000	1871.123047	53.944111
9278.846277	4786.690000	1870.135742	-160.394958
9278.846277	4786.690000	1869.147461	7.445511
9278.846277	4786.690000	1868.158203	5.970887
9278.846277	4786.690000	1867.169922	-14.855159
9278.846277	4786.690000	1866.180664	-91.262932
9278.846277	4786.690000	1865.192383	-58.911762
9278.846277	4786.690000	1864.203125	-26.573008
9278.846277	4786.690000	1863.213867	252.138275
9278.846277	4786.690000	1862.223633	76.689636
9278.846277	4786.690000	1861.234375	26.859314
9278.846277	4786.690000	1860.244141	-138.840897
9278.846277	4786.690000	1859.253906	11.720049
9278.846277	4786.690000	1858.263672	-264.948547
9278.846277	4786.690000	1857.273438	134.086380
9278.846277	4786.690000	1856.282227	262.772858
9278.846277	4786.690000	1855.291992	-6.585407
9278.846277	4786.690000	1854.300781	-99.806801
9278.846277	4786.690000	1853.309570	-106.205521
9278.846277	4786.690000	1852.317383	297.195648
9278.846277	4786.690000	1851.326172	-15.397048
9278.846277	4786.690000	1850.333984	168.524002
9278.846277	4786.690000	1849.342773	27.104523
9278.846277	4786.690000	1848.350586	59.162666
9278.846277	4786.690000	1847.357422	144.180328
9278.846277	4786.690000	1846.365234	38.922466
9278.846277	4786.690000	1845.372070	56.470806
9278.846277	4786.690000	1844.379883	30.666534
9278.846277	4786.690000	1843.386719	-238.203598
9278.846277	4786.690000	1842.393555	51.224140
9278.846277	4786.690000	1841.399414	8.551815
9278.846277	4786.690000	1840.406250	-164.010101
9278.846277	4786.690000	1839.412109	204.545731
9278.846277	4786.690000	1838.417969	-165.174728
9278.846277	4786.690000	1837.423828	159.933563
9278.846277	4786.690000	1836.429688	-190.454056
9278.846277	4786.690000	1835.434570	156.125671
9278.846277	4786.690000	1834.440430	19.649122
9278.846277	4786.690000	1833.445313	-133.607086
9278.846277	4786.690000	1832.450195	75.810837
9278.846277	4786.690000	1831.454102	-130.264771
9278.846277	4786.690000	1830.458984	16.607506
9278.846277	4786.690000	1829.462891	379.426758
9278.846277	4786.690000	1828.466797	-157.829697
9278.846277	4786.690000	1827.470703	75.271332
9278.846277	4786.690000	1826.474609	-161.917068
9278.846277	4786.690000	1825.478516	-262.332825
9278.846277	4786.690000	1824.481445	64.104340
9278.846277	4786.690000	1823.484375	-125.073456
9278.846277	4786.690000	1822.487305	40.559177
9278.846277	4786.690000	1821.490234	-7.197379
9278.846277	4786.690000	1820.493164	7.336163
9278.846277	4786.690000	1819.495117	170.374680
9278.846277	4786.690000	1818.498047	-4.411229
9278.846277	4786.690000	1817.500000	67.506218
9278.846277	4786.690000	1816.500977	91.485939
9278.846277	4786.690000	1815.502930	187.237747
9278.846277	4786.690000	1814.504883	103.415955
9278.846277	4786.690000	1813.505859	120.104424
9278.846277	4786.690000	1812.506836	38.661854
9278.846277	4786.690000	1811.507813	162.937485
9278.846277	4786.690000	1810.508789	-64.436241
9278.846277	4786.690000	1809.508789	176.919388
9278.846277	4786.690000	1808.508789	38.025280
9278.846277	4786.690000	1807.508789	1.931891
9278.846277	4786.690000	1806.508789	231.090042
9278.846277	4786.690000	1805.508789	-60.756458
9278.846277	4786.690000	1804.508789	-6.131382
9278.846277	4786.690000	1803.507813	55.605507
9278.846277	4786.690000	1802.506836	112.508575
9278.846277	4786.690000	1801.505859	260.083344
9278.846277	4786.690000	1800.504883	221.372513
9278.846277	4786.690000	1799.502930	-1.130319
9278.846277	4786.690000	1798.501953	-142.458282
9278.846277	4786.690000	1797.500000	377.091003
9278.846277	4786.690000	1796.498047	395.492096
9278.846277	4786.690000	1795.496094	37.041538
9278.846277	4786.690000	1794.493164	258.101959
9278.846277	4786.690000	1793.491211	99.990257
9278.846277	4786.690000	1792.488281	101.597893
9278.846277	4786.690000	1791.485352	-27.901171
9278.846277	4786.690000	1790.482422	45.129524
9278.846277	4786.690000	1789.478516	70.456734
9278.846277	4786.690000	1788.475586	5.225849
9278.846277	4786.690000	1787.471680	-79.066513
9278.846277	4786.690000	1786.467773	48.523350
9278.846277	4786.690000	1785.463867	295.042084
9278.846277	4786.690000	1784.459961	-82.104309
9278.846277	4786.690000	1783.455078	-2.291820
9278.846277	4786.690000	1782.450195	-20.088312
9278.846277	4786.690000	1781.445313	278.423981
9278.846277	4786.690000	1780.440430	1.287824
9278.846277	4786.690000	1779.435547	128.411224
9278.846277	4786.690000	1778.429688	20.105497
9278.846277	4786.690000	1777.424805	-28.783831
9278.846277	4786.690000	1776.418945	190.826950
9278.846277	4786.690000	1775.413086	11.169159
9278.846277	4786.690000	1774.406250	80.958244
9278.846277	4786.690000	1773.400391	169.672913
9278.846277	4786.690000	1772.393555	92.099693
9278.846277	4786.690000	1771.386719	365.870483
9278.846277	4786.690000	1770.379883	105.438232
9278.846277	4786.690000	1769.373047	15.925892
9278.846277	4786.690000	1768.365234	-78.338020
9278.846277	4786.690000	1767.358398	202.197998
9278.846277	4786.690000	1766.350586	79.386436
9278.846277	4786.690000	1765.342773	186.593826
9278.846277	4786.690000	1764.334961	277.120850
9278.846277	4786.690000	1763.326172	2.528301
9278.846277	4786.690000	1762.318359	123.776314
9278.846277	4786.690000	1761.309570	327.871307
9278.846277	4786.690000	1760.300781	219.125336
9278.846277	4786.690000	1759.291016	131.694763
9278.846277	4786.690000	1758.282227	489.467865
9278.846277	4786.690000	1757.272461	172.261215
9278.846277	4786.690000	1756.262695	193.650833
9278.846277	4786.690000	1755.252930	49.308525
9278.846277	4786.690000	1754.243164	87.187386
9278.846277	4786.690000	1753.233398	122.638954
9278.846277	4786.690000	1752.222656	276.309540
9278.846277	4786.690000	1751.211914	-17.113289
9278.846277	4786.690000	1750.201172	122.245438
9278.846277	4786.690000	1749.190430	81.832993
9278.846277	4786.690000	1748.179688	202.120087
9278.846277	4786.690000	1747.167969	152.166916
9278.846277	4786.690000	1746.156250	43.116367
9278.846277	4786.690000	1745.144531	-176.965149
9278.846277	4786.690000	1744.132813	9.231022
9278.846277	4786.690000	1743.121094	129.191223
9278.846277	4786.690000	1742.108398	126.293854
9278.846277	4786.690000	1741.095703	-4.118753
9278.846277	4786.690000	1740.083008	-165.204742
9278.846277	4786.690000	1739.070313	20.586740
9278.846277	4786.690000	1738.057617	-86.275482
9278.846277	4786.690000	1737.043945	196.047729
9278.846277	4786.690000	1736.030273	23.074741
9278.846277	4786.690000	1735.016602	52.891594
9278.846277	4786.690000	1734.002930	179.306976
9278.846277	4786.690000	1732.989258	213.707733
9278.846277	4786.690000	1731.974609	163.217957
9278.846277	4786.690000	1730.959961	-151.169113
9278.846277	4786.690000	1729.945313	-225.213120
9278.846277	4786.690000	1728.930664	-153.257660
9278.846277	4786.690000	1727.916016	-67.247902
9278.846277	4786.690000	1726.900391	46.938122
9278.846277	4786.690000	1725.885742	210.463120
9278.846277	4786.690000	1724.870117	49.127518
9278.846277	4786.690000	1723.853516	-156.896759
9278.846277	4786.690000	1722.837891	22.910690
9278.846277	4786.690000	1721.822266	7.390532
9278.846277	4786.690000	1720.805664	27.107918
9278.846277	4786.690000	1719.789063	319.496063
9278.846277	4786.690000	1718.772461	45.232895
9278.846277	4786.690000	1717.754883	55.401047
9278.846277	4786.690000	1716.738281	-216.441467
9278.846277	4786.690000	1715.720703	-8.975350
9278.846277	4786.690000	1714.703125	40.998474
9278.846277	4786.690000	1713.685547	-61.732647
9278.846277	4786.690000	1712.667969	-82.287613
9278.846277	4786.690000	1711.649414	35.621090
9278.846277	4786.690000	1710.630859	221.507156
9278.846277	4786.690000	1709.612305	304.032990
9278.846277	4786.690000	1708.593750	-40.506264
9278.846277	4786.690000	1707.575195	-124.586853
9278.846277	4786.690000	1706.555664	192.355911
9278.846277	4786.690000	1705.536133	14.392584
9278.846277	4786.690000	1704.516602	-29.917927
9278.846277	4786.690000	1703.497070	12.471556
9278.846277	4786.690000	1702.477539	-34.243351
9278.846277	4786.690000	1701.457031	87.710876
9278.846277	4786.690000	1700.437500	-85.573212
9278.846277	4786.690000	1699.416992	378.206940
9278.846277	4786.690000	1698.395508	-90.188660
9278.846277	4786.690000	1697.375000	-22.315680
9278.846277	4786.690000	1696.354492	176.572021
9278.846277	4786.690000	1695.333008	-221.420181
9278.846277	4786.690000	1694.311523	227.714310
9278.846277	4786.690000	1693.290039	194.731705
9278.846277	4786.690000	1692.267578	-102.573219
9278.846277	4786.690000	1691.246094	-44.353344
9278.846277	4786.690000	1690.223633	-196.611359
9278.846277	4786.690000	1689.201172	125.677116
9278.846277	4786.690000	1688.178711	-155.167221
9278.846277	4786.690000	1687.155273	96.820168
9278.846277	4786.690000	1686.132813	196.822708
9278.846277	4786.690000	1685.109375	179.962433
9278.846277	4786.690000	1684.085938	109.365463
9278.846277	4786.690000	1683.062500	202.202133
9278.846277	4786.690000	1682.039063	350.996307
9278.846277	4786.690000	1681.014648	112.263176
9278.846277	4786.690000	1679.990234	272.619232
9278.846277	4786.690000	1678.965820	155.248505
9278.846277	4786.690000	1677.941406	196.508881
9278.846277	4786.690000	1676.916992	372.988708
9278.846277	4786.690000	1675.891602	341.847595
9278.846277	4786.690000	1674.866211	175.473663
9278.846277	4786.690000	1673.840820	265.525604
9278.846277	4786.690000	1672.815430	306.578125
9278.846277	4786.690000	1671.790039	356.903168
9278.846277	4786.690000	1670.763672	307.013763
9278.846277	4786.690000	1669.737305	399.186890
9278.846277	4786.690000	1668.710938	260.768738
9278.846277	4786.690000	1667.684570	19.939520
9278.846277	4786.690000	1666.658203	295.920410
9278.846277	4786.690000	1665.630859	364.646240
9278.846277	4786.690000	1664.603516	296.040619
9278.846277	4786.690000	1663.576172	204.174347
9278.846277	4786.690000	1662.548828	575.169067
9278.846277	4786.690000	1661.520508	441.375519
9278.846277	4786.690000	1660.493164	326.214874
9278.846277	4786.690000	1659.464844	276.159576
9278.846277	4786.690000	1658.436523	423.651001
9278.846277	4786.690000	1657.408203	512.970886
9278.846277	4786.690000	1656.378906	414.057800
9278.846277	4786.690000	1655.350586	693.768738
9278.846277	4786.690000	1654.321289	741.122742
9278.846277	4786.690000	1653.291992	570.186401
9278.846277	4786.690000	1652.261719	631.433350
9278.846277	4786.690000	1651.232422	504.646332
9278.846277	4786.690000	1650.202148	679.551575
9278.846277	4786.690000	1649.171875	622.367859
9278.846277	4786.690000	1648.141602	815.705200
9278.846277	4786.690000	1647.111328	746.890320
9278.846277	4786.690000	1646.080078	960.965210
9278.846277	4786.690000	1645.049805	755.341797
9278.846277	4786.690000	1644.018555	691.169861
9278.846277	4786.690000	1642.987305	1020.955505
9278.846277	4786.690000	1641.955078	965.994568
9278.846277	4786.690000	1640.923828	952.740112
9278.846277	4786.690000	1639.891602	867.681702
9278.846277	4786.690000	1638.859375	863.690674
9278.846277	4786.690000	1637.827148	912.937622
9278.846277	4786.690000	1636.794922	915.860596
9278.846277	4786.690000	1635.761719	955.800415
9278.846277	4786.690000	1634.729492	873.089111
9278.846277	4786.690000	1633.696289	1093.442749
9278.846277	4786.690000	1632.662109	1063.912720
9278.846277	4786.690000	1631.628906	921.081116
9278.846277	4786.690000	1630.594727	1018.742065
9278.846277	4786.690000	1629.561523	1079.376221
9278.846277	4786.690000	1628.527344	1017.494446
9278.846277	4786.690000	1627.493164	1142.790527
9278.846277	4786.690000	1626.458008	875.306335
9278.846277	4786.690000	1625.423828	1162.254883
9278.846277	4786.690000	1624.388672	1190.451782
9278.846277	4786.690000	1623.353516	1184.003052
9278.846277	4786.690000	1622.318359	1288.358276
9278.846277	4786.690000	1621.282227	1328.047974
9278.846277	4786.690000	1620.247070	1469.253662
9278.846277	4786.690000	1619.210938	1208.982544
9278.846277	4786.690000	1618.174805	1433.192017
9278.846277	4786.690000	1617.137695	1339.072510
9278.846277	4786.690000	1616.101563	1300.329102
9278.846277	4786.690000	1615.064453	1517.482544
9278.846277	4786.690000	1614.027344	1499.468872
9278.846277	4786.690000	1612.990234	1983.810181
9278.846277	4786.690000	1611.953125	1592.495483
9278.846277	4786.690000	1610.916016	1770.287109
9278.846277	4786.690000	1609.877930	2000.980957
9278.846277	4786.690000	1608.839844	2026.669189
9278.846277	4786.690000	1607.801758	2144.438477
9278.846277	4786.690000	1606.763672	1792.637085
9278.846277	4786.690000	1605.724609	2115.227051
9278.846277	4786.690000	1604.685547	2150.110840
9278.846277	4786.690000	1603.646484	2297.707520
9278.846277	4786.690000	1602.607422	2222.171631
9278.846277	4786.690000	1601.568359	2162.773682
9278.846277	4786.690000	1600.528320	2243.645264
9278.846277	4786.690000	1599.489258	2103.847168
9278.846277	4786.690000	1598.449219	2113.488281
9278.846277	4786.690000	1597.408203	2109.352295
9278.846277	4786.690000	1596.368164	2089.155762
9278.846277	4786.690000	1595.327148	1899.027588
9278.846277	4786.690000	1594.287109	2058.021973
9278.846277	4786.690000	1593.246094	2099.884521
9278.846277	4786.690000	1592.204102	2066.001221
9278.846277	4786.690000	1591.163086	1761.351685
9278.846277	4786.690000	1590.121094	2009.805176
9278.846277	4786.690000	1589.079102	2095.308838
9278.846277	4786.690000	1588.037109	1921.625244
9278.846277	4786.690000	1586.995117	1731.981567
9278.846277	4786.690000	1585.953125	1909.261230
9278.846277	4786.690000	1584.910156	1795.379761
9278.846277	4786.690000	1583.867188	1963.456299
9278.846277	4786.690000	1582.824219	1810.706299
9278.846277	4786.690000	1581.781250	1685.532837
9278.846277	4786.690000	1580.737305	1725.343628
9278.846277	4786.690000	1579.693359	2028.511475
9278.846277	4786.690000	1578.649414	1763.787354
9278.846277	4786.690000	1577.605469	2032.548584
9278.846277	4786.690000	1576.561523	2099.834961
9278.846277	4786.690000	1575.516602	1851.353149
9278.846277	4786.690000	1574.472656	2106.303223
9278.846277	4786.690000	1573.427734	1899.150635
9278.846277	4786.690000	1572.381836	2154.050293
9278.846277	4786.690000	1571.336914	1823.567261
9278.846277	4786.690000	1570.291016	2021.298096
9278.846277	4786.690000	1569.246094	1524.198364
9278.846277	4786.690000	1568.200195	1836.229736
9278.846277	4786.690000	1567.153320	1867.170410
9278.846277	4786.690000	1566.107422	1658.297974
9278.846277	4786.690000	1565.060547	2098.113525
9278.846277	4786.690000	1564.013672	1297.989380
9278.846277	4786.690000	1562.966797	1589.395264
9278.846277	4786.690000	1561.919922	1545.218262
9278.846277	4786.690000	1560.872070	1533.044434
9278.846277	4786.690000	1559.825195	1589.359863
9278.846277	4786.690000	1558.777344	1663.939697
9278.846277	4786.690000	1557.729492	1651.868896
9278.846277	4786.690000	1556.680664	1518.999390
9278.846277	4786.690000	1555.632813	1183.336304
9278.846277	4786.690000	1554.583984	1656.965698
9278.846277	4786.690000	1553.535156	1524.302490
9278.846277	4786.690000	1552.486328	1842.841309
9278.846277	4786.690000	1551.436523	1705.725464
9278.846277	4786.690000	1550.387695	1425.230957
9278.846277	4786.690000	1549.337891	1436.346680
9278.846277	4786.690000	1548.288086	1447.502930
9278.846277	4786.690000	1547.238281	1324.415039
9278.846277	4786.690000	1546.187500	1642.894409
9278.846277	4786.690000	1545.136719	1287.843872
9278.846277	4786.690000	1544.086914	912.507874
9278.846277	4786.690000	1543.035156	1615.381836
9278.846277	4786.690000	1541.984375	1408.494995
9278.846277	4786.690000	1540.933594	1244.933960
9278.846277	4786.690000	1539.881836	986.025940
9278.846277	4786.690000	1538.830078	1313.573853
9278.846277	4786.690000	1537.778320	1066.218994
9278.846277	4786.690000	1536.725586	989.384216
9278.846277	4786.690000	1535.673828	1155.647095
9278.846277	4786.690000	1534.621094	1122.077759
9278.846277	4786.690000	1533.568359	1111.277832
9278.846277	4786.690000	1532.515625	1363.835571
9278.846277	4786.690000	1531.461914	833.422180
9278.846277	4786.690000	1530.409180	918.148132
9278.846277	4786.690000	1529.355469	984.751831
9278.846277	4786.690000	1528.301758	1040.045410
9278.846277	4786.690000	1527.247070	1025.083252
9278.846277	4786.690000	1526.193359	1202.889160
9278.846277	4786.690000	1525.138672	1065.618164
9278.846277	4786.690000	1524.083984	869.541138
9278.846277	4786.690000	1523.029297	938.695618
9278.846277	4786.690000	1521.974609	754.166138
9278.846277	4786.690000	1520.918945	712.462341
9278.846277	4786.690000	1519.863281	750.089294
9278.846277	4786.690000	1518.807617	993.787659
9278.846277	4786.690000	1517.751953	877.550110
9278.846277	4786.690000	1516.696289	557.746216
9278.846277	4786.690000	1515.639648	265.284332
9278.846277	4786.690000	1514.583008	665.233643
9278.846277	4786.690000	1513.526367	377.518463
9278.846277	4786.690000	1512.469727	619.127441
9278.846277	4786.690000	1511.412109	469.580475
9278.846277	4786.690000	1510.355469	128.024628
9278.846277	4786.690000	1509.297852	-32.531883
9278.846277	4786.690000	1508.240234	55.587135
9278.846277	4786.690000	1507.181641	139.224106
9278.846277	4786.690000	1506.124023	128.031372
9278.846277	4786.690000	1505.065430	8.523489
9278.846277	4786.690000	1504.006836	-2.498597
9278.846277	4786.690000	1502.948242	54.270164
9278.846277	4786.690000	1501.888672	27.588490
9278.846277	4786.690000	1500.830078	109.289696
9278.846277	4786.690000	1499.770508	21.836229
9278.846277	4786.690000	1498.710938	-300.076813
9278.846277	4786.690000	1497.650391	359.143524
9278.846277	4786.690000	1496.590820	105.070251
9278.846277	4786.690000	1495.530273	238.883072
9278.846277	4786.690000	1494.469727	5.364730
9278.846277	4786.690000	1493.409180	184.353409
9278.846277	4786.690000	1492.348633	-222.379089
9278.846277	4786.690000	1491.287109	1.782002
9278.846277	4786.690000	1490.225586	-39.796894
9278.846277	4786.690000	1489.164063	150.614960
9278.846277	4786.690000	1488.102539	-57.400116
9278.846277	4786.690000	1487.041016	146.591736
9278.846277	4786.690000	1485.978516	40.068886
9278.846277	4786.690000	1484.916016	-259.842865
9278.846277	4786.690000	1483.853516	-39.924515
9278.846277	4786.690000	1482.791016	56.259716
9278.846277	4786.690000	1481.727539	67.047836
9278.846277	4786.690000	1480.664063	-144.639740
9278.846277	4786.690000	1479.600586	1.158130
9278.846277	4786.690000	1478.537109	-185.517319
9278.846277	4786.690000	1477.473633	-297.954926
9278.846277	4786.690000	1476.409180	238.722656
9278.846277	4786.690000	1475.344727	-19.543032
9278.846277	4786.690000	1474.280273	50.109505
9278.846277	4786.690000	1473.215820	-102.202370
9278.846277	4786.690000	1472.151367	110.982452
9278.846277	4786.690000	1471.085938	-18.526672
9278.846277	4786.690000	1470.020508	-141.657776
9278.846277	4786.690000	1468.955078	-10.869716
9278.846277	4786.690000	1467.888672	247.111923
9278.846277	4786.690000	1466.823242	411.061096
9278.846277	4786.690000	1465.756836	306.645630
9278.846277	4786.690000	1464.690430	318.460571
9278.846277	4786.690000	1463.624023	330.673950
9278.846277	4786.690000	1462.556641	554.580078
9278.846277	4786.690000	1461.490234	296.608307
9278.846277	4786.690000	1460.422852	811.481934
9278.846277	4786.690000	1459.355469	713.760376
9278.846277	4786.690000	1458.287109	604.757690
9278.846277	4786.690000	1457.219727	515.838257
9278.846277	4786.690000	1456.151367	697.772766
9278.846277	4786.690000	1455.083008	551.081177
9278.846277	4786.690000	1454.014648	826.621033
9278.846277	4786.690000	1452.945313	537.933289
9278.846277	4786.690000	1451.876953	770.047424
9278.846277	4786.690000	1450.807617	514.965454
9278.846277	4786.690000	1449.738281	450.804535
9278.846277	4786.690000	1448.668945	346.217072
9278.846277	4786.690000	1447.598633	417.000214
9278.846277	4786.690000	1446.528320	740.583496
9278.846277	4786.690000	1445.458008	692.968811
9278.846277	4786.690000	1444.387695	414.871063
9278.846277	4786.690000	1443.317383	721.719788
9278.846277	4786.690000	1442.246094	614.121155
9278.846277	4786.690000	1441.174805	624.740601
9278.846277	4786.690000	1440.103516	543.578064
9278.846277	4786.690000	1439.032227	460.910767
9278.846277	4786.690000	1437.960938	711.402771
9278.846277	4786.690000	1436.888672	623.875305
9278.846277	4786.690000	1435.816406	581.221863
9278.846277	4786.690000	1434.744141	503.409271
9278.846277	4786.690000	1433.670898	504.999084
9278.846277	4786.690000	1432.598633	442.340424
9278.846277	4786.690000	1431.525391	505.455231
9278.846277	4786.690000	1430.452148	730.519897
9278.846277	4786.690000	1429.378906	514.139648
9278.846277	4786.690000	1428.304688	339.726227
9278.846277	4786.690000	1427.231445	414.971588
9278.846277	4786.690000	1426.157227	323.054657
9278.846277	4786.690000	1425.083008	424.545898
9278.846277	4786.690000	1424.007813	397.312286
9278.846277	4786.690000	1422.933594	405.435852
9278.846277	4786.690000	1421.858398	188.324554
9278.846277	4786.690000	1420.783203	489.056396
9278.846277	4786.690000	1419.708008	577.465149
9278.846277	4786.690000	1418.631836	532.160217
9278.846277	4786.690000	1417.555664	564.041687
9278.846277	4786.690000	1416.479492	441.121063
9278.846277	4786.690000	1415.403320	297.079651
9278.846277	4786.690000	1414.327148	349.167297
9278.846277	4786.690000	1413.250000	293.214417
9278.846277	4786.690000	1412.173828	462.549622
9278.846277	4786.690000	1411.096680	252.328323
9278.846277	4786.690000	1410.018555	453.105133
9278.846277	4786.690000	1408.941406	451.774597
9278.846277	4786.690000	1407.863281	188.135086
9278.846277	4786.690000	1406.785156	451.152252
9278.846277	4786.690000	1405.707031	518.685120
9278.846277	4786.690000	1404.628906	449.161194
9278.846277	4786.690000	1403.549805	71.259125
9278.846277	4786.690000	1402.470703	383.196167
9278.846277	4786.690000	1401.391602	386.659515
9278.846277	4786.690000	1400.312500	183.359772
9278.846277	4786.690000	1399.233398	445.333679
9278.846277	4786.690000	1398.153320	121.760246
9278.846277	4786.690000	1397.073242	137.784088
9278.846277	4786.690000	1395.993164	520.760315
9278.846277	4786.690000	1394.913086	292.811646
9278.846277	4786.690000	1393.832031	138.099655
9278.846277	4786.690000	1392.750977	240.934738
9278.846277	4786.690000	1391.669922	418.212982
9278.846277	4786.690000	1390.588867	58.098057
9278.846277	4786.690000	1389.506836	262.794800
9278.846277	4786.690000	1388.425781	313.654022
9278.846277	4786.690000	1387.343750	274.839844
9278.846277	4786.690000	1386.261719	436.343811
9278.846277	4786.690000	1385.178711	445.859283
9278.846277	4786.690000	1384.096680	9.103752
9278.846277	4786.690000	1383.013672	336.692932
9278.846277	4786.690000	1381.930664	400.973602
9278.846277	4786.690000	1380.846680	431.637390
9278.846277	4786.690000	1379.763672	468.764496
9278.846277	4786.690000	1378.679688	425.930145
9278.846277	4786.690000	1377.595703	191.443710
9278.846277	4786.690000	1376.511719	265.517578
9278.846277	4786.690000	1375.427734	375.909058
9278.846277	4786.690000	1374.342773	296.554230
9278.846277	4786.690000	1373.257813	374.072784
9278.846277	4786.690000	1372.172852	504.636047
9278.846277	4786.690000	1371.087891	424.413452
9278.846277	4786.690000	1370.001953	245.155701
9278.846277	4786.690000	1368.916992	512.377380
9278.846277	4786.690000	1367.831055	234.688004
9278.846277	4786.690000	1366.744141	423.700409
9278.846277	4786.690000	1365.658203	529.200317
9278.846277	4786.690000	1364.571289	207.297546
9278.846277	4786.690000	1363.484375	358.952942
9278.846277	4786.690000	1362.397461	460.652283
9278.846277	4786.690000	1361.310547	485.248535
9278.846277	4786.690000	1360.222656	372.865875
9278.846277	4786.690000	1359.135742	372.404602
9278.846277	4786.690000	1358.047852	267.916504
9278.846277	4786.690000	1356.958984	413.416748
9278.846277	4786.690000	1355.871094	100.844345
9278.846277	4786.690000	1354.782227	586.841187
9278.846277	4786.690000	1353.693359	306.938049
9278.846277	4786.690000	1352.604492	358.934998
9278.846277	4786.690000	1351.515625	418.643982
9278.846277	4786.690000	1350.425781	372.718872
9278.846277	4786.690000	1349.335938	311.520233
9278.846277	4786.690000	1348.246094	256.695892
9278.846277	4786.690000	1347.156250	483.626007
9278.846277	4786.690000	1346.066406	578.128357
9278.846277	4786.690000	1344.975586	259.196869
9278.846277	4786.690000	1343.884766	355.328583
9278.846277	4786.690000	1342.793945	605.468140
9278.846277	4786.690000	1341.702148	501.902557
9278.846277	4786.690000	1340.611328	413.585114
9278.846277	4786.690000	1339.519531	538.395264
9278.846277	4786.690000	1338.427734	313.593536
9278.846277	4786.690000	1337.334961	463.343994
9278.846277	4786.690000	1336.243164	319.517548
9278.846277	4786.690000	1335.150391	406.058411
9278.846277	4786.690000	1334.057617	666.293274
9278.846277	4786.690000	1332.964844	314.235107
9278.846277	4786.690000	1331.871094	400.491577
9278.846277	4786.690000	1330.778320	317.980072
9278.846277	4786.690000	1329.684570	437.902954
9278.846277	4786.690000	1328.590820	403.319153
9278.846277	4786.690000	1327.496094	309.992706
9278.846277	4786.690000	1326.402344	209.256638
9278.846277	4786.690000	1325.307617	381.130096
9278.846277	4786.690000	1324.212891	93.962799
9278.846277	4786.690000	1323.117188	422.298218
9278.846277	4786.690000	1322.022461	69.224998
9278.846277	4786.690000	1320.926758	53.205837
9278.846277	4786.690000	1319.831055	177.227051
9278.846277	4786.690000	1318.735352	377.168732
9278.846277	4786.690000	1317.638672	40.580429
9278.846277	4786.690000	1316.542969	116.095299
9278.846277	4786.690000	1315.446289	120.221298
9278.846277	4786.690000	1314.349609	299.907440
9278.846277	4786.690000	1313.251953	151.187729
9278.846277	4786.690000	1312.155273	34.499779
9278.846277	4786.690000	1311.057617	169.547073
9278.846277	4786.690000	1309.959961	300.782440
9278.846277	4786.690000	1308.862305	172.197281
9278.846277	4786.690000	1307.763672	309.884277
9278.846277	4786.690000	1306.665039	275.598907
9278.846277	4786.690000	1305.566406	53.520065
9278.846277	4786.690000	1304.467773	391.475128
9278.846277	4786.690000	1303.369141	123.154755
9278.846277	4786.690000	1302.269531	223.835281
9278.846277	4786.690000	1301.169922	42.561115
9278.846277	4786.690000	1300.070313	347.028778
9278.846277	4786.690000	1298.970703	395.825348
9278.846277	4786.690000	1297.870117	304.467499
9278.846277	4786.690000	1296.769531	332.333588
9278.846277	4786.690000	1295.668945	219.575104
9278.846277	4786.690000	1294.568359	489.652283
9278.846277	4786.690000	1293.466797	651.064209
9278.846277	4786.690000	1292.366211	442.140411
9278.846277	4786.690000	1291.264648	273.100616
9278.846277	4786.690000	1290.162109	162.871872
9278.846277	4786.690000	1289.060547	306.609711
9278.846277	4786.690000	1287.958008	304.344513
9278.846277	4786.690000	1286.855469	204.276764
9278.846277	4786.690000	1285.752930	190.626358
9278.846277	4786.690000	1284.650391	-6.498121
9278.846277	4786.690000	1283.546875	78.793213
9278.846277	4786.690000	1282.444336	125.106964
9278.846277	4786.690000	1281.339844	117.176811
9278.846277	4786.690000	1280.236328	145.685486
9278.846277	4786.690000	1279.132813	34.124432
9278.846277	4786.690000	1278.028320	128.151108
9278.846277	4786.690000	1276.923828	229.497147
9278.846277	4786.690000	1275.819336	-108.277710
9278.846277	4786.690000	1274.713867	179.044586
9278.846277	4786.690000	1273.608398	81.037415
9278.846277	4786.690000	1272.503906	254.067139
9278.846277	4786.690000	1271.397461	336.103851
9278.846277	4786.690000	1270.291992	72.470856
9278.846277	4786.690000	1269.185547	130.821762
9278.846277	4786.690000	1268.080078	-51.559147
9278.846277	4786.690000	1266.972656	36.194721
9278.846277	4786.690000	1265.866211	1.148829
9278.846277	4786.690000	1264.759766	6.917705
9278.846277	4786.690000	1263.652344	138.051422
9278.846277	4786.690000	1262.544922	99.951485
9278.846277	4786.690000	1261.436523	17.468760
9278.846277	4786.690000	1260.329102	-35.672997
9278.846277	4786.690000	1259.220703	-20.408060
9278.846277	4786.690000	1258.112305	-182.416916
9278.846277	4786.690000	1257.003906	-67.633896
9278.846277	4786.690000	1255.895508	-182.542191
9278.846277	4786.690000	1254.786133	-115.755821
9278.846277	4786.690000	1253.676758	-152.816574
9278.846277	4786.690000	1252.567383	-185.643143
9278.846277	4786.690000	1251.458008	-87.400330
9278.846277	4786.690000	1250.347656	-180.639709
9278.846277	4786.690000	1249.237305	-372.852234
9278.846277	4786.690000	1248.126953	-3.749562
9278.846277	4786.690000	1247.016602	-113.939835
9278.846277	4786.690000	1245.905273	-125.234444
9278.846277	4786.690000	1244.793945	29.649174
9278.846277	4786.690000	1243.682617	-71.867821
9278.846277	4786.690000	1242.571289	34.889637
9278.846277	4786.690000	1241.459961	15.403253
9278.846277	4786.690000	1240.347656	28.240492
9278.846277	4786.690000	1239.235352	179.115646
9278.846277	4786.690000	1238.123047	175.444031
9278.846277	4786.690000	1237.009766	0.406349
9278.846277	4786.690000	1235.897461	-19.431217
9278.846277	4786.690000	1234.784180	84.559029
9278.846277	4786.690000	1233.670898	-0.355761
9278.846277	4786.690000	1232.556641	125.432762
9278.846277	4786.690000	1231.443359	16.069107
9278.846277	4786.690000	1230.329102	-88.785988
9278.846277	4786.690000	1229.214844	-183.173859
9278.846277	4786.690000	1228.099609	-76.361244
9278.846277	4786.690000	1226.985352	36.446964
9278.846277	4786.690000	1225.870117	43.460163
9278.846277	4786.690000	1224.754883	36.644928
9278.846277	4786.690000	1223.639648	142.492798
9278.846277	4786.690000	1222.523438	30.145163
9278.846277	4786.690000	1221.408203	45.444263
9278.846277	4786.690000	1220.291992	53.208633
9278.846277	4786.690000	1219.174805	190.185623
9278.846277	4786.690000	1218.058594	-196.067505
9278.846277	4786.690000	1216.941406	-169.525345
9278.846277	4786.690000	1215.824219	-36.889008
9278.846277	4786.690000	1214.707031	-52.452091
9278.846277	4786.690000	1213.589844	-34.760105
9278.846277	4786.690000	1212.471680	46.013645
9278.846277	4786.690000	1211.353516	150.433792
9278.846277	4786.690000	1210.235352	-48.070553
9278.846277	4786.690000	1209.117188	17.507837
9278.846277	4786.690000	1207.998047	-103.828667
9278.846277	4786.690000	1206.878906	-58.780899
9278.846277	4786.690000	1205.759766	-32.142395
9278.846277	4786.690000	1204.640625	4.902704
9278.846277	4786.690000	1203.520508	127.643753
9278.846277	4786.690000	1202.401367	-202.485962
9278.846277	4786.690000	1201.281250	4.981467
9278.846277	4786.690000	1200.160156	-55.228031
9278.846277	4786.690000	1199.040039	-183.581329
9278.846277	4786.690000	1197.918945	-88.309944
9278.846277	4786.690000	1196.797852	-138.776443
9278.846277	4786.690000	1195.676758	29.989384
9278.846277	4786.690000	1194.555664	29.664762
9278.846277	4786.690000	1193.433594	-11.668262
9278.846277	4786.690000	1192.311523	-106.120132
9278.846277	4786.690000	1191.189453	-109.390533
9278.846277	4786.690000	1190.066406	34.965744
9278.846277	4786.690000	1188.944336	-213.745911
9278.846277	4786.690000	1187.821289	25.656397
9278.846277	4786.690000	1186.698242	71.628868
9278.846277	4786.690000	1185.574219	-54.320915
9278.846277	4786.690000	1184.451172	-227.801270
9278.846277	4786.690000	1183.327148	-99.515373
9278.846277	4786.690000	1182.203125	-72.014633
9278.846277	4786.690000	1181.078125	23.669310
9278.846277	4786.690000	1179.954102	-186.333191
9278.846277	4786.690000	1178.829102	-228.272522
9278.846277	4786.690000	1177.704102	55.300117
9278.846277	4786.690000	1176.579102	-166.426208
9278.846277	4786.690000	1175.453125	-2.102453
9278.846277	4786.690000	1174.327148	-82.830452
9278.846277	4786.690000	1173.201172	-58.276581
9278.846277	4786.690000	1172.075195	75.662323
9278.846277	4786.690000	1170.949219	-204.459396
9278.846277	4786.690000	1169.822266	45.939514
9278.846277	4786.690000	1168.695313	-14.922178
9278.846277	4786.690000	1167.568359	-131.027222
9278.846277	4786.690000	1166.440430	-136.136292
9278.846277	4786.690000	1165.313477	-228.492691
9278.846277	4786.690000	1164.185547	-24.838186
9278.846277	4786.690000	1163.057617	35.497437
9278.846277	4786.690000	1161.928711	-43.867741
9278.846277	4786.690000	1160.800781	141.421036
9278.846277	4786.690000	1159.671875	-48.909615
9278.846277	4786.690000	1158.541992	-135.313202
9278.846277	4786.690000	1157.413086	-69.837006
9278.846277	4786.690000	1156.283203	39.926975
9278.846277	4786.690000	1155.154297	-3.261664
9278.846277	4786.690000	1154.023438	62.820160
9278.846277	4786.690000	1152.893555	125.997742
9278.846277	4786.690000	1151.763672	52.484642
9278.846277	4786.690000	1150.632813	118.250061
9278.846277	4786.690000	1149.501953	-95.517502
9278.846277	4786.690000	1148.370117	144.459671
9278.846277	4786.690000	1147.239258	206.111862
9278.846277	4786.690000	1146.107422	-28.610796
9278.846277	4786.690000	1144.975586	-69.935593
9278.846277	4786.690000	1143.843750	-35.161510
9278.846277	4786.690000	1142.710938	32.301449
9278.846277	4786.690000	1141.578125	-68.476936
9278.846277	4786.690000	1140.445313	149.618439
9278.846277	4786.690000	1139.312500	-4.783632
9278.846277	4786.690000	1138.178711	-130.065994
9278.846277	4786.690000	1137.045898	-46.105923
9278.846277	4786.690000	1135.912109	59.223560
9278.846277	4786.690000	1134.777344	-83.630531
9278.846277	4786.690000	1133.643555	103.056442
9278.846277	4786.690000	1132.508789	315.793976
9278.846277	4786.690000	1131.374023	71.765671
9278.846277	4786.690000	1130.239258	130.225388
9278.846277	4786.690000	1129.104492	108.423088
9278.846277	4786.690000	1127.968750	383.071228
9278.846277	4786.690000	1126.833008	172.787247
9278.846277	4786.690000	1125.697266	54.053562
9278.846277	4786.690000	1124.560547	107.402809
9278.846277	4786.690000	1123.424805	-46.392460
9278.846277	4786.690000	1122.288086	1.744711
9278.846277	4786.690000	1121.151367	59.879353
9278.846277	4786.690000	1120.013672	238.008759
9278.846277	4786.690000	1118.876953	136.790710
9278.846277	4786.690000	1117.739258	75.903343
9278.846277	4786.690000	1116.601563	11.120911
9278.846277	4786.690000	1115.462891	28.751066
9278.846277	4786.690000	1114.324219	144.531097
9278.846277	4786.690000	1113.186523	6.292278
9278.846277	4786.690000	1112.046875	153.738388
9278.846277	4786.690000	1110.908203	-70.961143
9278.846277	4786.690000	1109.769531	-35.533878
9278.846277	4786.690000	1108.629883	109.020920
9278.846277	4786.690000	1107.490234	146.618637
9278.846277	4786.690000	1106.349609	343.623230
9278.846277	4786.690000	1105.209961	152.336441
9278.846277	4786.690000	1104.069336	134.349243
9278.846277	4786.690000	1102.928711	365.725739
9278.846277	4786.690000	1101.787109	213.925369
9278.846277	4786.690000	1100.646484	279.660522
9278.846277	4786.690000	1099.504883	437.498322
9278.846277	4786.690000	1098.363281	284.473846
9278.846277	4786.690000	1097.221680	222.659500
9278.846277	4786.690000	1096.079102	275.362183
9278.846277	4786.690000	1094.936523	193.619080
9278.846277	4786.690000	1093.793945	372.166718
9278.846277	4786.690000	1092.651367	276.091248
9278.846277	4786.690000	1091.507813	227.556793
9278.846277	4786.690000	1090.364258	60.735550
9278.846277	4786.690000	1089.220703	55.198055
9278.846277	4786.690000	1088.077148	148.161362
9278.846277	4786.690000	1086.933594	269.131592
9278.846277	4786.690000	1085.789063	423.796082
9278.846277	4786.690000	1084.644531	233.012863
9278.846277	4786.690000	1083.499023	384.994598
9278.846277	4786.690000	1082.354492	146.053055
9278.846277	4786.690000	1081.208984	32.513672
9278.846277	4786.690000	1080.063477	273.594055
9278.846277	4786.690000	1078.917969	318.122620
9278.846277	4786.690000	1077.771484	160.499313
9278.846277	4786.690000	1076.625977	278.581421
9278.846277	4786.690000	1075.479492	236.721207
9278.846277	4786.690000	1074.332031	90.362236
9278.846277	4786.690000	1073.185547	276.385498
9278.846277	4786.690000	1072.038086	156.012192
9278.846277	4786.690000	1070.890625	257.237671
9278.846277	4786.690000	1069.743164	45.152157
9278.846277	4786.690000	1068.594727	185.014664
9278.846277	4786.690000	1067.447266	275.685211
9278.846277	4786.690000	1066.298828	202.751709
9278.846277	4786.690000	1065.149414	310.927277
9278.846277	4786.690000	1064.000977	302.392609
9278.846277	4786.690000	1062.851563	434.756775
9278.846277	4786.690000	1061.702148	278.503937
9278.846277	4786.690000	1060.552734	125.388382
9278.846277	4786.690000	1059.402344	77.207878
9278.846277	4786.690000	1058.252930	241.024399
9278.846277	4786.690000	1057.102539	-111.115852
9278.846277	4786.690000	1055.951172	310.316742
9278.846277	4786.690000	1054.800781	198.163757
9278.846277	4786.690000	1053.649414	83.271912
9278.846277	4786.690000	1052.498047	227.737061
9278.846277	4786.690000	1051.346680	162.061615
9278.846277	4786.690000	1050.194336	26.089911
9278.846277	4786.690000	1049.042969	-69.045044
9278.846277	4786.690000	1047.890625	-196.949997
9278.846277	4786.690000	1046.738281	219.883209
9278.846277	4786.690000	1045.584961	291.779266
9278.846277	4786.690000	1044.431641	241.555008
9278.846277	4786.690000	1043.278320	538.279297
9278.846277	4786.690000	1042.125000	86.036652
9278.846277	4786.690000	1040.971680	141.933014
9278.846277	4786.690000	1039.817383	121.997948
9278.846277	4786.690000	1038.663086	-1.875278
9278.846277	4786.690000	1037.508789	35.561897
9278.846277	4786.690000	1036.353516	240.860443
9278.846277	4786.690000	1035.198242	319.265259
9278.846277	4786.690000	1034.042969	247.401947
9278.846277	4786.690000	1032.887695	136.979950
9278.846277	4786.690000	1031.732422	586.044800
9278.846277	4786.690000	1030.576172	373.617920
9278.846277	4786.690000	1029.419922	283.903503
9278.846277	4786.690000	1028.263672	425.720398
9278.846277	4786.690000	1027.106445	-15.105230
9278.846277	4786.690000	1025.949219	295.443298
9278.846277	4786.690000	1024.792969	239.873123
9278.846277	4786.690000	1023.634766	276.321411
9278.846277	4786.690000	1022.477539	292.224365
9278.846277	4786.690000	1021.319336	158.196335
9278.846277	4786.690000	1020.161133	-51.425465
9278.846277	4786.690000	1019.002930	-45.515469
9278.846277	4786.690000	1017.843750	42.646748
9278.846277	4786.690000	1016.684570	64.349670
9278.846277	4786.690000	1015.525391	181.488403
9278.846277	4786.690000	1014.366211	-28.883747
9278.846277	4786.690000	1013.207031	3.032642
9278.846277	4786.690000	1012.046875	69.131683
9278.846277	4786.690000	1010.886719	87.924675
9278.846277	4786.690000	1009.726563	-73.447182
9278.846277	4786.690000	1008.565430	53.220718
9278.846277	4786.690000	1007.404297	68.711220
9278.846277	4786.690000	1006.243164	77.519066
9278.846277	4786.690000	1005.082031	193.769836
9278.846277	4786.690000	1003.920898	170.786392
9278.846277	4786.690000	1002.758789	211.134552
9278.846277	4786.690000	1001.596680	269.431274
9278.846277	4786.690000	1000.433594	306.006012
9278.846277	4786.690000	999.271484	63.887157
9278.846277	4786.690000	998.108398	35.143166
9278.846277	4786.690000	996.945313	252.287567
9278.846277	4786.690000	995.782227	249.528000
9278.846277	4786.690000	994.618164	417.428162
9278.846277	4786.690000	993.454102	543.052429
9278.846277	4786.690000	992.290039	346.670959
9278.846277	4786.690000	991.125977	308.631989
9278.846277	4786.690000	989.960938	286.434662
9278.846277	4786.690000	988.796875	363.764069
9278.846277	4786.690000	987.630859	233.727829
9278.846277	4786.690000	986.465820	301.262421
9278.846277	4786.690000	985.300781	393.757629
9278.846277	4786.690000	984.134766	379.402069
9278.846277	4786.690000	982.968750	110.728966
9278.846277	4786.690000	981.801758	325.223755
9278.846277	4786.690000	980.635742	84.968109
9278.846277	4786.690000	979.468750	-31.780628
9278.846277	4786.690000	978.301758	122.174927
9278.846277	4786.690000	977.133789	-62.816586
9278.846277	4786.690000	975.966797	292.643005
9278.846277	4786.690000	974.798828	52.049232
9278.846277	4786.690000	973.630859	112.370987
9278.846277	4786.690000	972.461914	124.408028
9278.846277	4786.690000	971.293945	138.279327
9278.846277	4786.690000	970.125000	-315.916199
9278.846277	4786.690000	968.956055	-71.502579
9278.846277	4786.690000	967.786133	-155.035553
9278.846277	4786.690000	966.617188	-4.454719
9278.846277	4786.690000	965.447266	89.698166
9278.846277	4786.690000	964.276367	-49.166225
9278.846277	4786.690000	963.106445	-238.438614
9278.846277	4786.690000	961.935547	127.239563
9278.846277	4786.690000	960.764648	-57.592407
9278.846277	4786.690000	959.593750	92.896080
9278.846277	4786.690000	958.422852	-187.853058
9278.846277	4786.690000	957.250977	105.881676
9278.846277	4786.690000	956.079102	266.588776
9278.846277	4786.690000	954.907227	-54.639427
9278.846277	4786.690000	953.734375	-195.298279
9278.846277	4786.690000	952.562500	-281.069489
9278.846277	4786.690000	951.389648	54.395657
9278.846277	4786.690000	950.215820	111.882790
9278.846277	4786.690000	949.042969	-91.541756
9278.846277	4786.690000	947.869141	-6.123061
9278.846277	4786.690000	946.695313	-145.023041
9278.846277	4786.690000	945.521484	-41.918953
9278.846277	4786.690000	944.346680	-78.278847
9278.846277	4786.690000	943.172852	-47.360611
9278.846277	4786.690000	941.998047	-117.757027
9278.846277	4786.690000	940.822266	253.182755
9278.846277	4786.690000	939.647461	10.427346
9278.846277	4786.690000	938.471680	18.350777
9278.846277	4786.690000	937.295898	-1.152286
9278.846277	4786.690000	936.119141	-182.264740
9278.846277	4786.690000	934.943359	122.712463
9278.846277	4786.690000	933.766602	-17.942360
9278.846277	4786.690000	932.589844	0.647839
9278.846277	4786.690000	931.413086	101.848679
9278.846277	4786.690000	930.235352	226.471375
9278.846277	4786.690000	929.057617	51.898808
9278.846277	4786.690000	927.879883	83.020012
9278.846277	4786.690000	926.702148	230.946655
9278.846277	4786.690000	925.523438	115.823936
9278.846277	4786.690000	924.344727	202.208511
9278.846277	4786.690000	923.166016	-67.676636
9278.846277	4786.690000	921.987305	-6.731588
9278.846277	4786.690000	920.807617	113.552132
9278.846277	4786.690000	919.627930	118.707680
9278.846277	4786.690000	919.497070	-49.604877
9278.846277	4786.690000	918.331055	-33.225956
9278.846277	4786.690000	917.165039	-52.853725
9278.846277	4786.690000	915.999023	-131.765274
9278.846277	4786.690000	914.833008	-108.997467
9278.846277	4786.690000	913.666016	-196.309402
9278.846277	4786.690000	912.499023	-31.699314
9278.846277	4786.690000	911.332031	-93.575157
9278.846277	4786.690000	910.165039	-197.729691
9278.846277	4786.690000	908.997070	-155.869293
9278.846277	4786.690000	907.830078	-29.424337
9278.846277	4786.690000	906.661133	-192.690170
9278.846277	4786.690000	905.493164	-258.636688
9278.846277	4786.690000	904.325195	-294.954712
9278.846277	4786.690000	903.156250	161.125977
9278.846277	4786.690000	901.987305	59.273003
9278.846277	4786.690000	900.818359	183.488449
9278.846277	4786.690000	899.648438	155.616730
9278.846277	4786.690000	898.478516	256.567627
9278.846277	4786.690000	897.308594	144.276764
9278.846277	4786.690000	896.138672	-52.376820
9278.846277	4786.690000	894.968750	268.048370
9278.846277	4786.690000	893.797852	282.451385
9278.846277	4786.690000	892.626953	387.562256
9278.846277	4786.690000	891.456055	-15.591640
9278.846277	4786.690000	890.284180	36.857536
9278.846277	4786.690000	889.113281	-45.618702
9278.846277	4786.690000	887.941406	150.156647
9278.846277	4786.690000	886.768555	-79.771431
9278.846277	4786.690000	885.596680	-25.191303
9278.846277	4786.690000	884.423828	71.509628
9278.846277	4786.690000	883.250977	134.492828
9278.846277	4786.690000	882.078125	69.031700
9278.846277	4786.690000	880.905273	-99.531990
9278.846277	4786.690000	879.731445	112.913727
9278.846277	4786.690000	878.557617	15.981398
9278.846277	4786.690000	877.383789	7.456109
9278.846277	4786.690000	876.209961	333.367065
9278.846277	4786.690000	875.035156	-55.800690
9278.846277	4786.690000	873.860352	-116.819489
9278.846277	4786.690000	872.685547	-152.578110
9278.846277	4786.690000	871.510742	160.544418
9278.846277	4786.690000	870.334961	238.234283
9278.846277	4786.690000	869.159180	19.709305
9278.846277	4786.690000	867.983398	30.213484
9278.846277	4786.690000	866.807617	124.717346
9278.846277	4786.690000	865.630859	152.020340
9278.846277	4786.690000	864.454102	11.406651
9278.846277	4786.690000	863.277344	-101.856361
9278.846277	4786.690000	862.100586	-164.708374
9278.846277	4786.690000	860.922852	189.917648
9278.846277	4786.690000	859.745117	-67.981339
9278.846277	4786.690000	858.567383	194.240921
9278.846277	4786.690000	857.389648	-32.087723
9278.846277	4786.690000	856.210938	33.029430
9278.846277	4786.690000	855.032227	-157.525970
9278.846277	4786.690000	853.853516	138.070023
9278.846277	4786.690000	852.674805	90.028008
9278.846277	4786.690000	851.495117	-41.749073
9278.846277	4786.690000	850.315430	-22.709711
9278.846277	4786.690000	849.135742	59.132076
9278.846277	4786.690000	847.956055	-85.089302
9278.846277	4786.690000	846.775391	216.466568
9278.846277	4786.690000	845.595703	-95.079514
9278.846277	4786.690000	844.415039	181.268082
9278.846277	4786.690000	843.233398	-15.100408
9278.846277	4786.690000	842.052734	-167.482208
9278.846277	4786.690000	840.871094	60.655415
9278.846277	4786.690000	839.689453	-56.132294
9278.846277	4786.690000	838.506836	54.891521
9278.846277	4786.690000	837.325195	-53.482552
9278.846277	4786.690000	836.142578	124.340698
9278.846277	4786.690000	834.959961	-153.136276
9278.846277	4786.690000	833.777344	12.113405
9278.846277	4786.690000	832.593750	-144.148087
9278.846277	4786.690000	831.410156	-189.736679
9278.846277	4786.690000	830.226563	248.761169
9278.846277	4786.690000	829.042969	109.239456
9278.846277	4786.690000	827.858398	13.579470
9278.846277	4786.690000	826.673828	-215.493744
9278.846277	4786.690000	825.489258	87.144234
9278.846277	4786.690000	824.304688	160.377609
9278.846277	4786.690000	823.120117	43.942127
9278.846277	4786.690000	821.934570	-132.861069
9278.846277	4786.690000	820.749023	-1.305032
9278.846277	4786.690000	819.562500	134.362534
9278.846277	4786.690000	818.376953	215.830490
9278.846277	4786.690000	817.190430	-71.208473
9278.846277	4786.690000	816.003906	-245.740341
9278.846277	4786.690000	814.817383	60.478386
9278.846277	4786.690000	813.629883	-126.499306
9278.846277	4786.690000	812.442383	-149.087128
9278.846277	4786.690000	811.254883	-17.779888
9278.846277	4786.690000	810.067383	-77.822433
9278.846277	4786.690000	808.878906	-94.191139
9278.846277	4786.690000	807.690430	-17.037989
9278.846277	4786.690000	806.501953	107.862846
9278.846277	4786.690000	805.313477	-157.860443
9278.846277	4786.690000	804.124023	70.848907
9278.846277	4786.690000	802.934570	-1.655259
9278.846277	4786.690000	801.745117	172.921234
9278.846277	4786.690000	800.555664	-5.465324
9278.846277	4786.690000	799.365234	322.587433
9278.846277	4786.690000	798.175781	274.928680
9278.846277	4786.690000	796.985352	206.533844
9278.846277	4786.690000	795.793945	109.116936
9278.846277	4786.690000	794.603516	-15.240375
9278.846277	4786.690000	793.412109	44.952831
9278.846277	4786.690000	792.220703	235.681320
9278.846277	4786.690000	791.028320	169.347321
9278.846277	4786.690000	789.836914	36.716198
9278.846277	4786.690000	788.644531	47.050190
9278.846277	4786.690000	787.452148	-118.679558
9278.846277	4786.690000	786.258789	138.038437
9278.846277	4786.690000	785.066406	-2.848662
9278.846277	4786.690000	783.873047	67.411415
9278.846277	4786.690000	782.679688	-15.510898
9278.846277	4786.690000	781.485352	125.012947
9278.846277	4786.690000	780.291992	207.529892
9278.846277	4786.690000	779.097656	110.071289
9278.846277	4786.690000	777.903320	-53.541962
9278.846277	4786.690000	776.708008	119.832253
9278.846277	4786.690000	775.512695	361.303925
9278.846277	4786.690000	774.318359	412.537811
9278.846277	4786.690000	773.122070	124.922775
9278.846277	4786.690000	771.926758	145.138519
9278.846277	4786.690000	770.730469	295.407410
9278.846277	4786.690000	769.534180	214.345413
9278.846277	4786.690000	768.337891	372.721191
9278.846277	4786.690000	767.141602	268.897095
9278.846277	4786.690000	765.944336	619.007141
9278.846277	4786.690000	764.747070	360.384216
9278.846277	4786.690000	763.549805	549.377014
9278.846277	4786.690000	762.351563	468.129211
9278.846277	4786.690000	761.154297	370.374176
9278.846277	4786.690000	759.956055	509.650116
9278.846277	4786.690000	758.757813	321.170868
9278.846277	4786.690000	757.558594	414.986267
9278.846277	4786.690000	756.359375	424.259460
9278.846277	4786.690000	755.160156	616.770813
9278.846277	4786.690000	753.960938	625.902222
9278.846277	4786.690000	752.761719	474.410675
9278.846277	4786.690000	751.561523	444.363190
9278.846277	4786.690000	750.361328	233.200607
9278.846277	4786.690000	749.160156	147.568054
9278.846277	4786.690000	747.959961	419.807251
9278.846277	4786.690000	746.758789	272.371490
9278.846277	4786.690000	745.557617	227.738815
9278.846277	4786.690000	744.356445	220.070450
9278.846277	4786.690000	743.154297	276.060211
9278.846277	4786.690000	741.952148	38.143276
9278.846277	4786.690000	740.750000	375.465302
9278.846277	4786.690000	739.547852	137.507813
9278.846277	4786.690000	738.344727	8.421453
9278.846277	4786.690000	737.142578	359.724609
9278.846277	4786.690000	735.939453	138.156830
9278.846277	4786.690000	734.735352	394.765991
9278.846277	4786.690000	733.532227	103.394974
9278.846277	4786.690000	732.328125	218.236206
9278.846277	4786.690000	731.124023	384.235199
9278.846277	4786.690000	729.918945	170.770737
9278.846277	4786.690000	728.714844	227.922562
9278.846277	4786.690000	727.509766	291.132660
9278.846277	4786.690000	726.303711	296.874695
9278.846277	4786.690000	725.098633	109.961136
9278.846277	4786.690000	723.892578	64.386436
9278.846277	4786.690000	722.686523	215.352371
9278.846277	4786.690000	721.480469	190.104294
9278.846277	4786.690000	720.274414	226.201996
9278.846277	4786.690000	719.067383	143.510193
9278.846277	4786.690000	717.860352	116.023926
9278.846277	4786.690000	716.653320	29.146776
9278.846277	4786.690000	715.445313	-61.860222
9278.846277	4786.690000	714.238281	12.722845
9278.846277	4786.690000	713.030273	252.795670
9278.846277	4786.690000	711.821289	249.455048
9278.846277	4786.690000	710.613281	33.505306
9278.846277	4786.690000	709.404297	173.070389
9278.846277	4786.690000	708.195313	-124.645088
9278.846277	4786.690000	706.986328	-17.944448
9278.846277	4786.690000	705.776367	0.827450
9278.846277	4786.690000	704.566406	33.799301
9278.846277	4786.690000	703.356445	183.009598
9278.846277	4786.690000	702.146484	134.137497
9278.846277	4786.690000	700.935547	168.847672
9278.846277	4786.690000	699.724609	30.079727
9278.846277	4786.690000	698.513672	-27.143417
9278.846277	4786.690000	697.302734	52.171898
9278.846277	4786.690000	696.090820	-48.012951
9278.846277	4786.690000	694.878906	-121.752197
9278.846277	4786.690000	693.666992	-52.917355
9278.846277	4786.690000	692.455078	-69.762756
9278.846277	4786.690000	691.242188	147.532150
9278.846277	4786.690000	690.029297	266.905670
9278.846277	4786.690000	688.816406	-165.580048
9278.846277	4786.690000	687.602539	-54.514786
9278.846277	4786.690000	686.389648	-35.165348
9278.846277	4786.690000	685.175781	39.019474
9278.846277	4786.690000	683.960938	111.046997
9278.846277	4786.690000	682.747070	-46.856899
9278.846277	4786.690000	681.532227	138.835190
9278.846277	4786.690000	680.317383	241.009567
9278.846277	4786.690000	679.102539	296.302795
9278.846277	4786.690000	677.886719	119.831703
9278.846277	4786.690000	676.670898	83.518051
9278.846277	4786.690000	675.455078	211.646881
9278.846277	4786.690000	674.239258	244.186859
9278.846277	4786.690000	673.022461	177.131546
9278.846277	4786.690000	671.805664	193.235168
9278.846277	4786.690000	670.588867	81.382431
9278.846277	4786.690000	669.372070	154.122192
9278.846277	4786.690000	668.154297	178.051346
9278.846277	4786.690000	666.936523	102.494781
9278.846277	4786.690000	665.718750	187.065872
9278.846277	4786.690000	664.500977	257.313538
9278.846277	4786.690000	663.282227	41.650913
9278.846277	4786.690000	662.063477	300.168915
9278.846277	4786.690000	660.844727	102.631371
9278.846277	4786.690000	659.625000	26.617300
9278.846277	4786.690000	658.405273	396.073395
9278.846277	4786.690000	657.185547	56.626865
9278.846277	4786.690000	655.965820	89.699883
9278.846277	4786.690000	654.745117	203.617340
9278.846277	4786.690000	653.525391	-87.291122
9278.846277	4786.690000	652.303711	305.604614
9278.846277	4786.690000	651.083008	140.009201
9278.846277	4786.690000	649.861328	350.511292
9278.846277	4786.690000	648.640625	65.509590
9278.846277	4786.690000	647.417969	148.410812
9278.846277	4786.690000	646.196289	-49.714203
9278.846277	4786.690000	644.973633	113.812614
9278.846277	4786.690000	643.750977	271.118866
9278.846277	4786.690000	642.528320	286.898529
9278.846277	4786.690000	641.305664	54.224476
9278.846277	4786.690000	640.082031	-0.791774
9278.846277	4786.690000	638.858398	30.913328
9278.846277	4786.690000	637.634766	175.520187
9278.846277	4786.690000	636.410156	156.562073
9278.846277	4786.690000	635.185547	36.675095
9278.846277	4786.690000	633.960938	13.549520
9278.846277	4786.690000	632.736328	-19.729824
9278.846277	4786.690000	631.510742	194.854553
9278.846277	4786.690000	630.285156	149.290726
9278.846277	4786.690000	629.059570	-5.143041
9278.846277	4786.690000	627.833984	29.771021
9278.846277	4786.690000	626.607422	-217.381363
9278.846277	4786.690000	625.380859	-94.000443
9278.846277	4786.690000	624.154297	37.301579
9278.846277	4786.690000	622.927734	-73.060173
9278.846277	4786.690000	621.700195	-290.109467
9278.846277	4786.690000	620.472656	-287.841858
9278.846277	4786.690000	619.245117	110.612968
9278.846277	4786.690000	618.016602	52.313164
9278.846277	4786.690000	616.788086	-66.353752
9278.846277	4786.690000	615.559570	-170.968552
9278.846277	4786.690000	614.331055	-84.678398
9278.846277	4786.690000	613.101563	-181.347061
9278.846277	4786.690000	611.872070	-36.971481
9278.846277	4786.690000	610.642578	-163.868652
9278.846277	4786.690000	609.413086	-43.783253
9278.846277	4786.690000	608.182617	-68.364319
9278.846277	4786.690000	606.952148	-167.264725
9278.846277	4786.690000	605.721680	-153.801346
9278.846277	4786.690000	604.491211	-58.142593
9278.846277	4786.690000	603.259766	-213.326233
9278.846277	4786.690000	602.028320	-234.127914
9278.846277	4786.690000	600.796875	-168.758926
9278.846277	4786.690000	599.564453	-157.596924
9278.846277	4786.690000	598.332031	49.922501
9278.846277	4786.690000	597.099609	-293.740021
9278.846277	4786.690000	595.867188	-84.373810
9278.846277	4786.690000	594.633789	-233.671021
9278.846277	4786.690000	593.400391	-50.531857
9278.846277	4786.690000	592.166992	20.369652
9278.846277	4786.690000	590.933594	103.211044
9278.846277	4786.690000	589.699219	-26.156887
9278.846277	4786.690000	588.464844	48.574852
9278.846277	4786.690000	587.230469	-44.791142
9278.846277	4786.690000	585.995117	-40.157993
9278.846277	4786.690000	584.760742	-79.542061
9278.846277	4786.690000	583.525391	70.971230
9278.846277	4786.690000	582.289063	-108.395599
9278.846277	4786.690000	581.053711	-101.869667
9278.846277	4786.690000	579.817383	-125.341164
9278.846277	4786.690000	578.581055	106.842964
9278.846277	4786.690000	577.343750	103.260025
9278.846277	4786.690000	576.107422	83.690887
9278.846277	4786.690000	574.870117	139.964035
9278.846277	4786.690000	573.631836	64.477905
9278.846277	4786.690000	572.394531	38.896240
9278.846277	4786.690000	571.156250	-4.641950
9278.846277	4786.690000	569.917969	306.838806
9278.846277	4786.690000	568.679688	67.834595
9278.846277	4786.690000	567.440430	337.286072
9278.846277	4786.690000	566.202148	66.480057
9278.846277	4786.690000	564.961914	70.775436
9278.846277	4786.690000	563.722656	81.053627
9278.846277	4786.690000	562.482422	5.674353
9278.846277	4786.690000	561.243164	254.943939
9278.846277	4786.690000	560.001953	396.590485
9278.846277	4786.690000	558.761719	122.155418
9278.846277	4786.690000	557.520508	116.518059
9278.846277	4786.690000	556.279297	156.661606
9278.846277	4786.690000	555.038086	-161.275314
9278.846277	4786.690000	553.795898	75.837395
9278.846277	4786.690000	552.554688	-82.832848
9278.846277	4786.690000	551.311523	11.057467
9278.846277	4786.690000	550.069336	154.625580
9278.846277	4786.690000	548.826172	157.063385
9278.846277	4786.690000	547.583984	84.034134
9278.846277	4786.690000	546.339844	229.551437
9278.846277	4786.690000	545.096680	53.323948
9278.846277	4786.690000	543.852539	-210.163376
9278.846277	4786.690000	542.608398	72.388596
9278.846277	4786.690000	541.364258	92.883858
9278.846277	4786.690000	540.119141	4.270833
9278.846277	4786.690000	538.875000	84.360603
9278.846277	4786.690000	537.628906	416.333130
9278.846277	4786.690000	536.383789	-58.845959
9278.846277	4786.690000	535.137695	90.710739
9278.846277	4786.690000	533.892578	212.501328
9278.846277	4786.690000	532.645508	98.459953
9278.846277	4786.690000	531.399414	210.379654
9278.846277	4786.690000	530.152344	80.636253
9278.846277	4786.690000	528.905273	-78.708351
9278.846277	4786.690000	527.658203	33.321518
9278.846277	4786.690000	526.410156	123.576462
9278.846277	4786.690000	525.163086	-110.725716
9278.846277	4786.690000	523.914063	323.915924
9278.846277	4786.690000	522.666016	-30.898300
9278.846277	4786.690000	521.416992	-134.323776
9278.846277	4786.690000	520.167969	-186.236893
9278.846277	4786.690000	518.918945	-153.059036
9278.846277	4786.690000	517.669922	2.708288
9278.846277	4786.690000	516.419922	41.868496
9278.846277	4786.690000	515.169922	272.716492
9278.846277	4786.690000	513.919922	112.412529
9278.846277	4786.690000	512.668945	127.996216
9278.846277	4786.690000	511.417969	137.709244
9278.846277	4786.690000	510.166992	289.602173
9278.846277	4786.690000	508.916016	188.869980
9278.846277	4786.690000	507.664063	257.925018
9278.846277	4786.690000	506.412109	423.672363
9278.846277	4786.690000	505.160156	344.835938
9278.846277	4786.690000	503.907227	412.005493
9278.846277	4786.690000	502.655273	451.602295
9278.846277	4786.690000	501.402344	477.435516
9278.846277	4786.690000	500.148438	820.576172
9278.846277	4786.690000	498.895508	582.413635
9278.846277	4786.690000	497.641602	746.233337
9278.846277	4786.690000	496.387695	405.874298
9278.846277	4786.690000	495.132813	735.142395
9278.846277	4786.690000	493.878906	601.712952
9278.846277	4786.690000	492.624023	676.996094
9278.846277	4786.690000	491.368164	929.372253
9278.846277	4786.690000	490.113281	784.295288
9278.846277	4786.690000	488.857422	621.610474
9278.846277	4786.690000	487.601563	858.202148
9278.846277	4786.690000	486.344727	734.943359
9278.846277	4786.690000	485.088867	975.388489
9278.846277	4786.690000	483.832031	787.350830
9278.846277	4786.690000	482.575195	752.657288
9278.846277	4786.690000	481.317383	1016.552856
9278.846277	4786.690000	480.059570	917.031921
9278.846277	4786.690000	478.801758	1017.823975
9278.846277	4786.690000	477.543945	1171.568726
9278.846277	4786.690000	476.285156	966.086365
9278.846277	4786.690000	475.027344	1192.355225
9278.846277	4786.690000	473.767578	971.226868
9278.846277	4786.690000	472.508789	1056.132690
9278.846277	4786.690000	471.249023	1278.231201
9278.846277	4786.690000	469.989258	1290.424316
9278.846277	4786.690000	468.729492	1282.967041
9278.846277	4786.690000	467.469727	1126.527832
9278.846277	4786.690000	466.208984	1403.074829
9278.846277	4786.690000	464.948242	1322.936646
9278.846277	4786.690000	463.686523	1354.379761
9278.846277	4786.690000	462.425781	1332.863892
9278.846277	4786.690000	461.164063	1450.239624
9278.846277	4786.690000	459.901367	1197.569702
9278.846277	4786.690000	458.639648	1572.985229
9278.846277	4786.690000	457.376953	1570.559570
9278.846277	4786.690000	456.114258	1538.660645
9278.846277	4786.690000	454.851563	1633.730469
9278.846277	4786.690000	453.587891	1626.941772
9278.846277	4786.690000	452.324219	1823.256836
9278.846277	4786.690000	451.060547	1548.364868
9278.846277	4786.690000	449.796875	1781.358643
9278.846277	4786.690000	448.532227	1551.115479
9278.846277	4786.690000	447.267578	1824.584839
9278.846277	4786.690000	446.002930	1685.739014
9278.846277	4786.690000	444.737305	1782.892944
9278.846277	4786.690000	443.471680	1559.678711
9278.846277	4786.690000	442.206055	1578.225220
9278.846277	4786.690000	440.940430	1658.891846
9278.846277	4786.690000	439.673828	1624.134766
9278.846277	4786.690000	438.407227	1733.354492
9278.846277	4786.690000	437.140625	1898.714966
9278.846277	4786.690000	435.873047	1931.094116
9278.846277	4786.690000	434.605469	1682.471436
9278.846277	4786.690000	433.337891	1665.388062
9278.846277	4786.690000	432.070313	1924.472778
9278.846277	4786.690000	430.801758	1871.414185
9278.846277	4786.690000	429.533203	1812.069336
9278.846277	4786.690000	428.264648	2094.846436
9278.846277	4786.690000	426.996094	2087.021729
9278.846277	4786.690000	425.726563	1956.078613
9278.846277	4786.690000	424.457031	1787.672119
9278.846277	4786.690000	423.186523	1914.359253
9278.846277	4786.690000	421.916992	2048.168457
9278.846277	4786.690000	420.646484	2058.802734
9278.846277	4786.690000	419.375977	1981.306641
9278.846277	4786.690000	418.104492	1930.345703
9278.846277	4786.690000	416.833008	1913.655151
9278.846277	4786.690000	415.561523	2004.991333
9278.846277	4786.690000	414.290039	1742.086426
9278.846277	4786.690000	413.017578	2006.549927
9278.846277	4786.690000	411.746094	1971.150879
9278.846277	4786.690000	410.472656	2084.287842
9278.846277	4786.690000	409.200195	1973.362549
9278.846277	4786.690000	407.926758	2125.334229
9278.846277	4786.690000	406.653320	1845.724976
9278.846277	4786.690000	405.379883	1875.450928
9278.846277	4786.690000	404.105469	1927.356079
9278.846277	4786.690000	402.831055	2315.378418
9278.846277	4786.690000	401.556641	1989.036133
9278.846277	4786.690000	400.282227	2200.225586
9278.846277	4786.690000	399.006836	2100.196045
9278.846277	4786.690000	397.731445	1995.083862
9278.846277	4786.690000	396.456055	2031.983521
9278.846277	4786.690000	395.179688	2160.409180
9278.846277	4786.690000	393.903320	2179.024902
9278.846277	4786.690000	392.626953	2186.524902
9278.846277	4786.690000	391.350586	1962.358887
9278.846277	4786.690000	390.073242	2032.616699
9278.846277	4786.690000	388.795898	2118.664551
9278.846277	4786.690000	387.518555	2015.538330
9278.846277	4786.690000	386.240234	2136.857666
9278.846277	4786.690000	384.961914	1972.351929
9278.846277	4786.690000	383.683594	1844.760864
9278.846277	4786.690000	382.405273	1937.482422
9278.846277	4786.690000	381.125977	1873.744995
9278.846277	4786.690000	379.846680	1755.944214
9278.846277	4786.690000	378.567383	1948.847778
9278.846277	4786.690000	377.287109	1616.591064
9278.846277	4786.690000	376.006836	1857.247925
9278.846277	4786.690000	374.726563	1887.267456
9278.846277	4786.690000	373.446289	1754.935059
9278.846277	4786.690000	372.165039	1612.549561
9278.846277	4786.690000	370.883789	1616.232544
9278.846277	4786.690000	369.602539	1663.675415
9278.846277	4786.690000	368.320313	1583.242920
9278.846277	4786.690000	367.039063	1544.575806
9278.846277	4786.690000	365.755859	1797.759033
9278.846277	4786.690000	364.473633	1878.661377
9278.846277	4786.690000	363.190430	1669.765137
9278.846277	4786.690000	361.907227	1592.737427
9278.846277	4786.690000	360.624023	1553.123535
9278.846277	4786.690000	359.340820	1318.035645
9278.846277	4786.690000	358.056641	1354.823486
9278.846277	4786.690000	356.772461	1415.232300
9278.846277	4786.690000	355.487305	1437.556519
9278.846277	4786.690000	354.202148	1500.608643
9278.846277	4786.690000	352.916992	1427.474487
9278.846277	4786.690000	351.631836	1417.964111
9278.846277	4786.690000	350.346680	1375.893921
9278.846277	4786.690000	349.060547	1255.003784
9278.846277	4786.690000	347.774414	1278.055420
9278.846277	4786.690000	346.487305	1389.085571
9278.846277	4786.690000	345.200195	977.718750
9278.846277	4786.690000	343.913086	1210.812134
9278.846277	4786.690000	342.625977	1120.974609
9278.846277	4786.690000	341.338867	957.644836
9278.846277	4786.690000	340.050781	910.473083
9278.846277	4786.690000	338.762695	939.120728
9278.846277	4786.690000	337.473633	983.878479
9278.846277	4786.690000	336.184570	632.732300
9278.846277	4786.690000	334.895508	608.096130
9278.846277	4786.690000	333.606445	593.584656
9278.846277	4786.690000	332.317383	541.191345
9278.846277	4786.690000	331.027344	454.492065
9278.846277	4786.690000	329.736328	536.271484
9278.846277	4786.690000	328.446289	334.926086
9278.846277	4786.690000	327.155273	62.584541
9278.846277	4786.690000	325.864258	94.234901
9278.846277	4786.690000	324.573242	163.699219
9278.846277	4786.690000	323.281250	88.985863
9278.846277	4786.690000	321.989258	-34.216473
9278.846277	4786.690000	320.697266	193.429657
9278.846277	4786.690000	319.405273	14.844980
9278.846277	4786.690000	318.112305	-48.504860
9278.846277	4786.690000	316.819336	-48.247208
9278.846277	4786.690000	315.526367	-3.678872
9278.846277	4786.690000	314.232422	-60.300644
9278.846277	4786.690000	312.938477	-260.014313
9278.846277	4786.690000	311.644531	-18.942017
9278.846277	4786.690000	310.349609	-72.324036
9278.846277	4786.690000	309.054688	-42.247990
9278.846277	4786.690000	307.759766	-302.741882
9278.846277	4786.690000	306.464844	-169.299698
9278.846277	4786.690000	305.168945	29.503645
9278.846277	4786.690000	303.873047	106.896500
9278.846277	4786.690000	302.577148	-80.140640
9278.846277	4786.690000	301.281250	196.078430
9278.846277	4786.690000	299.984375	553.851990
