#X		#Y		#Wave		#Intensity
10116.741489	4335.638333	1999.946289	-119.566353
10116.741489	4335.638333	1998.981445	96.230347
10116.741489	4335.638333	1998.017578	-98.551712
10116.741489	4335.638333	1997.052734	53.528057
10116.741489	4335.638333	1996.088867	-121.643921
10116.741489	4335.638333	1995.124023	-83.849991
10116.741489	4335.638333	1994.159180	-28.867979
10116.741489	4335.638333	1993.193359	16.059423
10116.741489	4335.638333	1992.228516	68.268188
10116.741489	4335.638333	1991.262695	65.878372
10116.741489	4335.638333	1990.296875	-23.251854
10116.741489	4335.638333	1989.331055	-102.566902
10116.741489	4335.638333	1988.365234	-80.531761
10116.741489	4335.638333	1987.398438	104.640465
10116.741489	4335.638333	1986.432617	168.457642
10116.741489	4335.638333	1985.465820	-96.705658
10116.741489	4335.638333	1984.499023	8.953323
10116.741489	4335.638333	1983.532227	188.628418
10116.741489	4335.638333	1982.565430	113.609093
10116.741489	4335.638333	1981.597656	-38.063862
10116.741489	4335.638333	1980.629883	69.616539
10116.741489	4335.638333	1979.662109	70.971298
10116.741489	4335.638333	1978.694336	168.552307
10116.741489	4335.638333	1977.726563	238.863052
10116.741489	4335.638333	1976.758789	109.127655
10116.741489	4335.638333	1975.790039	152.131165
10116.741489	4335.638333	1974.821289	254.272278
10116.741489	4335.638333	1973.852539	144.139694
10116.741489	4335.638333	1972.883789	31.518808
10116.741489	4335.638333	1971.915039	52.054321
10116.741489	4335.638333	1970.945313	15.812421
10116.741489	4335.638333	1969.975586	11.577584
10116.741489	4335.638333	1969.005859	46.728725
10116.741489	4335.638333	1968.036133	67.030930
10116.741489	4335.638333	1967.066406	-45.773239
10116.741489	4335.638333	1966.096680	31.104149
10116.741489	4335.638333	1965.125977	88.205208
10116.741489	4335.638333	1964.155273	103.380302
10116.741489	4335.638333	1963.184570	-7.053986
10116.741489	4335.638333	1962.213867	12.980083
10116.741489	4335.638333	1961.242188	62.505230
10116.741489	4335.638333	1960.271484	75.068390
10116.741489	4335.638333	1959.299805	-35.416054
10116.741489	4335.638333	1958.328125	41.053570
10116.741489	4335.638333	1957.356445	33.850159
10116.741489	4335.638333	1956.384766	9.411511
10116.741489	4335.638333	1955.412109	164.420044
10116.741489	4335.638333	1954.439453	-120.624123
10116.741489	4335.638333	1953.467773	127.693230
10116.741489	4335.638333	1952.495117	-12.313800
10116.741489	4335.638333	1951.521484	176.893860
10116.741489	4335.638333	1950.548828	-157.137833
10116.741489	4335.638333	1949.575195	-49.042259
10116.741489	4335.638333	1948.601563	68.820190
10116.741489	4335.638333	1947.627930	189.081238
10116.741489	4335.638333	1946.654297	17.226095
10116.741489	4335.638333	1945.680664	137.431320
10116.741489	4335.638333	1944.706055	41.684864
10116.741489	4335.638333	1943.732422	-24.597326
10116.741489	4335.638333	1942.757813	85.715561
10116.741489	4335.638333	1941.783203	24.342037
10116.741489	4335.638333	1940.807617	-22.304840
10116.741489	4335.638333	1939.833008	102.640488
10116.741489	4335.638333	1938.857422	144.214890
10116.741489	4335.638333	1937.881836	33.861374
10116.741489	4335.638333	1936.906250	173.420700
10116.741489	4335.638333	1935.930664	-34.867462
10116.741489	4335.638333	1934.955078	55.679390
10116.741489	4335.638333	1933.978516	60.500923
10116.741489	4335.638333	1933.001953	9.022384
10116.741489	4335.638333	1932.025391	-137.882919
10116.741489	4335.638333	1931.048828	-103.651733
10116.741489	4335.638333	1930.072266	-64.534851
10116.741489	4335.638333	1929.094727	-42.549751
10116.741489	4335.638333	1928.118164	96.824890
10116.741489	4335.638333	1927.140625	-221.092133
10116.741489	4335.638333	1926.163086	-186.844086
10116.741489	4335.638333	1925.184570	64.936676
10116.741489	4335.638333	1924.207031	11.159515
10116.741489	4335.638333	1923.228516	-74.352928
10116.741489	4335.638333	1922.250000	-81.650429
10116.741489	4335.638333	1921.271484	60.053097
10116.741489	4335.638333	1920.292969	74.732178
10116.741489	4335.638333	1919.314453	-30.217295
10116.741489	4335.638333	1918.334961	-49.680202
10116.741489	4335.638333	1917.355469	43.144577
10116.741489	4335.638333	1916.375977	-110.508278
10116.741489	4335.638333	1915.396484	-46.958309
10116.741489	4335.638333	1914.416992	-49.278496
10116.741489	4335.638333	1913.436523	-97.922623
10116.741489	4335.638333	1912.457031	-46.562508
10116.741489	4335.638333	1911.476563	-87.848656
10116.741489	4335.638333	1910.496094	146.323029
10116.741489	4335.638333	1909.515625	29.498091
10116.741489	4335.638333	1908.534180	-114.071220
10116.741489	4335.638333	1907.552734	-60.252617
10116.741489	4335.638333	1906.572266	-64.893356
10116.741489	4335.638333	1905.590820	-18.381207
10116.741489	4335.638333	1904.608398	37.866455
10116.741489	4335.638333	1903.626953	113.582130
10116.741489	4335.638333	1902.644531	6.749695
10116.741489	4335.638333	1901.663086	55.705070
10116.741489	4335.638333	1900.680664	136.282730
10116.741489	4335.638333	1899.698242	31.981415
10116.741489	4335.638333	1898.714844	-57.675201
10116.741489	4335.638333	1897.732422	190.695511
10116.741489	4335.638333	1896.749023	86.484703
10116.741489	4335.638333	1895.765625	-78.437912
10116.741489	4335.638333	1894.782227	26.460737
10116.741489	4335.638333	1893.798828	-7.157865
10116.741489	4335.638333	1892.814453	78.281235
10116.741489	4335.638333	1891.831055	-6.311785
10116.741489	4335.638333	1890.846680	100.977280
10116.741489	4335.638333	1889.862305	-29.692490
10116.741489	4335.638333	1888.877930	-12.227069
10116.741489	4335.638333	1887.892578	-84.553947
10116.741489	4335.638333	1886.908203	-13.676717
10116.741489	4335.638333	1885.922852	18.368700
10116.741489	4335.638333	1884.937500	47.988808
10116.741489	4335.638333	1883.952148	-16.970957
10116.741489	4335.638333	1882.965820	-94.018654
10116.741489	4335.638333	1881.980469	42.306797
10116.741489	4335.638333	1880.994141	16.198538
10116.741489	4335.638333	1880.007813	-51.085968
10116.741489	4335.638333	1879.021484	-48.071945
10116.741489	4335.638333	1878.035156	20.356977
10116.741489	4335.638333	1877.047852	96.035042
10116.741489	4335.638333	1876.061523	91.784935
10116.741489	4335.638333	1875.074219	39.123127
10116.741489	4335.638333	1874.086914	88.156082
10116.741489	4335.638333	1873.098633	-17.712135
10116.741489	4335.638333	1872.111328	-135.630127
10116.741489	4335.638333	1871.123047	41.651031
10116.741489	4335.638333	1870.135742	56.813744
10116.741489	4335.638333	1869.147461	16.355980
10116.741489	4335.638333	1868.158203	-89.363762
10116.741489	4335.638333	1867.169922	41.870552
10116.741489	4335.638333	1866.180664	175.477814
10116.741489	4335.638333	1865.192383	31.140314
10116.741489	4335.638333	1864.203125	-52.737194
10116.741489	4335.638333	1863.213867	90.489189
10116.741489	4335.638333	1862.223633	47.697655
10116.741489	4335.638333	1861.234375	-137.542358
10116.741489	4335.638333	1860.244141	27.357519
10116.741489	4335.638333	1859.253906	-70.906616
10116.741489	4335.638333	1858.263672	-89.491951
10116.741489	4335.638333	1857.273438	-132.197296
10116.741489	4335.638333	1856.282227	37.409729
10116.741489	4335.638333	1855.291992	-60.777748
10116.741489	4335.638333	1854.300781	33.994640
10116.741489	4335.638333	1853.309570	133.553345
10116.741489	4335.638333	1852.317383	146.290695
10116.741489	4335.638333	1851.326172	-19.330858
10116.741489	4335.638333	1850.333984	65.718910
10116.741489	4335.638333	1849.342773	32.680786
10116.741489	4335.638333	1848.350586	47.828156
10116.741489	4335.638333	1847.357422	26.840700
10116.741489	4335.638333	1846.365234	205.715057
10116.741489	4335.638333	1845.372070	110.066399
10116.741489	4335.638333	1844.379883	0.007589
10116.741489	4335.638333	1843.386719	87.322235
10116.741489	4335.638333	1842.393555	-121.352676
10116.741489	4335.638333	1841.399414	16.458153
10116.741489	4335.638333	1840.406250	60.408138
10116.741489	4335.638333	1839.412109	-13.498940
10116.741489	4335.638333	1838.417969	23.212317
10116.741489	4335.638333	1837.423828	9.420321
10116.741489	4335.638333	1836.429688	41.289623
10116.741489	4335.638333	1835.434570	15.466356
10116.741489	4335.638333	1834.440430	1.656285
10116.741489	4335.638333	1833.445313	76.716125
10116.741489	4335.638333	1832.450195	50.870350
10116.741489	4335.638333	1831.454102	101.858810
10116.741489	4335.638333	1830.458984	169.621719
10116.741489	4335.638333	1829.462891	-50.680565
10116.741489	4335.638333	1828.466797	79.454300
10116.741489	4335.638333	1827.470703	159.141083
10116.741489	4335.638333	1826.474609	-3.501080
10116.741489	4335.638333	1825.478516	97.729004
10116.741489	4335.638333	1824.481445	-127.216476
10116.741489	4335.638333	1823.484375	-78.776039
10116.741489	4335.638333	1822.487305	7.982970
10116.741489	4335.638333	1821.490234	-37.119606
10116.741489	4335.638333	1820.493164	44.774170
10116.741489	4335.638333	1819.495117	40.374229
10116.741489	4335.638333	1818.498047	-76.617142
10116.741489	4335.638333	1817.500000	41.106606
10116.741489	4335.638333	1816.500977	70.176796
10116.741489	4335.638333	1815.502930	-3.720275
10116.741489	4335.638333	1814.504883	-1.018251
10116.741489	4335.638333	1813.505859	11.234412
10116.741489	4335.638333	1812.506836	16.284483
10116.741489	4335.638333	1811.507813	-86.331841
10116.741489	4335.638333	1810.508789	-179.364014
10116.741489	4335.638333	1809.508789	165.202911
10116.741489	4335.638333	1808.508789	14.736920
10116.741489	4335.638333	1807.508789	249.139923
10116.741489	4335.638333	1806.508789	60.432507
10116.741489	4335.638333	1805.508789	60.533710
10116.741489	4335.638333	1804.508789	58.222435
10116.741489	4335.638333	1803.507813	67.829453
10116.741489	4335.638333	1802.506836	118.004601
10116.741489	4335.638333	1801.505859	122.771927
10116.741489	4335.638333	1800.504883	22.479183
10116.741489	4335.638333	1799.502930	96.424362
10116.741489	4335.638333	1798.501953	70.095802
10116.741489	4335.638333	1797.500000	-56.452152
10116.741489	4335.638333	1796.498047	-8.851717
10116.741489	4335.638333	1795.496094	279.574493
10116.741489	4335.638333	1794.493164	40.909023
10116.741489	4335.638333	1793.491211	-4.592888
10116.741489	4335.638333	1792.488281	-23.887886
10116.741489	4335.638333	1791.485352	-45.587513
10116.741489	4335.638333	1790.482422	63.735153
10116.741489	4335.638333	1789.478516	182.514603
10116.741489	4335.638333	1788.475586	134.501984
10116.741489	4335.638333	1787.471680	12.657388
10116.741489	4335.638333	1786.467773	-66.316589
10116.741489	4335.638333	1785.463867	71.319992
10116.741489	4335.638333	1784.459961	30.381300
10116.741489	4335.638333	1783.455078	3.702567
10116.741489	4335.638333	1782.450195	-18.239553
10116.741489	4335.638333	1781.445313	33.529282
10116.741489	4335.638333	1780.440430	18.660173
10116.741489	4335.638333	1779.435547	-105.606895
10116.741489	4335.638333	1778.429688	-130.019333
10116.741489	4335.638333	1777.424805	-11.849200
10116.741489	4335.638333	1776.418945	15.942113
10116.741489	4335.638333	1775.413086	-8.578637
10116.741489	4335.638333	1774.406250	59.514385
10116.741489	4335.638333	1773.400391	1.677897
10116.741489	4335.638333	1772.393555	121.913673
10116.741489	4335.638333	1771.386719	66.391167
10116.741489	4335.638333	1770.379883	60.700504
10116.741489	4335.638333	1769.373047	62.096867
10116.741489	4335.638333	1768.365234	103.791100
10116.741489	4335.638333	1767.358398	43.430279
10116.741489	4335.638333	1766.350586	11.516331
10116.741489	4335.638333	1765.342773	-34.648746
10116.741489	4335.638333	1764.334961	44.824539
10116.741489	4335.638333	1763.326172	102.895432
10116.741489	4335.638333	1762.318359	-9.727584
10116.741489	4335.638333	1761.309570	90.910721
10116.741489	4335.638333	1760.300781	87.235115
10116.741489	4335.638333	1759.291016	47.993298
10116.741489	4335.638333	1758.282227	60.831070
10116.741489	4335.638333	1757.272461	7.329391
10116.741489	4335.638333	1756.262695	17.726665
10116.741489	4335.638333	1755.252930	11.515474
10116.741489	4335.638333	1754.243164	215.875900
10116.741489	4335.638333	1753.233398	32.111107
10116.741489	4335.638333	1752.222656	-61.735516
10116.741489	4335.638333	1751.211914	-53.888729
10116.741489	4335.638333	1750.201172	-41.352993
10116.741489	4335.638333	1749.190430	23.150459
10116.741489	4335.638333	1748.179688	56.863762
10116.741489	4335.638333	1747.167969	24.354605
10116.741489	4335.638333	1746.156250	22.535141
10116.741489	4335.638333	1745.144531	-130.509201
10116.741489	4335.638333	1744.132813	-115.840942
10116.741489	4335.638333	1743.121094	21.577023
10116.741489	4335.638333	1742.108398	31.409887
10116.741489	4335.638333	1741.095703	88.411331
10116.741489	4335.638333	1740.083008	185.473938
10116.741489	4335.638333	1739.070313	53.578686
10116.741489	4335.638333	1738.057617	-38.197742
10116.741489	4335.638333	1737.043945	58.715961
10116.741489	4335.638333	1736.030273	32.925243
10116.741489	4335.638333	1735.016602	-165.013702
10116.741489	4335.638333	1734.002930	26.049093
10116.741489	4335.638333	1732.989258	-153.033798
10116.741489	4335.638333	1731.974609	14.309794
10116.741489	4335.638333	1730.959961	-39.913124
10116.741489	4335.638333	1729.945313	-37.619469
10116.741489	4335.638333	1728.930664	-80.111877
10116.741489	4335.638333	1727.916016	-103.788712
10116.741489	4335.638333	1726.900391	-103.955391
10116.741489	4335.638333	1725.885742	-40.604309
10116.741489	4335.638333	1724.870117	-130.283951
10116.741489	4335.638333	1723.853516	-102.326820
10116.741489	4335.638333	1722.837891	-126.167938
10116.741489	4335.638333	1721.822266	94.566895
10116.741489	4335.638333	1720.805664	-2.277025
10116.741489	4335.638333	1719.789063	100.718895
10116.741489	4335.638333	1718.772461	-22.019407
10116.741489	4335.638333	1717.754883	-154.152115
10116.741489	4335.638333	1716.738281	110.832977
10116.741489	4335.638333	1715.720703	-110.619041
10116.741489	4335.638333	1714.703125	-120.630371
10116.741489	4335.638333	1713.685547	-10.908364
10116.741489	4335.638333	1712.667969	-147.794128
10116.741489	4335.638333	1711.649414	-103.912865
10116.741489	4335.638333	1710.630859	43.183708
10116.741489	4335.638333	1709.612305	-51.506657
10116.741489	4335.638333	1708.593750	71.991837
10116.741489	4335.638333	1707.575195	26.520227
10116.741489	4335.638333	1706.555664	-21.317795
10116.741489	4335.638333	1705.536133	12.893995
10116.741489	4335.638333	1704.516602	42.369701
10116.741489	4335.638333	1703.497070	104.613464
10116.741489	4335.638333	1702.477539	-121.439896
10116.741489	4335.638333	1701.457031	-129.549118
10116.741489	4335.638333	1700.437500	-69.752159
10116.741489	4335.638333	1699.416992	-0.647815
10116.741489	4335.638333	1698.395508	21.560482
10116.741489	4335.638333	1697.375000	-61.620594
10116.741489	4335.638333	1696.354492	72.883682
10116.741489	4335.638333	1695.333008	-52.469254
10116.741489	4335.638333	1694.311523	163.806061
10116.741489	4335.638333	1693.290039	139.012161
10116.741489	4335.638333	1692.267578	-33.159706
10116.741489	4335.638333	1691.246094	89.353668
10116.741489	4335.638333	1690.223633	115.926163
10116.741489	4335.638333	1689.201172	-44.547413
10116.741489	4335.638333	1688.178711	-46.066250
10116.741489	4335.638333	1687.155273	104.264397
10116.741489	4335.638333	1686.132813	86.303932
10116.741489	4335.638333	1685.109375	2.914759
10116.741489	4335.638333	1684.085938	5.935205
10116.741489	4335.638333	1683.062500	-5.083115
10116.741489	4335.638333	1682.039063	-13.792198
10116.741489	4335.638333	1681.014648	-31.866266
10116.741489	4335.638333	1679.990234	-31.293039
10116.741489	4335.638333	1678.965820	-47.079475
10116.741489	4335.638333	1677.941406	2.426155
10116.741489	4335.638333	1676.916992	142.840439
10116.741489	4335.638333	1675.891602	-22.285868
10116.741489	4335.638333	1674.866211	104.033806
10116.741489	4335.638333	1673.840820	69.452667
10116.741489	4335.638333	1672.815430	-23.399990
10116.741489	4335.638333	1671.790039	-9.065772
10116.741489	4335.638333	1670.763672	-106.581390
10116.741489	4335.638333	1669.737305	49.780071
10116.741489	4335.638333	1668.710938	122.228485
10116.741489	4335.638333	1667.684570	106.156349
10116.741489	4335.638333	1666.658203	17.909283
10116.741489	4335.638333	1665.630859	94.902161
10116.741489	4335.638333	1664.603516	-142.272751
10116.741489	4335.638333	1663.576172	71.929878
10116.741489	4335.638333	1662.548828	123.216545
10116.741489	4335.638333	1661.520508	137.250092
10116.741489	4335.638333	1660.493164	139.638702
10116.741489	4335.638333	1659.464844	200.112915
10116.741489	4335.638333	1658.436523	-118.280754
10116.741489	4335.638333	1657.408203	49.067974
10116.741489	4335.638333	1656.378906	67.644173
10116.741489	4335.638333	1655.350586	72.263710
10116.741489	4335.638333	1654.321289	-13.711668
10116.741489	4335.638333	1653.291992	21.063959
10116.741489	4335.638333	1652.261719	153.302170
10116.741489	4335.638333	1651.232422	55.704685
10116.741489	4335.638333	1650.202148	118.236687
10116.741489	4335.638333	1649.171875	162.168472
10116.741489	4335.638333	1648.141602	194.469254
10116.741489	4335.638333	1647.111328	127.020370
10116.741489	4335.638333	1646.080078	94.357048
10116.741489	4335.638333	1645.049805	124.290085
10116.741489	4335.638333	1644.018555	265.447113
10116.741489	4335.638333	1642.987305	137.724503
10116.741489	4335.638333	1641.955078	160.631104
10116.741489	4335.638333	1640.923828	220.585205
10116.741489	4335.638333	1639.891602	-2.053190
10116.741489	4335.638333	1638.859375	173.658218
10116.741489	4335.638333	1637.827148	340.029480
10116.741489	4335.638333	1636.794922	358.189026
10116.741489	4335.638333	1635.761719	188.875183
10116.741489	4335.638333	1634.729492	426.844208
10116.741489	4335.638333	1633.696289	329.276337
10116.741489	4335.638333	1632.662109	349.688629
10116.741489	4335.638333	1631.628906	305.343353
10116.741489	4335.638333	1630.594727	351.168671
10116.741489	4335.638333	1629.561523	387.728577
10116.741489	4335.638333	1628.527344	232.444489
10116.741489	4335.638333	1627.493164	409.942383
10116.741489	4335.638333	1626.458008	492.644135
10116.741489	4335.638333	1625.423828	346.652832
10116.741489	4335.638333	1624.388672	493.984528
10116.741489	4335.638333	1623.353516	454.240845
10116.741489	4335.638333	1622.318359	513.768982
10116.741489	4335.638333	1621.282227	462.484955
10116.741489	4335.638333	1620.247070	602.744751
10116.741489	4335.638333	1619.210938	214.634796
10116.741489	4335.638333	1618.174805	299.521332
10116.741489	4335.638333	1617.137695	587.306763
10116.741489	4335.638333	1616.101563	489.937805
10116.741489	4335.638333	1615.064453	406.432648
10116.741489	4335.638333	1614.027344	624.886963
10116.741489	4335.638333	1612.990234	465.347168
10116.741489	4335.638333	1611.953125	614.591125
10116.741489	4335.638333	1610.916016	427.477783
10116.741489	4335.638333	1609.877930	507.581329
10116.741489	4335.638333	1608.839844	573.840332
10116.741489	4335.638333	1607.801758	559.505188
10116.741489	4335.638333	1606.763672	529.067749
10116.741489	4335.638333	1605.724609	641.316162
10116.741489	4335.638333	1604.685547	597.074524
10116.741489	4335.638333	1603.646484	628.766296
10116.741489	4335.638333	1602.607422	605.255249
10116.741489	4335.638333	1601.568359	666.837830
10116.741489	4335.638333	1600.528320	569.771851
10116.741489	4335.638333	1599.489258	665.829224
10116.741489	4335.638333	1598.449219	690.613220
10116.741489	4335.638333	1597.408203	662.547180
10116.741489	4335.638333	1596.368164	813.683105
10116.741489	4335.638333	1595.327148	606.479797
10116.741489	4335.638333	1594.287109	810.402344
10116.741489	4335.638333	1593.246094	685.950623
10116.741489	4335.638333	1592.204102	765.839905
10116.741489	4335.638333	1591.163086	841.126099
10116.741489	4335.638333	1590.121094	771.839355
10116.741489	4335.638333	1589.079102	723.238281
10116.741489	4335.638333	1588.037109	768.705261
10116.741489	4335.638333	1586.995117	720.151855
10116.741489	4335.638333	1585.953125	788.556152
10116.741489	4335.638333	1584.910156	623.139160
10116.741489	4335.638333	1583.867188	565.514832
10116.741489	4335.638333	1582.824219	654.573364
10116.741489	4335.638333	1581.781250	658.851379
10116.741489	4335.638333	1580.737305	715.818909
10116.741489	4335.638333	1579.693359	507.145660
10116.741489	4335.638333	1578.649414	628.263672
10116.741489	4335.638333	1577.605469	618.874634
10116.741489	4335.638333	1576.561523	687.321777
10116.741489	4335.638333	1575.516602	439.988434
10116.741489	4335.638333	1574.472656	773.860474
10116.741489	4335.638333	1573.427734	517.498840
10116.741489	4335.638333	1572.381836	647.727417
10116.741489	4335.638333	1571.336914	462.410797
10116.741489	4335.638333	1570.291016	496.634583
10116.741489	4335.638333	1569.246094	540.013306
10116.741489	4335.638333	1568.200195	578.823975
10116.741489	4335.638333	1567.153320	519.400208
10116.741489	4335.638333	1566.107422	446.323181
10116.741489	4335.638333	1565.060547	400.699219
10116.741489	4335.638333	1564.013672	594.859619
10116.741489	4335.638333	1562.966797	649.717896
10116.741489	4335.638333	1561.919922	547.097900
10116.741489	4335.638333	1560.872070	410.311737
10116.741489	4335.638333	1559.825195	472.097626
10116.741489	4335.638333	1558.777344	447.202759
10116.741489	4335.638333	1557.729492	406.382172
10116.741489	4335.638333	1556.680664	452.245087
10116.741489	4335.638333	1555.632813	338.546967
10116.741489	4335.638333	1554.583984	482.469849
10116.741489	4335.638333	1553.535156	425.834015
10116.741489	4335.638333	1552.486328	421.651611
10116.741489	4335.638333	1551.436523	520.000793
10116.741489	4335.638333	1550.387695	427.043976
10116.741489	4335.638333	1549.337891	238.517120
10116.741489	4335.638333	1548.288086	462.148560
10116.741489	4335.638333	1547.238281	383.005157
10116.741489	4335.638333	1546.187500	333.504059
10116.741489	4335.638333	1545.136719	359.137177
10116.741489	4335.638333	1544.086914	396.171692
10116.741489	4335.638333	1543.035156	187.594803
10116.741489	4335.638333	1541.984375	292.926971
10116.741489	4335.638333	1540.933594	189.101974
10116.741489	4335.638333	1539.881836	228.544022
10116.741489	4335.638333	1538.830078	208.921585
10116.741489	4335.638333	1537.778320	298.400055
10116.741489	4335.638333	1536.725586	415.136169
10116.741489	4335.638333	1535.673828	368.344055
10116.741489	4335.638333	1534.621094	221.693207
10116.741489	4335.638333	1533.568359	86.488602
10116.741489	4335.638333	1532.515625	241.911285
10116.741489	4335.638333	1531.461914	156.754837
10116.741489	4335.638333	1530.409180	212.347260
10116.741489	4335.638333	1529.355469	159.067413
10116.741489	4335.638333	1528.301758	176.156570
10116.741489	4335.638333	1527.247070	5.068649
10116.741489	4335.638333	1526.193359	81.206505
10116.741489	4335.638333	1525.138672	139.218811
10116.741489	4335.638333	1524.083984	240.307648
10116.741489	4335.638333	1523.029297	148.807312
10116.741489	4335.638333	1521.974609	134.405655
10116.741489	4335.638333	1520.918945	27.189568
10116.741489	4335.638333	1519.863281	110.270142
10116.741489	4335.638333	1518.807617	39.410385
10116.741489	4335.638333	1517.751953	188.183853
10116.741489	4335.638333	1516.696289	269.049835
10116.741489	4335.638333	1515.639648	272.994843
10116.741489	4335.638333	1514.583008	125.416840
10116.741489	4335.638333	1513.526367	86.505577
10116.741489	4335.638333	1512.469727	101.924431
10116.741489	4335.638333	1511.412109	-13.748130
10116.741489	4335.638333	1510.355469	28.901180
10116.741489	4335.638333	1509.297852	71.575935
10116.741489	4335.638333	1508.240234	-68.739281
10116.741489	4335.638333	1507.181641	-127.628914
10116.741489	4335.638333	1506.124023	-55.446659
10116.741489	4335.638333	1505.065430	-163.900711
10116.741489	4335.638333	1504.006836	48.330231
10116.741489	4335.638333	1502.948242	208.607742
10116.741489	4335.638333	1501.888672	10.033142
10116.741489	4335.638333	1500.830078	64.302048
10116.741489	4335.638333	1499.770508	62.196945
10116.741489	4335.638333	1498.710938	139.083801
10116.741489	4335.638333	1497.650391	82.940063
10116.741489	4335.638333	1496.590820	-72.331017
10116.741489	4335.638333	1495.530273	29.477230
10116.741489	4335.638333	1494.469727	-21.954985
10116.741489	4335.638333	1493.409180	-3.466316
10116.741489	4335.638333	1492.348633	-16.473553
10116.741489	4335.638333	1491.287109	-74.473595
10116.741489	4335.638333	1490.225586	-105.377251
10116.741489	4335.638333	1489.164063	158.720932
10116.741489	4335.638333	1488.102539	69.359253
10116.741489	4335.638333	1487.041016	13.843528
10116.741489	4335.638333	1485.978516	-190.106110
10116.741489	4335.638333	1484.916016	-18.229851
10116.741489	4335.638333	1483.853516	-143.267746
10116.741489	4335.638333	1482.791016	102.837967
10116.741489	4335.638333	1481.727539	148.798798
10116.741489	4335.638333	1480.664063	-74.916649
10116.741489	4335.638333	1479.600586	29.590200
10116.741489	4335.638333	1478.537109	-61.365078
10116.741489	4335.638333	1477.473633	-161.159302
10116.741489	4335.638333	1476.409180	-2.680348
10116.741489	4335.638333	1475.344727	-133.758728
10116.741489	4335.638333	1474.280273	47.177956
10116.741489	4335.638333	1473.215820	37.482349
10116.741489	4335.638333	1472.151367	43.350864
10116.741489	4335.638333	1471.085938	116.747406
10116.741489	4335.638333	1470.020508	205.726944
10116.741489	4335.638333	1468.955078	156.009293
10116.741489	4335.638333	1467.888672	150.907135
10116.741489	4335.638333	1466.823242	275.659698
10116.741489	4335.638333	1465.756836	212.436218
10116.741489	4335.638333	1464.690430	238.957428
10116.741489	4335.638333	1463.624023	144.816162
10116.741489	4335.638333	1462.556641	276.515747
10116.741489	4335.638333	1461.490234	343.463806
10116.741489	4335.638333	1460.422852	443.928772
10116.741489	4335.638333	1459.355469	273.454254
10116.741489	4335.638333	1458.287109	242.612152
10116.741489	4335.638333	1457.219727	338.741302
10116.741489	4335.638333	1456.151367	400.403442
10116.741489	4335.638333	1455.083008	202.074646
10116.741489	4335.638333	1454.014648	191.325226
10116.741489	4335.638333	1452.945313	185.034943
10116.741489	4335.638333	1451.876953	152.318436
10116.741489	4335.638333	1450.807617	166.104187
10116.741489	4335.638333	1449.738281	273.026123
10116.741489	4335.638333	1448.668945	377.607727
10116.741489	4335.638333	1447.598633	330.252380
10116.741489	4335.638333	1446.528320	322.884918
10116.741489	4335.638333	1445.458008	382.848114
10116.741489	4335.638333	1444.387695	103.478813
10116.741489	4335.638333	1443.317383	424.412811
10116.741489	4335.638333	1442.246094	141.491196
10116.741489	4335.638333	1441.174805	404.831909
10116.741489	4335.638333	1440.103516	423.210266
10116.741489	4335.638333	1439.032227	494.773712
10116.741489	4335.638333	1437.960938	397.948944
10116.741489	4335.638333	1436.888672	72.694565
10116.741489	4335.638333	1435.816406	265.080322
10116.741489	4335.638333	1434.744141	184.355148
10116.741489	4335.638333	1433.670898	216.266846
10116.741489	4335.638333	1432.598633	316.073639
10116.741489	4335.638333	1431.525391	134.027023
10116.741489	4335.638333	1430.452148	127.481628
10116.741489	4335.638333	1429.378906	275.707886
10116.741489	4335.638333	1428.304688	85.534882
10116.741489	4335.638333	1427.231445	9.381384
10116.741489	4335.638333	1426.157227	2.982830
10116.741489	4335.638333	1425.083008	52.341991
10116.741489	4335.638333	1424.007813	41.700233
10116.741489	4335.638333	1422.933594	31.270849
10116.741489	4335.638333	1421.858398	68.746674
10116.741489	4335.638333	1420.783203	65.833397
10116.741489	4335.638333	1419.708008	-47.163452
10116.741489	4335.638333	1418.631836	-150.786453
10116.741489	4335.638333	1417.555664	171.292969
10116.741489	4335.638333	1416.479492	207.650818
10116.741489	4335.638333	1415.403320	-60.921021
10116.741489	4335.638333	1414.327148	-38.836773
10116.741489	4335.638333	1413.250000	-68.098747
10116.741489	4335.638333	1412.173828	6.446691
10116.741489	4335.638333	1411.096680	104.363472
10116.741489	4335.638333	1410.018555	48.372288
10116.741489	4335.638333	1408.941406	69.660637
10116.741489	4335.638333	1407.863281	-27.436758
10116.741489	4335.638333	1406.785156	-76.650482
10116.741489	4335.638333	1405.707031	-75.308838
10116.741489	4335.638333	1404.628906	20.661224
10116.741489	4335.638333	1403.549805	9.677734
10116.741489	4335.638333	1402.470703	179.586060
10116.741489	4335.638333	1401.391602	70.963142
10116.741489	4335.638333	1400.312500	56.500206
10116.741489	4335.638333	1399.233398	-51.621326
10116.741489	4335.638333	1398.153320	-92.309380
10116.741489	4335.638333	1397.073242	-205.061630
10116.741489	4335.638333	1395.993164	-67.842148
10116.741489	4335.638333	1394.913086	82.037308
10116.741489	4335.638333	1393.832031	-23.811481
10116.741489	4335.638333	1392.750977	122.943687
10116.741489	4335.638333	1391.669922	138.793793
10116.741489	4335.638333	1390.588867	75.259102
10116.741489	4335.638333	1389.506836	118.678123
10116.741489	4335.638333	1388.425781	42.850704
10116.741489	4335.638333	1387.343750	88.080109
10116.741489	4335.638333	1386.261719	38.075203
10116.741489	4335.638333	1385.178711	142.638519
10116.741489	4335.638333	1384.096680	105.796074
10116.741489	4335.638333	1383.013672	108.564392
10116.741489	4335.638333	1381.930664	142.651154
10116.741489	4335.638333	1380.846680	-19.725912
10116.741489	4335.638333	1379.763672	-28.426886
10116.741489	4335.638333	1378.679688	-25.573584
10116.741489	4335.638333	1377.595703	159.360809
10116.741489	4335.638333	1376.511719	-72.950165
10116.741489	4335.638333	1375.427734	145.275436
10116.741489	4335.638333	1374.342773	180.991928
10116.741489	4335.638333	1373.257813	133.232773
10116.741489	4335.638333	1372.172852	29.527948
10116.741489	4335.638333	1371.087891	203.105667
10116.741489	4335.638333	1370.001953	191.014145
10116.741489	4335.638333	1368.916992	91.954895
10116.741489	4335.638333	1367.831055	-15.688188
10116.741489	4335.638333	1366.744141	166.682358
10116.741489	4335.638333	1365.658203	192.509003
10116.741489	4335.638333	1364.571289	345.598724
10116.741489	4335.638333	1363.484375	238.263840
10116.741489	4335.638333	1362.397461	128.047043
10116.741489	4335.638333	1361.310547	200.038803
10116.741489	4335.638333	1360.222656	234.690994
10116.741489	4335.638333	1359.135742	197.035431
10116.741489	4335.638333	1358.047852	310.490875
10116.741489	4335.638333	1356.958984	29.903778
10116.741489	4335.638333	1355.871094	291.993195
10116.741489	4335.638333	1354.782227	220.878357
10116.741489	4335.638333	1353.693359	457.468842
10116.741489	4335.638333	1352.604492	322.137360
10116.741489	4335.638333	1351.515625	378.358154
10116.741489	4335.638333	1350.425781	187.267044
10116.741489	4335.638333	1349.335938	248.712906
10116.741489	4335.638333	1348.246094	338.318451
10116.741489	4335.638333	1347.156250	322.771790
10116.741489	4335.638333	1346.066406	363.232697
10116.741489	4335.638333	1344.975586	169.699448
10116.741489	4335.638333	1343.884766	-134.046646
10116.741489	4335.638333	1342.793945	136.955002
10116.741489	4335.638333	1341.702148	111.131454
10116.741489	4335.638333	1340.611328	73.255394
10116.741489	4335.638333	1339.519531	159.440155
10116.741489	4335.638333	1338.427734	159.050888
10116.741489	4335.638333	1337.334961	144.166138
10116.741489	4335.638333	1336.243164	71.645233
10116.741489	4335.638333	1335.150391	200.479706
10116.741489	4335.638333	1334.057617	-68.727180
10116.741489	4335.638333	1332.964844	-50.618401
10116.741489	4335.638333	1331.871094	131.440430
10116.741489	4335.638333	1330.778320	-16.126268
10116.741489	4335.638333	1329.684570	115.889153
10116.741489	4335.638333	1328.590820	80.413040
10116.741489	4335.638333	1327.496094	16.396292
10116.741489	4335.638333	1326.402344	72.654678
10116.741489	4335.638333	1325.307617	-1.227934
10116.741489	4335.638333	1324.212891	126.995956
10116.741489	4335.638333	1323.117188	131.269547
10116.741489	4335.638333	1322.022461	-2.441235
10116.741489	4335.638333	1320.926758	34.565853
10116.741489	4335.638333	1319.831055	-69.765511
10116.741489	4335.638333	1318.735352	55.666794
10116.741489	4335.638333	1317.638672	84.090263
10116.741489	4335.638333	1316.542969	-51.784328
10116.741489	4335.638333	1315.446289	53.380283
10116.741489	4335.638333	1314.349609	24.116508
10116.741489	4335.638333	1313.251953	-5.430095
10116.741489	4335.638333	1312.155273	-119.379051
10116.741489	4335.638333	1311.057617	-69.238586
10116.741489	4335.638333	1309.959961	-9.645352
10116.741489	4335.638333	1308.862305	-63.649586
10116.741489	4335.638333	1307.763672	-37.536266
10116.741489	4335.638333	1306.665039	-57.332748
10116.741489	4335.638333	1305.566406	13.711510
10116.741489	4335.638333	1304.467773	86.552132
10116.741489	4335.638333	1303.369141	17.057835
10116.741489	4335.638333	1302.269531	98.507202
10116.741489	4335.638333	1301.169922	60.805393
10116.741489	4335.638333	1300.070313	-7.502136
10116.741489	4335.638333	1298.970703	96.892776
10116.741489	4335.638333	1297.870117	60.238525
10116.741489	4335.638333	1296.769531	34.915768
10116.741489	4335.638333	1295.668945	166.590073
10116.741489	4335.638333	1294.568359	102.581322
10116.741489	4335.638333	1293.466797	146.532516
10116.741489	4335.638333	1292.366211	188.388779
10116.741489	4335.638333	1291.264648	155.759811
10116.741489	4335.638333	1290.162109	168.079788
10116.741489	4335.638333	1289.060547	133.258575
10116.741489	4335.638333	1287.958008	75.696983
10116.741489	4335.638333	1286.855469	133.702255
10116.741489	4335.638333	1285.752930	74.474159
10116.741489	4335.638333	1284.650391	152.833527
10116.741489	4335.638333	1283.546875	80.537773
10116.741489	4335.638333	1282.444336	81.275856
10116.741489	4335.638333	1281.339844	164.342407
10116.741489	4335.638333	1280.236328	53.763191
10116.741489	4335.638333	1279.132813	92.903069
10116.741489	4335.638333	1278.028320	146.095673
10116.741489	4335.638333	1276.923828	82.167664
10116.741489	4335.638333	1275.819336	7.887124
10116.741489	4335.638333	1274.713867	104.554550
10116.741489	4335.638333	1273.608398	127.520950
10116.741489	4335.638333	1272.503906	33.066978
10116.741489	4335.638333	1271.397461	48.196575
10116.741489	4335.638333	1270.291992	-91.967148
10116.741489	4335.638333	1269.185547	-26.655722
10116.741489	4335.638333	1268.080078	-19.182453
10116.741489	4335.638333	1266.972656	19.331724
10116.741489	4335.638333	1265.866211	-20.309534
10116.741489	4335.638333	1264.759766	-68.355484
10116.741489	4335.638333	1263.652344	-34.527027
10116.741489	4335.638333	1262.544922	72.452522
10116.741489	4335.638333	1261.436523	-154.333023
10116.741489	4335.638333	1260.329102	18.138844
10116.741489	4335.638333	1259.220703	28.086950
10116.741489	4335.638333	1258.112305	-19.420534
10116.741489	4335.638333	1257.003906	-26.357670
10116.741489	4335.638333	1255.895508	-106.424591
10116.741489	4335.638333	1254.786133	-83.410507
10116.741489	4335.638333	1253.676758	-154.036316
10116.741489	4335.638333	1252.567383	-36.774143
10116.741489	4335.638333	1251.458008	-107.080452
10116.741489	4335.638333	1250.347656	7.514360
10116.741489	4335.638333	1249.237305	48.107235
10116.741489	4335.638333	1248.126953	-15.932127
10116.741489	4335.638333	1247.016602	10.775252
10116.741489	4335.638333	1245.905273	-98.698471
10116.741489	4335.638333	1244.793945	-36.081074
10116.741489	4335.638333	1243.682617	-63.399323
10116.741489	4335.638333	1242.571289	-50.306953
10116.741489	4335.638333	1241.459961	42.919739
10116.741489	4335.638333	1240.347656	53.841698
10116.741489	4335.638333	1239.235352	-78.186813
10116.741489	4335.638333	1238.123047	-104.520699
10116.741489	4335.638333	1237.009766	4.896106
10116.741489	4335.638333	1235.897461	-3.183511
10116.741489	4335.638333	1234.784180	-48.308167
10116.741489	4335.638333	1233.670898	-90.402397
10116.741489	4335.638333	1232.556641	-129.488754
10116.741489	4335.638333	1231.443359	-45.339237
10116.741489	4335.638333	1230.329102	-54.367699
10116.741489	4335.638333	1229.214844	22.101437
10116.741489	4335.638333	1228.099609	-74.121872
10116.741489	4335.638333	1226.985352	-48.050308
10116.741489	4335.638333	1225.870117	-3.645600
10116.741489	4335.638333	1224.754883	17.372831
10116.741489	4335.638333	1223.639648	58.752655
10116.741489	4335.638333	1222.523438	13.629491
10116.741489	4335.638333	1221.408203	-36.827637
10116.741489	4335.638333	1220.291992	21.895575
10116.741489	4335.638333	1219.174805	36.597557
10116.741489	4335.638333	1218.058594	62.125599
10116.741489	4335.638333	1216.941406	2.417799
10116.741489	4335.638333	1215.824219	-23.128012
10116.741489	4335.638333	1214.707031	-117.231926
10116.741489	4335.638333	1213.589844	49.723381
10116.741489	4335.638333	1212.471680	-71.179741
10116.741489	4335.638333	1211.353516	-75.826630
10116.741489	4335.638333	1210.235352	-51.368011
10116.741489	4335.638333	1209.117188	53.794384
10116.741489	4335.638333	1207.998047	12.857150
10116.741489	4335.638333	1206.878906	-29.254946
10116.741489	4335.638333	1205.759766	-32.183357
10116.741489	4335.638333	1204.640625	-102.276566
10116.741489	4335.638333	1203.520508	2.003778
10116.741489	4335.638333	1202.401367	-60.283329
10116.741489	4335.638333	1201.281250	-49.753235
10116.741489	4335.638333	1200.160156	63.210400
10116.741489	4335.638333	1199.040039	-20.457380
10116.741489	4335.638333	1197.918945	10.557217
10116.741489	4335.638333	1196.797852	0.565803
10116.741489	4335.638333	1195.676758	75.618355
10116.741489	4335.638333	1194.555664	-9.015918
10116.741489	4335.638333	1193.433594	9.094816
10116.741489	4335.638333	1192.311523	150.726578
10116.741489	4335.638333	1191.189453	21.875650
10116.741489	4335.638333	1190.066406	-141.603821
10116.741489	4335.638333	1188.944336	-29.866856
10116.741489	4335.638333	1187.821289	-44.173607
10116.741489	4335.638333	1186.698242	98.323814
10116.741489	4335.638333	1185.574219	-58.816391
10116.741489	4335.638333	1184.451172	-138.008392
10116.741489	4335.638333	1183.327148	4.019794
10116.741489	4335.638333	1182.203125	-36.605572
10116.741489	4335.638333	1181.078125	25.012051
10116.741489	4335.638333	1179.954102	-42.333851
10116.741489	4335.638333	1178.829102	82.328285
10116.741489	4335.638333	1177.704102	9.032524
10116.741489	4335.638333	1176.579102	14.137006
10116.741489	4335.638333	1175.453125	-6.022843
10116.741489	4335.638333	1174.327148	28.946486
10116.741489	4335.638333	1173.201172	48.492001
10116.741489	4335.638333	1172.075195	24.000658
10116.741489	4335.638333	1170.949219	-97.179153
10116.741489	4335.638333	1169.822266	-14.626639
10116.741489	4335.638333	1168.695313	-5.600522
10116.741489	4335.638333	1167.568359	-98.830536
10116.741489	4335.638333	1166.440430	-72.106857
10116.741489	4335.638333	1165.313477	-55.998775
10116.741489	4335.638333	1164.185547	-74.128914
10116.741489	4335.638333	1163.057617	-34.889668
10116.741489	4335.638333	1161.928711	-81.145027
10116.741489	4335.638333	1160.800781	-4.508045
10116.741489	4335.638333	1159.671875	-25.881271
10116.741489	4335.638333	1158.541992	1.964025
10116.741489	4335.638333	1157.413086	-88.155884
10116.741489	4335.638333	1156.283203	-52.758411
10116.741489	4335.638333	1155.154297	-8.248873
10116.741489	4335.638333	1154.023438	93.407372
10116.741489	4335.638333	1152.893555	-5.463874
10116.741489	4335.638333	1151.763672	-93.792587
10116.741489	4335.638333	1150.632813	-2.008352
10116.741489	4335.638333	1149.501953	-3.384634
10116.741489	4335.638333	1148.370117	-111.573219
10116.741489	4335.638333	1147.239258	62.841206
10116.741489	4335.638333	1146.107422	-62.444267
10116.741489	4335.638333	1144.975586	26.688587
10116.741489	4335.638333	1143.843750	-61.515274
10116.741489	4335.638333	1142.710938	-37.672089
10116.741489	4335.638333	1141.578125	-57.679653
10116.741489	4335.638333	1140.445313	-85.979530
10116.741489	4335.638333	1139.312500	70.220116
10116.741489	4335.638333	1138.178711	-23.629641
10116.741489	4335.638333	1137.045898	-45.387451
10116.741489	4335.638333	1135.912109	94.628738
10116.741489	4335.638333	1134.777344	47.174088
10116.741489	4335.638333	1133.643555	7.151328
10116.741489	4335.638333	1132.508789	175.693558
10116.741489	4335.638333	1131.374023	94.899796
10116.741489	4335.638333	1130.239258	56.826077
10116.741489	4335.638333	1129.104492	-10.484267
10116.741489	4335.638333	1127.968750	27.884991
10116.741489	4335.638333	1126.833008	20.615009
10116.741489	4335.638333	1125.697266	294.184692
10116.741489	4335.638333	1124.560547	98.685478
10116.741489	4335.638333	1123.424805	119.629456
10116.741489	4335.638333	1122.288086	62.504299
10116.741489	4335.638333	1121.151367	140.983994
10116.741489	4335.638333	1120.013672	127.338593
10116.741489	4335.638333	1118.876953	128.101898
10116.741489	4335.638333	1117.739258	234.945969
10116.741489	4335.638333	1116.601563	123.217728
10116.741489	4335.638333	1115.462891	154.308762
10116.741489	4335.638333	1114.324219	-14.420732
10116.741489	4335.638333	1113.186523	-39.683723
10116.741489	4335.638333	1112.046875	36.671566
10116.741489	4335.638333	1110.908203	98.672928
10116.741489	4335.638333	1109.769531	34.350079
10116.741489	4335.638333	1108.629883	51.176014
10116.741489	4335.638333	1107.490234	84.335304
10116.741489	4335.638333	1106.349609	-27.736221
10116.741489	4335.638333	1105.209961	30.589130
10116.741489	4335.638333	1104.069336	34.156681
10116.741489	4335.638333	1102.928711	159.259033
10116.741489	4335.638333	1101.787109	-24.047951
10116.741489	4335.638333	1100.646484	82.269394
10116.741489	4335.638333	1099.504883	189.011780
10116.741489	4335.638333	1098.363281	35.769749
10116.741489	4335.638333	1097.221680	203.350922
10116.741489	4335.638333	1096.079102	91.251480
10116.741489	4335.638333	1094.936523	73.488831
10116.741489	4335.638333	1093.793945	176.947250
10116.741489	4335.638333	1092.651367	264.016357
10116.741489	4335.638333	1091.507813	88.430565
10116.741489	4335.638333	1090.364258	6.278172
10116.741489	4335.638333	1089.220703	62.926876
10116.741489	4335.638333	1088.077148	132.344940
10116.741489	4335.638333	1086.933594	-73.431480
10116.741489	4335.638333	1085.789063	256.879700
10116.741489	4335.638333	1084.644531	157.051559
10116.741489	4335.638333	1083.499023	72.137146
10116.741489	4335.638333	1082.354492	22.808218
10116.741489	4335.638333	1081.208984	-21.130424
10116.741489	4335.638333	1080.063477	39.883945
10116.741489	4335.638333	1078.917969	76.875771
10116.741489	4335.638333	1077.771484	-2.410111
10116.741489	4335.638333	1076.625977	37.231060
10116.741489	4335.638333	1075.479492	-2.251634
10116.741489	4335.638333	1074.332031	51.284359
10116.741489	4335.638333	1073.185547	248.499527
10116.741489	4335.638333	1072.038086	75.517113
10116.741489	4335.638333	1070.890625	143.831238
10116.741489	4335.638333	1069.743164	173.735413
10116.741489	4335.638333	1068.594727	81.887878
10116.741489	4335.638333	1067.447266	119.222328
10116.741489	4335.638333	1066.298828	131.748978
10116.741489	4335.638333	1065.149414	-10.994555
10116.741489	4335.638333	1064.000977	55.698528
10116.741489	4335.638333	1062.851563	204.503357
10116.741489	4335.638333	1061.702148	63.702332
10116.741489	4335.638333	1060.552734	27.037256
10116.741489	4335.638333	1059.402344	203.521637
10116.741489	4335.638333	1058.252930	121.540298
10116.741489	4335.638333	1057.102539	164.068909
10116.741489	4335.638333	1055.951172	149.931686
10116.741489	4335.638333	1054.800781	263.297302
10116.741489	4335.638333	1053.649414	163.375183
10116.741489	4335.638333	1052.498047	161.803421
10116.741489	4335.638333	1051.346680	142.052338
10116.741489	4335.638333	1050.194336	51.036167
10116.741489	4335.638333	1049.042969	122.130363
10116.741489	4335.638333	1047.890625	225.928375
10116.741489	4335.638333	1046.738281	-68.392471
10116.741489	4335.638333	1045.584961	97.318764
10116.741489	4335.638333	1044.431641	51.319519
10116.741489	4335.638333	1043.278320	77.149467
10116.741489	4335.638333	1042.125000	143.956192
10116.741489	4335.638333	1040.971680	-83.674240
10116.741489	4335.638333	1039.817383	90.955887
10116.741489	4335.638333	1038.663086	214.885880
10116.741489	4335.638333	1037.508789	126.475731
10116.741489	4335.638333	1036.353516	101.594002
10116.741489	4335.638333	1035.198242	188.449509
10116.741489	4335.638333	1034.042969	101.350006
10116.741489	4335.638333	1032.887695	120.958717
10116.741489	4335.638333	1031.732422	140.315826
10116.741489	4335.638333	1030.576172	7.950434
10116.741489	4335.638333	1029.419922	99.327820
10116.741489	4335.638333	1028.263672	98.407127
10116.741489	4335.638333	1027.106445	67.472267
10116.741489	4335.638333	1025.949219	-54.606617
10116.741489	4335.638333	1024.792969	50.825397
10116.741489	4335.638333	1023.634766	-29.682629
10116.741489	4335.638333	1022.477539	-54.969486
10116.741489	4335.638333	1021.319336	-58.009640
10116.741489	4335.638333	1020.161133	82.328415
10116.741489	4335.638333	1019.002930	-21.189043
10116.741489	4335.638333	1017.843750	-49.963322
10116.741489	4335.638333	1016.684570	-211.007874
10116.741489	4335.638333	1015.525391	10.367416
10116.741489	4335.638333	1014.366211	70.787224
10116.741489	4335.638333	1013.207031	-161.403564
10116.741489	4335.638333	1012.046875	36.185665
10116.741489	4335.638333	1010.886719	141.131393
10116.741489	4335.638333	1009.726563	-19.921654
10116.741489	4335.638333	1008.565430	-94.397408
10116.741489	4335.638333	1007.404297	19.084417
10116.741489	4335.638333	1006.243164	-86.986259
10116.741489	4335.638333	1005.082031	161.316528
10116.741489	4335.638333	1003.920898	72.306923
10116.741489	4335.638333	1002.758789	64.241081
10116.741489	4335.638333	1001.596680	108.051651
10116.741489	4335.638333	1000.433594	86.898064
10116.741489	4335.638333	999.271484	-34.963337
10116.741489	4335.638333	998.108398	-46.880844
10116.741489	4335.638333	996.945313	69.792122
10116.741489	4335.638333	995.782227	129.983490
10116.741489	4335.638333	994.618164	106.711494
10116.741489	4335.638333	993.454102	16.339571
10116.741489	4335.638333	992.290039	72.436272
10116.741489	4335.638333	991.125977	100.507645
10116.741489	4335.638333	989.960938	257.853607
10116.741489	4335.638333	988.796875	254.791367
10116.741489	4335.638333	987.630859	102.965858
10116.741489	4335.638333	986.465820	208.802841
10116.741489	4335.638333	985.300781	212.691101
10116.741489	4335.638333	984.134766	103.859642
10116.741489	4335.638333	982.968750	74.884476
10116.741489	4335.638333	981.801758	127.500473
10116.741489	4335.638333	980.635742	46.433769
10116.741489	4335.638333	979.468750	-115.072189
10116.741489	4335.638333	978.301758	-34.627380
10116.741489	4335.638333	977.133789	195.310623
10116.741489	4335.638333	975.966797	31.368971
10116.741489	4335.638333	974.798828	-256.441437
10116.741489	4335.638333	973.630859	-42.465401
10116.741489	4335.638333	972.461914	63.962025
10116.741489	4335.638333	971.293945	-66.922516
10116.741489	4335.638333	970.125000	39.056297
10116.741489	4335.638333	968.956055	107.496132
10116.741489	4335.638333	967.786133	14.969071
10116.741489	4335.638333	966.617188	135.307114
10116.741489	4335.638333	965.447266	-79.851677
10116.741489	4335.638333	964.276367	-89.567207
10116.741489	4335.638333	963.106445	-7.302796
10116.741489	4335.638333	961.935547	-87.236862
10116.741489	4335.638333	960.764648	25.334326
10116.741489	4335.638333	959.593750	137.358719
10116.741489	4335.638333	958.422852	1.576733
10116.741489	4335.638333	957.250977	-15.905025
10116.741489	4335.638333	956.079102	99.181206
10116.741489	4335.638333	954.907227	230.890778
10116.741489	4335.638333	953.734375	-24.807913
10116.741489	4335.638333	952.562500	23.506315
10116.741489	4335.638333	951.389648	-52.408680
10116.741489	4335.638333	950.215820	69.731911
10116.741489	4335.638333	949.042969	-26.227306
10116.741489	4335.638333	947.869141	47.724377
10116.741489	4335.638333	946.695313	75.317215
10116.741489	4335.638333	945.521484	-92.079468
10116.741489	4335.638333	944.346680	40.459633
10116.741489	4335.638333	943.172852	147.080994
10116.741489	4335.638333	941.998047	-12.779519
10116.741489	4335.638333	940.822266	88.990547
10116.741489	4335.638333	939.647461	33.030899
10116.741489	4335.638333	938.471680	-119.111824
10116.741489	4335.638333	937.295898	-14.681886
10116.741489	4335.638333	936.119141	-100.999680
10116.741489	4335.638333	934.943359	-65.410759
10116.741489	4335.638333	933.766602	107.066483
10116.741489	4335.638333	932.589844	142.658524
10116.741489	4335.638333	931.413086	152.839630
10116.741489	4335.638333	930.235352	198.509567
10116.741489	4335.638333	929.057617	20.937346
10116.741489	4335.638333	927.879883	167.974167
10116.741489	4335.638333	926.702148	94.422928
10116.741489	4335.638333	925.523438	175.477295
10116.741489	4335.638333	924.344727	215.976593
10116.741489	4335.638333	923.166016	-24.850033
10116.741489	4335.638333	921.987305	53.641129
10116.741489	4335.638333	920.807617	-32.561878
10116.741489	4335.638333	919.627930	-31.244686
10116.741489	4335.638333	919.497070	10.570726
10116.741489	4335.638333	918.331055	-7.256459
10116.741489	4335.638333	917.165039	-40.276779
10116.741489	4335.638333	915.999023	-58.107784
10116.741489	4335.638333	914.833008	-177.163895
10116.741489	4335.638333	913.666016	9.954982
10116.741489	4335.638333	912.499023	37.626816
10116.741489	4335.638333	911.332031	105.741867
10116.741489	4335.638333	910.165039	-46.160202
10116.741489	4335.638333	908.997070	-91.833626
10116.741489	4335.638333	907.830078	-188.048889
10116.741489	4335.638333	906.661133	3.841189
10116.741489	4335.638333	905.493164	-115.110146
10116.741489	4335.638333	904.325195	5.940986
10116.741489	4335.638333	903.156250	-62.471619
10116.741489	4335.638333	901.987305	-2.095429
10116.741489	4335.638333	900.818359	-30.106125
10116.741489	4335.638333	899.648438	15.078394
10116.741489	4335.638333	898.478516	128.366928
10116.741489	4335.638333	897.308594	-96.461136
10116.741489	4335.638333	896.138672	54.621151
10116.741489	4335.638333	894.968750	-207.944229
10116.741489	4335.638333	893.797852	109.488739
10116.741489	4335.638333	892.626953	-37.040749
10116.741489	4335.638333	891.456055	81.109474
10116.741489	4335.638333	890.284180	63.137161
10116.741489	4335.638333	889.113281	50.202209
10116.741489	4335.638333	887.941406	57.414379
10116.741489	4335.638333	886.768555	79.725868
10116.741489	4335.638333	885.596680	41.594463
10116.741489	4335.638333	884.423828	308.051270
10116.741489	4335.638333	883.250977	159.139893
10116.741489	4335.638333	882.078125	58.088928
10116.741489	4335.638333	880.905273	52.665993
10116.741489	4335.638333	879.731445	-13.125094
10116.741489	4335.638333	878.557617	11.628932
10116.741489	4335.638333	877.383789	126.872940
10116.741489	4335.638333	876.209961	-52.027294
10116.741489	4335.638333	875.035156	17.932970
10116.741489	4335.638333	873.860352	110.469749
10116.741489	4335.638333	872.685547	155.232498
10116.741489	4335.638333	871.510742	119.600159
10116.741489	4335.638333	870.334961	71.421181
10116.741489	4335.638333	869.159180	-147.459976
10116.741489	4335.638333	867.983398	-203.110184
10116.741489	4335.638333	866.807617	67.486671
10116.741489	4335.638333	865.630859	144.776215
10116.741489	4335.638333	864.454102	28.876322
10116.741489	4335.638333	863.277344	91.079491
10116.741489	4335.638333	862.100586	40.416004
10116.741489	4335.638333	860.922852	-17.754030
10116.741489	4335.638333	859.745117	-93.452843
10116.741489	4335.638333	858.567383	31.342520
10116.741489	4335.638333	857.389648	-119.511017
10116.741489	4335.638333	856.210938	-112.503479
10116.741489	4335.638333	855.032227	-62.933453
10116.741489	4335.638333	853.853516	29.174152
10116.741489	4335.638333	852.674805	71.170387
10116.741489	4335.638333	851.495117	113.141853
10116.741489	4335.638333	850.315430	-110.151909
10116.741489	4335.638333	849.135742	-18.140141
10116.741489	4335.638333	847.956055	-3.712513
10116.741489	4335.638333	846.775391	-179.353745
10116.741489	4335.638333	845.595703	0.100307
10116.741489	4335.638333	844.415039	-95.494568
10116.741489	4335.638333	843.233398	63.860573
10116.741489	4335.638333	842.052734	-99.188133
10116.741489	4335.638333	840.871094	-79.810844
10116.741489	4335.638333	839.689453	-52.957001
10116.741489	4335.638333	838.506836	78.758247
10116.741489	4335.638333	837.325195	-21.775284
10116.741489	4335.638333	836.142578	-44.895302
10116.741489	4335.638333	834.959961	-50.545364
10116.741489	4335.638333	833.777344	86.018120
10116.741489	4335.638333	832.593750	22.951908
10116.741489	4335.638333	831.410156	7.290487
10116.741489	4335.638333	830.226563	-108.114662
10116.741489	4335.638333	829.042969	-76.392517
10116.741489	4335.638333	827.858398	-102.019669
10116.741489	4335.638333	826.673828	-145.089066
10116.741489	4335.638333	825.489258	38.575500
10116.741489	4335.638333	824.304688	-56.833710
10116.741489	4335.638333	823.120117	-32.670292
10116.741489	4335.638333	821.934570	61.192139
10116.741489	4335.638333	820.749023	-36.679173
10116.741489	4335.638333	819.562500	24.771341
10116.741489	4335.638333	818.376953	-50.675701
10116.741489	4335.638333	817.190430	77.905884
10116.741489	4335.638333	816.003906	-126.883461
10116.741489	4335.638333	814.817383	21.535757
10116.741489	4335.638333	813.629883	-123.505081
10116.741489	4335.638333	812.442383	-44.770721
10116.741489	4335.638333	811.254883	-8.330153
10116.741489	4335.638333	810.067383	-53.913475
10116.741489	4335.638333	808.878906	86.833122
10116.741489	4335.638333	807.690430	28.808958
10116.741489	4335.638333	806.501953	-198.064224
10116.741489	4335.638333	805.313477	-121.959412
10116.741489	4335.638333	804.124023	70.768654
10116.741489	4335.638333	802.934570	94.648232
10116.741489	4335.638333	801.745117	-12.997577
10116.741489	4335.638333	800.555664	-53.632313
10116.741489	4335.638333	799.365234	9.906345
10116.741489	4335.638333	798.175781	21.332848
10116.741489	4335.638333	796.985352	-101.131554
10116.741489	4335.638333	795.793945	56.530037
10116.741489	4335.638333	794.603516	57.990627
10116.741489	4335.638333	793.412109	-106.562294
10116.741489	4335.638333	792.220703	-33.257645
10116.741489	4335.638333	791.028320	-93.732513
10116.741489	4335.638333	789.836914	-52.676121
10116.741489	4335.638333	788.644531	35.385540
10116.741489	4335.638333	787.452148	-49.856579
10116.741489	4335.638333	786.258789	-18.773512
10116.741489	4335.638333	785.066406	-5.036345
10116.741489	4335.638333	783.873047	-48.209240
10116.741489	4335.638333	782.679688	-9.769672
10116.741489	4335.638333	781.485352	41.002090
10116.741489	4335.638333	780.291992	44.770008
10116.741489	4335.638333	779.097656	-20.679108
10116.741489	4335.638333	777.903320	-29.284611
10116.741489	4335.638333	776.708008	58.445148
10116.741489	4335.638333	775.512695	-130.508255
10116.741489	4335.638333	774.318359	65.827988
10116.741489	4335.638333	773.122070	59.618118
10116.741489	4335.638333	771.926758	33.646721
10116.741489	4335.638333	770.730469	24.945539
10116.741489	4335.638333	769.534180	28.567482
10116.741489	4335.638333	768.337891	83.974747
10116.741489	4335.638333	767.141602	25.890753
10116.741489	4335.638333	765.944336	243.984772
10116.741489	4335.638333	764.747070	40.403973
10116.741489	4335.638333	763.549805	68.580292
10116.741489	4335.638333	762.351563	121.369461
10116.741489	4335.638333	761.154297	252.958771
10116.741489	4335.638333	759.956055	273.628265
10116.741489	4335.638333	758.757813	168.671143
10116.741489	4335.638333	757.558594	-76.608627
10116.741489	4335.638333	756.359375	212.386902
10116.741489	4335.638333	755.160156	255.121872
10116.741489	4335.638333	753.960938	201.852890
10116.741489	4335.638333	752.761719	158.426910
10116.741489	4335.638333	751.561523	171.571106
10116.741489	4335.638333	750.361328	91.241440
10116.741489	4335.638333	749.160156	-6.285656
10116.741489	4335.638333	747.959961	-30.049595
10116.741489	4335.638333	746.758789	199.309860
10116.741489	4335.638333	745.557617	175.470398
10116.741489	4335.638333	744.356445	28.790209
10116.741489	4335.638333	743.154297	167.053955
10116.741489	4335.638333	741.952148	167.726471
10116.741489	4335.638333	740.750000	16.163031
10116.741489	4335.638333	739.547852	61.003536
10116.741489	4335.638333	738.344727	64.083855
10116.741489	4335.638333	737.142578	72.046997
10116.741489	4335.638333	735.939453	153.573212
10116.741489	4335.638333	734.735352	212.969345
10116.741489	4335.638333	733.532227	-61.151276
10116.741489	4335.638333	732.328125	37.440327
10116.741489	4335.638333	731.124023	128.613449
10116.741489	4335.638333	729.918945	168.264877
10116.741489	4335.638333	728.714844	16.781050
10116.741489	4335.638333	727.509766	63.737938
10116.741489	4335.638333	726.303711	78.813492
10116.741489	4335.638333	725.098633	66.925514
10116.741489	4335.638333	723.892578	35.433571
10116.741489	4335.638333	722.686523	192.375565
10116.741489	4335.638333	721.480469	50.710270
10116.741489	4335.638333	720.274414	-41.995144
10116.741489	4335.638333	719.067383	151.472336
10116.741489	4335.638333	717.860352	117.418274
10116.741489	4335.638333	716.653320	17.341505
10116.741489	4335.638333	715.445313	142.153214
10116.741489	4335.638333	714.238281	22.508398
10116.741489	4335.638333	713.030273	37.264797
10116.741489	4335.638333	711.821289	-57.937717
10116.741489	4335.638333	710.613281	49.578457
10116.741489	4335.638333	709.404297	69.118187
10116.741489	4335.638333	708.195313	-16.351145
10116.741489	4335.638333	706.986328	100.764999
10116.741489	4335.638333	705.776367	120.194534
10116.741489	4335.638333	704.566406	63.956688
10116.741489	4335.638333	703.356445	-65.462410
10116.741489	4335.638333	702.146484	70.957092
10116.741489	4335.638333	700.935547	-126.737640
10116.741489	4335.638333	699.724609	141.208542
10116.741489	4335.638333	698.513672	-63.788979
10116.741489	4335.638333	697.302734	-22.633722
10116.741489	4335.638333	696.090820	81.811256
10116.741489	4335.638333	694.878906	1.076617
10116.741489	4335.638333	693.666992	168.722733
10116.741489	4335.638333	692.455078	-50.827694
10116.741489	4335.638333	691.242188	148.337570
10116.741489	4335.638333	690.029297	60.230743
10116.741489	4335.638333	688.816406	30.521101
10116.741489	4335.638333	687.602539	202.690155
10116.741489	4335.638333	686.389648	12.387224
10116.741489	4335.638333	685.175781	101.752701
10116.741489	4335.638333	683.960938	40.325932
10116.741489	4335.638333	682.747070	173.331085
10116.741489	4335.638333	681.532227	-38.807381
10116.741489	4335.638333	680.317383	96.521095
10116.741489	4335.638333	679.102539	78.736816
10116.741489	4335.638333	677.886719	-11.926924
10116.741489	4335.638333	676.670898	74.651764
10116.741489	4335.638333	675.455078	107.757454
10116.741489	4335.638333	674.239258	0.056053
10116.741489	4335.638333	673.022461	91.328133
10116.741489	4335.638333	671.805664	73.364174
10116.741489	4335.638333	670.588867	52.948269
10116.741489	4335.638333	669.372070	161.023682
10116.741489	4335.638333	668.154297	7.189768
10116.741489	4335.638333	666.936523	-42.388870
10116.741489	4335.638333	665.718750	72.803825
10116.741489	4335.638333	664.500977	115.229691
10116.741489	4335.638333	663.282227	-113.694633
10116.741489	4335.638333	662.063477	35.240524
10116.741489	4335.638333	660.844727	-16.887251
10116.741489	4335.638333	659.625000	289.241913
10116.741489	4335.638333	658.405273	128.100510
10116.741489	4335.638333	657.185547	83.139168
10116.741489	4335.638333	655.965820	212.346146
10116.741489	4335.638333	654.745117	-50.369404
10116.741489	4335.638333	653.525391	-10.732132
10116.741489	4335.638333	652.303711	91.709053
10116.741489	4335.638333	651.083008	-81.484261
10116.741489	4335.638333	649.861328	-107.224312
10116.741489	4335.638333	648.640625	-60.502598
10116.741489	4335.638333	647.417969	22.395327
10116.741489	4335.638333	646.196289	76.243324
10116.741489	4335.638333	644.973633	-72.796822
10116.741489	4335.638333	643.750977	14.773623
10116.741489	4335.638333	642.528320	49.172459
10116.741489	4335.638333	641.305664	112.479324
10116.741489	4335.638333	640.082031	-19.697165
10116.741489	4335.638333	638.858398	84.530029
10116.741489	4335.638333	637.634766	0.576501
10116.741489	4335.638333	636.410156	49.228535
10116.741489	4335.638333	635.185547	-107.070091
10116.741489	4335.638333	633.960938	18.635302
10116.741489	4335.638333	632.736328	-62.965267
10116.741489	4335.638333	631.510742	33.697132
10116.741489	4335.638333	630.285156	113.425301
10116.741489	4335.638333	629.059570	14.893651
10116.741489	4335.638333	627.833984	17.483164
10116.741489	4335.638333	626.607422	104.278305
10116.741489	4335.638333	625.380859	82.712379
10116.741489	4335.638333	624.154297	8.190303
10116.741489	4335.638333	622.927734	70.775200
10116.741489	4335.638333	621.700195	-25.428024
10116.741489	4335.638333	620.472656	-104.793068
10116.741489	4335.638333	619.245117	-3.865678
10116.741489	4335.638333	618.016602	12.863786
10116.741489	4335.638333	616.788086	-66.562271
10116.741489	4335.638333	615.559570	-124.367294
10116.741489	4335.638333	614.331055	50.799969
10116.741489	4335.638333	613.101563	-28.685690
10116.741489	4335.638333	611.872070	98.301277
10116.741489	4335.638333	610.642578	112.386078
10116.741489	4335.638333	609.413086	28.040113
10116.741489	4335.638333	608.182617	-25.114336
10116.741489	4335.638333	606.952148	41.661678
10116.741489	4335.638333	605.721680	-4.342057
10116.741489	4335.638333	604.491211	-71.937813
10116.741489	4335.638333	603.259766	59.434135
10116.741489	4335.638333	602.028320	66.087067
10116.741489	4335.638333	600.796875	-35.124756
10116.741489	4335.638333	599.564453	62.518978
10116.741489	4335.638333	598.332031	-33.923241
10116.741489	4335.638333	597.099609	20.513226
10116.741489	4335.638333	595.867188	77.290565
10116.741489	4335.638333	594.633789	11.931755
10116.741489	4335.638333	593.400391	30.333298
10116.741489	4335.638333	592.166992	39.126839
10116.741489	4335.638333	590.933594	-258.310364
10116.741489	4335.638333	589.699219	56.613449
10116.741489	4335.638333	588.464844	82.044891
10116.741489	4335.638333	587.230469	7.030174
10116.741489	4335.638333	585.995117	-70.373642
10116.741489	4335.638333	584.760742	79.245682
10116.741489	4335.638333	583.525391	-62.701202
10116.741489	4335.638333	582.289063	-75.633453
10116.741489	4335.638333	581.053711	35.598618
10116.741489	4335.638333	579.817383	132.427521
10116.741489	4335.638333	578.581055	83.577713
10116.741489	4335.638333	577.343750	-39.263981
10116.741489	4335.638333	576.107422	78.917526
10116.741489	4335.638333	574.870117	-58.234432
10116.741489	4335.638333	573.631836	241.108093
10116.741489	4335.638333	572.394531	151.622406
10116.741489	4335.638333	571.156250	-114.270424
10116.741489	4335.638333	569.917969	58.494549
10116.741489	4335.638333	568.679688	7.159391
10116.741489	4335.638333	567.440430	70.180374
10116.741489	4335.638333	566.202148	-178.885132
10116.741489	4335.638333	564.961914	12.700981
10116.741489	4335.638333	563.722656	101.805397
10116.741489	4335.638333	562.482422	55.160503
10116.741489	4335.638333	561.243164	-17.661047
10116.741489	4335.638333	560.001953	38.010788
10116.741489	4335.638333	558.761719	105.537529
10116.741489	4335.638333	557.520508	118.307709
10116.741489	4335.638333	556.279297	107.274628
10116.741489	4335.638333	555.038086	5.885483
10116.741489	4335.638333	553.795898	9.101279
10116.741489	4335.638333	552.554688	-20.968037
10116.741489	4335.638333	551.311523	86.751625
10116.741489	4335.638333	550.069336	28.135714
10116.741489	4335.638333	548.826172	133.389984
10116.741489	4335.638333	547.583984	148.360794
10116.741489	4335.638333	546.339844	-83.579086
10116.741489	4335.638333	545.096680	57.183731
10116.741489	4335.638333	543.852539	43.632732
10116.741489	4335.638333	542.608398	-86.171715
10116.741489	4335.638333	541.364258	-33.304420
10116.741489	4335.638333	540.119141	-39.761036
10116.741489	4335.638333	538.875000	-3.549564
10116.741489	4335.638333	537.628906	-17.151453
10116.741489	4335.638333	536.383789	-142.136734
10116.741489	4335.638333	535.137695	-32.525990
10116.741489	4335.638333	533.892578	-74.571793
10116.741489	4335.638333	532.645508	-182.931015
10116.741489	4335.638333	531.399414	-68.682381
10116.741489	4335.638333	530.152344	-82.328979
10116.741489	4335.638333	528.905273	-126.748398
10116.741489	4335.638333	527.658203	-48.114605
10116.741489	4335.638333	526.410156	-149.324768
10116.741489	4335.638333	525.163086	-96.757393
10116.741489	4335.638333	523.914063	-93.889343
10116.741489	4335.638333	522.666016	-31.922838
10116.741489	4335.638333	521.416992	-40.906494
10116.741489	4335.638333	520.167969	-21.536760
10116.741489	4335.638333	518.918945	-13.997441
10116.741489	4335.638333	517.669922	76.206841
10116.741489	4335.638333	516.419922	-43.828030
10116.741489	4335.638333	515.169922	-10.343452
10116.741489	4335.638333	513.919922	-94.913902
10116.741489	4335.638333	512.668945	21.153610
10116.741489	4335.638333	511.417969	-164.869629
10116.741489	4335.638333	510.166992	-166.807678
10116.741489	4335.638333	508.916016	-156.958694
10116.741489	4335.638333	507.664063	-260.313843
10116.741489	4335.638333	506.412109	-186.810379
10116.741489	4335.638333	505.160156	-87.416481
10116.741489	4335.638333	503.907227	-42.277164
10116.741489	4335.638333	502.655273	-60.774464
10116.741489	4335.638333	501.402344	-65.139984
10116.741489	4335.638333	500.148438	29.399256
10116.741489	4335.638333	498.895508	-50.342056
10116.741489	4335.638333	497.641602	74.743752
10116.741489	4335.638333	496.387695	67.970734
10116.741489	4335.638333	495.132813	127.076012
10116.741489	4335.638333	493.878906	-11.460270
10116.741489	4335.638333	492.624023	-62.922153
10116.741489	4335.638333	491.368164	141.944611
10116.741489	4335.638333	490.113281	22.279297
10116.741489	4335.638333	488.857422	163.561905
10116.741489	4335.638333	487.601563	187.276245
10116.741489	4335.638333	486.344727	-28.681103
10116.741489	4335.638333	485.088867	124.244064
10116.741489	4335.638333	483.832031	-18.818474
10116.741489	4335.638333	482.575195	7.227265
10116.741489	4335.638333	481.317383	96.630745
10116.741489	4335.638333	480.059570	63.944447
10116.741489	4335.638333	478.801758	129.813904
10116.741489	4335.638333	477.543945	209.720596
10116.741489	4335.638333	476.285156	3.432817
10116.741489	4335.638333	475.027344	95.035843
10116.741489	4335.638333	473.767578	43.568043
10116.741489	4335.638333	472.508789	1.489797
10116.741489	4335.638333	471.249023	88.301476
10116.741489	4335.638333	469.989258	137.574799
10116.741489	4335.638333	468.729492	29.870050
10116.741489	4335.638333	467.469727	-70.777969
10116.741489	4335.638333	466.208984	22.934315
10116.741489	4335.638333	464.948242	200.861191
10116.741489	4335.638333	463.686523	-19.178759
10116.741489	4335.638333	462.425781	198.420914
10116.741489	4335.638333	461.164063	60.315315
10116.741489	4335.638333	459.901367	-68.401031
10116.741489	4335.638333	458.639648	71.833336
10116.741489	4335.638333	457.376953	-87.269135
10116.741489	4335.638333	456.114258	-5.579048
10116.741489	4335.638333	454.851563	85.396378
10116.741489	4335.638333	453.587891	52.473194
10116.741489	4335.638333	452.324219	-38.861439
10116.741489	4335.638333	451.060547	157.059875
10116.741489	4335.638333	449.796875	51.668633
10116.741489	4335.638333	448.532227	60.666756
10116.741489	4335.638333	447.267578	134.971893
10116.741489	4335.638333	446.002930	99.540230
10116.741489	4335.638333	444.737305	68.745270
10116.741489	4335.638333	443.471680	306.138306
10116.741489	4335.638333	442.206055	86.348167
10116.741489	4335.638333	440.940430	174.340500
10116.741489	4335.638333	439.673828	78.107491
10116.741489	4335.638333	438.407227	175.280350
10116.741489	4335.638333	437.140625	193.144791
10116.741489	4335.638333	435.873047	141.061783
10116.741489	4335.638333	434.605469	179.766373
10116.741489	4335.638333	433.337891	57.741291
10116.741489	4335.638333	432.070313	159.171814
10116.741489	4335.638333	430.801758	167.396408
10116.741489	4335.638333	429.533203	229.063004
10116.741489	4335.638333	428.264648	192.927399
10116.741489	4335.638333	426.996094	249.762375
10116.741489	4335.638333	425.726563	69.311554
10116.741489	4335.638333	424.457031	211.998062
10116.741489	4335.638333	423.186523	66.323975
10116.741489	4335.638333	421.916992	94.910530
10116.741489	4335.638333	420.646484	267.427094
10116.741489	4335.638333	419.375977	86.715065
10116.741489	4335.638333	418.104492	31.375872
10116.741489	4335.638333	416.833008	275.459808
10116.741489	4335.638333	415.561523	389.339294
10116.741489	4335.638333	414.290039	308.115570
10116.741489	4335.638333	413.017578	145.595352
10116.741489	4335.638333	411.746094	147.729752
10116.741489	4335.638333	410.472656	138.127563
10116.741489	4335.638333	409.200195	462.299164
10116.741489	4335.638333	407.926758	206.634689
10116.741489	4335.638333	406.653320	203.568817
10116.741489	4335.638333	405.379883	35.836708
10116.741489	4335.638333	404.105469	134.438217
10116.741489	4335.638333	402.831055	110.081390
10116.741489	4335.638333	401.556641	129.569290
10116.741489	4335.638333	400.282227	195.183365
10116.741489	4335.638333	399.006836	304.565918
10116.741489	4335.638333	397.731445	325.780334
10116.741489	4335.638333	396.456055	203.348831
10116.741489	4335.638333	395.179688	231.126175
10116.741489	4335.638333	393.903320	82.927139
10116.741489	4335.638333	392.626953	140.368164
10116.741489	4335.638333	391.350586	255.361862
10116.741489	4335.638333	390.073242	300.740753
10116.741489	4335.638333	388.795898	241.890335
10116.741489	4335.638333	387.518555	171.278381
10116.741489	4335.638333	386.240234	181.282196
10116.741489	4335.638333	384.961914	98.663208
10116.741489	4335.638333	383.683594	-21.119148
10116.741489	4335.638333	382.405273	105.855278
10116.741489	4335.638333	381.125977	105.567223
10116.741489	4335.638333	379.846680	100.379181
10116.741489	4335.638333	378.567383	81.058861
10116.741489	4335.638333	377.287109	-51.568565
10116.741489	4335.638333	376.006836	69.170433
10116.741489	4335.638333	374.726563	92.717270
10116.741489	4335.638333	373.446289	28.345638
10116.741489	4335.638333	372.165039	69.639122
10116.741489	4335.638333	370.883789	59.882168
10116.741489	4335.638333	369.602539	-109.150719
10116.741489	4335.638333	368.320313	221.177200
10116.741489	4335.638333	367.039063	178.041718
10116.741489	4335.638333	365.755859	30.931574
10116.741489	4335.638333	364.473633	145.819931
10116.741489	4335.638333	363.190430	9.456944
10116.741489	4335.638333	361.907227	-32.972759
10116.741489	4335.638333	360.624023	149.536530
10116.741489	4335.638333	359.340820	-20.255800
10116.741489	4335.638333	358.056641	48.599804
10116.741489	4335.638333	356.772461	36.509888
10116.741489	4335.638333	355.487305	69.868050
10116.741489	4335.638333	354.202148	17.707916
10116.741489	4335.638333	352.916992	-9.688096
10116.741489	4335.638333	351.631836	61.123276
10116.741489	4335.638333	350.346680	37.233456
10116.741489	4335.638333	349.060547	-49.198849
10116.741489	4335.638333	347.774414	-246.315292
10116.741489	4335.638333	346.487305	-60.842472
10116.741489	4335.638333	345.200195	66.595757
10116.741489	4335.638333	343.913086	46.590244
10116.741489	4335.638333	342.625977	-109.316299
10116.741489	4335.638333	341.338867	2.361877
10116.741489	4335.638333	340.050781	12.460576
10116.741489	4335.638333	338.762695	51.643757
10116.741489	4335.638333	337.473633	90.073601
10116.741489	4335.638333	336.184570	-96.677429
10116.741489	4335.638333	334.895508	-199.383102
10116.741489	4335.638333	333.606445	-211.248199
10116.741489	4335.638333	332.317383	-75.136086
10116.741489	4335.638333	331.027344	-26.864790
10116.741489	4335.638333	329.736328	-153.328568
10116.741489	4335.638333	328.446289	-51.848728
10116.741489	4335.638333	327.155273	-104.513260
10116.741489	4335.638333	325.864258	-43.739246
10116.741489	4335.638333	324.573242	-61.616932
10116.741489	4335.638333	323.281250	-176.425751
10116.741489	4335.638333	321.989258	-72.817368
10116.741489	4335.638333	320.697266	-84.441864
10116.741489	4335.638333	319.405273	119.879425
10116.741489	4335.638333	318.112305	90.173943
10116.741489	4335.638333	316.819336	-56.985184
10116.741489	4335.638333	315.526367	-259.928436
10116.741489	4335.638333	314.232422	15.226330
10116.741489	4335.638333	312.938477	-162.533737
10116.741489	4335.638333	311.644531	-49.448643
10116.741489	4335.638333	310.349609	164.977921
10116.741489	4335.638333	309.054688	90.866035
10116.741489	4335.638333	307.759766	120.392242
10116.741489	4335.638333	306.464844	96.233582
10116.741489	4335.638333	305.168945	29.746916
10116.741489	4335.638333	303.873047	242.118439
10116.741489	4335.638333	302.577148	291.368439
10116.741489	4335.638333	301.281250	348.323273
10116.741489	4335.638333	299.984375	708.802551
