#X		#Y		#Wave		#Intensity
9216.183511	4813.621667	1999.946289	-75.355225
9216.183511	4813.621667	1998.981445	22.950871
9216.183511	4813.621667	1998.017578	-106.520233
9216.183511	4813.621667	1997.052734	225.028671
9216.183511	4813.621667	1996.088867	-20.787390
9216.183511	4813.621667	1995.124023	33.274204
9216.183511	4813.621667	1994.159180	193.865128
9216.183511	4813.621667	1993.193359	203.391449
9216.183511	4813.621667	1992.228516	-71.749184
9216.183511	4813.621667	1991.262695	-37.318829
9216.183511	4813.621667	1990.296875	54.075981
9216.183511	4813.621667	1989.331055	108.373474
9216.183511	4813.621667	1988.365234	241.874130
9216.183511	4813.621667	1987.398438	162.654999
9216.183511	4813.621667	1986.432617	-89.589386
9216.183511	4813.621667	1985.465820	-17.774956
9216.183511	4813.621667	1984.499023	212.287048
9216.183511	4813.621667	1983.532227	-39.655846
9216.183511	4813.621667	1982.565430	-113.519203
9216.183511	4813.621667	1981.597656	128.959656
9216.183511	4813.621667	1980.629883	168.842133
9216.183511	4813.621667	1979.662109	-97.490593
9216.183511	4813.621667	1978.694336	120.335777
9216.183511	4813.621667	1977.726563	71.496277
9216.183511	4813.621667	1976.758789	59.762592
9216.183511	4813.621667	1975.790039	8.604596
9216.183511	4813.621667	1974.821289	-22.733301
9216.183511	4813.621667	1973.852539	-110.742218
9216.183511	4813.621667	1972.883789	146.672638
9216.183511	4813.621667	1971.915039	110.577698
9216.183511	4813.621667	1970.945313	47.432232
9216.183511	4813.621667	1969.975586	110.100296
9216.183511	4813.621667	1969.005859	27.382608
9216.183511	4813.621667	1968.036133	-23.206291
9216.183511	4813.621667	1967.066406	74.118629
9216.183511	4813.621667	1966.096680	-10.826380
9216.183511	4813.621667	1965.125977	-43.957825
9216.183511	4813.621667	1964.155273	132.298737
9216.183511	4813.621667	1963.184570	77.115891
9216.183511	4813.621667	1962.213867	115.554916
9216.183511	4813.621667	1961.242188	141.732635
9216.183511	4813.621667	1960.271484	30.163561
9216.183511	4813.621667	1959.299805	113.052368
9216.183511	4813.621667	1958.328125	45.923161
9216.183511	4813.621667	1957.356445	69.872223
9216.183511	4813.621667	1956.384766	-24.154577
9216.183511	4813.621667	1955.412109	17.122908
9216.183511	4813.621667	1954.439453	188.714767
9216.183511	4813.621667	1953.467773	185.818329
9216.183511	4813.621667	1952.495117	69.955376
9216.183511	4813.621667	1951.521484	-8.959423
9216.183511	4813.621667	1950.548828	15.367303
9216.183511	4813.621667	1949.575195	-240.204514
9216.183511	4813.621667	1948.601563	-53.690636
9216.183511	4813.621667	1947.627930	113.170052
9216.183511	4813.621667	1946.654297	-164.204132
9216.183511	4813.621667	1945.680664	223.566055
9216.183511	4813.621667	1944.706055	-9.459553
9216.183511	4813.621667	1943.732422	-75.548050
9216.183511	4813.621667	1942.757813	-41.010746
9216.183511	4813.621667	1941.783203	-77.543594
9216.183511	4813.621667	1940.807617	-40.466503
9216.183511	4813.621667	1939.833008	-57.278500
9216.183511	4813.621667	1938.857422	43.595207
9216.183511	4813.621667	1937.881836	129.776749
9216.183511	4813.621667	1936.906250	12.646225
9216.183511	4813.621667	1935.930664	-79.901665
9216.183511	4813.621667	1934.955078	-35.236843
9216.183511	4813.621667	1933.978516	-17.474897
9216.183511	4813.621667	1933.001953	51.729649
9216.183511	4813.621667	1932.025391	54.870102
9216.183511	4813.621667	1931.048828	53.157524
9216.183511	4813.621667	1930.072266	90.631104
9216.183511	4813.621667	1929.094727	-231.440796
9216.183511	4813.621667	1928.118164	-17.763483
9216.183511	4813.621667	1927.140625	7.596162
9216.183511	4813.621667	1926.163086	-8.576323
9216.183511	4813.621667	1925.184570	-80.922607
9216.183511	4813.621667	1924.207031	-16.353437
9216.183511	4813.621667	1923.228516	58.000137
9216.183511	4813.621667	1922.250000	115.260376
9216.183511	4813.621667	1921.271484	43.084557
9216.183511	4813.621667	1920.292969	-82.755806
9216.183511	4813.621667	1919.314453	-208.518494
9216.183511	4813.621667	1918.334961	36.840572
9216.183511	4813.621667	1917.355469	64.921951
9216.183511	4813.621667	1916.375977	122.304764
9216.183511	4813.621667	1915.396484	-108.190674
9216.183511	4813.621667	1914.416992	24.873161
9216.183511	4813.621667	1913.436523	-15.238862
9216.183511	4813.621667	1912.457031	127.562668
9216.183511	4813.621667	1911.476563	-141.665131
9216.183511	4813.621667	1910.496094	-89.029915
9216.183511	4813.621667	1909.515625	-43.703571
9216.183511	4813.621667	1908.534180	-100.704330
9216.183511	4813.621667	1907.552734	-60.221951
9216.183511	4813.621667	1906.572266	24.103508
9216.183511	4813.621667	1905.590820	81.631172
9216.183511	4813.621667	1904.608398	158.632568
9216.183511	4813.621667	1903.626953	40.881252
9216.183511	4813.621667	1902.644531	-42.737167
9216.183511	4813.621667	1901.663086	107.289101
9216.183511	4813.621667	1900.680664	-34.671871
9216.183511	4813.621667	1899.698242	27.755419
9216.183511	4813.621667	1898.714844	-393.787933
9216.183511	4813.621667	1897.732422	-58.965992
9216.183511	4813.621667	1896.749023	3.463405
9216.183511	4813.621667	1895.765625	-45.929932
9216.183511	4813.621667	1894.782227	-70.996613
9216.183511	4813.621667	1893.798828	-52.312817
9216.183511	4813.621667	1892.814453	-72.497169
9216.183511	4813.621667	1891.831055	65.200226
9216.183511	4813.621667	1890.846680	-44.839672
9216.183511	4813.621667	1889.862305	41.823013
9216.183511	4813.621667	1888.877930	109.033981
9216.183511	4813.621667	1887.892578	30.604324
9216.183511	4813.621667	1886.908203	240.956787
9216.183511	4813.621667	1885.922852	104.304367
9216.183511	4813.621667	1884.937500	-160.856400
9216.183511	4813.621667	1883.952148	-74.275490
9216.183511	4813.621667	1882.965820	-9.551966
9216.183511	4813.621667	1881.980469	103.624641
9216.183511	4813.621667	1880.994141	-108.032669
9216.183511	4813.621667	1880.007813	266.828156
9216.183511	4813.621667	1879.021484	16.437584
9216.183511	4813.621667	1878.035156	-32.806847
9216.183511	4813.621667	1877.047852	24.525066
9216.183511	4813.621667	1876.061523	-63.468967
9216.183511	4813.621667	1875.074219	-57.018402
9216.183511	4813.621667	1874.086914	36.558956
9216.183511	4813.621667	1873.098633	-82.885803
9216.183511	4813.621667	1872.111328	85.642616
9216.183511	4813.621667	1871.123047	181.517197
9216.183511	4813.621667	1870.135742	-78.225655
9216.183511	4813.621667	1869.147461	-4.156370
9216.183511	4813.621667	1868.158203	-80.041489
9216.183511	4813.621667	1867.169922	78.573456
9216.183511	4813.621667	1866.180664	196.020309
9216.183511	4813.621667	1865.192383	-20.079367
9216.183511	4813.621667	1864.203125	-50.081291
9216.183511	4813.621667	1863.213867	-24.534468
9216.183511	4813.621667	1862.223633	141.058548
9216.183511	4813.621667	1861.234375	188.244308
9216.183511	4813.621667	1860.244141	-51.909210
9216.183511	4813.621667	1859.253906	58.003201
9216.183511	4813.621667	1858.263672	27.872353
9216.183511	4813.621667	1857.273438	132.847839
9216.183511	4813.621667	1856.282227	93.010010
9216.183511	4813.621667	1855.291992	207.523941
9216.183511	4813.621667	1854.300781	34.992474
9216.183511	4813.621667	1853.309570	-65.172112
9216.183511	4813.621667	1852.317383	150.462982
9216.183511	4813.621667	1851.326172	329.830658
9216.183511	4813.621667	1850.333984	304.271881
9216.183511	4813.621667	1849.342773	95.583977
9216.183511	4813.621667	1848.350586	72.419273
9216.183511	4813.621667	1847.357422	-44.697636
9216.183511	4813.621667	1846.365234	319.774963
9216.183511	4813.621667	1845.372070	224.249954
9216.183511	4813.621667	1844.379883	107.059265
9216.183511	4813.621667	1843.386719	158.334427
9216.183511	4813.621667	1842.393555	180.677597
9216.183511	4813.621667	1841.399414	181.322083
9216.183511	4813.621667	1840.406250	116.985863
9216.183511	4813.621667	1839.412109	163.252350
9216.183511	4813.621667	1838.417969	82.031540
9216.183511	4813.621667	1837.423828	291.663635
9216.183511	4813.621667	1836.429688	183.927368
9216.183511	4813.621667	1835.434570	66.576324
9216.183511	4813.621667	1834.440430	-31.554741
9216.183511	4813.621667	1833.445313	7.222621
9216.183511	4813.621667	1832.450195	216.452499
9216.183511	4813.621667	1831.454102	-18.650703
9216.183511	4813.621667	1830.458984	106.389763
9216.183511	4813.621667	1829.462891	269.738617
9216.183511	4813.621667	1828.466797	152.206711
9216.183511	4813.621667	1827.470703	202.622681
9216.183511	4813.621667	1826.474609	140.224335
9216.183511	4813.621667	1825.478516	176.136169
9216.183511	4813.621667	1824.481445	60.913189
9216.183511	4813.621667	1823.484375	290.924194
9216.183511	4813.621667	1822.487305	62.960716
9216.183511	4813.621667	1821.490234	115.434456
9216.183511	4813.621667	1820.493164	158.253174
9216.183511	4813.621667	1819.495117	109.966805
9216.183511	4813.621667	1818.498047	35.298454
9216.183511	4813.621667	1817.500000	-22.631155
9216.183511	4813.621667	1816.500977	118.138374
9216.183511	4813.621667	1815.502930	119.955521
9216.183511	4813.621667	1814.504883	6.833034
9216.183511	4813.621667	1813.505859	185.642838
9216.183511	4813.621667	1812.506836	156.180206
9216.183511	4813.621667	1811.507813	54.910614
9216.183511	4813.621667	1810.508789	154.520294
9216.183511	4813.621667	1809.508789	108.174942
9216.183511	4813.621667	1808.508789	186.108551
9216.183511	4813.621667	1807.508789	-68.292442
9216.183511	4813.621667	1806.508789	-59.773422
9216.183511	4813.621667	1805.508789	130.277664
9216.183511	4813.621667	1804.508789	-174.307388
9216.183511	4813.621667	1803.507813	-3.530134
9216.183511	4813.621667	1802.506836	16.679745
9216.183511	4813.621667	1801.505859	-73.004135
9216.183511	4813.621667	1800.504883	118.966858
9216.183511	4813.621667	1799.502930	239.205261
9216.183511	4813.621667	1798.501953	278.209991
9216.183511	4813.621667	1797.500000	64.248276
9216.183511	4813.621667	1796.498047	158.012894
9216.183511	4813.621667	1795.496094	158.673630
9216.183511	4813.621667	1794.493164	173.579132
9216.183511	4813.621667	1793.491211	104.982819
9216.183511	4813.621667	1792.488281	229.415100
9216.183511	4813.621667	1791.485352	184.542725
9216.183511	4813.621667	1790.482422	203.957382
9216.183511	4813.621667	1789.478516	75.609070
9216.183511	4813.621667	1788.475586	325.940308
9216.183511	4813.621667	1787.471680	202.259323
9216.183511	4813.621667	1786.467773	59.518333
9216.183511	4813.621667	1785.463867	131.001495
9216.183511	4813.621667	1784.459961	85.781036
9216.183511	4813.621667	1783.455078	-35.626930
9216.183511	4813.621667	1782.450195	-28.583364
9216.183511	4813.621667	1781.445313	92.565056
9216.183511	4813.621667	1780.440430	23.360353
9216.183511	4813.621667	1779.435547	-43.501167
9216.183511	4813.621667	1778.429688	-203.112030
9216.183511	4813.621667	1777.424805	67.468750
9216.183511	4813.621667	1776.418945	-106.482040
9216.183511	4813.621667	1775.413086	-35.716496
9216.183511	4813.621667	1774.406250	-193.078308
9216.183511	4813.621667	1773.400391	65.173813
9216.183511	4813.621667	1772.393555	95.315262
9216.183511	4813.621667	1771.386719	6.682111
9216.183511	4813.621667	1770.379883	-15.517513
9216.183511	4813.621667	1769.373047	80.887421
9216.183511	4813.621667	1768.365234	-0.759569
9216.183511	4813.621667	1767.358398	7.712282
9216.183511	4813.621667	1766.350586	201.115814
9216.183511	4813.621667	1765.342773	119.312881
9216.183511	4813.621667	1764.334961	49.334942
9216.183511	4813.621667	1763.326172	-110.755989
9216.183511	4813.621667	1762.318359	46.733936
9216.183511	4813.621667	1761.309570	26.386568
9216.183511	4813.621667	1760.300781	-131.417343
9216.183511	4813.621667	1759.291016	267.400665
9216.183511	4813.621667	1758.282227	26.606218
9216.183511	4813.621667	1757.272461	169.410614
9216.183511	4813.621667	1756.262695	84.845284
9216.183511	4813.621667	1755.252930	90.191727
9216.183511	4813.621667	1754.243164	-46.502888
9216.183511	4813.621667	1753.233398	48.656239
9216.183511	4813.621667	1752.222656	-211.102356
9216.183511	4813.621667	1751.211914	222.129044
9216.183511	4813.621667	1750.201172	21.435688
9216.183511	4813.621667	1749.190430	-131.955536
9216.183511	4813.621667	1748.179688	-264.071625
9216.183511	4813.621667	1747.167969	7.911422
9216.183511	4813.621667	1746.156250	-91.219475
9216.183511	4813.621667	1745.144531	34.052635
9216.183511	4813.621667	1744.132813	26.956635
9216.183511	4813.621667	1743.121094	-13.251242
9216.183511	4813.621667	1742.108398	215.646362
9216.183511	4813.621667	1741.095703	128.093887
9216.183511	4813.621667	1740.083008	-23.200251
9216.183511	4813.621667	1739.070313	21.357109
9216.183511	4813.621667	1738.057617	-151.198456
9216.183511	4813.621667	1737.043945	183.376572
9216.183511	4813.621667	1736.030273	-104.809006
9216.183511	4813.621667	1735.016602	-67.558479
9216.183511	4813.621667	1734.002930	89.851265
9216.183511	4813.621667	1732.989258	192.940201
9216.183511	4813.621667	1731.974609	-17.474113
9216.183511	4813.621667	1730.959961	-204.298248
9216.183511	4813.621667	1729.945313	-75.456535
9216.183511	4813.621667	1728.930664	-92.730713
9216.183511	4813.621667	1727.916016	-86.500175
9216.183511	4813.621667	1726.900391	-273.370422
9216.183511	4813.621667	1725.885742	34.076050
9216.183511	4813.621667	1724.870117	-32.823421
9216.183511	4813.621667	1723.853516	-109.161232
9216.183511	4813.621667	1722.837891	80.310478
9216.183511	4813.621667	1721.822266	-0.810701
9216.183511	4813.621667	1720.805664	42.677139
9216.183511	4813.621667	1719.789063	-85.523598
9216.183511	4813.621667	1718.772461	-46.827400
9216.183511	4813.621667	1717.754883	-76.349846
9216.183511	4813.621667	1716.738281	-35.406990
9216.183511	4813.621667	1715.720703	-191.867264
9216.183511	4813.621667	1714.703125	-146.312225
9216.183511	4813.621667	1713.685547	35.387615
9216.183511	4813.621667	1712.667969	97.232841
9216.183511	4813.621667	1711.649414	-14.702848
9216.183511	4813.621667	1710.630859	16.530422
9216.183511	4813.621667	1709.612305	169.733063
9216.183511	4813.621667	1708.593750	165.648834
9216.183511	4813.621667	1707.575195	271.773468
9216.183511	4813.621667	1706.555664	-105.299934
9216.183511	4813.621667	1705.536133	75.786888
9216.183511	4813.621667	1704.516602	188.782623
9216.183511	4813.621667	1703.497070	100.126373
9216.183511	4813.621667	1702.477539	91.144951
9216.183511	4813.621667	1701.457031	243.789703
9216.183511	4813.621667	1700.437500	-22.961258
9216.183511	4813.621667	1699.416992	253.707184
9216.183511	4813.621667	1698.395508	204.746780
9216.183511	4813.621667	1697.375000	270.496155
9216.183511	4813.621667	1696.354492	85.732834
9216.183511	4813.621667	1695.333008	132.688263
9216.183511	4813.621667	1694.311523	247.449646
9216.183511	4813.621667	1693.290039	282.598724
9216.183511	4813.621667	1692.267578	44.045593
9216.183511	4813.621667	1691.246094	212.454468
9216.183511	4813.621667	1690.223633	95.527718
9216.183511	4813.621667	1689.201172	207.698380
9216.183511	4813.621667	1688.178711	453.015991
9216.183511	4813.621667	1687.155273	149.090744
9216.183511	4813.621667	1686.132813	139.626175
9216.183511	4813.621667	1685.109375	18.017797
9216.183511	4813.621667	1684.085938	300.441956
9216.183511	4813.621667	1683.062500	321.229401
9216.183511	4813.621667	1682.039063	-31.520472
9216.183511	4813.621667	1681.014648	89.632538
9216.183511	4813.621667	1679.990234	180.382431
9216.183511	4813.621667	1678.965820	315.404724
9216.183511	4813.621667	1677.941406	46.813435
9216.183511	4813.621667	1676.916992	244.739166
9216.183511	4813.621667	1675.891602	260.690460
9216.183511	4813.621667	1674.866211	304.593811
9216.183511	4813.621667	1673.840820	318.161865
9216.183511	4813.621667	1672.815430	212.860199
9216.183511	4813.621667	1671.790039	461.732544
9216.183511	4813.621667	1670.763672	461.232666
9216.183511	4813.621667	1669.737305	288.373108
9216.183511	4813.621667	1668.710938	371.709259
9216.183511	4813.621667	1667.684570	375.844482
9216.183511	4813.621667	1666.658203	386.950348
9216.183511	4813.621667	1665.630859	328.216980
9216.183511	4813.621667	1664.603516	316.031952
9216.183511	4813.621667	1663.576172	424.811035
9216.183511	4813.621667	1662.548828	131.162445
9216.183511	4813.621667	1661.520508	451.526215
9216.183511	4813.621667	1660.493164	492.767639
9216.183511	4813.621667	1659.464844	489.814972
9216.183511	4813.621667	1658.436523	521.717896
9216.183511	4813.621667	1657.408203	681.403870
9216.183511	4813.621667	1656.378906	687.687134
9216.183511	4813.621667	1655.350586	552.285400
9216.183511	4813.621667	1654.321289	579.485352
9216.183511	4813.621667	1653.291992	478.972412
9216.183511	4813.621667	1652.261719	573.487488
9216.183511	4813.621667	1651.232422	568.171265
9216.183511	4813.621667	1650.202148	572.133545
9216.183511	4813.621667	1649.171875	631.775696
9216.183511	4813.621667	1648.141602	658.922668
9216.183511	4813.621667	1647.111328	915.657227
9216.183511	4813.621667	1646.080078	729.418518
9216.183511	4813.621667	1645.049805	684.676331
9216.183511	4813.621667	1644.018555	857.821777
9216.183511	4813.621667	1642.987305	813.075500
9216.183511	4813.621667	1641.955078	784.565125
9216.183511	4813.621667	1640.923828	888.116699
9216.183511	4813.621667	1639.891602	778.558105
9216.183511	4813.621667	1638.859375	863.556091
9216.183511	4813.621667	1637.827148	821.201294
9216.183511	4813.621667	1636.794922	885.347046
9216.183511	4813.621667	1635.761719	822.191345
9216.183511	4813.621667	1634.729492	907.158752
9216.183511	4813.621667	1633.696289	996.725647
9216.183511	4813.621667	1632.662109	1053.884033
9216.183511	4813.621667	1631.628906	1023.170776
9216.183511	4813.621667	1630.594727	837.575928
9216.183511	4813.621667	1629.561523	848.553223
9216.183511	4813.621667	1628.527344	1176.152466
9216.183511	4813.621667	1627.493164	956.026489
9216.183511	4813.621667	1626.458008	1020.147156
9216.183511	4813.621667	1625.423828	744.740295
9216.183511	4813.621667	1624.388672	1039.841187
9216.183511	4813.621667	1623.353516	741.482788
9216.183511	4813.621667	1622.318359	962.644226
9216.183511	4813.621667	1621.282227	1107.572632
9216.183511	4813.621667	1620.247070	1227.092285
9216.183511	4813.621667	1619.210938	1002.835571
9216.183511	4813.621667	1618.174805	928.618286
9216.183511	4813.621667	1617.137695	889.039185
9216.183511	4813.621667	1616.101563	784.948792
9216.183511	4813.621667	1615.064453	978.292053
9216.183511	4813.621667	1614.027344	1109.359253
9216.183511	4813.621667	1612.990234	1132.098511
9216.183511	4813.621667	1611.953125	1094.957520
9216.183511	4813.621667	1610.916016	1145.389526
9216.183511	4813.621667	1609.877930	1053.041016
9216.183511	4813.621667	1608.839844	1078.188599
9216.183511	4813.621667	1607.801758	898.471802
9216.183511	4813.621667	1606.763672	1123.944824
9216.183511	4813.621667	1605.724609	1282.622925
9216.183511	4813.621667	1604.685547	1167.484497
9216.183511	4813.621667	1603.646484	1121.432617
9216.183511	4813.621667	1602.607422	1335.316650
9216.183511	4813.621667	1601.568359	1356.004395
9216.183511	4813.621667	1600.528320	1266.363770
9216.183511	4813.621667	1599.489258	1215.876831
9216.183511	4813.621667	1598.449219	1468.782593
9216.183511	4813.621667	1597.408203	1229.936401
9216.183511	4813.621667	1596.368164	1381.742920
9216.183511	4813.621667	1595.327148	1437.063477
9216.183511	4813.621667	1594.287109	1393.670044
9216.183511	4813.621667	1593.246094	1426.089600
9216.183511	4813.621667	1592.204102	1699.545898
9216.183511	4813.621667	1591.163086	1488.717773
9216.183511	4813.621667	1590.121094	1723.133667
9216.183511	4813.621667	1589.079102	1494.112305
9216.183511	4813.621667	1588.037109	1540.452148
9216.183511	4813.621667	1586.995117	1639.561157
9216.183511	4813.621667	1585.953125	1401.654785
9216.183511	4813.621667	1584.910156	1523.760376
9216.183511	4813.621667	1583.867188	1384.603882
9216.183511	4813.621667	1582.824219	1277.628174
9216.183511	4813.621667	1581.781250	1438.774292
9216.183511	4813.621667	1580.737305	1629.676514
9216.183511	4813.621667	1579.693359	1584.686157
9216.183511	4813.621667	1578.649414	1569.527466
9216.183511	4813.621667	1577.605469	1547.558472
9216.183511	4813.621667	1576.561523	1564.555298
9216.183511	4813.621667	1575.516602	1256.672485
9216.183511	4813.621667	1574.472656	1404.225342
9216.183511	4813.621667	1573.427734	1608.950806
9216.183511	4813.621667	1572.381836	1273.953003
9216.183511	4813.621667	1571.336914	1627.346558
9216.183511	4813.621667	1570.291016	1416.026855
9216.183511	4813.621667	1569.246094	1202.563232
9216.183511	4813.621667	1568.200195	1384.547729
9216.183511	4813.621667	1567.153320	1491.121704
9216.183511	4813.621667	1566.107422	1378.437134
9216.183511	4813.621667	1565.060547	1270.418335
9216.183511	4813.621667	1564.013672	1034.637573
9216.183511	4813.621667	1562.966797	1157.408936
9216.183511	4813.621667	1561.919922	1150.097046
9216.183511	4813.621667	1560.872070	1204.455322
9216.183511	4813.621667	1559.825195	1167.598755
9216.183511	4813.621667	1558.777344	1119.408569
9216.183511	4813.621667	1557.729492	1059.896851
9216.183511	4813.621667	1556.680664	966.264709
9216.183511	4813.621667	1555.632813	1107.540527
9216.183511	4813.621667	1554.583984	995.827759
9216.183511	4813.621667	1553.535156	836.368774
9216.183511	4813.621667	1552.486328	918.539063
9216.183511	4813.621667	1551.436523	952.902039
9216.183511	4813.621667	1550.387695	1146.739502
9216.183511	4813.621667	1549.337891	1115.142700
9216.183511	4813.621667	1548.288086	910.608765
9216.183511	4813.621667	1547.238281	1179.645752
9216.183511	4813.621667	1546.187500	922.970764
9216.183511	4813.621667	1545.136719	889.432129
9216.183511	4813.621667	1544.086914	862.801941
9216.183511	4813.621667	1543.035156	920.392700
9216.183511	4813.621667	1541.984375	1109.915161
9216.183511	4813.621667	1540.933594	1024.351807
9216.183511	4813.621667	1539.881836	1086.631226
9216.183511	4813.621667	1538.830078	1153.500488
9216.183511	4813.621667	1537.778320	1240.862549
9216.183511	4813.621667	1536.725586	1071.567627
9216.183511	4813.621667	1535.673828	1213.560669
9216.183511	4813.621667	1534.621094	1369.191528
9216.183511	4813.621667	1533.568359	1458.996338
9216.183511	4813.621667	1532.515625	1628.280029
9216.183511	4813.621667	1531.461914	1965.500732
9216.183511	4813.621667	1530.409180	1876.109497
9216.183511	4813.621667	1529.355469	1702.891357
9216.183511	4813.621667	1528.301758	1788.368408
9216.183511	4813.621667	1527.247070	1613.115112
9216.183511	4813.621667	1526.193359	1542.294800
9216.183511	4813.621667	1525.138672	1197.308472
9216.183511	4813.621667	1524.083984	1029.298828
9216.183511	4813.621667	1523.029297	822.914490
9216.183511	4813.621667	1521.974609	659.727112
9216.183511	4813.621667	1520.918945	673.340942
9216.183511	4813.621667	1519.863281	630.414063
9216.183511	4813.621667	1518.807617	481.175262
9216.183511	4813.621667	1517.751953	431.666748
9216.183511	4813.621667	1516.696289	314.364349
9216.183511	4813.621667	1515.639648	452.861847
9216.183511	4813.621667	1514.583008	347.067017
9216.183511	4813.621667	1513.526367	329.600189
9216.183511	4813.621667	1512.469727	-2.100970
9216.183511	4813.621667	1511.412109	351.443359
9216.183511	4813.621667	1510.355469	164.693176
9216.183511	4813.621667	1509.297852	206.350143
9216.183511	4813.621667	1508.240234	376.861542
9216.183511	4813.621667	1507.181641	165.604950
9216.183511	4813.621667	1506.124023	184.890305
9216.183511	4813.621667	1505.065430	373.609283
9216.183511	4813.621667	1504.006836	255.286011
9216.183511	4813.621667	1502.948242	166.435318
9216.183511	4813.621667	1501.888672	391.396973
9216.183511	4813.621667	1500.830078	194.410782
9216.183511	4813.621667	1499.770508	295.364288
9216.183511	4813.621667	1498.710938	168.557587
9216.183511	4813.621667	1497.650391	177.184265
9216.183511	4813.621667	1496.590820	104.723747
9216.183511	4813.621667	1495.530273	72.948891
9216.183511	4813.621667	1494.469727	97.610641
9216.183511	4813.621667	1493.409180	194.449310
9216.183511	4813.621667	1492.348633	354.408325
9216.183511	4813.621667	1491.287109	-39.686470
9216.183511	4813.621667	1490.225586	257.786621
9216.183511	4813.621667	1489.164063	-16.641121
9216.183511	4813.621667	1488.102539	-185.079987
9216.183511	4813.621667	1487.041016	6.718111
9216.183511	4813.621667	1485.978516	36.515869
9216.183511	4813.621667	1484.916016	178.847656
9216.183511	4813.621667	1483.853516	-18.381227
9216.183511	4813.621667	1482.791016	-96.282112
9216.183511	4813.621667	1481.727539	-70.646698
9216.183511	4813.621667	1480.664063	-161.820831
9216.183511	4813.621667	1479.600586	34.779472
9216.183511	4813.621667	1478.537109	-22.532345
9216.183511	4813.621667	1477.473633	133.701706
9216.183511	4813.621667	1476.409180	58.603359
9216.183511	4813.621667	1475.344727	-47.760563
9216.183511	4813.621667	1474.280273	-129.371552
9216.183511	4813.621667	1473.215820	-85.112473
9216.183511	4813.621667	1472.151367	-135.034164
9216.183511	4813.621667	1471.085938	111.191505
9216.183511	4813.621667	1470.020508	166.767670
9216.183511	4813.621667	1468.955078	108.014565
9216.183511	4813.621667	1467.888672	130.155060
9216.183511	4813.621667	1466.823242	89.471733
9216.183511	4813.621667	1465.756836	87.430992
9216.183511	4813.621667	1464.690430	165.792191
9216.183511	4813.621667	1463.624023	335.564972
9216.183511	4813.621667	1462.556641	313.243103
9216.183511	4813.621667	1461.490234	427.786072
9216.183511	4813.621667	1460.422852	228.669785
9216.183511	4813.621667	1459.355469	380.486237
9216.183511	4813.621667	1458.287109	573.140564
9216.183511	4813.621667	1457.219727	651.964661
9216.183511	4813.621667	1456.151367	533.744568
9216.183511	4813.621667	1455.083008	425.604279
9216.183511	4813.621667	1454.014648	822.421387
9216.183511	4813.621667	1452.945313	691.713806
9216.183511	4813.621667	1451.876953	456.764771
9216.183511	4813.621667	1450.807617	625.967529
9216.183511	4813.621667	1449.738281	667.453308
9216.183511	4813.621667	1448.668945	771.150696
9216.183511	4813.621667	1447.598633	719.664673
9216.183511	4813.621667	1446.528320	499.891876
9216.183511	4813.621667	1445.458008	607.469788
9216.183511	4813.621667	1444.387695	402.967560
9216.183511	4813.621667	1443.317383	211.666138
9216.183511	4813.621667	1442.246094	576.835022
9216.183511	4813.621667	1441.174805	239.361664
9216.183511	4813.621667	1440.103516	302.169586
9216.183511	4813.621667	1439.032227	160.617950
9216.183511	4813.621667	1437.960938	416.004333
9216.183511	4813.621667	1436.888672	291.709839
9216.183511	4813.621667	1435.816406	248.154755
9216.183511	4813.621667	1434.744141	390.296753
9216.183511	4813.621667	1433.670898	352.423462
9216.183511	4813.621667	1432.598633	563.922791
9216.183511	4813.621667	1431.525391	564.670959
9216.183511	4813.621667	1430.452148	569.519531
9216.183511	4813.621667	1429.378906	408.370514
9216.183511	4813.621667	1428.304688	324.152435
9216.183511	4813.621667	1427.231445	416.883331
9216.183511	4813.621667	1426.157227	332.011475
9216.183511	4813.621667	1425.083008	386.067627
9216.183511	4813.621667	1424.007813	424.932739
9216.183511	4813.621667	1422.933594	349.786407
9216.183511	4813.621667	1421.858398	443.804901
9216.183511	4813.621667	1420.783203	306.113464
9216.183511	4813.621667	1419.708008	380.701019
9216.183511	4813.621667	1418.631836	520.073792
9216.183511	4813.621667	1417.555664	354.392883
9216.183511	4813.621667	1416.479492	427.278076
9216.183511	4813.621667	1415.403320	337.474121
9216.183511	4813.621667	1414.327148	444.569458
9216.183511	4813.621667	1413.250000	443.664429
9216.183511	4813.621667	1412.173828	599.360046
9216.183511	4813.621667	1411.096680	514.632813
9216.183511	4813.621667	1410.018555	323.717743
9216.183511	4813.621667	1408.941406	416.305420
9216.183511	4813.621667	1407.863281	413.188995
9216.183511	4813.621667	1406.785156	413.399048
9216.183511	4813.621667	1405.707031	353.658752
9216.183511	4813.621667	1404.628906	616.641541
9216.183511	4813.621667	1403.549805	462.272461
9216.183511	4813.621667	1402.470703	479.460663
9216.183511	4813.621667	1401.391602	430.830719
9216.183511	4813.621667	1400.312500	541.064819
9216.183511	4813.621667	1399.233398	305.773834
9216.183511	4813.621667	1398.153320	328.683868
9216.183511	4813.621667	1397.073242	426.869812
9216.183511	4813.621667	1395.993164	477.599731
9216.183511	4813.621667	1394.913086	321.003021
9216.183511	4813.621667	1393.832031	308.904694
9216.183511	4813.621667	1392.750977	195.905701
9216.183511	4813.621667	1391.669922	81.295601
9216.183511	4813.621667	1390.588867	72.484070
9216.183511	4813.621667	1389.506836	340.782623
9216.183511	4813.621667	1388.425781	100.974060
9216.183511	4813.621667	1387.343750	219.655563
9216.183511	4813.621667	1386.261719	48.293957
9216.183511	4813.621667	1385.178711	231.070084
9216.183511	4813.621667	1384.096680	125.175468
9216.183511	4813.621667	1383.013672	140.728241
9216.183511	4813.621667	1381.930664	63.390278
9216.183511	4813.621667	1380.846680	236.658081
9216.183511	4813.621667	1379.763672	201.042023
9216.183511	4813.621667	1378.679688	321.305206
9216.183511	4813.621667	1377.595703	186.774338
9216.183511	4813.621667	1376.511719	278.190063
9216.183511	4813.621667	1375.427734	250.216888
9216.183511	4813.621667	1374.342773	431.714905
9216.183511	4813.621667	1373.257813	251.096512
9216.183511	4813.621667	1372.172852	207.614075
9216.183511	4813.621667	1371.087891	382.343262
9216.183511	4813.621667	1370.001953	211.897202
9216.183511	4813.621667	1368.916992	370.528442
9216.183511	4813.621667	1367.831055	359.544006
9216.183511	4813.621667	1366.744141	370.361481
9216.183511	4813.621667	1365.658203	423.109955
9216.183511	4813.621667	1364.571289	103.127083
9216.183511	4813.621667	1363.484375	425.829651
9216.183511	4813.621667	1362.397461	383.386047
9216.183511	4813.621667	1361.310547	409.401123
9216.183511	4813.621667	1360.222656	339.357697
9216.183511	4813.621667	1359.135742	529.098145
9216.183511	4813.621667	1358.047852	404.209625
9216.183511	4813.621667	1356.958984	428.795227
9216.183511	4813.621667	1355.871094	376.495941
9216.183511	4813.621667	1354.782227	263.834747
9216.183511	4813.621667	1353.693359	418.873505
9216.183511	4813.621667	1352.604492	376.340179
9216.183511	4813.621667	1351.515625	436.270264
9216.183511	4813.621667	1350.425781	404.911499
9216.183511	4813.621667	1349.335938	343.954559
9216.183511	4813.621667	1348.246094	373.467133
9216.183511	4813.621667	1347.156250	711.226013
9216.183511	4813.621667	1346.066406	735.567505
9216.183511	4813.621667	1344.975586	994.552002
9216.183511	4813.621667	1343.884766	994.132629
9216.183511	4813.621667	1342.793945	1113.776611
9216.183511	4813.621667	1341.702148	1208.796265
9216.183511	4813.621667	1340.611328	1342.794556
9216.183511	4813.621667	1339.519531	1253.760254
9216.183511	4813.621667	1338.427734	1129.367920
9216.183511	4813.621667	1337.334961	929.902832
9216.183511	4813.621667	1336.243164	745.779968
9216.183511	4813.621667	1335.150391	691.264893
9216.183511	4813.621667	1334.057617	412.016357
9216.183511	4813.621667	1332.964844	388.810150
9216.183511	4813.621667	1331.871094	213.112366
9216.183511	4813.621667	1330.778320	499.638397
9216.183511	4813.621667	1329.684570	708.844543
9216.183511	4813.621667	1328.590820	560.287781
9216.183511	4813.621667	1327.496094	490.646393
9216.183511	4813.621667	1326.402344	381.938202
9216.183511	4813.621667	1325.307617	588.473206
9216.183511	4813.621667	1324.212891	349.317169
9216.183511	4813.621667	1323.117188	341.094635
9216.183511	4813.621667	1322.022461	301.503937
9216.183511	4813.621667	1320.926758	151.625778
9216.183511	4813.621667	1319.831055	285.816864
9216.183511	4813.621667	1318.735352	-6.574801
9216.183511	4813.621667	1317.638672	165.473831
9216.183511	4813.621667	1316.542969	77.870842
9216.183511	4813.621667	1315.446289	44.356369
9216.183511	4813.621667	1314.349609	236.493011
9216.183511	4813.621667	1313.251953	-27.093519
9216.183511	4813.621667	1312.155273	69.705818
9216.183511	4813.621667	1311.057617	132.282715
9216.183511	4813.621667	1309.959961	92.875465
9216.183511	4813.621667	1308.862305	97.523483
9216.183511	4813.621667	1307.763672	107.927765
9216.183511	4813.621667	1306.665039	62.869503
9216.183511	4813.621667	1305.566406	85.488701
9216.183511	4813.621667	1304.467773	157.180237
9216.183511	4813.621667	1303.369141	49.545063
9216.183511	4813.621667	1302.269531	-69.499924
9216.183511	4813.621667	1301.169922	188.838104
9216.183511	4813.621667	1300.070313	104.265556
9216.183511	4813.621667	1298.970703	-0.682046
9216.183511	4813.621667	1297.870117	15.291158
9216.183511	4813.621667	1296.769531	117.597076
9216.183511	4813.621667	1295.668945	-221.386978
9216.183511	4813.621667	1294.568359	5.807140
9216.183511	4813.621667	1293.466797	-81.565674
9216.183511	4813.621667	1292.366211	-41.724098
9216.183511	4813.621667	1291.264648	-105.906708
9216.183511	4813.621667	1290.162109	-79.386536
9216.183511	4813.621667	1289.060547	-104.728043
9216.183511	4813.621667	1287.958008	154.291214
9216.183511	4813.621667	1286.855469	-54.188469
9216.183511	4813.621667	1285.752930	-2.583689
9216.183511	4813.621667	1284.650391	-40.385296
9216.183511	4813.621667	1283.546875	-96.278717
9216.183511	4813.621667	1282.444336	-82.767944
9216.183511	4813.621667	1281.339844	102.377121
9216.183511	4813.621667	1280.236328	31.906630
9216.183511	4813.621667	1279.132813	-45.895107
9216.183511	4813.621667	1278.028320	-32.707630
9216.183511	4813.621667	1276.923828	-51.174843
9216.183511	4813.621667	1275.819336	-6.573705
9216.183511	4813.621667	1274.713867	83.616455
9216.183511	4813.621667	1273.608398	-0.208236
9216.183511	4813.621667	1272.503906	-99.444641
9216.183511	4813.621667	1271.397461	55.934341
9216.183511	4813.621667	1270.291992	-24.463812
9216.183511	4813.621667	1269.185547	-138.612762
9216.183511	4813.621667	1268.080078	-71.992149
9216.183511	4813.621667	1266.972656	110.270828
9216.183511	4813.621667	1265.866211	-99.535667
9216.183511	4813.621667	1264.759766	-36.905590
9216.183511	4813.621667	1263.652344	-22.741095
9216.183511	4813.621667	1262.544922	38.904739
9216.183511	4813.621667	1261.436523	-216.866348
9216.183511	4813.621667	1260.329102	-227.481216
9216.183511	4813.621667	1259.220703	-79.963341
9216.183511	4813.621667	1258.112305	-183.508362
9216.183511	4813.621667	1257.003906	-150.482086
9216.183511	4813.621667	1255.895508	-251.727814
9216.183511	4813.621667	1254.786133	-10.565701
9216.183511	4813.621667	1253.676758	-85.858345
9216.183511	4813.621667	1252.567383	-212.260574
9216.183511	4813.621667	1251.458008	-66.726082
9216.183511	4813.621667	1250.347656	-10.701950
9216.183511	4813.621667	1249.237305	-60.593731
9216.183511	4813.621667	1248.126953	92.134186
9216.183511	4813.621667	1247.016602	-25.920097
9216.183511	4813.621667	1245.905273	-61.775986
9216.183511	4813.621667	1244.793945	45.204979
9216.183511	4813.621667	1243.682617	-133.474792
9216.183511	4813.621667	1242.571289	-38.844128
9216.183511	4813.621667	1241.459961	92.210709
9216.183511	4813.621667	1240.347656	36.203484
9216.183511	4813.621667	1239.235352	31.478771
9216.183511	4813.621667	1238.123047	16.084904
9216.183511	4813.621667	1237.009766	-75.523964
9216.183511	4813.621667	1235.897461	10.212074
9216.183511	4813.621667	1234.784180	-18.160477
9216.183511	4813.621667	1233.670898	13.017496
9216.183511	4813.621667	1232.556641	80.352448
9216.183511	4813.621667	1231.443359	122.918091
9216.183511	4813.621667	1230.329102	7.628989
9216.183511	4813.621667	1229.214844	140.234161
9216.183511	4813.621667	1228.099609	141.399597
9216.183511	4813.621667	1226.985352	-4.960029
9216.183511	4813.621667	1225.870117	-29.757435
9216.183511	4813.621667	1224.754883	138.502594
9216.183511	4813.621667	1223.639648	95.637955
9216.183511	4813.621667	1222.523438	174.813583
9216.183511	4813.621667	1221.408203	56.305687
9216.183511	4813.621667	1220.291992	294.459198
9216.183511	4813.621667	1219.174805	79.132980
9216.183511	4813.621667	1218.058594	80.657097
9216.183511	4813.621667	1216.941406	157.287506
9216.183511	4813.621667	1215.824219	191.120193
9216.183511	4813.621667	1214.707031	81.917412
9216.183511	4813.621667	1213.589844	121.251022
9216.183511	4813.621667	1212.471680	164.297516
9216.183511	4813.621667	1211.353516	-19.263054
9216.183511	4813.621667	1210.235352	74.136299
9216.183511	4813.621667	1209.117188	101.754936
9216.183511	4813.621667	1207.998047	127.782944
9216.183511	4813.621667	1206.878906	37.287205
9216.183511	4813.621667	1205.759766	-35.478752
9216.183511	4813.621667	1204.640625	53.985657
9216.183511	4813.621667	1203.520508	-25.063154
9216.183511	4813.621667	1202.401367	-39.707527
9216.183511	4813.621667	1201.281250	3.354786
9216.183511	4813.621667	1200.160156	-49.267284
9216.183511	4813.621667	1199.040039	98.381195
9216.183511	4813.621667	1197.918945	171.330841
9216.183511	4813.621667	1196.797852	6.133197
9216.183511	4813.621667	1195.676758	-116.293159
9216.183511	4813.621667	1194.555664	-0.096024
9216.183511	4813.621667	1193.433594	-1.288722
9216.183511	4813.621667	1192.311523	37.297588
9216.183511	4813.621667	1191.189453	-69.918472
9216.183511	4813.621667	1190.066406	-25.437616
9216.183511	4813.621667	1188.944336	101.019859
9216.183511	4813.621667	1187.821289	-7.757098
9216.183511	4813.621667	1186.698242	68.690552
9216.183511	4813.621667	1185.574219	126.969437
9216.183511	4813.621667	1184.451172	116.203247
9216.183511	4813.621667	1183.327148	29.631891
9216.183511	4813.621667	1182.203125	12.202826
9216.183511	4813.621667	1181.078125	75.424911
9216.183511	4813.621667	1179.954102	24.179935
9216.183511	4813.621667	1178.829102	-143.212372
9216.183511	4813.621667	1177.704102	-3.789738
9216.183511	4813.621667	1176.579102	-13.821977
9216.183511	4813.621667	1175.453125	-95.830627
9216.183511	4813.621667	1174.327148	61.423031
9216.183511	4813.621667	1173.201172	14.303988
9216.183511	4813.621667	1172.075195	-51.155785
9216.183511	4813.621667	1170.949219	-153.526840
9216.183511	4813.621667	1169.822266	-171.000793
9216.183511	4813.621667	1168.695313	-105.763535
9216.183511	4813.621667	1167.568359	-216.334824
9216.183511	4813.621667	1166.440430	-136.594818
9216.183511	4813.621667	1165.313477	-108.580780
9216.183511	4813.621667	1164.185547	7.559469
9216.183511	4813.621667	1163.057617	-60.194733
9216.183511	4813.621667	1161.928711	46.122025
9216.183511	4813.621667	1160.800781	11.388821
9216.183511	4813.621667	1159.671875	-78.807098
9216.183511	4813.621667	1158.541992	-112.309769
9216.183511	4813.621667	1157.413086	-18.264317
9216.183511	4813.621667	1156.283203	-173.714539
9216.183511	4813.621667	1155.154297	-5.147196
9216.183511	4813.621667	1154.023438	126.535904
9216.183511	4813.621667	1152.893555	-5.092874
9216.183511	4813.621667	1151.763672	-33.882736
9216.183511	4813.621667	1150.632813	48.443916
9216.183511	4813.621667	1149.501953	72.108124
9216.183511	4813.621667	1148.370117	28.264370
9216.183511	4813.621667	1147.239258	113.296570
9216.183511	4813.621667	1146.107422	143.842911
9216.183511	4813.621667	1144.975586	256.397064
9216.183511	4813.621667	1143.843750	123.173759
9216.183511	4813.621667	1142.710938	48.839027
9216.183511	4813.621667	1141.578125	223.084900
9216.183511	4813.621667	1140.445313	218.629059
9216.183511	4813.621667	1139.312500	153.195984
9216.183511	4813.621667	1138.178711	204.716232
9216.183511	4813.621667	1137.045898	-73.469505
9216.183511	4813.621667	1135.912109	40.515598
9216.183511	4813.621667	1134.777344	208.398880
9216.183511	4813.621667	1133.643555	196.893311
9216.183511	4813.621667	1132.508789	-86.793427
9216.183511	4813.621667	1131.374023	-18.812666
9216.183511	4813.621667	1130.239258	17.156809
9216.183511	4813.621667	1129.104492	-20.382137
9216.183511	4813.621667	1127.968750	64.619896
9216.183511	4813.621667	1126.833008	107.718788
9216.183511	4813.621667	1125.697266	81.162521
9216.183511	4813.621667	1124.560547	-121.086510
9216.183511	4813.621667	1123.424805	-211.415176
9216.183511	4813.621667	1122.288086	-43.226799
9216.183511	4813.621667	1121.151367	85.745636
9216.183511	4813.621667	1120.013672	-155.435028
9216.183511	4813.621667	1118.876953	-23.881899
9216.183511	4813.621667	1117.739258	-29.995663
9216.183511	4813.621667	1116.601563	-135.730804
9216.183511	4813.621667	1115.462891	43.642372
9216.183511	4813.621667	1114.324219	-80.319794
9216.183511	4813.621667	1113.186523	-62.295170
9216.183511	4813.621667	1112.046875	32.443214
9216.183511	4813.621667	1110.908203	45.865665
9216.183511	4813.621667	1109.769531	190.610031
9216.183511	4813.621667	1108.629883	15.600113
9216.183511	4813.621667	1107.490234	40.295860
9216.183511	4813.621667	1106.349609	-20.129961
9216.183511	4813.621667	1105.209961	286.589447
9216.183511	4813.621667	1104.069336	201.955826
9216.183511	4813.621667	1102.928711	162.748611
9216.183511	4813.621667	1101.787109	221.992004
9216.183511	4813.621667	1100.646484	251.736328
9216.183511	4813.621667	1099.504883	66.686165
9216.183511	4813.621667	1098.363281	242.072296
9216.183511	4813.621667	1097.221680	289.598877
9216.183511	4813.621667	1096.079102	381.822174
9216.183511	4813.621667	1094.936523	365.642029
9216.183511	4813.621667	1093.793945	360.549713
9216.183511	4813.621667	1092.651367	239.992584
9216.183511	4813.621667	1091.507813	195.203522
9216.183511	4813.621667	1090.364258	363.956573
9216.183511	4813.621667	1089.220703	307.993011
9216.183511	4813.621667	1088.077148	346.622528
9216.183511	4813.621667	1086.933594	90.389145
9216.183511	4813.621667	1085.789063	357.287292
9216.183511	4813.621667	1084.644531	178.344162
9216.183511	4813.621667	1083.499023	63.922260
9216.183511	4813.621667	1082.354492	-20.958038
9216.183511	4813.621667	1081.208984	19.006292
9216.183511	4813.621667	1080.063477	44.343582
9216.183511	4813.621667	1078.917969	112.182854
9216.183511	4813.621667	1077.771484	164.393311
9216.183511	4813.621667	1076.625977	35.968334
9216.183511	4813.621667	1075.479492	77.500664
9216.183511	4813.621667	1074.332031	129.547928
9216.183511	4813.621667	1073.185547	52.629177
9216.183511	4813.621667	1072.038086	152.227524
9216.183511	4813.621667	1070.890625	37.055214
9216.183511	4813.621667	1069.743164	77.528419
9216.183511	4813.621667	1068.594727	100.528763
9216.183511	4813.621667	1067.447266	100.585419
9216.183511	4813.621667	1066.298828	-27.517078
9216.183511	4813.621667	1065.149414	111.519188
9216.183511	4813.621667	1064.000977	112.088844
9216.183511	4813.621667	1062.851563	76.052414
9216.183511	4813.621667	1061.702148	36.478889
9216.183511	4813.621667	1060.552734	279.324524
9216.183511	4813.621667	1059.402344	190.588791
9216.183511	4813.621667	1058.252930	147.296631
9216.183511	4813.621667	1057.102539	122.542572
9216.183511	4813.621667	1055.951172	52.533726
9216.183511	4813.621667	1054.800781	105.808876
9216.183511	4813.621667	1053.649414	225.456497
9216.183511	4813.621667	1052.498047	69.461929
9216.183511	4813.621667	1051.346680	161.461105
9216.183511	4813.621667	1050.194336	214.704269
9216.183511	4813.621667	1049.042969	62.850693
9216.183511	4813.621667	1047.890625	161.802963
9216.183511	4813.621667	1046.738281	-34.727810
9216.183511	4813.621667	1045.584961	-105.267876
9216.183511	4813.621667	1044.431641	13.587297
9216.183511	4813.621667	1043.278320	-32.838829
9216.183511	4813.621667	1042.125000	24.159035
9216.183511	4813.621667	1040.971680	173.168030
9216.183511	4813.621667	1039.817383	139.154907
9216.183511	4813.621667	1038.663086	-140.694366
9216.183511	4813.621667	1037.508789	225.433929
9216.183511	4813.621667	1036.353516	15.627526
9216.183511	4813.621667	1035.198242	130.789307
9216.183511	4813.621667	1034.042969	283.951721
9216.183511	4813.621667	1032.887695	272.086700
9216.183511	4813.621667	1031.732422	314.399567
9216.183511	4813.621667	1030.576172	-36.242809
9216.183511	4813.621667	1029.419922	56.581184
9216.183511	4813.621667	1028.263672	67.994835
9216.183511	4813.621667	1027.106445	103.717514
9216.183511	4813.621667	1025.949219	63.724606
9216.183511	4813.621667	1024.792969	-3.882389
9216.183511	4813.621667	1023.634766	94.427017
9216.183511	4813.621667	1022.477539	132.643341
9216.183511	4813.621667	1021.319336	87.090599
9216.183511	4813.621667	1020.161133	16.378160
9216.183511	4813.621667	1019.002930	189.161530
9216.183511	4813.621667	1017.843750	69.142288
9216.183511	4813.621667	1016.684570	76.372238
9216.183511	4813.621667	1015.525391	195.918045
9216.183511	4813.621667	1014.366211	220.695023
9216.183511	4813.621667	1013.207031	37.999298
9216.183511	4813.621667	1012.046875	48.219822
9216.183511	4813.621667	1010.886719	17.659529
9216.183511	4813.621667	1009.726563	100.361649
9216.183511	4813.621667	1008.565430	-1.612115
9216.183511	4813.621667	1007.404297	88.980713
9216.183511	4813.621667	1006.243164	87.692162
9216.183511	4813.621667	1005.082031	24.057648
9216.183511	4813.621667	1003.920898	18.189737
9216.183511	4813.621667	1002.758789	57.616802
9216.183511	4813.621667	1001.596680	124.043373
9216.183511	4813.621667	1000.433594	57.255589
9216.183511	4813.621667	999.271484	45.033508
9216.183511	4813.621667	998.108398	188.814346
9216.183511	4813.621667	996.945313	131.797867
9216.183511	4813.621667	995.782227	-39.094791
9216.183511	4813.621667	994.618164	63.023968
9216.183511	4813.621667	993.454102	-3.341349
9216.183511	4813.621667	992.290039	151.650345
9216.183511	4813.621667	991.125977	206.728821
9216.183511	4813.621667	989.960938	142.227829
9216.183511	4813.621667	988.796875	21.447412
9216.183511	4813.621667	987.630859	0.743746
9216.183511	4813.621667	986.465820	87.727020
9216.183511	4813.621667	985.300781	127.218269
9216.183511	4813.621667	984.134766	-29.058212
9216.183511	4813.621667	982.968750	1.460882
9216.183511	4813.621667	981.801758	-44.241425
9216.183511	4813.621667	980.635742	83.804176
9216.183511	4813.621667	979.468750	-147.279343
9216.183511	4813.621667	978.301758	-32.477390
9216.183511	4813.621667	977.133789	128.050369
9216.183511	4813.621667	975.966797	100.209953
9216.183511	4813.621667	974.798828	95.279427
9216.183511	4813.621667	973.630859	-143.525360
9216.183511	4813.621667	972.461914	-75.679596
9216.183511	4813.621667	971.293945	-23.668699
9216.183511	4813.621667	970.125000	-152.545822
9216.183511	4813.621667	968.956055	-144.217117
9216.183511	4813.621667	967.786133	-133.722290
9216.183511	4813.621667	966.617188	-58.005596
9216.183511	4813.621667	965.447266	-11.337152
9216.183511	4813.621667	964.276367	-94.705040
9216.183511	4813.621667	963.106445	25.875292
9216.183511	4813.621667	961.935547	-102.944504
9216.183511	4813.621667	960.764648	-31.997206
9216.183511	4813.621667	959.593750	-106.765976
9216.183511	4813.621667	958.422852	22.389091
9216.183511	4813.621667	957.250977	62.629284
9216.183511	4813.621667	956.079102	170.801575
9216.183511	4813.621667	954.907227	114.184509
9216.183511	4813.621667	953.734375	24.295795
9216.183511	4813.621667	952.562500	39.725750
9216.183511	4813.621667	951.389648	-65.009071
9216.183511	4813.621667	950.215820	138.972382
9216.183511	4813.621667	949.042969	38.908958
9216.183511	4813.621667	947.869141	-48.919209
9216.183511	4813.621667	946.695313	-14.267570
9216.183511	4813.621667	945.521484	1.721520
9216.183511	4813.621667	944.346680	106.440605
9216.183511	4813.621667	943.172852	-19.866426
9216.183511	4813.621667	941.998047	-244.862000
9216.183511	4813.621667	940.822266	71.507767
9216.183511	4813.621667	939.647461	-240.027802
9216.183511	4813.621667	938.471680	-144.751328
9216.183511	4813.621667	937.295898	-177.535370
9216.183511	4813.621667	936.119141	-5.644708
9216.183511	4813.621667	934.943359	159.052429
9216.183511	4813.621667	933.766602	198.621887
9216.183511	4813.621667	932.589844	-38.278503
9216.183511	4813.621667	931.413086	-27.714003
9216.183511	4813.621667	930.235352	131.944061
9216.183511	4813.621667	929.057617	-59.264641
9216.183511	4813.621667	927.879883	71.497963
9216.183511	4813.621667	926.702148	-143.723984
9216.183511	4813.621667	925.523438	-135.519669
9216.183511	4813.621667	924.344727	151.285400
9216.183511	4813.621667	923.166016	-6.287137
9216.183511	4813.621667	921.987305	-5.350368
9216.183511	4813.621667	920.807617	31.582642
9216.183511	4813.621667	919.627930	34.463745
9216.183511	4813.621667	919.497070	-12.797645
9216.183511	4813.621667	918.331055	-40.731525
9216.183511	4813.621667	917.165039	0.907391
9216.183511	4813.621667	915.999023	-103.800659
9216.183511	4813.621667	914.833008	-172.507874
9216.183511	4813.621667	913.666016	-140.496933
9216.183511	4813.621667	912.499023	-55.773956
9216.183511	4813.621667	911.332031	-69.362221
9216.183511	4813.621667	910.165039	-109.316284
9216.183511	4813.621667	908.997070	44.787170
9216.183511	4813.621667	907.830078	71.867538
9216.183511	4813.621667	906.661133	134.848724
9216.183511	4813.621667	905.493164	109.203575
9216.183511	4813.621667	904.325195	-81.612411
9216.183511	4813.621667	903.156250	22.010534
9216.183511	4813.621667	901.987305	-10.809603
9216.183511	4813.621667	900.818359	-41.234814
9216.183511	4813.621667	899.648438	-150.587997
9216.183511	4813.621667	898.478516	-154.689621
9216.183511	4813.621667	897.308594	-67.950699
9216.183511	4813.621667	896.138672	-14.722709
9216.183511	4813.621667	894.968750	-33.224300
9216.183511	4813.621667	893.797852	84.466682
9216.183511	4813.621667	892.626953	-5.733865
9216.183511	4813.621667	891.456055	123.822578
9216.183511	4813.621667	890.284180	102.879425
9216.183511	4813.621667	889.113281	38.957905
9216.183511	4813.621667	887.941406	-118.036324
9216.183511	4813.621667	886.768555	-29.171583
9216.183511	4813.621667	885.596680	64.414230
9216.183511	4813.621667	884.423828	38.681404
9216.183511	4813.621667	883.250977	-27.597687
9216.183511	4813.621667	882.078125	194.662964
9216.183511	4813.621667	880.905273	61.605968
9216.183511	4813.621667	879.731445	100.208031
9216.183511	4813.621667	878.557617	105.421249
9216.183511	4813.621667	877.383789	-60.921329
9216.183511	4813.621667	876.209961	-115.250336
9216.183511	4813.621667	875.035156	-124.315697
9216.183511	4813.621667	873.860352	-92.909424
9216.183511	4813.621667	872.685547	126.539795
9216.183511	4813.621667	871.510742	112.638420
9216.183511	4813.621667	870.334961	-58.319569
9216.183511	4813.621667	869.159180	-76.954308
9216.183511	4813.621667	867.983398	6.689300
9216.183511	4813.621667	866.807617	-35.753975
9216.183511	4813.621667	865.630859	-116.231430
9216.183511	4813.621667	864.454102	-89.712769
9216.183511	4813.621667	863.277344	-179.673599
9216.183511	4813.621667	862.100586	-20.106092
9216.183511	4813.621667	860.922852	60.987698
9216.183511	4813.621667	859.745117	-74.108002
9216.183511	4813.621667	858.567383	-90.421547
9216.183511	4813.621667	857.389648	45.213070
9216.183511	4813.621667	856.210938	-118.311707
9216.183511	4813.621667	855.032227	138.291275
9216.183511	4813.621667	853.853516	64.959496
9216.183511	4813.621667	852.674805	-1.236785
9216.183511	4813.621667	851.495117	96.241325
9216.183511	4813.621667	850.315430	-33.979160
9216.183511	4813.621667	849.135742	-114.369957
9216.183511	4813.621667	847.956055	23.333517
9216.183511	4813.621667	846.775391	-19.138496
9216.183511	4813.621667	845.595703	-111.362869
9216.183511	4813.621667	844.415039	-158.549988
9216.183511	4813.621667	843.233398	90.324471
9216.183511	4813.621667	842.052734	95.186607
9216.183511	4813.621667	840.871094	10.074985
9216.183511	4813.621667	839.689453	168.781723
9216.183511	4813.621667	838.506836	78.935402
9216.183511	4813.621667	837.325195	-15.619841
9216.183511	4813.621667	836.142578	-55.740063
9216.183511	4813.621667	834.959961	-124.235664
9216.183511	4813.621667	833.777344	-74.489555
9216.183511	4813.621667	832.593750	-27.137873
9216.183511	4813.621667	831.410156	107.632050
9216.183511	4813.621667	830.226563	277.780060
9216.183511	4813.621667	829.042969	24.945686
9216.183511	4813.621667	827.858398	-31.742601
9216.183511	4813.621667	826.673828	69.806198
9216.183511	4813.621667	825.489258	-1.060372
9216.183511	4813.621667	824.304688	67.365562
9216.183511	4813.621667	823.120117	-57.780396
9216.183511	4813.621667	821.934570	-17.712624
9216.183511	4813.621667	820.749023	-93.272697
9216.183511	4813.621667	819.562500	90.639427
9216.183511	4813.621667	818.376953	69.298813
9216.183511	4813.621667	817.190430	-34.565033
9216.183511	4813.621667	816.003906	17.176064
9216.183511	4813.621667	814.817383	-140.867691
9216.183511	4813.621667	813.629883	96.989594
9216.183511	4813.621667	812.442383	-46.898273
9216.183511	4813.621667	811.254883	-37.649628
9216.183511	4813.621667	810.067383	-51.967758
9216.183511	4813.621667	808.878906	-30.978354
9216.183511	4813.621667	807.690430	-132.411560
9216.183511	4813.621667	806.501953	147.418976
9216.183511	4813.621667	805.313477	-111.680298
9216.183511	4813.621667	804.124023	-62.529465
9216.183511	4813.621667	802.934570	45.380634
9216.183511	4813.621667	801.745117	103.851563
9216.183511	4813.621667	800.555664	63.544266
9216.183511	4813.621667	799.365234	-12.017661
9216.183511	4813.621667	798.175781	86.326004
9216.183511	4813.621667	796.985352	-149.004318
9216.183511	4813.621667	795.793945	15.066304
9216.183511	4813.621667	794.603516	129.732376
9216.183511	4813.621667	793.412109	-4.550652
9216.183511	4813.621667	792.220703	51.350513
9216.183511	4813.621667	791.028320	-64.118790
9216.183511	4813.621667	789.836914	-1.226850
9216.183511	4813.621667	788.644531	94.467018
9216.183511	4813.621667	787.452148	93.935013
9216.183511	4813.621667	786.258789	23.033546
9216.183511	4813.621667	785.066406	-90.061234
9216.183511	4813.621667	783.873047	-189.063065
9216.183511	4813.621667	782.679688	-161.489914
9216.183511	4813.621667	781.485352	-131.604614
9216.183511	4813.621667	780.291992	41.147057
9216.183511	4813.621667	779.097656	12.383252
9216.183511	4813.621667	777.903320	35.128036
9216.183511	4813.621667	776.708008	3.995491
9216.183511	4813.621667	775.512695	80.525330
9216.183511	4813.621667	774.318359	61.054203
9216.183511	4813.621667	773.122070	36.890537
9216.183511	4813.621667	771.926758	-43.425934
9216.183511	4813.621667	770.730469	180.302780
9216.183511	4813.621667	769.534180	-61.394260
9216.183511	4813.621667	768.337891	108.431915
9216.183511	4813.621667	767.141602	53.785938
9216.183511	4813.621667	765.944336	204.776840
9216.183511	4813.621667	764.747070	138.406403
9216.183511	4813.621667	763.549805	125.762268
9216.183511	4813.621667	762.351563	201.842056
9216.183511	4813.621667	761.154297	53.721058
9216.183511	4813.621667	759.956055	-40.671669
9216.183511	4813.621667	758.757813	152.014389
9216.183511	4813.621667	757.558594	71.590263
9216.183511	4813.621667	756.359375	243.126221
9216.183511	4813.621667	755.160156	158.000916
9216.183511	4813.621667	753.960938	147.506088
9216.183511	4813.621667	752.761719	216.257706
9216.183511	4813.621667	751.561523	82.162392
9216.183511	4813.621667	750.361328	122.880356
9216.183511	4813.621667	749.160156	275.393372
9216.183511	4813.621667	747.959961	353.270325
9216.183511	4813.621667	746.758789	35.158604
9216.183511	4813.621667	745.557617	96.698952
9216.183511	4813.621667	744.356445	246.649933
9216.183511	4813.621667	743.154297	63.671898
9216.183511	4813.621667	741.952148	118.101021
9216.183511	4813.621667	740.750000	-2.014127
9216.183511	4813.621667	739.547852	57.000042
9216.183511	4813.621667	738.344727	-0.320219
9216.183511	4813.621667	737.142578	-39.046230
9216.183511	4813.621667	735.939453	-84.758568
9216.183511	4813.621667	734.735352	-0.330601
9216.183511	4813.621667	733.532227	95.648926
9216.183511	4813.621667	732.328125	84.692055
9216.183511	4813.621667	731.124023	250.232819
9216.183511	4813.621667	729.918945	46.442097
9216.183511	4813.621667	728.714844	-38.886845
9216.183511	4813.621667	727.509766	100.946335
9216.183511	4813.621667	726.303711	29.501879
9216.183511	4813.621667	725.098633	94.950180
9216.183511	4813.621667	723.892578	100.023651
9216.183511	4813.621667	722.686523	-78.162827
9216.183511	4813.621667	721.480469	-8.194428
9216.183511	4813.621667	720.274414	87.211823
9216.183511	4813.621667	719.067383	6.388679
9216.183511	4813.621667	717.860352	-9.548861
9216.183511	4813.621667	716.653320	-166.842224
9216.183511	4813.621667	715.445313	48.832493
9216.183511	4813.621667	714.238281	-177.954422
9216.183511	4813.621667	713.030273	95.447952
9216.183511	4813.621667	711.821289	93.223885
9216.183511	4813.621667	710.613281	-128.906723
9216.183511	4813.621667	709.404297	-172.804855
9216.183511	4813.621667	708.195313	162.687714
9216.183511	4813.621667	706.986328	-101.059097
9216.183511	4813.621667	705.776367	178.705154
9216.183511	4813.621667	704.566406	206.305771
9216.183511	4813.621667	703.356445	113.658577
9216.183511	4813.621667	702.146484	229.007538
9216.183511	4813.621667	700.935547	-4.624527
9216.183511	4813.621667	699.724609	-175.823334
9216.183511	4813.621667	698.513672	-60.598827
9216.183511	4813.621667	697.302734	77.629906
9216.183511	4813.621667	696.090820	58.776184
9216.183511	4813.621667	694.878906	243.007370
9216.183511	4813.621667	693.666992	117.898499
9216.183511	4813.621667	692.455078	193.526581
9216.183511	4813.621667	691.242188	77.629051
9216.183511	4813.621667	690.029297	81.664436
9216.183511	4813.621667	688.816406	330.062286
9216.183511	4813.621667	687.602539	-2.598259
9216.183511	4813.621667	686.389648	52.036793
9216.183511	4813.621667	685.175781	127.347542
9216.183511	4813.621667	683.960938	126.561317
9216.183511	4813.621667	682.747070	326.122131
9216.183511	4813.621667	681.532227	177.835724
9216.183511	4813.621667	680.317383	167.710663
9216.183511	4813.621667	679.102539	164.454880
9216.183511	4813.621667	677.886719	62.202011
9216.183511	4813.621667	676.670898	-86.065598
9216.183511	4813.621667	675.455078	41.733028
9216.183511	4813.621667	674.239258	29.143719
9216.183511	4813.621667	673.022461	221.165253
9216.183511	4813.621667	671.805664	180.874832
9216.183511	4813.621667	670.588867	292.255829
9216.183511	4813.621667	669.372070	123.199753
9216.183511	4813.621667	668.154297	133.375244
9216.183511	4813.621667	666.936523	120.535416
9216.183511	4813.621667	665.718750	43.357018
9216.183511	4813.621667	664.500977	170.515808
9216.183511	4813.621667	663.282227	56.547443
9216.183511	4813.621667	662.063477	190.451340
9216.183511	4813.621667	660.844727	172.815369
9216.183511	4813.621667	659.625000	3.735687
9216.183511	4813.621667	658.405273	-50.634884
9216.183511	4813.621667	657.185547	108.234924
9216.183511	4813.621667	655.965820	166.121506
9216.183511	4813.621667	654.745117	33.692196
9216.183511	4813.621667	653.525391	-103.303627
9216.183511	4813.621667	652.303711	105.679840
9216.183511	4813.621667	651.083008	90.048065
9216.183511	4813.621667	649.861328	138.505661
9216.183511	4813.621667	648.640625	264.753479
9216.183511	4813.621667	647.417969	267.284241
9216.183511	4813.621667	646.196289	98.119019
9216.183511	4813.621667	644.973633	-157.972336
9216.183511	4813.621667	643.750977	22.969143
9216.183511	4813.621667	642.528320	96.290215
9216.183511	4813.621667	641.305664	7.175573
9216.183511	4813.621667	640.082031	190.129166
9216.183511	4813.621667	638.858398	-47.631115
9216.183511	4813.621667	637.634766	91.753265
9216.183511	4813.621667	636.410156	-59.144470
9216.183511	4813.621667	635.185547	64.109512
9216.183511	4813.621667	633.960938	59.370831
9216.183511	4813.621667	632.736328	234.985352
9216.183511	4813.621667	631.510742	184.471497
9216.183511	4813.621667	630.285156	86.007416
9216.183511	4813.621667	629.059570	21.774925
9216.183511	4813.621667	627.833984	108.108192
9216.183511	4813.621667	626.607422	-6.366031
9216.183511	4813.621667	625.380859	36.525650
9216.183511	4813.621667	624.154297	97.599846
9216.183511	4813.621667	622.927734	-121.776024
9216.183511	4813.621667	621.700195	28.109648
9216.183511	4813.621667	620.472656	-43.130135
9216.183511	4813.621667	619.245117	40.532211
9216.183511	4813.621667	618.016602	137.784805
9216.183511	4813.621667	616.788086	130.210464
9216.183511	4813.621667	615.559570	-7.169037
9216.183511	4813.621667	614.331055	39.842842
9216.183511	4813.621667	613.101563	75.416565
9216.183511	4813.621667	611.872070	42.681000
9216.183511	4813.621667	610.642578	-51.493443
9216.183511	4813.621667	609.413086	33.999008
9216.183511	4813.621667	608.182617	-76.125381
9216.183511	4813.621667	606.952148	-88.489548
9216.183511	4813.621667	605.721680	-150.884186
9216.183511	4813.621667	604.491211	-104.218147
9216.183511	4813.621667	603.259766	-0.813336
9216.183511	4813.621667	602.028320	-99.637276
9216.183511	4813.621667	600.796875	-5.429850
9216.183511	4813.621667	599.564453	145.458664
9216.183511	4813.621667	598.332031	200.914352
9216.183511	4813.621667	597.099609	220.003006
9216.183511	4813.621667	595.867188	109.721092
9216.183511	4813.621667	594.633789	62.967289
9216.183511	4813.621667	593.400391	-81.322388
9216.183511	4813.621667	592.166992	57.852444
9216.183511	4813.621667	590.933594	-59.233402
9216.183511	4813.621667	589.699219	-183.103195
9216.183511	4813.621667	588.464844	19.355947
9216.183511	4813.621667	587.230469	-50.166103
9216.183511	4813.621667	585.995117	7.151086
9216.183511	4813.621667	584.760742	-220.920029
9216.183511	4813.621667	583.525391	87.664337
9216.183511	4813.621667	582.289063	90.497299
9216.183511	4813.621667	581.053711	-24.378017
9216.183511	4813.621667	579.817383	-141.499023
9216.183511	4813.621667	578.581055	-75.362953
9216.183511	4813.621667	577.343750	-18.332115
9216.183511	4813.621667	576.107422	74.830139
9216.183511	4813.621667	574.870117	176.966156
9216.183511	4813.621667	573.631836	82.387848
9216.183511	4813.621667	572.394531	-34.768597
9216.183511	4813.621667	571.156250	35.614456
9216.183511	4813.621667	569.917969	-27.324354
9216.183511	4813.621667	568.679688	160.410553
9216.183511	4813.621667	567.440430	72.583733
9216.183511	4813.621667	566.202148	291.773926
9216.183511	4813.621667	564.961914	70.752289
9216.183511	4813.621667	563.722656	199.544495
9216.183511	4813.621667	562.482422	-10.128508
9216.183511	4813.621667	561.243164	73.474251
9216.183511	4813.621667	560.001953	-30.145777
9216.183511	4813.621667	558.761719	-212.644363
9216.183511	4813.621667	557.520508	-210.263596
9216.183511	4813.621667	556.279297	103.077744
9216.183511	4813.621667	555.038086	109.856689
9216.183511	4813.621667	553.795898	-47.822529
9216.183511	4813.621667	552.554688	-104.108383
9216.183511	4813.621667	551.311523	85.024696
9216.183511	4813.621667	550.069336	17.440750
9216.183511	4813.621667	548.826172	-32.129852
9216.183511	4813.621667	547.583984	-43.439983
9216.183511	4813.621667	546.339844	-200.995468
9216.183511	4813.621667	545.096680	-14.375525
9216.183511	4813.621667	543.852539	12.489980
9216.183511	4813.621667	542.608398	39.329823
9216.183511	4813.621667	541.364258	21.189356
9216.183511	4813.621667	540.119141	-39.658398
9216.183511	4813.621667	538.875000	-107.229889
9216.183511	4813.621667	537.628906	-35.524330
9216.183511	4813.621667	536.383789	-244.581726
9216.183511	4813.621667	535.137695	-101.053795
9216.183511	4813.621667	533.892578	-146.159103
9216.183511	4813.621667	532.645508	-11.718284
9216.183511	4813.621667	531.399414	-128.654083
9216.183511	4813.621667	530.152344	-52.624184
9216.183511	4813.621667	528.905273	-138.126358
9216.183511	4813.621667	527.658203	0.640511
9216.183511	4813.621667	526.410156	-37.779243
9216.183511	4813.621667	525.163086	-94.119789
9216.183511	4813.621667	523.914063	-231.127747
9216.183511	4813.621667	522.666016	35.205807
9216.183511	4813.621667	521.416992	-41.309181
9216.183511	4813.621667	520.167969	-146.912735
9216.183511	4813.621667	518.918945	-15.140740
9216.183511	4813.621667	517.669922	-111.766403
9216.183511	4813.621667	516.419922	-20.363705
9216.183511	4813.621667	515.169922	-22.987169
9216.183511	4813.621667	513.919922	-65.884666
9216.183511	4813.621667	512.668945	76.866829
9216.183511	4813.621667	511.417969	127.866074
9216.183511	4813.621667	510.166992	17.868063
9216.183511	4813.621667	508.916016	-69.737457
9216.183511	4813.621667	507.664063	34.869907
9216.183511	4813.621667	506.412109	58.992928
9216.183511	4813.621667	505.160156	-122.407425
9216.183511	4813.621667	503.907227	-185.376083
9216.183511	4813.621667	502.655273	102.228561
9216.183511	4813.621667	501.402344	108.426941
9216.183511	4813.621667	500.148438	0.787321
9216.183511	4813.621667	498.895508	-46.561451
9216.183511	4813.621667	497.641602	162.649002
9216.183511	4813.621667	496.387695	121.958572
9216.183511	4813.621667	495.132813	241.827011
9216.183511	4813.621667	493.878906	-32.968529
9216.183511	4813.621667	492.624023	48.973991
9216.183511	4813.621667	491.368164	-80.835976
9216.183511	4813.621667	490.113281	5.521254
9216.183511	4813.621667	488.857422	62.870411
9216.183511	4813.621667	487.601563	122.412315
9216.183511	4813.621667	486.344727	170.782211
9216.183511	4813.621667	485.088867	174.603760
9216.183511	4813.621667	483.832031	100.512054
9216.183511	4813.621667	482.575195	115.446053
9216.183511	4813.621667	481.317383	43.596458
9216.183511	4813.621667	480.059570	236.440262
9216.183511	4813.621667	478.801758	77.845886
9216.183511	4813.621667	477.543945	246.116318
9216.183511	4813.621667	476.285156	140.901031
9216.183511	4813.621667	475.027344	-46.504650
9216.183511	4813.621667	473.767578	137.181168
9216.183511	4813.621667	472.508789	165.283157
9216.183511	4813.621667	471.249023	29.011927
9216.183511	4813.621667	469.989258	61.523823
9216.183511	4813.621667	468.729492	29.625360
9216.183511	4813.621667	467.469727	-24.474655
9216.183511	4813.621667	466.208984	-29.763020
9216.183511	4813.621667	464.948242	44.789471
9216.183511	4813.621667	463.686523	179.162659
9216.183511	4813.621667	462.425781	102.798042
9216.183511	4813.621667	461.164063	33.084236
9216.183511	4813.621667	459.901367	-45.500851
9216.183511	4813.621667	458.639648	-106.350761
9216.183511	4813.621667	457.376953	227.152267
9216.183511	4813.621667	456.114258	113.035179
9216.183511	4813.621667	454.851563	156.165283
9216.183511	4813.621667	453.587891	13.249250
9216.183511	4813.621667	452.324219	31.947618
9216.183511	4813.621667	451.060547	77.151917
9216.183511	4813.621667	449.796875	208.585632
9216.183511	4813.621667	448.532227	154.087769
9216.183511	4813.621667	447.267578	-4.387375
9216.183511	4813.621667	446.002930	-41.227882
9216.183511	4813.621667	444.737305	-27.265030
9216.183511	4813.621667	443.471680	192.188721
9216.183511	4813.621667	442.206055	15.936425
9216.183511	4813.621667	440.940430	171.093521
9216.183511	4813.621667	439.673828	80.932693
9216.183511	4813.621667	438.407227	169.619797
9216.183511	4813.621667	437.140625	216.246567
9216.183511	4813.621667	435.873047	225.247314
9216.183511	4813.621667	434.605469	20.095377
9216.183511	4813.621667	433.337891	229.762054
9216.183511	4813.621667	432.070313	242.921661
9216.183511	4813.621667	430.801758	180.996155
9216.183511	4813.621667	429.533203	229.255539
9216.183511	4813.621667	428.264648	288.420654
9216.183511	4813.621667	426.996094	184.359741
9216.183511	4813.621667	425.726563	190.413910
9216.183511	4813.621667	424.457031	260.247498
9216.183511	4813.621667	423.186523	257.245148
9216.183511	4813.621667	421.916992	342.219421
9216.183511	4813.621667	420.646484	231.080261
9216.183511	4813.621667	419.375977	203.509369
9216.183511	4813.621667	418.104492	76.781151
9216.183511	4813.621667	416.833008	183.196381
9216.183511	4813.621667	415.561523	236.630920
9216.183511	4813.621667	414.290039	164.535706
9216.183511	4813.621667	413.017578	255.025909
9216.183511	4813.621667	411.746094	77.130486
9216.183511	4813.621667	410.472656	189.251770
9216.183511	4813.621667	409.200195	57.254440
9216.183511	4813.621667	407.926758	-52.899502
9216.183511	4813.621667	406.653320	-24.810928
9216.183511	4813.621667	405.379883	49.191719
9216.183511	4813.621667	404.105469	15.383745
9216.183511	4813.621667	402.831055	56.019669
9216.183511	4813.621667	401.556641	153.487350
9216.183511	4813.621667	400.282227	244.116837
9216.183511	4813.621667	399.006836	389.315948
9216.183511	4813.621667	397.731445	301.756104
9216.183511	4813.621667	396.456055	113.137917
9216.183511	4813.621667	395.179688	86.567329
9216.183511	4813.621667	393.903320	191.253799
9216.183511	4813.621667	392.626953	83.090782
9216.183511	4813.621667	391.350586	106.148270
9216.183511	4813.621667	390.073242	212.138046
9216.183511	4813.621667	388.795898	85.681686
9216.183511	4813.621667	387.518555	346.486267
9216.183511	4813.621667	386.240234	153.782837
9216.183511	4813.621667	384.961914	0.238846
9216.183511	4813.621667	383.683594	227.124237
9216.183511	4813.621667	382.405273	127.658966
9216.183511	4813.621667	381.125977	-11.480553
9216.183511	4813.621667	379.846680	91.779472
9216.183511	4813.621667	378.567383	168.399521
9216.183511	4813.621667	377.287109	102.543770
9216.183511	4813.621667	376.006836	49.441360
9216.183511	4813.621667	374.726563	65.869446
9216.183511	4813.621667	373.446289	110.274864
9216.183511	4813.621667	372.165039	206.632111
9216.183511	4813.621667	370.883789	197.728134
9216.183511	4813.621667	369.602539	-1.504671
9216.183511	4813.621667	368.320313	8.363461
9216.183511	4813.621667	367.039063	-71.677383
9216.183511	4813.621667	365.755859	113.911331
9216.183511	4813.621667	364.473633	87.406197
9216.183511	4813.621667	363.190430	-90.048653
9216.183511	4813.621667	361.907227	150.564713
9216.183511	4813.621667	360.624023	152.992218
9216.183511	4813.621667	359.340820	50.282272
9216.183511	4813.621667	358.056641	49.413960
9216.183511	4813.621667	356.772461	93.699547
9216.183511	4813.621667	355.487305	95.976959
9216.183511	4813.621667	354.202148	-59.098537
9216.183511	4813.621667	352.916992	-179.913666
9216.183511	4813.621667	351.631836	-90.254868
9216.183511	4813.621667	350.346680	-118.776093
9216.183511	4813.621667	349.060547	78.216927
9216.183511	4813.621667	347.774414	-108.294601
9216.183511	4813.621667	346.487305	2.385731
9216.183511	4813.621667	345.200195	-142.029114
9216.183511	4813.621667	343.913086	21.448792
9216.183511	4813.621667	342.625977	-165.712540
9216.183511	4813.621667	341.338867	-25.584448
9216.183511	4813.621667	340.050781	-73.119713
9216.183511	4813.621667	338.762695	-30.273302
9216.183511	4813.621667	337.473633	-3.518554
9216.183511	4813.621667	336.184570	-70.970169
9216.183511	4813.621667	334.895508	-108.909401
9216.183511	4813.621667	333.606445	-134.732162
9216.183511	4813.621667	332.317383	-29.179440
9216.183511	4813.621667	331.027344	-50.428200
9216.183511	4813.621667	329.736328	-18.482201
9216.183511	4813.621667	328.446289	-85.062416
9216.183511	4813.621667	327.155273	194.040314
9216.183511	4813.621667	325.864258	-73.989571
9216.183511	4813.621667	324.573242	-39.738373
9216.183511	4813.621667	323.281250	-279.499664
9216.183511	4813.621667	321.989258	-160.883896
9216.183511	4813.621667	320.697266	1.981236
9216.183511	4813.621667	319.405273	-93.938591
9216.183511	4813.621667	318.112305	-130.480347
9216.183511	4813.621667	316.819336	26.442339
9216.183511	4813.621667	315.526367	-32.076416
9216.183511	4813.621667	314.232422	50.804764
9216.183511	4813.621667	312.938477	60.987965
9216.183511	4813.621667	311.644531	84.943779
9216.183511	4813.621667	310.349609	122.589111
9216.183511	4813.621667	309.054688	35.663391
9216.183511	4813.621667	307.759766	169.798752
9216.183511	4813.621667	306.464844	218.183456
9216.183511	4813.621667	305.168945	208.858856
9216.183511	4813.621667	303.873047	185.045944
9216.183511	4813.621667	302.577148	394.889404
9216.183511	4813.621667	301.281250	488.684692
9216.183511	4813.621667	299.984375	537.602966
