#X		#Y		#Wave		#Intensity
-15307.677128	5281.575000	1999.946289	77.611946
-15307.677128	5281.575000	1998.981445	181.777023
-15307.677128	5281.575000	1998.017578	65.972794
-15307.677128	5281.575000	1997.052734	-114.330627
-15307.677128	5281.575000	1996.088867	-64.260574
-15307.677128	5281.575000	1995.124023	50.091022
-15307.677128	5281.575000	1994.159180	151.907730
-15307.677128	5281.575000	1993.193359	102.530495
-15307.677128	5281.575000	1992.228516	127.340561
-15307.677128	5281.575000	1991.262695	1.045757
-15307.677128	5281.575000	1990.296875	33.090710
-15307.677128	5281.575000	1989.331055	144.208939
-15307.677128	5281.575000	1988.365234	79.537254
-15307.677128	5281.575000	1987.398438	-133.613480
-15307.677128	5281.575000	1986.432617	-15.387405
-15307.677128	5281.575000	1985.465820	-6.088786
-15307.677128	5281.575000	1984.499023	161.335800
-15307.677128	5281.575000	1983.532227	-126.177208
-15307.677128	5281.575000	1982.565430	58.335979
-15307.677128	5281.575000	1981.597656	30.212847
-15307.677128	5281.575000	1980.629883	-77.031036
-15307.677128	5281.575000	1979.662109	112.068993
-15307.677128	5281.575000	1978.694336	-74.327133
-15307.677128	5281.575000	1977.726563	-60.746021
-15307.677128	5281.575000	1976.758789	216.882370
-15307.677128	5281.575000	1975.790039	32.817730
-15307.677128	5281.575000	1974.821289	-30.340057
-15307.677128	5281.575000	1973.852539	76.685982
-15307.677128	5281.575000	1972.883789	84.938438
-15307.677128	5281.575000	1971.915039	149.843643
-15307.677128	5281.575000	1970.945313	54.388386
-15307.677128	5281.575000	1969.975586	45.188362
-15307.677128	5281.575000	1969.005859	104.945229
-15307.677128	5281.575000	1968.036133	137.511002
-15307.677128	5281.575000	1967.066406	209.427139
-15307.677128	5281.575000	1966.096680	209.819031
-15307.677128	5281.575000	1965.125977	59.912220
-15307.677128	5281.575000	1964.155273	262.146820
-15307.677128	5281.575000	1963.184570	146.645279
-15307.677128	5281.575000	1962.213867	8.979138
-15307.677128	5281.575000	1961.242188	-52.391972
-15307.677128	5281.575000	1960.271484	38.771725
-15307.677128	5281.575000	1959.299805	24.061895
-15307.677128	5281.575000	1958.328125	-89.081146
-15307.677128	5281.575000	1957.356445	83.051781
-15307.677128	5281.575000	1956.384766	55.906155
-15307.677128	5281.575000	1955.412109	77.893295
-15307.677128	5281.575000	1954.439453	-0.946760
-15307.677128	5281.575000	1953.467773	121.714249
-15307.677128	5281.575000	1952.495117	180.404694
-15307.677128	5281.575000	1951.521484	177.616699
-15307.677128	5281.575000	1950.548828	142.862213
-15307.677128	5281.575000	1949.575195	-58.904911
-15307.677128	5281.575000	1948.601563	-20.024401
-15307.677128	5281.575000	1947.627930	-5.742373
-15307.677128	5281.575000	1946.654297	153.300507
-15307.677128	5281.575000	1945.680664	329.427429
-15307.677128	5281.575000	1944.706055	17.229704
-15307.677128	5281.575000	1943.732422	195.701141
-15307.677128	5281.575000	1942.757813	165.612305
-15307.677128	5281.575000	1941.783203	282.624603
-15307.677128	5281.575000	1940.807617	-31.913061
-15307.677128	5281.575000	1939.833008	80.128059
-15307.677128	5281.575000	1938.857422	-70.121407
-15307.677128	5281.575000	1937.881836	142.284134
-15307.677128	5281.575000	1936.906250	-7.977813
-15307.677128	5281.575000	1935.930664	-50.442650
-15307.677128	5281.575000	1934.955078	-51.288372
-15307.677128	5281.575000	1933.978516	97.188171
-15307.677128	5281.575000	1933.001953	130.533218
-15307.677128	5281.575000	1932.025391	129.577499
-15307.677128	5281.575000	1931.048828	243.606827
-15307.677128	5281.575000	1930.072266	308.638428
-15307.677128	5281.575000	1929.094727	1.819618
-15307.677128	5281.575000	1928.118164	208.674026
-15307.677128	5281.575000	1927.140625	-0.249559
-15307.677128	5281.575000	1926.163086	-13.539606
-15307.677128	5281.575000	1925.184570	-70.843887
-15307.677128	5281.575000	1924.207031	25.814463
-15307.677128	5281.575000	1923.228516	205.489899
-15307.677128	5281.575000	1922.250000	84.604683
-15307.677128	5281.575000	1921.271484	56.557774
-15307.677128	5281.575000	1920.292969	28.503954
-15307.677128	5281.575000	1919.314453	198.205414
-15307.677128	5281.575000	1918.334961	-17.862776
-15307.677128	5281.575000	1917.355469	195.680664
-15307.677128	5281.575000	1916.375977	113.869385
-15307.677128	5281.575000	1915.396484	56.469429
-15307.677128	5281.575000	1914.416992	11.272225
-15307.677128	5281.575000	1913.436523	39.239037
-15307.677128	5281.575000	1912.457031	23.292265
-15307.677128	5281.575000	1911.476563	-7.291509
-15307.677128	5281.575000	1910.496094	-23.254032
-15307.677128	5281.575000	1909.515625	82.625755
-15307.677128	5281.575000	1908.534180	-220.884369
-15307.677128	5281.575000	1907.552734	113.953354
-15307.677128	5281.575000	1906.572266	-57.949463
-15307.677128	5281.575000	1905.590820	18.582964
-15307.677128	5281.575000	1904.608398	168.112427
-15307.677128	5281.575000	1903.626953	13.297764
-15307.677128	5281.575000	1902.644531	-75.760521
-15307.677128	5281.575000	1901.663086	-72.327385
-15307.677128	5281.575000	1900.680664	18.674156
-15307.677128	5281.575000	1899.698242	17.199642
-15307.677128	5281.575000	1898.714844	-135.069290
-15307.677128	5281.575000	1897.732422	250.075104
-15307.677128	5281.575000	1896.749023	212.059326
-15307.677128	5281.575000	1895.765625	50.087910
-15307.677128	5281.575000	1894.782227	182.214798
-15307.677128	5281.575000	1893.798828	32.439190
-15307.677128	5281.575000	1892.814453	-24.981184
-15307.677128	5281.575000	1891.831055	294.074554
-15307.677128	5281.575000	1890.846680	-49.933102
-15307.677128	5281.575000	1889.862305	-138.894287
-15307.677128	5281.575000	1888.877930	61.031967
-15307.677128	5281.575000	1887.892578	132.243927
-15307.677128	5281.575000	1886.908203	-87.757622
-15307.677128	5281.575000	1885.922852	73.203560
-15307.677128	5281.575000	1884.937500	42.473629
-15307.677128	5281.575000	1883.952148	86.927711
-15307.677128	5281.575000	1882.965820	46.490383
-15307.677128	5281.575000	1881.980469	61.820652
-15307.677128	5281.575000	1880.994141	159.543884
-15307.677128	5281.575000	1880.007813	293.573608
-15307.677128	5281.575000	1879.021484	257.943176
-15307.677128	5281.575000	1878.035156	91.509041
-15307.677128	5281.575000	1877.047852	164.902771
-15307.677128	5281.575000	1876.061523	109.924049
-15307.677128	5281.575000	1875.074219	67.061401
-15307.677128	5281.575000	1874.086914	130.714706
-15307.677128	5281.575000	1873.098633	-52.520691
-15307.677128	5281.575000	1872.111328	253.087540
-15307.677128	5281.575000	1871.123047	147.299347
-15307.677128	5281.575000	1870.135742	97.180069
-15307.677128	5281.575000	1869.147461	-49.663670
-15307.677128	5281.575000	1868.158203	30.819899
-15307.677128	5281.575000	1867.169922	19.406097
-15307.677128	5281.575000	1866.180664	70.829422
-15307.677128	5281.575000	1865.192383	20.735315
-15307.677128	5281.575000	1864.203125	101.118011
-15307.677128	5281.575000	1863.213867	-84.253464
-15307.677128	5281.575000	1862.223633	-40.123711
-15307.677128	5281.575000	1861.234375	-157.800385
-15307.677128	5281.575000	1860.244141	2.197994
-15307.677128	5281.575000	1859.253906	-74.423019
-15307.677128	5281.575000	1858.263672	-40.008152
-15307.677128	5281.575000	1857.273438	252.567581
-15307.677128	5281.575000	1856.282227	79.422829
-15307.677128	5281.575000	1855.291992	111.357384
-15307.677128	5281.575000	1854.300781	15.460090
-15307.677128	5281.575000	1853.309570	-87.641632
-15307.677128	5281.575000	1852.317383	127.490166
-15307.677128	5281.575000	1851.326172	89.467819
-15307.677128	5281.575000	1850.333984	12.894759
-15307.677128	5281.575000	1849.342773	100.176308
-15307.677128	5281.575000	1848.350586	47.704918
-15307.677128	5281.575000	1847.357422	12.101647
-15307.677128	5281.575000	1846.365234	27.074581
-15307.677128	5281.575000	1845.372070	56.477074
-15307.677128	5281.575000	1844.379883	78.642242
-15307.677128	5281.575000	1843.386719	74.317940
-15307.677128	5281.575000	1842.393555	91.643356
-15307.677128	5281.575000	1841.399414	-13.735632
-15307.677128	5281.575000	1840.406250	196.000443
-15307.677128	5281.575000	1839.412109	78.603294
-15307.677128	5281.575000	1838.417969	103.096901
-15307.677128	5281.575000	1837.423828	166.033966
-15307.677128	5281.575000	1836.429688	214.520859
-15307.677128	5281.575000	1835.434570	75.550110
-15307.677128	5281.575000	1834.440430	3.896317
-15307.677128	5281.575000	1833.445313	114.814064
-15307.677128	5281.575000	1832.450195	-28.885542
-15307.677128	5281.575000	1831.454102	60.369080
-15307.677128	5281.575000	1830.458984	-100.085892
-15307.677128	5281.575000	1829.462891	32.336109
-15307.677128	5281.575000	1828.466797	140.703049
-15307.677128	5281.575000	1827.470703	4.291228
-15307.677128	5281.575000	1826.474609	-139.273407
-15307.677128	5281.575000	1825.478516	-42.950874
-15307.677128	5281.575000	1824.481445	-61.778042
-15307.677128	5281.575000	1823.484375	168.734970
-15307.677128	5281.575000	1822.487305	116.300995
-15307.677128	5281.575000	1821.490234	54.291080
-15307.677128	5281.575000	1820.493164	-84.379784
-15307.677128	5281.575000	1819.495117	-182.282669
-15307.677128	5281.575000	1818.498047	-55.001186
-15307.677128	5281.575000	1817.500000	-4.411795
-15307.677128	5281.575000	1816.500977	94.034256
-15307.677128	5281.575000	1815.502930	204.406738
-15307.677128	5281.575000	1814.504883	34.696087
-15307.677128	5281.575000	1813.505859	-125.389511
-15307.677128	5281.575000	1812.506836	133.270752
-15307.677128	5281.575000	1811.507813	-24.399330
-15307.677128	5281.575000	1810.508789	47.579681
-15307.677128	5281.575000	1809.508789	69.304619
-15307.677128	5281.575000	1808.508789	122.091644
-15307.677128	5281.575000	1807.508789	-52.226276
-15307.677128	5281.575000	1806.508789	-4.234149
-15307.677128	5281.575000	1805.508789	55.678345
-15307.677128	5281.575000	1804.508789	-99.443916
-15307.677128	5281.575000	1803.507813	39.262474
-15307.677128	5281.575000	1802.506836	15.521921
-15307.677128	5281.575000	1801.505859	144.585373
-15307.677128	5281.575000	1800.504883	-89.251320
-15307.677128	5281.575000	1799.502930	30.216057
-15307.677128	5281.575000	1798.501953	132.926666
-15307.677128	5281.575000	1797.500000	37.569202
-15307.677128	5281.575000	1796.498047	90.127884
-15307.677128	5281.575000	1795.496094	80.650551
-15307.677128	5281.575000	1794.493164	44.936081
-15307.677128	5281.575000	1793.491211	123.658112
-15307.677128	5281.575000	1792.488281	-5.026955
-15307.677128	5281.575000	1791.485352	-76.478600
-15307.677128	5281.575000	1790.482422	-14.487860
-15307.677128	5281.575000	1789.478516	-2.557621
-15307.677128	5281.575000	1788.475586	35.559074
-15307.677128	5281.575000	1787.471680	47.456055
-15307.677128	5281.575000	1786.467773	14.103967
-15307.677128	5281.575000	1785.463867	-102.556755
-15307.677128	5281.575000	1784.459961	130.660400
-15307.677128	5281.575000	1783.455078	9.240790
-15307.677128	5281.575000	1782.450195	30.595537
-15307.677128	5281.575000	1781.445313	1.984410
-15307.677128	5281.575000	1780.440430	99.413277
-15307.677128	5281.575000	1779.435547	87.424133
-15307.677128	5281.575000	1778.429688	-7.775028
-15307.677128	5281.575000	1777.424805	53.920361
-15307.677128	5281.575000	1776.418945	68.054176
-15307.677128	5281.575000	1775.413086	-29.491682
-15307.677128	5281.575000	1774.406250	-39.123516
-15307.677128	5281.575000	1773.400391	-191.253281
-15307.677128	5281.575000	1772.393555	-34.656487
-15307.677128	5281.575000	1771.386719	-8.700219
-15307.677128	5281.575000	1770.379883	102.685860
-15307.677128	5281.575000	1769.373047	-58.889809
-15307.677128	5281.575000	1768.365234	-16.365786
-15307.677128	5281.575000	1767.358398	78.324600
-15307.677128	5281.575000	1766.350586	165.851074
-15307.677128	5281.575000	1765.342773	-7.510825
-15307.677128	5281.575000	1764.334961	89.463577
-15307.677128	5281.575000	1763.326172	51.274166
-15307.677128	5281.575000	1762.318359	22.573643
-15307.677128	5281.575000	1761.309570	128.934982
-15307.677128	5281.575000	1760.300781	-32.458969
-15307.677128	5281.575000	1759.291016	43.058643
-15307.677128	5281.575000	1758.282227	229.845657
-15307.677128	5281.575000	1757.272461	77.966240
-15307.677128	5281.575000	1756.262695	96.577850
-15307.677128	5281.575000	1755.252930	29.969633
-15307.677128	5281.575000	1754.243164	41.466850
-15307.677128	5281.575000	1753.233398	26.927004
-15307.677128	5281.575000	1752.222656	203.982758
-15307.677128	5281.575000	1751.211914	9.655899
-15307.677128	5281.575000	1750.201172	-11.991972
-15307.677128	5281.575000	1749.190430	-88.015457
-15307.677128	5281.575000	1748.179688	17.984961
-15307.677128	5281.575000	1747.167969	74.305008
-15307.677128	5281.575000	1746.156250	26.634476
-15307.677128	5281.575000	1745.144531	111.263504
-15307.677128	5281.575000	1744.132813	-101.741386
-15307.677128	5281.575000	1743.121094	89.127701
-15307.677128	5281.575000	1742.108398	-156.864746
-15307.677128	5281.575000	1741.095703	5.598049
-15307.677128	5281.575000	1740.083008	42.906834
-15307.677128	5281.575000	1739.070313	70.757034
-15307.677128	5281.575000	1738.057617	60.842133
-15307.677128	5281.575000	1737.043945	-22.199396
-15307.677128	5281.575000	1736.030273	5.622134
-15307.677128	5281.575000	1735.016602	12.206265
-15307.677128	5281.575000	1734.002930	4.636135
-15307.677128	5281.575000	1732.989258	-31.219961
-15307.677128	5281.575000	1731.974609	29.542076
-15307.677128	5281.575000	1730.959961	116.191269
-15307.677128	5281.575000	1729.945313	-16.266394
-15307.677128	5281.575000	1728.930664	46.795219
-15307.677128	5281.575000	1727.916016	-85.610077
-15307.677128	5281.575000	1726.900391	22.154228
-15307.677128	5281.575000	1725.885742	134.583130
-15307.677128	5281.575000	1724.870117	11.630192
-15307.677128	5281.575000	1723.853516	76.943977
-15307.677128	5281.575000	1722.837891	-78.895523
-15307.677128	5281.575000	1721.822266	21.681812
-15307.677128	5281.575000	1720.805664	-80.015633
-15307.677128	5281.575000	1719.789063	147.467743
-15307.677128	5281.575000	1718.772461	-15.339546
-15307.677128	5281.575000	1717.754883	63.972431
-15307.677128	5281.575000	1716.738281	-110.514328
-15307.677128	5281.575000	1715.720703	290.625366
-15307.677128	5281.575000	1714.703125	156.080566
-15307.677128	5281.575000	1713.685547	63.854366
-15307.677128	5281.575000	1712.667969	171.231140
-15307.677128	5281.575000	1711.649414	60.246834
-15307.677128	5281.575000	1710.630859	-8.451507
-15307.677128	5281.575000	1709.612305	-44.274815
-15307.677128	5281.575000	1708.593750	34.871834
-15307.677128	5281.575000	1707.575195	116.331413
-15307.677128	5281.575000	1706.555664	12.482630
-15307.677128	5281.575000	1705.536133	-56.157310
-15307.677128	5281.575000	1704.516602	-16.933907
-15307.677128	5281.575000	1703.497070	-8.197536
-15307.677128	5281.575000	1702.477539	213.783463
-15307.677128	5281.575000	1701.457031	72.516716
-15307.677128	5281.575000	1700.437500	90.595993
-15307.677128	5281.575000	1699.416992	80.560783
-15307.677128	5281.575000	1698.395508	49.450367
-15307.677128	5281.575000	1697.375000	60.495232
-15307.677128	5281.575000	1696.354492	141.757721
-15307.677128	5281.575000	1695.333008	10.021850
-15307.677128	5281.575000	1694.311523	107.637848
-15307.677128	5281.575000	1693.290039	97.606926
-15307.677128	5281.575000	1692.267578	61.848866
-15307.677128	5281.575000	1691.246094	-27.675390
-15307.677128	5281.575000	1690.223633	125.984825
-15307.677128	5281.575000	1689.201172	13.106495
-15307.677128	5281.575000	1688.178711	-22.603109
-15307.677128	5281.575000	1687.155273	-65.309143
-15307.677128	5281.575000	1686.132813	-98.649300
-15307.677128	5281.575000	1685.109375	-152.999054
-15307.677128	5281.575000	1684.085938	117.283798
-15307.677128	5281.575000	1683.062500	-175.237000
-15307.677128	5281.575000	1682.039063	27.254219
-15307.677128	5281.575000	1681.014648	-94.754318
-15307.677128	5281.575000	1679.990234	-53.365543
-15307.677128	5281.575000	1678.965820	65.002838
-15307.677128	5281.575000	1677.941406	-133.906723
-15307.677128	5281.575000	1676.916992	-41.214085
-15307.677128	5281.575000	1675.891602	9.474278
-15307.677128	5281.575000	1674.866211	139.410889
-15307.677128	5281.575000	1673.840820	17.573570
-15307.677128	5281.575000	1672.815430	40.272148
-15307.677128	5281.575000	1671.790039	-109.446228
-15307.677128	5281.575000	1670.763672	27.421387
-15307.677128	5281.575000	1669.737305	73.410698
-15307.677128	5281.575000	1668.710938	172.945801
-15307.677128	5281.575000	1667.684570	14.027970
-15307.677128	5281.575000	1666.658203	143.810791
-15307.677128	5281.575000	1665.630859	22.207409
-15307.677128	5281.575000	1664.603516	114.722260
-15307.677128	5281.575000	1663.576172	-148.719589
-15307.677128	5281.575000	1662.548828	97.317726
-15307.677128	5281.575000	1661.520508	13.053036
-15307.677128	5281.575000	1660.493164	5.558292
-15307.677128	5281.575000	1659.464844	2.722109
-15307.677128	5281.575000	1658.436523	55.673859
-15307.677128	5281.575000	1657.408203	36.582783
-15307.677128	5281.575000	1656.378906	191.744934
-15307.677128	5281.575000	1655.350586	161.041748
-15307.677128	5281.575000	1654.321289	4.955685
-15307.677128	5281.575000	1653.291992	141.491074
-15307.677128	5281.575000	1652.261719	280.304382
-15307.677128	5281.575000	1651.232422	96.468353
-15307.677128	5281.575000	1650.202148	86.748756
-15307.677128	5281.575000	1649.171875	-13.436062
-15307.677128	5281.575000	1648.141602	183.338028
-15307.677128	5281.575000	1647.111328	-30.439421
-15307.677128	5281.575000	1646.080078	131.505341
-15307.677128	5281.575000	1645.049805	17.531998
-15307.677128	5281.575000	1644.018555	160.888916
-15307.677128	5281.575000	1642.987305	167.481674
-15307.677128	5281.575000	1641.955078	51.288185
-15307.677128	5281.575000	1640.923828	224.712921
-15307.677128	5281.575000	1639.891602	238.278793
-15307.677128	5281.575000	1638.859375	279.642303
-15307.677128	5281.575000	1637.827148	346.470764
-15307.677128	5281.575000	1636.794922	279.039856
-15307.677128	5281.575000	1635.761719	144.537537
-15307.677128	5281.575000	1634.729492	264.619110
-15307.677128	5281.575000	1633.696289	107.072296
-15307.677128	5281.575000	1632.662109	162.383835
-15307.677128	5281.575000	1631.628906	231.568222
-15307.677128	5281.575000	1630.594727	229.070587
-15307.677128	5281.575000	1629.561523	187.299896
-15307.677128	5281.575000	1628.527344	281.914246
-15307.677128	5281.575000	1627.493164	316.434204
-15307.677128	5281.575000	1626.458008	309.375031
-15307.677128	5281.575000	1625.423828	378.560608
-15307.677128	5281.575000	1624.388672	177.553482
-15307.677128	5281.575000	1623.353516	272.172943
-15307.677128	5281.575000	1622.318359	274.441772
-15307.677128	5281.575000	1621.282227	364.429108
-15307.677128	5281.575000	1620.247070	359.799377
-15307.677128	5281.575000	1619.210938	258.295044
-15307.677128	5281.575000	1618.174805	272.180603
-15307.677128	5281.575000	1617.137695	417.530182
-15307.677128	5281.575000	1616.101563	313.835175
-15307.677128	5281.575000	1615.064453	307.020844
-15307.677128	5281.575000	1614.027344	512.271545
-15307.677128	5281.575000	1612.990234	567.684204
-15307.677128	5281.575000	1611.953125	330.507263
-15307.677128	5281.575000	1610.916016	245.473389
-15307.677128	5281.575000	1609.877930	439.154907
-15307.677128	5281.575000	1608.839844	529.172546
-15307.677128	5281.575000	1607.801758	437.315674
-15307.677128	5281.575000	1606.763672	409.965454
-15307.677128	5281.575000	1605.724609	177.843719
-15307.677128	5281.575000	1604.685547	198.920715
-15307.677128	5281.575000	1603.646484	353.432098
-15307.677128	5281.575000	1602.607422	367.620331
-15307.677128	5281.575000	1601.568359	202.476959
-15307.677128	5281.575000	1600.528320	347.781525
-15307.677128	5281.575000	1599.489258	458.581329
-15307.677128	5281.575000	1598.449219	295.897095
-15307.677128	5281.575000	1597.408203	445.775116
-15307.677128	5281.575000	1596.368164	687.511536
-15307.677128	5281.575000	1595.327148	467.544281
-15307.677128	5281.575000	1594.287109	486.504303
-15307.677128	5281.575000	1593.246094	523.851135
-15307.677128	5281.575000	1592.204102	313.313660
-15307.677128	5281.575000	1591.163086	364.509979
-15307.677128	5281.575000	1590.121094	434.069702
-15307.677128	5281.575000	1589.079102	398.110138
-15307.677128	5281.575000	1588.037109	463.112030
-15307.677128	5281.575000	1586.995117	291.929169
-15307.677128	5281.575000	1585.953125	567.915405
-15307.677128	5281.575000	1584.910156	495.406311
-15307.677128	5281.575000	1583.867188	464.211426
-15307.677128	5281.575000	1582.824219	721.766602
-15307.677128	5281.575000	1581.781250	305.739136
-15307.677128	5281.575000	1580.737305	338.828033
-15307.677128	5281.575000	1579.693359	417.738190
-15307.677128	5281.575000	1578.649414	299.752136
-15307.677128	5281.575000	1577.605469	191.002930
-15307.677128	5281.575000	1576.561523	324.925415
-15307.677128	5281.575000	1575.516602	319.250092
-15307.677128	5281.575000	1574.472656	471.467010
-15307.677128	5281.575000	1573.427734	484.134583
-15307.677128	5281.575000	1572.381836	537.994385
-15307.677128	5281.575000	1571.336914	406.673950
-15307.677128	5281.575000	1570.291016	291.440857
-15307.677128	5281.575000	1569.246094	276.853210
-15307.677128	5281.575000	1568.200195	250.881836
-15307.677128	5281.575000	1567.153320	279.786835
-15307.677128	5281.575000	1566.107422	411.505005
-15307.677128	5281.575000	1565.060547	504.386261
-15307.677128	5281.575000	1564.013672	396.343964
-15307.677128	5281.575000	1562.966797	411.652740
-15307.677128	5281.575000	1561.919922	264.947632
-15307.677128	5281.575000	1560.872070	453.777954
-15307.677128	5281.575000	1559.825195	348.267487
-15307.677128	5281.575000	1558.777344	480.060577
-15307.677128	5281.575000	1557.729492	228.708038
-15307.677128	5281.575000	1556.680664	244.267075
-15307.677128	5281.575000	1555.632813	398.920807
-15307.677128	5281.575000	1554.583984	172.924210
-15307.677128	5281.575000	1553.535156	400.531982
-15307.677128	5281.575000	1552.486328	443.548065
-15307.677128	5281.575000	1551.436523	486.587524
-15307.677128	5281.575000	1550.387695	429.445374
-15307.677128	5281.575000	1549.337891	358.706024
-15307.677128	5281.575000	1548.288086	344.950195
-15307.677128	5281.575000	1547.238281	499.671265
-15307.677128	5281.575000	1546.187500	410.881927
-15307.677128	5281.575000	1545.136719	354.022125
-15307.677128	5281.575000	1544.086914	463.284607
-15307.677128	5281.575000	1543.035156	331.471924
-15307.677128	5281.575000	1541.984375	229.316071
-15307.677128	5281.575000	1540.933594	240.912872
-15307.677128	5281.575000	1539.881836	559.396362
-15307.677128	5281.575000	1538.830078	361.942505
-15307.677128	5281.575000	1537.778320	550.859192
-15307.677128	5281.575000	1536.725586	576.190674
-15307.677128	5281.575000	1535.673828	269.970032
-15307.677128	5281.575000	1534.621094	481.635376
-15307.677128	5281.575000	1533.568359	377.697449
-15307.677128	5281.575000	1532.515625	566.650574
-15307.677128	5281.575000	1531.461914	356.169159
-15307.677128	5281.575000	1530.409180	533.799500
-15307.677128	5281.575000	1529.355469	373.405884
-15307.677128	5281.575000	1528.301758	238.070099
-15307.677128	5281.575000	1527.247070	508.729431
-15307.677128	5281.575000	1526.193359	341.774567
-15307.677128	5281.575000	1525.138672	546.666748
-15307.677128	5281.575000	1524.083984	314.144897
-15307.677128	5281.575000	1523.029297	528.120239
-15307.677128	5281.575000	1521.974609	520.055847
-15307.677128	5281.575000	1520.918945	435.038666
-15307.677128	5281.575000	1519.863281	248.203796
-15307.677128	5281.575000	1518.807617	292.416656
-15307.677128	5281.575000	1517.751953	334.396088
-15307.677128	5281.575000	1516.696289	303.989929
-15307.677128	5281.575000	1515.639648	461.444489
-15307.677128	5281.575000	1514.583008	354.209106
-15307.677128	5281.575000	1513.526367	362.414764
-15307.677128	5281.575000	1512.469727	253.078232
-15307.677128	5281.575000	1511.412109	293.052368
-15307.677128	5281.575000	1510.355469	292.371063
-15307.677128	5281.575000	1509.297852	305.301544
-15307.677128	5281.575000	1508.240234	309.238251
-15307.677128	5281.575000	1507.181641	577.534241
-15307.677128	5281.575000	1506.124023	86.882118
-15307.677128	5281.575000	1505.065430	221.985123
-15307.677128	5281.575000	1504.006836	165.179779
-15307.677128	5281.575000	1502.948242	293.543365
-15307.677128	5281.575000	1501.888672	189.456528
-15307.677128	5281.575000	1500.830078	331.403381
-15307.677128	5281.575000	1499.770508	193.613937
-15307.677128	5281.575000	1498.710938	141.637436
-15307.677128	5281.575000	1497.650391	385.143738
-15307.677128	5281.575000	1496.590820	130.341202
-15307.677128	5281.575000	1495.530273	56.022701
-15307.677128	5281.575000	1494.469727	277.018494
-15307.677128	5281.575000	1493.409180	189.284714
-15307.677128	5281.575000	1492.348633	232.299911
-15307.677128	5281.575000	1491.287109	196.519440
-15307.677128	5281.575000	1490.225586	199.087784
-15307.677128	5281.575000	1489.164063	57.615337
-15307.677128	5281.575000	1488.102539	55.812134
-15307.677128	5281.575000	1487.041016	94.572739
-15307.677128	5281.575000	1485.978516	176.124191
-15307.677128	5281.575000	1484.916016	264.456421
-15307.677128	5281.575000	1483.853516	395.516754
-15307.677128	5281.575000	1482.791016	110.572777
-15307.677128	5281.575000	1481.727539	232.746246
-15307.677128	5281.575000	1480.664063	300.960480
-15307.677128	5281.575000	1479.600586	27.608114
-15307.677128	5281.575000	1478.537109	-9.613600
-15307.677128	5281.575000	1477.473633	319.322723
-15307.677128	5281.575000	1476.409180	-5.275451
-15307.677128	5281.575000	1475.344727	83.389023
-15307.677128	5281.575000	1474.280273	-12.069609
-15307.677128	5281.575000	1473.215820	81.213890
-15307.677128	5281.575000	1472.151367	-31.910866
-15307.677128	5281.575000	1471.085938	56.831623
-15307.677128	5281.575000	1470.020508	-24.706133
-15307.677128	5281.575000	1468.955078	120.188744
-15307.677128	5281.575000	1467.888672	191.144424
-15307.677128	5281.575000	1466.823242	-51.423561
-15307.677128	5281.575000	1465.756836	-18.636734
-15307.677128	5281.575000	1464.690430	119.681366
-15307.677128	5281.575000	1463.624023	173.092239
-15307.677128	5281.575000	1462.556641	-60.449532
-15307.677128	5281.575000	1461.490234	-11.359025
-15307.677128	5281.575000	1460.422852	57.795452
-15307.677128	5281.575000	1459.355469	5.142253
-15307.677128	5281.575000	1458.287109	75.035545
-15307.677128	5281.575000	1457.219727	172.781555
-15307.677128	5281.575000	1456.151367	9.803532
-15307.677128	5281.575000	1455.083008	-83.770363
-15307.677128	5281.575000	1454.014648	51.530510
-15307.677128	5281.575000	1452.945313	80.740227
-15307.677128	5281.575000	1451.876953	-38.829632
-15307.677128	5281.575000	1450.807617	133.238800
-15307.677128	5281.575000	1449.738281	104.311707
-15307.677128	5281.575000	1448.668945	-20.422531
-15307.677128	5281.575000	1447.598633	293.628998
-15307.677128	5281.575000	1446.528320	211.297134
-15307.677128	5281.575000	1445.458008	123.386490
-15307.677128	5281.575000	1444.387695	-56.638180
-15307.677128	5281.575000	1443.317383	135.598999
-15307.677128	5281.575000	1442.246094	-56.310818
-15307.677128	5281.575000	1441.174805	146.381927
-15307.677128	5281.575000	1440.103516	34.565800
-15307.677128	5281.575000	1439.032227	-3.730015
-15307.677128	5281.575000	1437.960938	154.232651
-15307.677128	5281.575000	1436.888672	-43.325916
-15307.677128	5281.575000	1435.816406	136.218582
-15307.677128	5281.575000	1434.744141	203.688278
-15307.677128	5281.575000	1433.670898	-3.717887
-15307.677128	5281.575000	1432.598633	47.907551
-15307.677128	5281.575000	1431.525391	126.162811
-15307.677128	5281.575000	1430.452148	-19.862240
-15307.677128	5281.575000	1429.378906	-67.041763
-15307.677128	5281.575000	1428.304688	128.219864
-15307.677128	5281.575000	1427.231445	78.598198
-15307.677128	5281.575000	1426.157227	25.641106
-15307.677128	5281.575000	1425.083008	-5.299089
-15307.677128	5281.575000	1424.007813	109.161499
-15307.677128	5281.575000	1422.933594	35.871853
-15307.677128	5281.575000	1421.858398	-86.768227
-15307.677128	5281.575000	1420.783203	-82.529655
-15307.677128	5281.575000	1419.708008	137.230942
-15307.677128	5281.575000	1418.631836	17.362488
-15307.677128	5281.575000	1417.555664	-33.019352
-15307.677128	5281.575000	1416.479492	-71.917694
-15307.677128	5281.575000	1415.403320	99.310829
-15307.677128	5281.575000	1414.327148	43.657253
-15307.677128	5281.575000	1413.250000	29.653320
-15307.677128	5281.575000	1412.173828	-57.428093
-15307.677128	5281.575000	1411.096680	-162.484177
-15307.677128	5281.575000	1410.018555	-144.103882
-15307.677128	5281.575000	1408.941406	-135.030212
-15307.677128	5281.575000	1407.863281	-238.083969
-15307.677128	5281.575000	1406.785156	-90.404831
-15307.677128	5281.575000	1405.707031	-9.264519
-15307.677128	5281.575000	1404.628906	181.223480
-15307.677128	5281.575000	1403.549805	45.158672
-15307.677128	5281.575000	1402.470703	-30.066618
-15307.677128	5281.575000	1401.391602	96.231956
-15307.677128	5281.575000	1400.312500	13.238744
-15307.677128	5281.575000	1399.233398	15.208391
-15307.677128	5281.575000	1398.153320	-91.190071
-15307.677128	5281.575000	1397.073242	80.073158
-15307.677128	5281.575000	1395.993164	15.964642
-15307.677128	5281.575000	1394.913086	-62.268795
-15307.677128	5281.575000	1393.832031	94.720741
-15307.677128	5281.575000	1392.750977	89.212875
-15307.677128	5281.575000	1391.669922	261.301117
-15307.677128	5281.575000	1390.588867	173.642410
-15307.677128	5281.575000	1389.506836	-13.841942
-15307.677128	5281.575000	1388.425781	166.015518
-15307.677128	5281.575000	1387.343750	88.317383
-15307.677128	5281.575000	1386.261719	237.841095
-15307.677128	5281.575000	1385.178711	398.011963
-15307.677128	5281.575000	1384.096680	142.962952
-15307.677128	5281.575000	1383.013672	268.791107
-15307.677128	5281.575000	1381.930664	109.356705
-15307.677128	5281.575000	1380.846680	229.437729
-15307.677128	5281.575000	1379.763672	151.286942
-15307.677128	5281.575000	1378.679688	170.968506
-15307.677128	5281.575000	1377.595703	201.987991
-15307.677128	5281.575000	1376.511719	116.714272
-15307.677128	5281.575000	1375.427734	89.815025
-15307.677128	5281.575000	1374.342773	201.410263
-15307.677128	5281.575000	1373.257813	153.160706
-15307.677128	5281.575000	1372.172852	231.916641
-15307.677128	5281.575000	1371.087891	292.374054
-15307.677128	5281.575000	1370.001953	277.540802
-15307.677128	5281.575000	1368.916992	36.551659
-15307.677128	5281.575000	1367.831055	-37.658382
-15307.677128	5281.575000	1366.744141	238.464172
-15307.677128	5281.575000	1365.658203	297.688690
-15307.677128	5281.575000	1364.571289	153.397583
-15307.677128	5281.575000	1363.484375	162.413345
-15307.677128	5281.575000	1362.397461	42.783516
-15307.677128	5281.575000	1361.310547	29.208942
-15307.677128	5281.575000	1360.222656	122.168449
-15307.677128	5281.575000	1359.135742	74.078453
-15307.677128	5281.575000	1358.047852	43.429176
-15307.677128	5281.575000	1356.958984	71.993828
-15307.677128	5281.575000	1355.871094	4.245252
-15307.677128	5281.575000	1354.782227	230.376022
-15307.677128	5281.575000	1353.693359	187.228806
-15307.677128	5281.575000	1352.604492	152.135315
-15307.677128	5281.575000	1351.515625	176.357895
-15307.677128	5281.575000	1350.425781	284.077789
-15307.677128	5281.575000	1349.335938	86.506691
-15307.677128	5281.575000	1348.246094	251.854218
-15307.677128	5281.575000	1347.156250	6.656138
-15307.677128	5281.575000	1346.066406	43.902359
-15307.677128	5281.575000	1344.975586	114.927567
-15307.677128	5281.575000	1343.884766	315.603455
-15307.677128	5281.575000	1342.793945	65.200180
-15307.677128	5281.575000	1341.702148	182.952896
-15307.677128	5281.575000	1340.611328	221.971298
-15307.677128	5281.575000	1339.519531	287.628448
-15307.677128	5281.575000	1338.427734	175.238251
-15307.677128	5281.575000	1337.334961	161.101410
-15307.677128	5281.575000	1336.243164	187.776596
-15307.677128	5281.575000	1335.150391	150.691788
-15307.677128	5281.575000	1334.057617	97.601196
-15307.677128	5281.575000	1332.964844	-23.894949
-15307.677128	5281.575000	1331.871094	107.901627
-15307.677128	5281.575000	1330.778320	98.242706
-15307.677128	5281.575000	1329.684570	5.378740
-15307.677128	5281.575000	1328.590820	47.139038
-15307.677128	5281.575000	1327.496094	61.404575
-15307.677128	5281.575000	1326.402344	143.325394
-15307.677128	5281.575000	1325.307617	303.316162
-15307.677128	5281.575000	1324.212891	218.792053
-15307.677128	5281.575000	1323.117188	188.994461
-15307.677128	5281.575000	1322.022461	89.270508
-15307.677128	5281.575000	1320.926758	196.987213
-15307.677128	5281.575000	1319.831055	201.507858
-15307.677128	5281.575000	1318.735352	184.671921
-15307.677128	5281.575000	1317.638672	254.316589
-15307.677128	5281.575000	1316.542969	167.229233
-15307.677128	5281.575000	1315.446289	219.142258
-15307.677128	5281.575000	1314.349609	140.730408
-15307.677128	5281.575000	1313.251953	89.320206
-15307.677128	5281.575000	1312.155273	183.638290
-15307.677128	5281.575000	1311.057617	283.628204
-15307.677128	5281.575000	1309.959961	157.639343
-15307.677128	5281.575000	1308.862305	278.683075
-15307.677128	5281.575000	1307.763672	145.504974
-15307.677128	5281.575000	1306.665039	225.212219
-15307.677128	5281.575000	1305.566406	193.314194
-15307.677128	5281.575000	1304.467773	135.678650
-15307.677128	5281.575000	1303.369141	214.970261
-15307.677128	5281.575000	1302.269531	75.204185
-15307.677128	5281.575000	1301.169922	126.802002
-15307.677128	5281.575000	1300.070313	67.879517
-15307.677128	5281.575000	1298.970703	29.948059
-15307.677128	5281.575000	1297.870117	-34.857010
-15307.677128	5281.575000	1296.769531	90.174866
-15307.677128	5281.575000	1295.668945	-16.743826
-15307.677128	5281.575000	1294.568359	-48.826363
-15307.677128	5281.575000	1293.466797	69.540207
-15307.677128	5281.575000	1292.366211	142.994034
-15307.677128	5281.575000	1291.264648	39.413769
-15307.677128	5281.575000	1290.162109	15.717036
-15307.677128	5281.575000	1289.060547	83.121979
-15307.677128	5281.575000	1287.958008	140.420425
-15307.677128	5281.575000	1286.855469	46.873577
-15307.677128	5281.575000	1285.752930	-62.908600
-15307.677128	5281.575000	1284.650391	-14.338613
-15307.677128	5281.575000	1283.546875	4.313776
-15307.677128	5281.575000	1282.444336	-71.530281
-15307.677128	5281.575000	1281.339844	116.961388
-15307.677128	5281.575000	1280.236328	33.287846
-15307.677128	5281.575000	1279.132813	57.811188
-15307.677128	5281.575000	1278.028320	142.850555
-15307.677128	5281.575000	1276.923828	-16.848530
-15307.677128	5281.575000	1275.819336	24.837547
-15307.677128	5281.575000	1274.713867	28.969172
-15307.677128	5281.575000	1273.608398	-101.069504
-15307.677128	5281.575000	1272.503906	46.232609
-15307.677128	5281.575000	1271.397461	-4.592907
-15307.677128	5281.575000	1270.291992	73.956734
-15307.677128	5281.575000	1269.185547	10.544722
-15307.677128	5281.575000	1268.080078	32.804924
-15307.677128	5281.575000	1266.972656	-32.085503
-15307.677128	5281.575000	1265.866211	-33.614067
-15307.677128	5281.575000	1264.759766	-69.732063
-15307.677128	5281.575000	1263.652344	32.532066
-15307.677128	5281.575000	1262.544922	-21.986387
-15307.677128	5281.575000	1261.436523	-106.048271
-15307.677128	5281.575000	1260.329102	-90.828377
-15307.677128	5281.575000	1259.220703	-15.716158
-15307.677128	5281.575000	1258.112305	44.171501
-15307.677128	5281.575000	1257.003906	-116.287849
-15307.677128	5281.575000	1255.895508	-88.714714
-15307.677128	5281.575000	1254.786133	-91.855270
-15307.677128	5281.575000	1253.676758	-84.539307
-15307.677128	5281.575000	1252.567383	-45.577732
-15307.677128	5281.575000	1251.458008	-8.700426
-15307.677128	5281.575000	1250.347656	-0.477787
-15307.677128	5281.575000	1249.237305	-38.467125
-15307.677128	5281.575000	1248.126953	-70.121941
-15307.677128	5281.575000	1247.016602	-26.611557
-15307.677128	5281.575000	1245.905273	25.321756
-15307.677128	5281.575000	1244.793945	23.929287
-15307.677128	5281.575000	1243.682617	-30.081326
-15307.677128	5281.575000	1242.571289	44.724117
-15307.677128	5281.575000	1241.459961	-139.567352
-15307.677128	5281.575000	1240.347656	-7.895765
-15307.677128	5281.575000	1239.235352	-88.674370
-15307.677128	5281.575000	1238.123047	76.392868
-15307.677128	5281.575000	1237.009766	-19.606277
-15307.677128	5281.575000	1235.897461	-13.531081
-15307.677128	5281.575000	1234.784180	3.997514
-15307.677128	5281.575000	1233.670898	1.778696
-15307.677128	5281.575000	1232.556641	143.713715
-15307.677128	5281.575000	1231.443359	14.031224
-15307.677128	5281.575000	1230.329102	71.647354
-15307.677128	5281.575000	1229.214844	115.477539
-15307.677128	5281.575000	1228.099609	138.896637
-15307.677128	5281.575000	1226.985352	-10.460394
-15307.677128	5281.575000	1225.870117	-57.727268
-15307.677128	5281.575000	1224.754883	87.263428
-15307.677128	5281.575000	1223.639648	43.102161
-15307.677128	5281.575000	1222.523438	31.637897
-15307.677128	5281.575000	1221.408203	122.102852
-15307.677128	5281.575000	1220.291992	52.438423
-15307.677128	5281.575000	1219.174805	116.033897
-15307.677128	5281.575000	1218.058594	162.018036
-15307.677128	5281.575000	1216.941406	118.744804
-15307.677128	5281.575000	1215.824219	123.029144
-15307.677128	5281.575000	1214.707031	223.426392
-15307.677128	5281.575000	1213.589844	135.237991
-15307.677128	5281.575000	1212.471680	78.806458
-15307.677128	5281.575000	1211.353516	188.186066
-15307.677128	5281.575000	1210.235352	38.856956
-15307.677128	5281.575000	1209.117188	113.675758
-15307.677128	5281.575000	1207.998047	30.421959
-15307.677128	5281.575000	1206.878906	46.480942
-15307.677128	5281.575000	1205.759766	-11.210594
-15307.677128	5281.575000	1204.640625	31.423702
-15307.677128	5281.575000	1203.520508	139.501175
-15307.677128	5281.575000	1202.401367	39.598225
-15307.677128	5281.575000	1201.281250	126.230591
-15307.677128	5281.575000	1200.160156	85.567856
-15307.677128	5281.575000	1199.040039	40.020000
-15307.677128	5281.575000	1197.918945	43.721836
-15307.677128	5281.575000	1196.797852	75.970985
-15307.677128	5281.575000	1195.676758	90.043533
-15307.677128	5281.575000	1194.555664	66.328827
-15307.677128	5281.575000	1193.433594	73.943626
-15307.677128	5281.575000	1192.311523	30.049879
-15307.677128	5281.575000	1191.189453	129.847504
-15307.677128	5281.575000	1190.066406	212.844299
-15307.677128	5281.575000	1188.944336	167.604385
-15307.677128	5281.575000	1187.821289	-1.557051
-15307.677128	5281.575000	1186.698242	8.311110
-15307.677128	5281.575000	1185.574219	-60.819504
-15307.677128	5281.575000	1184.451172	44.933205
-15307.677128	5281.575000	1183.327148	66.184135
-15307.677128	5281.575000	1182.203125	54.334663
-15307.677128	5281.575000	1181.078125	5.699623
-15307.677128	5281.575000	1179.954102	-105.029655
-15307.677128	5281.575000	1178.829102	60.589722
-15307.677128	5281.575000	1177.704102	-65.079849
-15307.677128	5281.575000	1176.579102	-96.216835
-15307.677128	5281.575000	1175.453125	-37.310692
-15307.677128	5281.575000	1174.327148	-115.665451
-15307.677128	5281.575000	1173.201172	-37.501575
-15307.677128	5281.575000	1172.075195	-75.863235
-15307.677128	5281.575000	1170.949219	-95.938171
-15307.677128	5281.575000	1169.822266	93.883698
-15307.677128	5281.575000	1168.695313	-79.404694
-15307.677128	5281.575000	1167.568359	-5.560397
-15307.677128	5281.575000	1166.440430	-52.168221
-15307.677128	5281.575000	1165.313477	-123.156395
-15307.677128	5281.575000	1164.185547	-66.085938
-15307.677128	5281.575000	1163.057617	-31.476479
-15307.677128	5281.575000	1161.928711	82.953804
-15307.677128	5281.575000	1160.800781	-180.720703
-15307.677128	5281.575000	1159.671875	-31.370247
-15307.677128	5281.575000	1158.541992	-3.898915
-15307.677128	5281.575000	1157.413086	-35.574940
-15307.677128	5281.575000	1156.283203	-182.871735
-15307.677128	5281.575000	1155.154297	-14.689276
-15307.677128	5281.575000	1154.023438	-84.975540
-15307.677128	5281.575000	1152.893555	-95.609589
-15307.677128	5281.575000	1151.763672	-59.736950
-15307.677128	5281.575000	1150.632813	-1.701021
-15307.677128	5281.575000	1149.501953	-9.027469
-15307.677128	5281.575000	1148.370117	23.022312
-15307.677128	5281.575000	1147.239258	-89.150040
-15307.677128	5281.575000	1146.107422	-3.889417
-15307.677128	5281.575000	1144.975586	72.664352
-15307.677128	5281.575000	1143.843750	9.202995
-15307.677128	5281.575000	1142.710938	93.109062
-15307.677128	5281.575000	1141.578125	-46.046253
-15307.677128	5281.575000	1140.445313	-56.478928
-15307.677128	5281.575000	1139.312500	23.406593
-15307.677128	5281.575000	1138.178711	-44.980869
-15307.677128	5281.575000	1137.045898	-83.925240
-15307.677128	5281.575000	1135.912109	-133.674667
-15307.677128	5281.575000	1134.777344	49.224743
-15307.677128	5281.575000	1133.643555	65.398880
-15307.677128	5281.575000	1132.508789	-41.255028
-15307.677128	5281.575000	1131.374023	-46.818371
-15307.677128	5281.575000	1130.239258	62.592518
-15307.677128	5281.575000	1129.104492	114.903778
-15307.677128	5281.575000	1127.968750	47.583611
-15307.677128	5281.575000	1126.833008	-52.221729
-15307.677128	5281.575000	1125.697266	-43.756485
-15307.677128	5281.575000	1124.560547	98.197456
-15307.677128	5281.575000	1123.424805	99.255264
-15307.677128	5281.575000	1122.288086	58.551991
-15307.677128	5281.575000	1121.151367	-27.485182
-15307.677128	5281.575000	1120.013672	-26.097218
-15307.677128	5281.575000	1118.876953	77.372299
-15307.677128	5281.575000	1117.739258	54.746197
-15307.677128	5281.575000	1116.601563	-26.177122
-15307.677128	5281.575000	1115.462891	60.413525
-15307.677128	5281.575000	1114.324219	9.794131
-15307.677128	5281.575000	1113.186523	128.963943
-15307.677128	5281.575000	1112.046875	39.533787
-15307.677128	5281.575000	1110.908203	127.625595
-15307.677128	5281.575000	1109.769531	142.847382
-15307.677128	5281.575000	1108.629883	-9.042523
-15307.677128	5281.575000	1107.490234	62.749607
-15307.677128	5281.575000	1106.349609	122.277451
-15307.677128	5281.575000	1105.209961	107.886101
-15307.677128	5281.575000	1104.069336	99.745911
-15307.677128	5281.575000	1102.928711	121.044312
-15307.677128	5281.575000	1101.787109	182.722076
-15307.677128	5281.575000	1100.646484	68.314972
-15307.677128	5281.575000	1099.504883	119.130829
-15307.677128	5281.575000	1098.363281	-60.296108
-15307.677128	5281.575000	1097.221680	-35.025948
-15307.677128	5281.575000	1096.079102	207.643677
-15307.677128	5281.575000	1094.936523	107.629913
-15307.677128	5281.575000	1093.793945	148.348740
-15307.677128	5281.575000	1092.651367	96.898758
-15307.677128	5281.575000	1091.507813	17.666811
-15307.677128	5281.575000	1090.364258	45.055992
-15307.677128	5281.575000	1089.220703	113.272827
-15307.677128	5281.575000	1088.077148	131.532639
-15307.677128	5281.575000	1086.933594	159.079041
-15307.677128	5281.575000	1085.789063	88.548286
-15307.677128	5281.575000	1084.644531	76.332382
-15307.677128	5281.575000	1083.499023	259.695435
-15307.677128	5281.575000	1082.354492	20.542786
-15307.677128	5281.575000	1081.208984	-23.423548
-15307.677128	5281.575000	1080.063477	72.279404
-15307.677128	5281.575000	1078.917969	-19.521208
-15307.677128	5281.575000	1077.771484	125.184189
-15307.677128	5281.575000	1076.625977	47.710922
-15307.677128	5281.575000	1075.479492	62.027325
-15307.677128	5281.575000	1074.332031	125.315453
-15307.677128	5281.575000	1073.185547	49.531925
-15307.677128	5281.575000	1072.038086	120.337784
-15307.677128	5281.575000	1070.890625	-17.521545
-15307.677128	5281.575000	1069.743164	114.083359
-15307.677128	5281.575000	1068.594727	221.642334
-15307.677128	5281.575000	1067.447266	264.735321
-15307.677128	5281.575000	1066.298828	62.263359
-15307.677128	5281.575000	1065.149414	63.359184
-15307.677128	5281.575000	1064.000977	98.863686
-15307.677128	5281.575000	1062.851563	123.564903
-15307.677128	5281.575000	1061.702148	175.943878
-15307.677128	5281.575000	1060.552734	209.097321
-15307.677128	5281.575000	1059.402344	198.810760
-15307.677128	5281.575000	1058.252930	242.727127
-15307.677128	5281.575000	1057.102539	68.435486
-15307.677128	5281.575000	1055.951172	32.406975
-15307.677128	5281.575000	1054.800781	-16.018515
-15307.677128	5281.575000	1053.649414	176.486679
-15307.677128	5281.575000	1052.498047	58.425301
-15307.677128	5281.575000	1051.346680	25.600149
-15307.677128	5281.575000	1050.194336	60.493816
-15307.677128	5281.575000	1049.042969	49.880062
-15307.677128	5281.575000	1047.890625	42.248875
-15307.677128	5281.575000	1046.738281	104.942513
-15307.677128	5281.575000	1045.584961	-75.387108
-15307.677128	5281.575000	1044.431641	-49.938198
-15307.677128	5281.575000	1043.278320	24.747814
-15307.677128	5281.575000	1042.125000	31.729116
-15307.677128	5281.575000	1040.971680	37.644947
-15307.677128	5281.575000	1039.817383	13.330205
-15307.677128	5281.575000	1038.663086	66.845612
-15307.677128	5281.575000	1037.508789	111.283539
-15307.677128	5281.575000	1036.353516	25.798637
-15307.677128	5281.575000	1035.198242	158.528366
-15307.677128	5281.575000	1034.042969	116.987480
-15307.677128	5281.575000	1032.887695	56.318645
-15307.677128	5281.575000	1031.732422	50.574200
-15307.677128	5281.575000	1030.576172	83.841766
-15307.677128	5281.575000	1029.419922	15.026544
-15307.677128	5281.575000	1028.263672	48.799038
-15307.677128	5281.575000	1027.106445	21.995825
-15307.677128	5281.575000	1025.949219	42.911343
-15307.677128	5281.575000	1024.792969	141.157516
-15307.677128	5281.575000	1023.634766	104.011284
-15307.677128	5281.575000	1022.477539	38.783813
-15307.677128	5281.575000	1021.319336	175.639191
-15307.677128	5281.575000	1020.161133	26.132227
-15307.677128	5281.575000	1019.002930	53.014515
-15307.677128	5281.575000	1017.843750	102.090683
-15307.677128	5281.575000	1016.684570	-95.419304
-15307.677128	5281.575000	1015.525391	137.349884
-15307.677128	5281.575000	1014.366211	164.573669
-15307.677128	5281.575000	1013.207031	151.280975
-15307.677128	5281.575000	1012.046875	-9.739308
-15307.677128	5281.575000	1010.886719	56.602535
-15307.677128	5281.575000	1009.726563	-47.821796
-15307.677128	5281.575000	1008.565430	-154.518402
-15307.677128	5281.575000	1007.404297	-45.874050
-15307.677128	5281.575000	1006.243164	-91.173286
-15307.677128	5281.575000	1005.082031	-18.957983
-15307.677128	5281.575000	1003.920898	12.692890
-15307.677128	5281.575000	1002.758789	63.018715
-15307.677128	5281.575000	1001.596680	24.390175
-15307.677128	5281.575000	1000.433594	117.133522
-15307.677128	5281.575000	999.271484	-66.609932
-15307.677128	5281.575000	998.108398	14.475249
-15307.677128	5281.575000	996.945313	52.658779
-15307.677128	5281.575000	995.782227	112.973503
-15307.677128	5281.575000	994.618164	207.650833
-15307.677128	5281.575000	993.454102	63.829685
-15307.677128	5281.575000	992.290039	10.419863
-15307.677128	5281.575000	991.125977	-41.729866
-15307.677128	5281.575000	989.960938	130.749512
-15307.677128	5281.575000	988.796875	77.074440
-15307.677128	5281.575000	987.630859	-8.477965
-15307.677128	5281.575000	986.465820	42.979523
-15307.677128	5281.575000	985.300781	46.356903
-15307.677128	5281.575000	984.134766	55.007450
-15307.677128	5281.575000	982.968750	-38.059578
-15307.677128	5281.575000	981.801758	97.161880
-15307.677128	5281.575000	980.635742	82.070724
-15307.677128	5281.575000	979.468750	150.147186
-15307.677128	5281.575000	978.301758	15.722874
-15307.677128	5281.575000	977.133789	14.380913
-15307.677128	5281.575000	975.966797	-21.925413
-15307.677128	5281.575000	974.798828	17.156013
-15307.677128	5281.575000	973.630859	14.792831
-15307.677128	5281.575000	972.461914	-51.421673
-15307.677128	5281.575000	971.293945	176.872208
-15307.677128	5281.575000	970.125000	93.941475
-15307.677128	5281.575000	968.956055	12.504609
-15307.677128	5281.575000	967.786133	-2.468710
-15307.677128	5281.575000	966.617188	18.855518
-15307.677128	5281.575000	965.447266	75.695763
-15307.677128	5281.575000	964.276367	-52.798000
-15307.677128	5281.575000	963.106445	-57.398094
-15307.677128	5281.575000	961.935547	16.273502
-15307.677128	5281.575000	960.764648	-70.964470
-15307.677128	5281.575000	959.593750	24.971142
-15307.677128	5281.575000	958.422852	32.949112
-15307.677128	5281.575000	957.250977	196.207962
-15307.677128	5281.575000	956.079102	-46.871464
-15307.677128	5281.575000	954.907227	78.599632
-15307.677128	5281.575000	953.734375	20.110207
-15307.677128	5281.575000	952.562500	-115.551651
-15307.677128	5281.575000	951.389648	44.332535
-15307.677128	5281.575000	950.215820	119.896606
-15307.677128	5281.575000	949.042969	33.803307
-15307.677128	5281.575000	947.869141	113.959938
-15307.677128	5281.575000	946.695313	-74.544983
-15307.677128	5281.575000	945.521484	-10.475977
-15307.677128	5281.575000	944.346680	-37.366726
-15307.677128	5281.575000	943.172852	-64.349228
-15307.677128	5281.575000	941.998047	-13.919698
-15307.677128	5281.575000	940.822266	-43.379826
-15307.677128	5281.575000	939.647461	82.477364
-15307.677128	5281.575000	938.471680	-117.779030
-15307.677128	5281.575000	937.295898	-26.260046
-15307.677128	5281.575000	936.119141	-73.871086
-15307.677128	5281.575000	934.943359	122.234627
-15307.677128	5281.575000	933.766602	138.254929
-15307.677128	5281.575000	932.589844	133.971939
-15307.677128	5281.575000	931.413086	27.136244
-15307.677128	5281.575000	930.235352	27.206600
-15307.677128	5281.575000	929.057617	-68.228691
-15307.677128	5281.575000	927.879883	-93.120201
-15307.677128	5281.575000	926.702148	-58.877007
-15307.677128	5281.575000	925.523438	66.342873
-15307.677128	5281.575000	924.344727	-24.588013
-15307.677128	5281.575000	923.166016	141.509140
-15307.677128	5281.575000	921.987305	-6.313793
-15307.677128	5281.575000	920.807617	-31.312086
-15307.677128	5281.575000	919.627930	-27.768888
-15307.677128	5281.575000	919.497070	9.998347
-15307.677128	5281.575000	918.331055	157.659286
-15307.677128	5281.575000	917.165039	41.649014
-15307.677128	5281.575000	915.999023	-26.623682
-15307.677128	5281.575000	914.833008	61.839817
-15307.677128	5281.575000	913.666016	13.994098
-15307.677128	5281.575000	912.499023	86.484322
-15307.677128	5281.575000	911.332031	84.015160
-15307.677128	5281.575000	910.165039	-22.872282
-15307.677128	5281.575000	908.997070	-91.157585
-15307.677128	5281.575000	907.830078	-68.690460
-15307.677128	5281.575000	906.661133	49.017410
-15307.677128	5281.575000	905.493164	-30.635427
-15307.677128	5281.575000	904.325195	9.889993
-15307.677128	5281.575000	903.156250	-60.690189
-15307.677128	5281.575000	901.987305	-61.003632
-15307.677128	5281.575000	900.818359	-140.641083
-15307.677128	5281.575000	899.648438	-36.762913
-15307.677128	5281.575000	898.478516	110.088219
-15307.677128	5281.575000	897.308594	-42.051979
-15307.677128	5281.575000	896.138672	-44.722015
-15307.677128	5281.575000	894.968750	45.396526
-15307.677128	5281.575000	893.797852	72.096306
-15307.677128	5281.575000	892.626953	-21.153542
-15307.677128	5281.575000	891.456055	-75.926201
-15307.677128	5281.575000	890.284180	32.151505
-15307.677128	5281.575000	889.113281	20.318228
-15307.677128	5281.575000	887.941406	-39.003002
-15307.677128	5281.575000	886.768555	59.908520
-15307.677128	5281.575000	885.596680	16.386749
-15307.677128	5281.575000	884.423828	128.766724
-15307.677128	5281.575000	883.250977	-5.142931
-15307.677128	5281.575000	882.078125	-8.022861
-15307.677128	5281.575000	880.905273	52.304714
-15307.677128	5281.575000	879.731445	24.547276
-15307.677128	5281.575000	878.557617	57.725407
-15307.677128	5281.575000	877.383789	129.234634
-15307.677128	5281.575000	876.209961	99.168755
-15307.677128	5281.575000	875.035156	-70.754578
-15307.677128	5281.575000	873.860352	23.238693
-15307.677128	5281.575000	872.685547	-67.717621
-15307.677128	5281.575000	871.510742	-122.584930
-15307.677128	5281.575000	870.334961	-26.435671
-15307.677128	5281.575000	869.159180	83.176628
-15307.677128	5281.575000	867.983398	75.572777
-15307.677128	5281.575000	866.807617	128.771820
-15307.677128	5281.575000	865.630859	-11.741103
-15307.677128	5281.575000	864.454102	-57.648403
-15307.677128	5281.575000	863.277344	-96.801636
-15307.677128	5281.575000	862.100586	8.084859
-15307.677128	5281.575000	860.922852	-22.098122
-15307.677128	5281.575000	859.745117	-45.537796
-15307.677128	5281.575000	858.567383	-37.495884
-15307.677128	5281.575000	857.389648	13.251735
-15307.677128	5281.575000	856.210938	59.466396
-15307.677128	5281.575000	855.032227	8.985845
-15307.677128	5281.575000	853.853516	41.662117
-15307.677128	5281.575000	852.674805	-13.324137
-15307.677128	5281.575000	851.495117	-9.895232
-15307.677128	5281.575000	850.315430	27.204586
-15307.677128	5281.575000	849.135742	28.342489
-15307.677128	5281.575000	847.956055	-35.646580
-15307.677128	5281.575000	846.775391	-9.839308
-15307.677128	5281.575000	845.595703	2.471800
-15307.677128	5281.575000	844.415039	64.123604
-15307.677128	5281.575000	843.233398	9.084291
-15307.677128	5281.575000	842.052734	61.701584
-15307.677128	5281.575000	840.871094	-0.078380
-15307.677128	5281.575000	839.689453	-57.367397
-15307.677128	5281.575000	838.506836	66.905182
-15307.677128	5281.575000	837.325195	-1.615921
-15307.677128	5281.575000	836.142578	32.937164
-15307.677128	5281.575000	834.959961	87.617744
-15307.677128	5281.575000	833.777344	110.903313
-15307.677128	5281.575000	832.593750	149.836121
-15307.677128	5281.575000	831.410156	79.040787
-15307.677128	5281.575000	830.226563	-25.317680
-15307.677128	5281.575000	829.042969	-107.274490
-15307.677128	5281.575000	827.858398	41.223763
-15307.677128	5281.575000	826.673828	-51.933094
-15307.677128	5281.575000	825.489258	2.527834
-15307.677128	5281.575000	824.304688	32.352592
-15307.677128	5281.575000	823.120117	-69.744034
-15307.677128	5281.575000	821.934570	112.023697
-15307.677128	5281.575000	820.749023	-57.118866
-15307.677128	5281.575000	819.562500	6.130091
-15307.677128	5281.575000	818.376953	174.309814
-15307.677128	5281.575000	817.190430	83.361366
-15307.677128	5281.575000	816.003906	25.919836
-15307.677128	5281.575000	814.817383	53.306446
-15307.677128	5281.575000	813.629883	0.320478
-15307.677128	5281.575000	812.442383	215.089249
-15307.677128	5281.575000	811.254883	17.049692
-15307.677128	5281.575000	810.067383	-27.034090
-15307.677128	5281.575000	808.878906	24.766510
-15307.677128	5281.575000	807.690430	-19.339594
-15307.677128	5281.575000	806.501953	-219.475525
-15307.677128	5281.575000	805.313477	-161.042221
-15307.677128	5281.575000	804.124023	35.486023
-15307.677128	5281.575000	802.934570	-86.631531
-15307.677128	5281.575000	801.745117	147.620178
-15307.677128	5281.575000	800.555664	27.715206
-15307.677128	5281.575000	799.365234	-32.052261
-15307.677128	5281.575000	798.175781	-56.205906
-15307.677128	5281.575000	796.985352	-24.736881
-15307.677128	5281.575000	795.793945	64.544632
-15307.677128	5281.575000	794.603516	49.221973
-15307.677128	5281.575000	793.412109	13.869815
-15307.677128	5281.575000	792.220703	-14.818346
-15307.677128	5281.575000	791.028320	23.174700
-15307.677128	5281.575000	789.836914	116.691719
-15307.677128	5281.575000	788.644531	1.275986
-15307.677128	5281.575000	787.452148	30.290501
-15307.677128	5281.575000	786.258789	-49.563519
-15307.677128	5281.575000	785.066406	-80.553024
-15307.677128	5281.575000	783.873047	134.892944
-15307.677128	5281.575000	782.679688	-4.932367
-15307.677128	5281.575000	781.485352	-33.757008
-15307.677128	5281.575000	780.291992	86.068718
-15307.677128	5281.575000	779.097656	-100.311623
-15307.677128	5281.575000	777.903320	-82.589569
-15307.677128	5281.575000	776.708008	-31.634848
-15307.677128	5281.575000	775.512695	-182.470016
-15307.677128	5281.575000	774.318359	54.626099
-15307.677128	5281.575000	773.122070	14.594163
-15307.677128	5281.575000	771.926758	-111.853813
-15307.677128	5281.575000	770.730469	-54.414360
-15307.677128	5281.575000	769.534180	49.486252
-15307.677128	5281.575000	768.337891	9.396282
-15307.677128	5281.575000	767.141602	73.345940
-15307.677128	5281.575000	765.944336	210.285141
-15307.677128	5281.575000	764.747070	136.923950
-15307.677128	5281.575000	763.549805	59.144615
-15307.677128	5281.575000	762.351563	85.335480
-15307.677128	5281.575000	761.154297	67.261116
-15307.677128	5281.575000	759.956055	-14.948194
-15307.677128	5281.575000	758.757813	81.906952
-15307.677128	5281.575000	757.558594	61.563946
-15307.677128	5281.575000	756.359375	136.218826
-15307.677128	5281.575000	755.160156	-60.908752
-15307.677128	5281.575000	753.960938	124.126961
-15307.677128	5281.575000	752.761719	-31.008087
-15307.677128	5281.575000	751.561523	70.000084
-15307.677128	5281.575000	750.361328	-10.058649
-15307.677128	5281.575000	749.160156	139.405045
-15307.677128	5281.575000	747.959961	123.301682
-15307.677128	5281.575000	746.758789	177.770416
-15307.677128	5281.575000	745.557617	137.356094
-15307.677128	5281.575000	744.356445	246.874573
-15307.677128	5281.575000	743.154297	210.822342
-15307.677128	5281.575000	741.952148	229.861969
-15307.677128	5281.575000	740.750000	-46.418671
-15307.677128	5281.575000	739.547852	-42.805267
-15307.677128	5281.575000	738.344727	125.985191
-15307.677128	5281.575000	737.142578	171.353363
-15307.677128	5281.575000	735.939453	115.394592
-15307.677128	5281.575000	734.735352	110.064835
-15307.677128	5281.575000	733.532227	111.314209
-15307.677128	5281.575000	732.328125	207.156387
-15307.677128	5281.575000	731.124023	78.536400
-15307.677128	5281.575000	729.918945	57.721016
-15307.677128	5281.575000	728.714844	47.883183
-15307.677128	5281.575000	727.509766	-36.727249
-15307.677128	5281.575000	726.303711	91.889656
-15307.677128	5281.575000	725.098633	-5.931896
-15307.677128	5281.575000	723.892578	85.220917
-15307.677128	5281.575000	722.686523	55.489101
-15307.677128	5281.575000	721.480469	56.492287
-15307.677128	5281.575000	720.274414	13.552753
-15307.677128	5281.575000	719.067383	62.810661
-15307.677128	5281.575000	717.860352	90.073601
-15307.677128	5281.575000	716.653320	22.938282
-15307.677128	5281.575000	715.445313	80.861702
-15307.677128	5281.575000	714.238281	33.447021
-15307.677128	5281.575000	713.030273	-42.483601
-15307.677128	5281.575000	711.821289	28.496094
-15307.677128	5281.575000	710.613281	31.463997
-15307.677128	5281.575000	709.404297	76.046852
-15307.677128	5281.575000	708.195313	-65.668243
-15307.677128	5281.575000	706.986328	13.917877
-15307.677128	5281.575000	705.776367	-11.690056
-15307.677128	5281.575000	704.566406	10.864161
-15307.677128	5281.575000	703.356445	81.549835
-15307.677128	5281.575000	702.146484	-95.168106
-15307.677128	5281.575000	700.935547	-52.990574
-15307.677128	5281.575000	699.724609	50.407970
-15307.677128	5281.575000	698.513672	-5.952842
-15307.677128	5281.575000	697.302734	14.232741
-15307.677128	5281.575000	696.090820	-42.146885
-15307.677128	5281.575000	694.878906	-56.990692
-15307.677128	5281.575000	693.666992	-12.839094
-15307.677128	5281.575000	692.455078	123.049721
-15307.677128	5281.575000	691.242188	-31.721069
-15307.677128	5281.575000	690.029297	84.406212
-15307.677128	5281.575000	688.816406	30.118212
-15307.677128	5281.575000	687.602539	69.714851
-15307.677128	5281.575000	686.389648	111.454597
-15307.677128	5281.575000	685.175781	48.392223
-15307.677128	5281.575000	683.960938	-16.850597
-15307.677128	5281.575000	682.747070	55.350948
-15307.677128	5281.575000	681.532227	114.410416
-15307.677128	5281.575000	680.317383	-77.353584
-15307.677128	5281.575000	679.102539	18.726109
-15307.677128	5281.575000	677.886719	16.652925
-15307.677128	5281.575000	676.670898	27.633242
-15307.677128	5281.575000	675.455078	58.196056
-15307.677128	5281.575000	674.239258	-26.730213
-15307.677128	5281.575000	673.022461	19.030176
-15307.677128	5281.575000	671.805664	-2.751365
-15307.677128	5281.575000	670.588867	169.205643
-15307.677128	5281.575000	669.372070	51.590405
-15307.677128	5281.575000	668.154297	1.460434
-15307.677128	5281.575000	666.936523	53.583332
-15307.677128	5281.575000	665.718750	-66.173470
-15307.677128	5281.575000	664.500977	46.791332
-15307.677128	5281.575000	663.282227	66.194420
-15307.677128	5281.575000	662.063477	131.218521
-15307.677128	5281.575000	660.844727	100.568954
-15307.677128	5281.575000	659.625000	63.392563
-15307.677128	5281.575000	658.405273	13.177787
-15307.677128	5281.575000	657.185547	43.326275
-15307.677128	5281.575000	655.965820	60.413990
-15307.677128	5281.575000	654.745117	29.712234
-15307.677128	5281.575000	653.525391	-31.382254
-15307.677128	5281.575000	652.303711	-5.667034
-15307.677128	5281.575000	651.083008	-53.747746
-15307.677128	5281.575000	649.861328	-60.612411
-15307.677128	5281.575000	648.640625	19.257923
-15307.677128	5281.575000	647.417969	112.085083
-15307.677128	5281.575000	646.196289	16.257759
-15307.677128	5281.575000	644.973633	-64.375244
-15307.677128	5281.575000	643.750977	132.372040
-15307.677128	5281.575000	642.528320	43.050735
-15307.677128	5281.575000	641.305664	-106.895943
-15307.677128	5281.575000	640.082031	-64.063965
-15307.677128	5281.575000	638.858398	11.210723
-15307.677128	5281.575000	637.634766	90.767838
-15307.677128	5281.575000	636.410156	25.278965
-15307.677128	5281.575000	635.185547	3.077154
-15307.677128	5281.575000	633.960938	56.584171
-15307.677128	5281.575000	632.736328	27.870720
-15307.677128	5281.575000	631.510742	105.108360
-15307.677128	5281.575000	630.285156	175.815750
-15307.677128	5281.575000	629.059570	153.541138
-15307.677128	5281.575000	627.833984	44.827404
-15307.677128	5281.575000	626.607422	98.182533
-15307.677128	5281.575000	625.380859	52.143784
-15307.677128	5281.575000	624.154297	32.028954
-15307.677128	5281.575000	622.927734	-83.087799
-15307.677128	5281.575000	621.700195	-14.681436
-15307.677128	5281.575000	620.472656	-86.595497
-15307.677128	5281.575000	619.245117	-20.393028
-15307.677128	5281.575000	618.016602	2.626793
-15307.677128	5281.575000	616.788086	8.373866
-15307.677128	5281.575000	615.559570	42.144527
-15307.677128	5281.575000	614.331055	-23.277573
-15307.677128	5281.575000	613.101563	4.003693
-15307.677128	5281.575000	611.872070	-143.285339
-15307.677128	5281.575000	610.642578	-124.619316
-15307.677128	5281.575000	609.413086	-67.193588
-15307.677128	5281.575000	608.182617	-102.403038
-15307.677128	5281.575000	606.952148	-12.719073
-15307.677128	5281.575000	605.721680	29.563850
-15307.677128	5281.575000	604.491211	-98.200790
-15307.677128	5281.575000	603.259766	-116.174965
-15307.677128	5281.575000	602.028320	-119.084953
-15307.677128	5281.575000	600.796875	-152.107040
-15307.677128	5281.575000	599.564453	60.027927
-15307.677128	5281.575000	598.332031	20.527786
-15307.677128	5281.575000	597.099609	-46.899494
-15307.677128	5281.575000	595.867188	14.643517
-15307.677128	5281.575000	594.633789	67.565643
-15307.677128	5281.575000	593.400391	-49.235859
-15307.677128	5281.575000	592.166992	44.484592
-15307.677128	5281.575000	590.933594	-9.990335
-15307.677128	5281.575000	589.699219	-17.212751
-15307.677128	5281.575000	588.464844	-39.453381
-15307.677128	5281.575000	587.230469	-25.202009
-15307.677128	5281.575000	585.995117	-21.682142
-15307.677128	5281.575000	584.760742	9.725921
-15307.677128	5281.575000	583.525391	-42.510715
-15307.677128	5281.575000	582.289063	-26.112801
-15307.677128	5281.575000	581.053711	82.456314
-15307.677128	5281.575000	579.817383	-61.900700
-15307.677128	5281.575000	578.581055	-152.624069
-15307.677128	5281.575000	577.343750	-7.664832
-15307.677128	5281.575000	576.107422	64.422775
-15307.677128	5281.575000	574.870117	95.801201
-15307.677128	5281.575000	573.631836	45.822407
-15307.677128	5281.575000	572.394531	-68.336464
-15307.677128	5281.575000	571.156250	-96.843513
-15307.677128	5281.575000	569.917969	77.916122
-15307.677128	5281.575000	568.679688	32.295799
-15307.677128	5281.575000	567.440430	33.750721
-15307.677128	5281.575000	566.202148	28.801165
-15307.677128	5281.575000	564.961914	13.173881
-15307.677128	5281.575000	563.722656	10.387835
-15307.677128	5281.575000	562.482422	61.029354
-15307.677128	5281.575000	561.243164	79.618111
-15307.677128	5281.575000	560.001953	145.194382
-15307.677128	5281.575000	558.761719	-26.265017
-15307.677128	5281.575000	557.520508	90.566002
-15307.677128	5281.575000	556.279297	15.262012
-15307.677128	5281.575000	555.038086	-106.944366
-15307.677128	5281.575000	553.795898	-75.475929
-15307.677128	5281.575000	552.554688	-63.204372
-15307.677128	5281.575000	551.311523	-23.204548
-15307.677128	5281.575000	550.069336	-32.246578
-15307.677128	5281.575000	548.826172	14.149950
-15307.677128	5281.575000	547.583984	201.201538
-15307.677128	5281.575000	546.339844	66.438370
-15307.677128	5281.575000	545.096680	57.435314
-15307.677128	5281.575000	543.852539	78.265549
-15307.677128	5281.575000	542.608398	-22.275009
-15307.677128	5281.575000	541.364258	-56.763077
-15307.677128	5281.575000	540.119141	6.686051
-15307.677128	5281.575000	538.875000	170.138657
-15307.677128	5281.575000	537.628906	135.667923
-15307.677128	5281.575000	536.383789	143.767746
-15307.677128	5281.575000	535.137695	41.289097
-15307.677128	5281.575000	533.892578	34.546581
-15307.677128	5281.575000	532.645508	119.224228
-15307.677128	5281.575000	531.399414	-29.904053
-15307.677128	5281.575000	530.152344	42.024868
-15307.677128	5281.575000	528.905273	137.301559
-15307.677128	5281.575000	527.658203	98.741058
-15307.677128	5281.575000	526.410156	155.762466
-15307.677128	5281.575000	525.163086	159.694199
-15307.677128	5281.575000	523.914063	199.715302
-15307.677128	5281.575000	522.666016	243.972794
-15307.677128	5281.575000	521.416992	3.917999
-15307.677128	5281.575000	520.167969	-53.604153
-15307.677128	5281.575000	518.918945	103.098999
-15307.677128	5281.575000	517.669922	81.637566
-15307.677128	5281.575000	516.419922	53.830269
-15307.677128	5281.575000	515.169922	151.081375
-15307.677128	5281.575000	513.919922	152.943726
-15307.677128	5281.575000	512.668945	74.305222
-15307.677128	5281.575000	511.417969	52.887848
-15307.677128	5281.575000	510.166992	205.118774
-15307.677128	5281.575000	508.916016	342.464203
-15307.677128	5281.575000	507.664063	242.684845
-15307.677128	5281.575000	506.412109	339.750031
-15307.677128	5281.575000	505.160156	144.799088
-15307.677128	5281.575000	503.907227	241.832825
-15307.677128	5281.575000	502.655273	309.210785
-15307.677128	5281.575000	501.402344	372.321960
-15307.677128	5281.575000	500.148438	295.877258
-15307.677128	5281.575000	498.895508	407.551483
-15307.677128	5281.575000	497.641602	451.547821
-15307.677128	5281.575000	496.387695	396.220337
-15307.677128	5281.575000	495.132813	304.993591
-15307.677128	5281.575000	493.878906	465.072021
-15307.677128	5281.575000	492.624023	354.828796
-15307.677128	5281.575000	491.368164	489.453278
-15307.677128	5281.575000	490.113281	398.196564
-15307.677128	5281.575000	488.857422	494.724518
-15307.677128	5281.575000	487.601563	464.619232
-15307.677128	5281.575000	486.344727	563.137085
-15307.677128	5281.575000	485.088867	621.518250
-15307.677128	5281.575000	483.832031	540.708435
-15307.677128	5281.575000	482.575195	580.023193
-15307.677128	5281.575000	481.317383	671.954346
-15307.677128	5281.575000	480.059570	603.695923
-15307.677128	5281.575000	478.801758	710.231140
-15307.677128	5281.575000	477.543945	709.276306
-15307.677128	5281.575000	476.285156	716.686829
-15307.677128	5281.575000	475.027344	833.487732
-15307.677128	5281.575000	473.767578	703.963257
-15307.677128	5281.575000	472.508789	702.769531
-15307.677128	5281.575000	471.249023	810.885132
-15307.677128	5281.575000	469.989258	777.979980
-15307.677128	5281.575000	468.729492	738.705078
-15307.677128	5281.575000	467.469727	821.287415
-15307.677128	5281.575000	466.208984	741.921753
-15307.677128	5281.575000	464.948242	906.238403
-15307.677128	5281.575000	463.686523	914.934692
-15307.677128	5281.575000	462.425781	984.439026
-15307.677128	5281.575000	461.164063	953.016418
-15307.677128	5281.575000	459.901367	843.821594
-15307.677128	5281.575000	458.639648	900.377136
-15307.677128	5281.575000	457.376953	881.243530
-15307.677128	5281.575000	456.114258	836.819641
-15307.677128	5281.575000	454.851563	955.895020
-15307.677128	5281.575000	453.587891	814.741821
-15307.677128	5281.575000	452.324219	820.275269
-15307.677128	5281.575000	451.060547	834.044800
-15307.677128	5281.575000	449.796875	977.593201
-15307.677128	5281.575000	448.532227	1018.248779
-15307.677128	5281.575000	447.267578	897.419617
-15307.677128	5281.575000	446.002930	948.211060
-15307.677128	5281.575000	444.737305	1103.495972
-15307.677128	5281.575000	443.471680	948.693848
-15307.677128	5281.575000	442.206055	965.394470
-15307.677128	5281.575000	440.940430	1145.109253
-15307.677128	5281.575000	439.673828	1006.533264
-15307.677128	5281.575000	438.407227	951.468811
-15307.677128	5281.575000	437.140625	1096.962402
-15307.677128	5281.575000	435.873047	991.266174
-15307.677128	5281.575000	434.605469	983.621216
-15307.677128	5281.575000	433.337891	1216.064575
-15307.677128	5281.575000	432.070313	996.840210
-15307.677128	5281.575000	430.801758	1115.849487
-15307.677128	5281.575000	429.533203	1050.744995
-15307.677128	5281.575000	428.264648	1066.817871
-15307.677128	5281.575000	426.996094	1166.093750
-15307.677128	5281.575000	425.726563	989.514282
-15307.677128	5281.575000	424.457031	1165.347290
-15307.677128	5281.575000	423.186523	977.768250
-15307.677128	5281.575000	421.916992	1054.836182
-15307.677128	5281.575000	420.646484	1221.186768
-15307.677128	5281.575000	419.375977	1301.627930
-15307.677128	5281.575000	418.104492	1169.046387
-15307.677128	5281.575000	416.833008	1102.828003
-15307.677128	5281.575000	415.561523	1261.266479
-15307.677128	5281.575000	414.290039	1133.850708
-15307.677128	5281.575000	413.017578	1143.516968
-15307.677128	5281.575000	411.746094	1146.511230
-15307.677128	5281.575000	410.472656	1205.247559
-15307.677128	5281.575000	409.200195	1192.748535
-15307.677128	5281.575000	407.926758	1177.693115
-15307.677128	5281.575000	406.653320	1195.445068
-15307.677128	5281.575000	405.379883	1362.443115
-15307.677128	5281.575000	404.105469	1262.673096
-15307.677128	5281.575000	402.831055	1195.681030
-15307.677128	5281.575000	401.556641	1281.986450
-15307.677128	5281.575000	400.282227	1261.710938
-15307.677128	5281.575000	399.006836	1232.544434
-15307.677128	5281.575000	397.731445	1096.860107
-15307.677128	5281.575000	396.456055	1116.381714
-15307.677128	5281.575000	395.179688	1224.534424
-15307.677128	5281.575000	393.903320	1141.017456
-15307.677128	5281.575000	392.626953	1117.061523
-15307.677128	5281.575000	391.350586	1245.981201
-15307.677128	5281.575000	390.073242	1311.894653
-15307.677128	5281.575000	388.795898	1109.509277
-15307.677128	5281.575000	387.518555	1037.110840
-15307.677128	5281.575000	386.240234	1173.355469
-15307.677128	5281.575000	384.961914	1140.874634
-15307.677128	5281.575000	383.683594	1318.977295
-15307.677128	5281.575000	382.405273	1189.558716
-15307.677128	5281.575000	381.125977	1042.763428
-15307.677128	5281.575000	379.846680	1104.328247
-15307.677128	5281.575000	378.567383	1156.698486
-15307.677128	5281.575000	377.287109	1098.405884
-15307.677128	5281.575000	376.006836	1213.046021
-15307.677128	5281.575000	374.726563	1159.085083
-15307.677128	5281.575000	373.446289	1064.862671
-15307.677128	5281.575000	372.165039	936.560120
-15307.677128	5281.575000	370.883789	1067.817261
-15307.677128	5281.575000	369.602539	923.011108
-15307.677128	5281.575000	368.320313	971.440430
-15307.677128	5281.575000	367.039063	892.717590
-15307.677128	5281.575000	365.755859	870.679871
-15307.677128	5281.575000	364.473633	998.296875
-15307.677128	5281.575000	363.190430	843.787964
-15307.677128	5281.575000	361.907227	814.063721
-15307.677128	5281.575000	360.624023	733.560425
-15307.677128	5281.575000	359.340820	899.454163
-15307.677128	5281.575000	358.056641	799.831970
-15307.677128	5281.575000	356.772461	950.570374
-15307.677128	5281.575000	355.487305	982.274719
-15307.677128	5281.575000	354.202148	991.936523
-15307.677128	5281.575000	352.916992	802.253418
-15307.677128	5281.575000	351.631836	631.787537
-15307.677128	5281.575000	350.346680	645.334839
-15307.677128	5281.575000	349.060547	743.812500
-15307.677128	5281.575000	347.774414	719.146973
-15307.677128	5281.575000	346.487305	754.605286
-15307.677128	5281.575000	345.200195	730.747681
-15307.677128	5281.575000	343.913086	620.817200
-15307.677128	5281.575000	342.625977	480.394012
-15307.677128	5281.575000	341.338867	500.797913
-15307.677128	5281.575000	340.050781	527.560486
-15307.677128	5281.575000	338.762695	451.692261
-15307.677128	5281.575000	337.473633	647.366028
-15307.677128	5281.575000	336.184570	394.953888
-15307.677128	5281.575000	334.895508	399.623688
-15307.677128	5281.575000	333.606445	338.574707
-15307.677128	5281.575000	332.317383	242.621826
-15307.677128	5281.575000	331.027344	228.746933
-15307.677128	5281.575000	329.736328	198.283920
-15307.677128	5281.575000	328.446289	149.272812
-15307.677128	5281.575000	327.155273	30.234903
-15307.677128	5281.575000	325.864258	200.336411
-15307.677128	5281.575000	324.573242	-21.782499
-15307.677128	5281.575000	323.281250	73.701508
-15307.677128	5281.575000	321.989258	51.856617
-15307.677128	5281.575000	320.697266	52.121296
-15307.677128	5281.575000	319.405273	-15.758233
-15307.677128	5281.575000	318.112305	26.418072
-15307.677128	5281.575000	316.819336	-93.899818
-15307.677128	5281.575000	315.526367	-71.442932
-15307.677128	5281.575000	314.232422	9.583472
-15307.677128	5281.575000	312.938477	89.788750
-15307.677128	5281.575000	311.644531	-82.676132
-15307.677128	5281.575000	310.349609	-43.209332
-15307.677128	5281.575000	309.054688	-162.284042
-15307.677128	5281.575000	307.759766	-100.261963
-15307.677128	5281.575000	306.464844	-31.174679
-15307.677128	5281.575000	305.168945	-20.627853
-15307.677128	5281.575000	303.873047	19.361473
-15307.677128	5281.575000	302.577148	31.476431
-15307.677128	5281.575000	301.281250	144.410873
-15307.677128	5281.575000	299.984375	239.421951
