#X		#Y		#Wave		#Intensity
10543.034574	5178.726667	1999.946289	-194.497025
10543.034574	5178.726667	1998.981445	115.014275
10543.034574	5178.726667	1998.017578	132.284607
10543.034574	5178.726667	1997.052734	15.649651
10543.034574	5178.726667	1996.088867	99.658401
10543.034574	5178.726667	1995.124023	-29.479885
10543.034574	5178.726667	1994.159180	-141.312363
10543.034574	5178.726667	1993.193359	6.831309
10543.034574	5178.726667	1992.228516	-75.410507
10543.034574	5178.726667	1991.262695	124.498764
10543.034574	5178.726667	1990.296875	-259.813049
10543.034574	5178.726667	1989.331055	31.469522
10543.034574	5178.726667	1988.365234	67.756660
10543.034574	5178.726667	1987.398438	54.497318
10543.034574	5178.726667	1986.432617	28.809994
10543.034574	5178.726667	1985.465820	77.251663
10543.034574	5178.726667	1984.499023	26.728682
10543.034574	5178.726667	1983.532227	45.372704
10543.034574	5178.726667	1982.565430	2.172773
10543.034574	5178.726667	1981.597656	-85.537003
10543.034574	5178.726667	1980.629883	9.534604
10543.034574	5178.726667	1979.662109	-16.504335
10543.034574	5178.726667	1978.694336	83.354614
10543.034574	5178.726667	1977.726563	49.805408
10543.034574	5178.726667	1976.758789	-107.202194
10543.034574	5178.726667	1975.790039	96.135132
10543.034574	5178.726667	1974.821289	40.258137
10543.034574	5178.726667	1973.852539	-143.930374
10543.034574	5178.726667	1972.883789	-217.093094
10543.034574	5178.726667	1971.915039	-75.712021
10543.034574	5178.726667	1970.945313	97.634911
10543.034574	5178.726667	1969.975586	-39.744297
10543.034574	5178.726667	1969.005859	52.118423
10543.034574	5178.726667	1968.036133	-132.096985
10543.034574	5178.726667	1967.066406	183.891953
10543.034574	5178.726667	1966.096680	73.556122
10543.034574	5178.726667	1965.125977	-132.824387
10543.034574	5178.726667	1964.155273	-161.857529
10543.034574	5178.726667	1963.184570	65.144287
10543.034574	5178.726667	1962.213867	60.642090
10543.034574	5178.726667	1961.242188	53.654018
10543.034574	5178.726667	1960.271484	12.189795
10543.034574	5178.726667	1959.299805	42.064857
10543.034574	5178.726667	1958.328125	42.386097
10543.034574	5178.726667	1957.356445	8.252081
10543.034574	5178.726667	1956.384766	42.955700
10543.034574	5178.726667	1955.412109	-30.543818
10543.034574	5178.726667	1954.439453	1.654359
10543.034574	5178.726667	1953.467773	58.391544
10543.034574	5178.726667	1952.495117	-49.530033
10543.034574	5178.726667	1951.521484	80.858101
10543.034574	5178.726667	1950.548828	-66.363815
10543.034574	5178.726667	1949.575195	122.877739
10543.034574	5178.726667	1948.601563	73.878098
10543.034574	5178.726667	1947.627930	113.250237
10543.034574	5178.726667	1946.654297	37.239906
10543.034574	5178.726667	1945.680664	64.304764
10543.034574	5178.726667	1944.706055	69.264908
10543.034574	5178.726667	1943.732422	115.907669
10543.034574	5178.726667	1942.757813	-45.938938
10543.034574	5178.726667	1941.783203	-9.125128
10543.034574	5178.726667	1940.807617	-1.754778
10543.034574	5178.726667	1939.833008	169.821777
10543.034574	5178.726667	1938.857422	142.823975
10543.034574	5178.726667	1937.881836	54.569515
10543.034574	5178.726667	1936.906250	-219.842529
10543.034574	5178.726667	1935.930664	-92.482086
10543.034574	5178.726667	1934.955078	93.592651
10543.034574	5178.726667	1933.978516	81.272705
10543.034574	5178.726667	1933.001953	105.666756
10543.034574	5178.726667	1932.025391	32.145260
10543.034574	5178.726667	1931.048828	39.392113
10543.034574	5178.726667	1930.072266	24.609756
10543.034574	5178.726667	1929.094727	9.825790
10543.034574	5178.726667	1928.118164	39.059044
10543.034574	5178.726667	1927.140625	-49.092628
10543.034574	5178.726667	1926.163086	-200.781342
10543.034574	5178.726667	1925.184570	-195.986404
10543.034574	5178.726667	1924.207031	128.934021
10543.034574	5178.726667	1923.228516	60.351109
10543.034574	5178.726667	1922.250000	101.716240
10543.034574	5178.726667	1921.271484	67.344002
10543.034574	5178.726667	1920.292969	-52.491074
10543.034574	5178.726667	1919.314453	-103.925591
10543.034574	5178.726667	1918.334961	-191.961517
10543.034574	5178.726667	1917.355469	-148.177780
10543.034574	5178.726667	1916.375977	-31.212017
10543.034574	5178.726667	1915.396484	49.107689
10543.034574	5178.726667	1914.416992	112.316536
10543.034574	5178.726667	1913.436523	-22.043589
10543.034574	5178.726667	1912.457031	2.129128
10543.034574	5178.726667	1911.476563	79.922318
10543.034574	5178.726667	1910.496094	-71.438324
10543.034574	5178.726667	1909.515625	-44.849323
10543.034574	5178.726667	1908.534180	169.335617
10543.034574	5178.726667	1907.552734	98.416389
10543.034574	5178.726667	1906.572266	-26.067842
10543.034574	5178.726667	1905.590820	51.606140
10543.034574	5178.726667	1904.608398	95.160889
10543.034574	5178.726667	1903.626953	38.887676
10543.034574	5178.726667	1902.644531	116.488167
10543.034574	5178.726667	1901.663086	-41.982681
10543.034574	5178.726667	1900.680664	-32.531269
10543.034574	5178.726667	1899.698242	176.367844
10543.034574	5178.726667	1898.714844	117.667427
10543.034574	5178.726667	1897.732422	158.671463
10543.034574	5178.726667	1896.749023	-60.469326
10543.034574	5178.726667	1895.765625	63.178715
10543.034574	5178.726667	1894.782227	-73.252769
10543.034574	5178.726667	1893.798828	106.217461
10543.034574	5178.726667	1892.814453	23.256908
10543.034574	5178.726667	1891.831055	-193.266922
10543.034574	5178.726667	1890.846680	-125.601883
10543.034574	5178.726667	1889.862305	-193.933472
10543.034574	5178.726667	1888.877930	-114.176003
10543.034574	5178.726667	1887.892578	108.734428
10543.034574	5178.726667	1886.908203	-182.869766
10543.034574	5178.726667	1885.922852	-166.264908
10543.034574	5178.726667	1884.937500	-154.528076
10543.034574	5178.726667	1883.952148	-91.879257
10543.034574	5178.726667	1882.965820	19.231649
10543.034574	5178.726667	1881.980469	-12.742740
10543.034574	5178.726667	1880.994141	-39.867931
10543.034574	5178.726667	1880.007813	105.061234
10543.034574	5178.726667	1879.021484	-52.935047
10543.034574	5178.726667	1878.035156	14.399764
10543.034574	5178.726667	1877.047852	185.843216
10543.034574	5178.726667	1876.061523	54.517967
10543.034574	5178.726667	1875.074219	160.494049
10543.034574	5178.726667	1874.086914	12.252075
10543.034574	5178.726667	1873.098633	-34.300602
10543.034574	5178.726667	1872.111328	-42.136951
10543.034574	5178.726667	1871.123047	-88.691925
10543.034574	5178.726667	1870.135742	-60.263649
10543.034574	5178.726667	1869.147461	-157.614288
10543.034574	5178.726667	1868.158203	165.769440
10543.034574	5178.726667	1867.169922	155.408813
10543.034574	5178.726667	1866.180664	113.614830
10543.034574	5178.726667	1865.192383	13.821913
10543.034574	5178.726667	1864.203125	143.576309
10543.034574	5178.726667	1863.213867	26.871449
10543.034574	5178.726667	1862.223633	125.143768
10543.034574	5178.726667	1861.234375	8.448939
10543.034574	5178.726667	1860.244141	17.321341
10543.034574	5178.726667	1859.253906	28.585501
10543.034574	5178.726667	1858.263672	37.410969
10543.034574	5178.726667	1857.273438	94.472176
10543.034574	5178.726667	1856.282227	115.305046
10543.034574	5178.726667	1855.291992	-114.739594
10543.034574	5178.726667	1854.300781	166.528625
10543.034574	5178.726667	1853.309570	28.140415
10543.034574	5178.726667	1852.317383	22.366955
10543.034574	5178.726667	1851.326172	96.109032
10543.034574	5178.726667	1850.333984	162.571503
10543.034574	5178.726667	1849.342773	33.832973
10543.034574	5178.726667	1848.350586	35.196846
10543.034574	5178.726667	1847.357422	-40.530697
10543.034574	5178.726667	1846.365234	49.890228
10543.034574	5178.726667	1845.372070	46.362484
10543.034574	5178.726667	1844.379883	119.834053
10543.034574	5178.726667	1843.386719	161.967484
10543.034574	5178.726667	1842.393555	165.561264
10543.034574	5178.726667	1841.399414	-129.173203
10543.034574	5178.726667	1840.406250	114.939789
10543.034574	5178.726667	1839.412109	75.174881
10543.034574	5178.726667	1838.417969	230.144180
10543.034574	5178.726667	1837.423828	106.182266
10543.034574	5178.726667	1836.429688	-171.579391
10543.034574	5178.726667	1835.434570	197.125107
10543.034574	5178.726667	1834.440430	123.603638
10543.034574	5178.726667	1833.445313	-96.442696
10543.034574	5178.726667	1832.450195	101.438210
10543.034574	5178.726667	1831.454102	152.745544
10543.034574	5178.726667	1830.458984	105.574554
10543.034574	5178.726667	1829.462891	65.590935
10543.034574	5178.726667	1828.466797	32.789894
10543.034574	5178.726667	1827.470703	7.167185
10543.034574	5178.726667	1826.474609	-32.871300
10543.034574	5178.726667	1825.478516	-96.911842
10543.034574	5178.726667	1824.481445	-316.828522
10543.034574	5178.726667	1823.484375	-107.541931
10543.034574	5178.726667	1822.487305	163.955368
10543.034574	5178.726667	1821.490234	-84.747101
10543.034574	5178.726667	1820.493164	83.539780
10543.034574	5178.726667	1819.495117	-38.150982
10543.034574	5178.726667	1818.498047	206.640930
10543.034574	5178.726667	1817.500000	-70.760353
10543.034574	5178.726667	1816.500977	37.396694
10543.034574	5178.726667	1815.502930	-14.914696
10543.034574	5178.726667	1814.504883	157.740768
10543.034574	5178.726667	1813.505859	93.388115
10543.034574	5178.726667	1812.506836	98.404953
10543.034574	5178.726667	1811.507813	-320.015625
10543.034574	5178.726667	1810.508789	-16.043879
10543.034574	5178.726667	1809.508789	77.350967
10543.034574	5178.726667	1808.508789	91.777161
10543.034574	5178.726667	1807.508789	8.158258
10543.034574	5178.726667	1806.508789	-25.282393
10543.034574	5178.726667	1805.508789	182.577011
10543.034574	5178.726667	1804.508789	375.984253
10543.034574	5178.726667	1803.507813	277.883942
10543.034574	5178.726667	1802.506836	10.231236
10543.034574	5178.726667	1801.505859	95.998581
10543.034574	5178.726667	1800.504883	145.885910
10543.034574	5178.726667	1799.502930	140.820099
10543.034574	5178.726667	1798.501953	61.741562
10543.034574	5178.726667	1797.500000	92.395866
10543.034574	5178.726667	1796.498047	-5.810349
10543.034574	5178.726667	1795.496094	120.154915
10543.034574	5178.726667	1794.493164	155.421494
10543.034574	5178.726667	1793.491211	107.193886
10543.034574	5178.726667	1792.488281	66.092300
10543.034574	5178.726667	1791.485352	141.731598
10543.034574	5178.726667	1790.482422	105.316650
10543.034574	5178.726667	1789.478516	116.513275
10543.034574	5178.726667	1788.475586	249.129898
10543.034574	5178.726667	1787.471680	245.920151
10543.034574	5178.726667	1786.467773	118.865318
10543.034574	5178.726667	1785.463867	58.464275
10543.034574	5178.726667	1784.459961	52.778389
10543.034574	5178.726667	1783.455078	146.984940
10543.034574	5178.726667	1782.450195	174.499039
10543.034574	5178.726667	1781.445313	218.606674
10543.034574	5178.726667	1780.440430	-117.841713
10543.034574	5178.726667	1779.435547	-45.254448
10543.034574	5178.726667	1778.429688	181.775070
10543.034574	5178.726667	1777.424805	68.801392
10543.034574	5178.726667	1776.418945	286.125122
10543.034574	5178.726667	1775.413086	89.926353
10543.034574	5178.726667	1774.406250	-8.856245
10543.034574	5178.726667	1773.400391	-167.018326
10543.034574	5178.726667	1772.393555	247.080215
10543.034574	5178.726667	1771.386719	-29.867611
10543.034574	5178.726667	1770.379883	-19.554285
10543.034574	5178.726667	1769.373047	-118.455452
10543.034574	5178.726667	1768.365234	34.135899
10543.034574	5178.726667	1767.358398	77.500847
10543.034574	5178.726667	1766.350586	-9.646760
10543.034574	5178.726667	1765.342773	66.813118
10543.034574	5178.726667	1764.334961	27.023027
10543.034574	5178.726667	1763.326172	-10.430336
10543.034574	5178.726667	1762.318359	267.290253
10543.034574	5178.726667	1761.309570	170.472458
10543.034574	5178.726667	1760.300781	68.905502
10543.034574	5178.726667	1759.291016	0.487473
10543.034574	5178.726667	1758.282227	36.249329
10543.034574	5178.726667	1757.272461	24.593628
10543.034574	5178.726667	1756.262695	-129.141357
10543.034574	5178.726667	1755.252930	119.493622
10543.034574	5178.726667	1754.243164	-1.167415
10543.034574	5178.726667	1753.233398	69.809158
10543.034574	5178.726667	1752.222656	15.338728
10543.034574	5178.726667	1751.211914	-36.793888
10543.034574	5178.726667	1750.201172	-93.683350
10543.034574	5178.726667	1749.190430	109.453606
10543.034574	5178.726667	1748.179688	135.191269
10543.034574	5178.726667	1747.167969	54.523937
10543.034574	5178.726667	1746.156250	-11.983040
10543.034574	5178.726667	1745.144531	1.806175
10543.034574	5178.726667	1744.132813	-93.103439
10543.034574	5178.726667	1743.121094	92.984520
10543.034574	5178.726667	1742.108398	49.937195
10543.034574	5178.726667	1741.095703	-66.315544
10543.034574	5178.726667	1740.083008	-85.809700
10543.034574	5178.726667	1739.070313	206.125748
10543.034574	5178.726667	1738.057617	139.310272
10543.034574	5178.726667	1737.043945	-12.442846
10543.034574	5178.726667	1736.030273	147.106064
10543.034574	5178.726667	1735.016602	-181.519409
10543.034574	5178.726667	1734.002930	-163.534912
10543.034574	5178.726667	1732.989258	-275.232269
10543.034574	5178.726667	1731.974609	-31.111874
10543.034574	5178.726667	1730.959961	-32.155472
10543.034574	5178.726667	1729.945313	162.267014
10543.034574	5178.726667	1728.930664	-81.480957
10543.034574	5178.726667	1727.916016	2.116464
10543.034574	5178.726667	1726.900391	-55.619038
10543.034574	5178.726667	1725.885742	260.872864
10543.034574	5178.726667	1724.870117	-22.898443
10543.034574	5178.726667	1723.853516	293.368866
10543.034574	5178.726667	1722.837891	63.716873
10543.034574	5178.726667	1721.822266	231.589264
10543.034574	5178.726667	1720.805664	-155.607498
10543.034574	5178.726667	1719.789063	207.287933
10543.034574	5178.726667	1718.772461	137.489700
10543.034574	5178.726667	1717.754883	20.666822
10543.034574	5178.726667	1716.738281	77.728096
10543.034574	5178.726667	1715.720703	108.878494
10543.034574	5178.726667	1714.703125	-10.349299
10543.034574	5178.726667	1713.685547	25.418049
10543.034574	5178.726667	1712.667969	-39.830879
10543.034574	5178.726667	1711.649414	54.525890
10543.034574	5178.726667	1710.630859	127.682350
10543.034574	5178.726667	1709.612305	-90.203964
10543.034574	5178.726667	1708.593750	-0.707913
10543.034574	5178.726667	1707.575195	-26.223713
10543.034574	5178.726667	1706.555664	-133.856110
10543.034574	5178.726667	1705.536133	185.257095
10543.034574	5178.726667	1704.516602	91.610367
10543.034574	5178.726667	1703.497070	75.307571
10543.034574	5178.726667	1702.477539	21.477007
10543.034574	5178.726667	1701.457031	159.747177
10543.034574	5178.726667	1700.437500	-144.804886
10543.034574	5178.726667	1699.416992	47.234688
10543.034574	5178.726667	1698.395508	-74.618195
10543.034574	5178.726667	1697.375000	-210.504059
10543.034574	5178.726667	1696.354492	-60.808086
10543.034574	5178.726667	1695.333008	-46.946873
10543.034574	5178.726667	1694.311523	-21.427912
10543.034574	5178.726667	1693.290039	95.281433
10543.034574	5178.726667	1692.267578	24.790857
10543.034574	5178.726667	1691.246094	-76.102219
10543.034574	5178.726667	1690.223633	96.551659
10543.034574	5178.726667	1689.201172	-27.766535
10543.034574	5178.726667	1688.178711	-67.934311
10543.034574	5178.726667	1687.155273	92.827850
10543.034574	5178.726667	1686.132813	-66.561234
10543.034574	5178.726667	1685.109375	-15.709017
10543.034574	5178.726667	1684.085938	-6.943922
10543.034574	5178.726667	1683.062500	-47.245964
10543.034574	5178.726667	1682.039063	54.835506
10543.034574	5178.726667	1681.014648	35.475368
10543.034574	5178.726667	1679.990234	-35.246468
10543.034574	5178.726667	1678.965820	176.330627
10543.034574	5178.726667	1677.941406	19.243250
10543.034574	5178.726667	1676.916992	86.074905
10543.034574	5178.726667	1675.891602	129.529648
10543.034574	5178.726667	1674.866211	322.140686
10543.034574	5178.726667	1673.840820	204.649704
10543.034574	5178.726667	1672.815430	143.107010
10543.034574	5178.726667	1671.790039	319.212311
10543.034574	5178.726667	1670.763672	213.351257
10543.034574	5178.726667	1669.737305	-41.551250
10543.034574	5178.726667	1668.710938	76.189880
10543.034574	5178.726667	1667.684570	259.048798
10543.034574	5178.726667	1666.658203	211.372696
10543.034574	5178.726667	1665.630859	175.321548
10543.034574	5178.726667	1664.603516	53.169979
10543.034574	5178.726667	1663.576172	177.634369
10543.034574	5178.726667	1662.548828	292.724030
10543.034574	5178.726667	1661.520508	221.707275
10543.034574	5178.726667	1660.493164	327.401642
10543.034574	5178.726667	1659.464844	307.503326
10543.034574	5178.726667	1658.436523	424.712891
10543.034574	5178.726667	1657.408203	132.899078
10543.034574	5178.726667	1656.378906	305.809570
10543.034574	5178.726667	1655.350586	253.334427
10543.034574	5178.726667	1654.321289	166.022202
10543.034574	5178.726667	1653.291992	322.518860
10543.034574	5178.726667	1652.261719	397.683411
10543.034574	5178.726667	1651.232422	410.143341
10543.034574	5178.726667	1650.202148	271.744934
10543.034574	5178.726667	1649.171875	374.669403
10543.034574	5178.726667	1648.141602	259.497437
10543.034574	5178.726667	1647.111328	494.545990
10543.034574	5178.726667	1646.080078	312.119354
10543.034574	5178.726667	1645.049805	461.265015
10543.034574	5178.726667	1644.018555	603.381958
10543.034574	5178.726667	1642.987305	703.718811
10543.034574	5178.726667	1641.955078	456.465607
10543.034574	5178.726667	1640.923828	387.669891
10543.034574	5178.726667	1639.891602	386.048950
10543.034574	5178.726667	1638.859375	606.711853
10543.034574	5178.726667	1637.827148	579.564453
10543.034574	5178.726667	1636.794922	658.893555
10543.034574	5178.726667	1635.761719	911.743469
10543.034574	5178.726667	1634.729492	838.254761
10543.034574	5178.726667	1633.696289	908.207153
10543.034574	5178.726667	1632.662109	783.840393
10543.034574	5178.726667	1631.628906	964.759949
10543.034574	5178.726667	1630.594727	1018.441650
10543.034574	5178.726667	1629.561523	639.851257
10543.034574	5178.726667	1628.527344	915.429565
10543.034574	5178.726667	1627.493164	795.782776
10543.034574	5178.726667	1626.458008	745.479797
10543.034574	5178.726667	1625.423828	699.819275
10543.034574	5178.726667	1624.388672	912.807556
10543.034574	5178.726667	1623.353516	652.406189
10543.034574	5178.726667	1622.318359	897.638306
10543.034574	5178.726667	1621.282227	946.596252
10543.034574	5178.726667	1620.247070	750.951721
10543.034574	5178.726667	1619.210938	682.264709
10543.034574	5178.726667	1618.174805	761.228394
10543.034574	5178.726667	1617.137695	738.689941
10543.034574	5178.726667	1616.101563	785.339539
10543.034574	5178.726667	1615.064453	857.327209
10543.034574	5178.726667	1614.027344	744.910461
10543.034574	5178.726667	1612.990234	616.413086
10543.034574	5178.726667	1611.953125	759.830872
10543.034574	5178.726667	1610.916016	725.834412
10543.034574	5178.726667	1609.877930	645.794373
10543.034574	5178.726667	1608.839844	775.323792
10543.034574	5178.726667	1607.801758	787.406616
10543.034574	5178.726667	1606.763672	686.713379
10543.034574	5178.726667	1605.724609	809.279053
10543.034574	5178.726667	1604.685547	915.703796
10543.034574	5178.726667	1603.646484	796.669800
10543.034574	5178.726667	1602.607422	645.496155
10543.034574	5178.726667	1601.568359	839.303589
10543.034574	5178.726667	1600.528320	839.932617
10543.034574	5178.726667	1599.489258	826.789001
10543.034574	5178.726667	1598.449219	1137.685059
10543.034574	5178.726667	1597.408203	1044.092285
10543.034574	5178.726667	1596.368164	1051.632935
10543.034574	5178.726667	1595.327148	1213.059937
10543.034574	5178.726667	1594.287109	931.270142
10543.034574	5178.726667	1593.246094	1081.213623
10543.034574	5178.726667	1592.204102	1091.095337
10543.034574	5178.726667	1591.163086	878.391907
10543.034574	5178.726667	1590.121094	1106.322144
10543.034574	5178.726667	1589.079102	1026.786011
10543.034574	5178.726667	1588.037109	1087.209717
10543.034574	5178.726667	1586.995117	877.044250
10543.034574	5178.726667	1585.953125	689.910217
10543.034574	5178.726667	1584.910156	993.400452
10543.034574	5178.726667	1583.867188	1001.157776
10543.034574	5178.726667	1582.824219	1038.723755
10543.034574	5178.726667	1581.781250	904.484924
10543.034574	5178.726667	1580.737305	942.100464
10543.034574	5178.726667	1579.693359	1087.355591
10543.034574	5178.726667	1578.649414	930.363403
10543.034574	5178.726667	1577.605469	963.453430
10543.034574	5178.726667	1576.561523	1040.043335
10543.034574	5178.726667	1575.516602	899.248596
10543.034574	5178.726667	1574.472656	838.614441
10543.034574	5178.726667	1573.427734	880.956238
10543.034574	5178.726667	1572.381836	934.740540
10543.034574	5178.726667	1571.336914	988.540588
10543.034574	5178.726667	1570.291016	818.323425
10543.034574	5178.726667	1569.246094	778.483521
10543.034574	5178.726667	1568.200195	914.635376
10543.034574	5178.726667	1567.153320	801.742615
10543.034574	5178.726667	1566.107422	682.079285
10543.034574	5178.726667	1565.060547	640.139160
10543.034574	5178.726667	1564.013672	385.908173
10543.034574	5178.726667	1562.966797	611.201294
10543.034574	5178.726667	1561.919922	683.523987
10543.034574	5178.726667	1560.872070	812.899414
10543.034574	5178.726667	1559.825195	472.284882
10543.034574	5178.726667	1558.777344	583.478210
10543.034574	5178.726667	1557.729492	512.221863
10543.034574	5178.726667	1556.680664	600.635010
10543.034574	5178.726667	1555.632813	454.253601
10543.034574	5178.726667	1554.583984	670.360107
10543.034574	5178.726667	1553.535156	640.316162
10543.034574	5178.726667	1552.486328	608.047974
10543.034574	5178.726667	1551.436523	564.439453
10543.034574	5178.726667	1550.387695	438.908997
10543.034574	5178.726667	1549.337891	593.533447
10543.034574	5178.726667	1548.288086	700.335266
10543.034574	5178.726667	1547.238281	508.972198
10543.034574	5178.726667	1546.187500	647.691528
10543.034574	5178.726667	1545.136719	593.010742
10543.034574	5178.726667	1544.086914	520.204834
10543.034574	5178.726667	1543.035156	258.699677
10543.034574	5178.726667	1541.984375	713.606506
10543.034574	5178.726667	1540.933594	363.602478
10543.034574	5178.726667	1539.881836	541.103149
10543.034574	5178.726667	1538.830078	434.520111
10543.034574	5178.726667	1537.778320	671.106812
10543.034574	5178.726667	1536.725586	491.944916
10543.034574	5178.726667	1535.673828	467.344177
10543.034574	5178.726667	1534.621094	510.921692
10543.034574	5178.726667	1533.568359	654.423767
10543.034574	5178.726667	1532.515625	475.608734
10543.034574	5178.726667	1531.461914	657.740112
10543.034574	5178.726667	1530.409180	490.444458
10543.034574	5178.726667	1529.355469	432.149933
10543.034574	5178.726667	1528.301758	407.951233
10543.034574	5178.726667	1527.247070	433.700043
10543.034574	5178.726667	1526.193359	747.419922
10543.034574	5178.726667	1525.138672	603.200500
10543.034574	5178.726667	1524.083984	393.372620
10543.034574	5178.726667	1523.029297	550.738464
10543.034574	5178.726667	1521.974609	599.362854
10543.034574	5178.726667	1520.918945	412.474762
10543.034574	5178.726667	1519.863281	298.179077
10543.034574	5178.726667	1518.807617	376.424500
10543.034574	5178.726667	1517.751953	359.628387
10543.034574	5178.726667	1516.696289	471.892639
10543.034574	5178.726667	1515.639648	387.319519
10543.034574	5178.726667	1514.583008	257.595703
10543.034574	5178.726667	1513.526367	532.833862
10543.034574	5178.726667	1512.469727	590.938721
10543.034574	5178.726667	1511.412109	395.864136
10543.034574	5178.726667	1510.355469	406.626160
10543.034574	5178.726667	1509.297852	473.941010
10543.034574	5178.726667	1508.240234	252.074203
10543.034574	5178.726667	1507.181641	287.887085
10543.034574	5178.726667	1506.124023	228.889343
10543.034574	5178.726667	1505.065430	176.749802
10543.034574	5178.726667	1504.006836	210.486588
10543.034574	5178.726667	1502.948242	420.340240
10543.034574	5178.726667	1501.888672	239.742737
10543.034574	5178.726667	1500.830078	424.814453
10543.034574	5178.726667	1499.770508	122.597832
10543.034574	5178.726667	1498.710938	-170.413742
10543.034574	5178.726667	1497.650391	-14.495060
10543.034574	5178.726667	1496.590820	186.519577
10543.034574	5178.726667	1495.530273	369.485626
10543.034574	5178.726667	1494.469727	-87.599899
10543.034574	5178.726667	1493.409180	-107.310982
10543.034574	5178.726667	1492.348633	62.286224
10543.034574	5178.726667	1491.287109	2.143817
10543.034574	5178.726667	1490.225586	-159.242447
10543.034574	5178.726667	1489.164063	-5.296150
10543.034574	5178.726667	1488.102539	54.114742
10543.034574	5178.726667	1487.041016	-19.211693
10543.034574	5178.726667	1485.978516	-51.940262
10543.034574	5178.726667	1484.916016	54.869762
10543.034574	5178.726667	1483.853516	-54.175949
10543.034574	5178.726667	1482.791016	41.502865
10543.034574	5178.726667	1481.727539	13.553164
10543.034574	5178.726667	1480.664063	156.513046
10543.034574	5178.726667	1479.600586	38.803596
10543.034574	5178.726667	1478.537109	179.580231
10543.034574	5178.726667	1477.473633	-196.250626
10543.034574	5178.726667	1476.409180	-35.195049
10543.034574	5178.726667	1475.344727	-42.443810
10543.034574	5178.726667	1474.280273	-137.269226
10543.034574	5178.726667	1473.215820	98.037827
10543.034574	5178.726667	1472.151367	75.127846
10543.034574	5178.726667	1471.085938	63.708950
10543.034574	5178.726667	1470.020508	-23.939301
10543.034574	5178.726667	1468.955078	155.196884
10543.034574	5178.726667	1467.888672	110.267174
10543.034574	5178.726667	1466.823242	165.983322
10543.034574	5178.726667	1465.756836	340.791107
10543.034574	5178.726667	1464.690430	425.808655
10543.034574	5178.726667	1463.624023	116.978378
10543.034574	5178.726667	1462.556641	518.002991
10543.034574	5178.726667	1461.490234	370.344574
10543.034574	5178.726667	1460.422852	169.968079
10543.034574	5178.726667	1459.355469	319.524414
10543.034574	5178.726667	1458.287109	206.024155
10543.034574	5178.726667	1457.219727	104.318428
10543.034574	5178.726667	1456.151367	435.451813
10543.034574	5178.726667	1455.083008	266.726349
10543.034574	5178.726667	1454.014648	106.465225
10543.034574	5178.726667	1452.945313	232.263367
10543.034574	5178.726667	1451.876953	227.573669
10543.034574	5178.726667	1450.807617	413.069336
10543.034574	5178.726667	1449.738281	214.386963
10543.034574	5178.726667	1448.668945	170.791153
10543.034574	5178.726667	1447.598633	210.176895
10543.034574	5178.726667	1446.528320	445.281128
10543.034574	5178.726667	1445.458008	384.019836
10543.034574	5178.726667	1444.387695	595.405701
10543.034574	5178.726667	1443.317383	494.511871
10543.034574	5178.726667	1442.246094	233.889908
10543.034574	5178.726667	1441.174805	593.304688
10543.034574	5178.726667	1440.103516	393.554047
10543.034574	5178.726667	1439.032227	235.248215
10543.034574	5178.726667	1437.960938	238.914459
10543.034574	5178.726667	1436.888672	312.114410
10543.034574	5178.726667	1435.816406	280.990509
10543.034574	5178.726667	1434.744141	493.041656
10543.034574	5178.726667	1433.670898	477.219330
10543.034574	5178.726667	1432.598633	550.701416
10543.034574	5178.726667	1431.525391	643.570740
10543.034574	5178.726667	1430.452148	350.079590
10543.034574	5178.726667	1429.378906	366.962280
10543.034574	5178.726667	1428.304688	282.994781
10543.034574	5178.726667	1427.231445	345.112152
10543.034574	5178.726667	1426.157227	260.776611
10543.034574	5178.726667	1425.083008	309.982422
10543.034574	5178.726667	1424.007813	494.367126
10543.034574	5178.726667	1422.933594	440.292938
10543.034574	5178.726667	1421.858398	465.988281
10543.034574	5178.726667	1420.783203	131.301559
10543.034574	5178.726667	1419.708008	241.016815
10543.034574	5178.726667	1418.631836	402.178101
10543.034574	5178.726667	1417.555664	177.139511
10543.034574	5178.726667	1416.479492	293.490723
10543.034574	5178.726667	1415.403320	489.878967
10543.034574	5178.726667	1414.327148	286.388000
10543.034574	5178.726667	1413.250000	193.931335
10543.034574	5178.726667	1412.173828	421.757538
10543.034574	5178.726667	1411.096680	184.081589
10543.034574	5178.726667	1410.018555	350.759888
10543.034574	5178.726667	1408.941406	291.243683
10543.034574	5178.726667	1407.863281	518.975891
10543.034574	5178.726667	1406.785156	686.983765
10543.034574	5178.726667	1405.707031	393.711304
10543.034574	5178.726667	1404.628906	459.557709
10543.034574	5178.726667	1403.549805	249.024902
10543.034574	5178.726667	1402.470703	481.475739
10543.034574	5178.726667	1401.391602	364.233185
10543.034574	5178.726667	1400.312500	510.998138
10543.034574	5178.726667	1399.233398	304.441193
10543.034574	5178.726667	1398.153320	173.683685
10543.034574	5178.726667	1397.073242	355.421173
10543.034574	5178.726667	1395.993164	565.317383
10543.034574	5178.726667	1394.913086	340.241180
10543.034574	5178.726667	1393.832031	417.770142
10543.034574	5178.726667	1392.750977	163.595688
10543.034574	5178.726667	1391.669922	197.859055
10543.034574	5178.726667	1390.588867	231.314789
10543.034574	5178.726667	1389.506836	187.817093
10543.034574	5178.726667	1388.425781	397.509155
10543.034574	5178.726667	1387.343750	36.073349
10543.034574	5178.726667	1386.261719	177.239761
10543.034574	5178.726667	1385.178711	227.102036
10543.034574	5178.726667	1384.096680	357.564606
10543.034574	5178.726667	1383.013672	301.630615
10543.034574	5178.726667	1381.930664	236.159760
10543.034574	5178.726667	1380.846680	370.880646
10543.034574	5178.726667	1379.763672	183.574234
10543.034574	5178.726667	1378.679688	168.295807
10543.034574	5178.726667	1377.595703	243.602112
10543.034574	5178.726667	1376.511719	455.041565
10543.034574	5178.726667	1375.427734	519.786560
10543.034574	5178.726667	1374.342773	656.740967
10543.034574	5178.726667	1373.257813	707.385864
10543.034574	5178.726667	1372.172852	553.848938
10543.034574	5178.726667	1371.087891	558.700012
10543.034574	5178.726667	1370.001953	808.765869
10543.034574	5178.726667	1368.916992	621.635803
10543.034574	5178.726667	1367.831055	725.129883
10543.034574	5178.726667	1366.744141	750.783936
10543.034574	5178.726667	1365.658203	659.371582
10543.034574	5178.726667	1364.571289	503.217041
10543.034574	5178.726667	1363.484375	404.019867
10543.034574	5178.726667	1362.397461	420.223877
10543.034574	5178.726667	1361.310547	591.094238
10543.034574	5178.726667	1360.222656	474.971893
10543.034574	5178.726667	1359.135742	537.799622
10543.034574	5178.726667	1358.047852	482.092743
10543.034574	5178.726667	1356.958984	577.994385
10543.034574	5178.726667	1355.871094	426.420868
10543.034574	5178.726667	1354.782227	557.462830
10543.034574	5178.726667	1353.693359	292.613312
10543.034574	5178.726667	1352.604492	325.971375
10543.034574	5178.726667	1351.515625	465.982819
10543.034574	5178.726667	1350.425781	425.080719
10543.034574	5178.726667	1349.335938	140.507828
10543.034574	5178.726667	1348.246094	149.004852
10543.034574	5178.726667	1347.156250	326.743164
10543.034574	5178.726667	1346.066406	115.793533
10543.034574	5178.726667	1344.975586	281.045258
10543.034574	5178.726667	1343.884766	153.962540
10543.034574	5178.726667	1342.793945	174.546844
10543.034574	5178.726667	1341.702148	133.197327
10543.034574	5178.726667	1340.611328	371.028137
10543.034574	5178.726667	1339.519531	109.069641
10543.034574	5178.726667	1338.427734	228.222382
10543.034574	5178.726667	1337.334961	387.539978
10543.034574	5178.726667	1336.243164	203.372559
10543.034574	5178.726667	1335.150391	91.971527
10543.034574	5178.726667	1334.057617	162.767487
10543.034574	5178.726667	1332.964844	7.035294
10543.034574	5178.726667	1331.871094	-0.787470
10543.034574	5178.726667	1330.778320	305.744629
10543.034574	5178.726667	1329.684570	-4.856853
10543.034574	5178.726667	1328.590820	220.621674
10543.034574	5178.726667	1327.496094	98.049576
10543.034574	5178.726667	1326.402344	8.016554
10543.034574	5178.726667	1325.307617	223.841995
10543.034574	5178.726667	1324.212891	139.492325
10543.034574	5178.726667	1323.117188	216.455170
10543.034574	5178.726667	1322.022461	111.152977
10543.034574	5178.726667	1320.926758	271.129974
10543.034574	5178.726667	1319.831055	176.721619
10543.034574	5178.726667	1318.735352	39.441933
10543.034574	5178.726667	1317.638672	178.264084
10543.034574	5178.726667	1316.542969	68.981262
10543.034574	5178.726667	1315.446289	190.567719
10543.034574	5178.726667	1314.349609	223.705368
10543.034574	5178.726667	1313.251953	201.691696
10543.034574	5178.726667	1312.155273	104.055984
10543.034574	5178.726667	1311.057617	-113.517334
10543.034574	5178.726667	1309.959961	-101.337669
10543.034574	5178.726667	1308.862305	-96.269882
10543.034574	5178.726667	1307.763672	15.510995
10543.034574	5178.726667	1306.665039	-219.266464
10543.034574	5178.726667	1305.566406	79.272163
10543.034574	5178.726667	1304.467773	-67.136444
10543.034574	5178.726667	1303.369141	71.846962
10543.034574	5178.726667	1302.269531	24.303322
10543.034574	5178.726667	1301.169922	-5.450049
10543.034574	5178.726667	1300.070313	-23.305353
10543.034574	5178.726667	1298.970703	38.931141
10543.034574	5178.726667	1297.870117	22.658808
10543.034574	5178.726667	1296.769531	-21.643991
10543.034574	5178.726667	1295.668945	10.643233
10543.034574	5178.726667	1294.568359	36.613625
10543.034574	5178.726667	1293.466797	161.775024
10543.034574	5178.726667	1292.366211	-46.597073
10543.034574	5178.726667	1291.264648	139.815384
10543.034574	5178.726667	1290.162109	-21.590683
10543.034574	5178.726667	1289.060547	210.710083
10543.034574	5178.726667	1287.958008	95.259506
10543.034574	5178.726667	1286.855469	114.784782
10543.034574	5178.726667	1285.752930	373.944519
10543.034574	5178.726667	1284.650391	184.172623
10543.034574	5178.726667	1283.546875	54.962494
10543.034574	5178.726667	1282.444336	173.450623
10543.034574	5178.726667	1281.339844	162.809692
10543.034574	5178.726667	1280.236328	250.754471
10543.034574	5178.726667	1279.132813	166.103531
10543.034574	5178.726667	1278.028320	246.083664
10543.034574	5178.726667	1276.923828	257.877045
10543.034574	5178.726667	1275.819336	256.558289
10543.034574	5178.726667	1274.713867	389.413757
10543.034574	5178.726667	1273.608398	98.302368
10543.034574	5178.726667	1272.503906	277.476532
10543.034574	5178.726667	1271.397461	102.328011
10543.034574	5178.726667	1270.291992	15.699187
10543.034574	5178.726667	1269.185547	70.032700
10543.034574	5178.726667	1268.080078	77.730431
10543.034574	5178.726667	1266.972656	-55.292366
10543.034574	5178.726667	1265.866211	-97.221664
10543.034574	5178.726667	1264.759766	-42.309086
10543.034574	5178.726667	1263.652344	-28.482977
10543.034574	5178.726667	1262.544922	94.344002
10543.034574	5178.726667	1261.436523	-96.355133
10543.034574	5178.726667	1260.329102	-115.918785
10543.034574	5178.726667	1259.220703	-92.169868
10543.034574	5178.726667	1258.112305	-171.705597
10543.034574	5178.726667	1257.003906	-236.514847
10543.034574	5178.726667	1255.895508	-74.298386
10543.034574	5178.726667	1254.786133	-149.524567
10543.034574	5178.726667	1253.676758	-146.848251
10543.034574	5178.726667	1252.567383	-146.693817
10543.034574	5178.726667	1251.458008	-160.154633
10543.034574	5178.726667	1250.347656	-122.490044
10543.034574	5178.726667	1249.237305	-171.518982
10543.034574	5178.726667	1248.126953	-161.443161
10543.034574	5178.726667	1247.016602	-121.008247
10543.034574	5178.726667	1245.905273	-109.161133
10543.034574	5178.726667	1244.793945	-85.087891
10543.034574	5178.726667	1243.682617	-161.286133
10543.034574	5178.726667	1242.571289	-64.668518
10543.034574	5178.726667	1241.459961	2.087654
10543.034574	5178.726667	1240.347656	32.504246
10543.034574	5178.726667	1239.235352	34.396198
10543.034574	5178.726667	1238.123047	37.004185
10543.034574	5178.726667	1237.009766	-4.453653
10543.034574	5178.726667	1235.897461	-42.605629
10543.034574	5178.726667	1234.784180	64.893280
10543.034574	5178.726667	1233.670898	2.407857
10543.034574	5178.726667	1232.556641	-41.699238
10543.034574	5178.726667	1231.443359	28.878321
10543.034574	5178.726667	1230.329102	-80.032074
10543.034574	5178.726667	1229.214844	-36.583168
10543.034574	5178.726667	1228.099609	23.298605
10543.034574	5178.726667	1226.985352	-111.373299
10543.034574	5178.726667	1225.870117	89.768478
10543.034574	5178.726667	1224.754883	30.497032
10543.034574	5178.726667	1223.639648	67.381203
10543.034574	5178.726667	1222.523438	-81.353134
10543.034574	5178.726667	1221.408203	-102.458992
10543.034574	5178.726667	1220.291992	17.698460
10543.034574	5178.726667	1219.174805	91.874573
10543.034574	5178.726667	1218.058594	22.055685
10543.034574	5178.726667	1216.941406	79.550385
10543.034574	5178.726667	1215.824219	72.146553
10543.034574	5178.726667	1214.707031	117.427711
10543.034574	5178.726667	1213.589844	14.098491
10543.034574	5178.726667	1212.471680	66.904182
10543.034574	5178.726667	1211.353516	-104.576241
10543.034574	5178.726667	1210.235352	65.773964
10543.034574	5178.726667	1209.117188	-41.918678
10543.034574	5178.726667	1207.998047	119.941658
10543.034574	5178.726667	1206.878906	111.143997
10543.034574	5178.726667	1205.759766	37.431068
10543.034574	5178.726667	1204.640625	-64.921165
10543.034574	5178.726667	1203.520508	67.531685
10543.034574	5178.726667	1202.401367	120.548012
10543.034574	5178.726667	1201.281250	78.691826
10543.034574	5178.726667	1200.160156	24.197037
10543.034574	5178.726667	1199.040039	191.845596
10543.034574	5178.726667	1197.918945	67.086182
10543.034574	5178.726667	1196.797852	189.751968
10543.034574	5178.726667	1195.676758	206.212692
10543.034574	5178.726667	1194.555664	84.830284
10543.034574	5178.726667	1193.433594	136.503113
10543.034574	5178.726667	1192.311523	86.853508
10543.034574	5178.726667	1191.189453	168.519806
10543.034574	5178.726667	1190.066406	85.974510
10543.034574	5178.726667	1188.944336	-101.049774
10543.034574	5178.726667	1187.821289	-1.509038
10543.034574	5178.726667	1186.698242	81.266083
10543.034574	5178.726667	1185.574219	-53.621109
10543.034574	5178.726667	1184.451172	152.839539
10543.034574	5178.726667	1183.327148	31.098124
10543.034574	5178.726667	1182.203125	41.565331
10543.034574	5178.726667	1181.078125	-118.124359
10543.034574	5178.726667	1179.954102	-21.599249
10543.034574	5178.726667	1178.829102	-5.682863
10543.034574	5178.726667	1177.704102	-5.043485
10543.034574	5178.726667	1176.579102	-54.624760
10543.034574	5178.726667	1175.453125	-83.945648
10543.034574	5178.726667	1174.327148	-65.739754
10543.034574	5178.726667	1173.201172	-5.998557
10543.034574	5178.726667	1172.075195	86.965172
10543.034574	5178.726667	1170.949219	191.934372
10543.034574	5178.726667	1169.822266	181.759125
10543.034574	5178.726667	1168.695313	225.617126
10543.034574	5178.726667	1167.568359	233.020813
10543.034574	5178.726667	1166.440430	280.468628
10543.034574	5178.726667	1165.313477	120.429779
10543.034574	5178.726667	1164.185547	157.722626
10543.034574	5178.726667	1163.057617	188.030914
10543.034574	5178.726667	1161.928711	172.954529
10543.034574	5178.726667	1160.800781	212.549850
10543.034574	5178.726667	1159.671875	196.240509
10543.034574	5178.726667	1158.541992	313.464691
10543.034574	5178.726667	1157.413086	111.717461
10543.034574	5178.726667	1156.283203	237.214264
10543.034574	5178.726667	1155.154297	332.515686
10543.034574	5178.726667	1154.023438	245.650909
10543.034574	5178.726667	1152.893555	302.991791
10543.034574	5178.726667	1151.763672	469.148865
10543.034574	5178.726667	1150.632813	374.814545
10543.034574	5178.726667	1149.501953	175.560730
10543.034574	5178.726667	1148.370117	249.356125
10543.034574	5178.726667	1147.239258	329.940552
10543.034574	5178.726667	1146.107422	447.187164
10543.034574	5178.726667	1144.975586	405.964844
10543.034574	5178.726667	1143.843750	594.220764
10543.034574	5178.726667	1142.710938	520.844421
10543.034574	5178.726667	1141.578125	459.003601
10543.034574	5178.726667	1140.445313	438.465820
10543.034574	5178.726667	1139.312500	564.887268
10543.034574	5178.726667	1138.178711	550.815552
10543.034574	5178.726667	1137.045898	506.096497
10543.034574	5178.726667	1135.912109	422.408478
10543.034574	5178.726667	1134.777344	667.350952
10543.034574	5178.726667	1133.643555	569.886169
10543.034574	5178.726667	1132.508789	677.098572
10543.034574	5178.726667	1131.374023	984.202209
10543.034574	5178.726667	1130.239258	1086.861084
10543.034574	5178.726667	1129.104492	1035.743164
10543.034574	5178.726667	1127.968750	991.466064
10543.034574	5178.726667	1126.833008	944.982361
10543.034574	5178.726667	1125.697266	752.187561
10543.034574	5178.726667	1124.560547	763.127930
10543.034574	5178.726667	1123.424805	727.557495
10543.034574	5178.726667	1122.288086	606.701660
10543.034574	5178.726667	1121.151367	652.215271
10543.034574	5178.726667	1120.013672	546.219788
10543.034574	5178.726667	1118.876953	587.312256
10543.034574	5178.726667	1117.739258	633.409180
10543.034574	5178.726667	1116.601563	675.421570
10543.034574	5178.726667	1115.462891	526.296753
10543.034574	5178.726667	1114.324219	389.259247
10543.034574	5178.726667	1113.186523	423.933044
10543.034574	5178.726667	1112.046875	523.586975
10543.034574	5178.726667	1110.908203	489.085114
10543.034574	5178.726667	1109.769531	409.097534
10543.034574	5178.726667	1108.629883	456.733643
10543.034574	5178.726667	1107.490234	382.843109
10543.034574	5178.726667	1106.349609	437.730621
10543.034574	5178.726667	1105.209961	374.720642
10543.034574	5178.726667	1104.069336	445.247620
10543.034574	5178.726667	1102.928711	383.602753
10543.034574	5178.726667	1101.787109	435.262512
10543.034574	5178.726667	1100.646484	526.141479
10543.034574	5178.726667	1099.504883	399.149414
10543.034574	5178.726667	1098.363281	580.094360
10543.034574	5178.726667	1097.221680	543.983215
10543.034574	5178.726667	1096.079102	421.205444
10543.034574	5178.726667	1094.936523	600.155029
10543.034574	5178.726667	1093.793945	720.692505
10543.034574	5178.726667	1092.651367	622.598206
10543.034574	5178.726667	1091.507813	492.706879
10543.034574	5178.726667	1090.364258	497.619598
10543.034574	5178.726667	1089.220703	440.503632
10543.034574	5178.726667	1088.077148	538.281921
10543.034574	5178.726667	1086.933594	671.937134
10543.034574	5178.726667	1085.789063	505.534210
10543.034574	5178.726667	1084.644531	311.729187
10543.034574	5178.726667	1083.499023	437.144562
10543.034574	5178.726667	1082.354492	288.013489
10543.034574	5178.726667	1081.208984	409.113953
10543.034574	5178.726667	1080.063477	326.982025
10543.034574	5178.726667	1078.917969	431.646271
10543.034574	5178.726667	1077.771484	519.892151
10543.034574	5178.726667	1076.625977	484.623016
10543.034574	5178.726667	1075.479492	357.853912
10543.034574	5178.726667	1074.332031	411.343719
10543.034574	5178.726667	1073.185547	341.510651
10543.034574	5178.726667	1072.038086	149.138153
10543.034574	5178.726667	1070.890625	230.111221
10543.034574	5178.726667	1069.743164	223.772873
10543.034574	5178.726667	1068.594727	286.778534
10543.034574	5178.726667	1067.447266	111.722443
10543.034574	5178.726667	1066.298828	151.558685
10543.034574	5178.726667	1065.149414	267.418304
10543.034574	5178.726667	1064.000977	175.844955
10543.034574	5178.726667	1062.851563	166.913651
10543.034574	5178.726667	1061.702148	239.819244
10543.034574	5178.726667	1060.552734	165.068863
10543.034574	5178.726667	1059.402344	217.408539
10543.034574	5178.726667	1058.252930	234.550201
10543.034574	5178.726667	1057.102539	18.860586
10543.034574	5178.726667	1055.951172	186.091888
10543.034574	5178.726667	1054.800781	20.060692
10543.034574	5178.726667	1053.649414	142.040833
10543.034574	5178.726667	1052.498047	224.618027
10543.034574	5178.726667	1051.346680	47.361916
10543.034574	5178.726667	1050.194336	77.184402
10543.034574	5178.726667	1049.042969	140.212875
10543.034574	5178.726667	1047.890625	111.067612
10543.034574	5178.726667	1046.738281	-99.422356
10543.034574	5178.726667	1045.584961	-24.798349
10543.034574	5178.726667	1044.431641	-11.718615
10543.034574	5178.726667	1043.278320	-56.656433
10543.034574	5178.726667	1042.125000	37.950069
10543.034574	5178.726667	1040.971680	17.216478
10543.034574	5178.726667	1039.817383	111.908989
10543.034574	5178.726667	1038.663086	136.983765
10543.034574	5178.726667	1037.508789	271.946045
10543.034574	5178.726667	1036.353516	-3.814025
10543.034574	5178.726667	1035.198242	184.651016
10543.034574	5178.726667	1034.042969	418.152069
10543.034574	5178.726667	1032.887695	274.719818
10543.034574	5178.726667	1031.732422	375.710022
10543.034574	5178.726667	1030.576172	403.797028
10543.034574	5178.726667	1029.419922	301.883423
10543.034574	5178.726667	1028.263672	207.627808
10543.034574	5178.726667	1027.106445	296.616486
10543.034574	5178.726667	1025.949219	270.933777
10543.034574	5178.726667	1024.792969	138.212936
10543.034574	5178.726667	1023.634766	122.683739
10543.034574	5178.726667	1022.477539	228.109375
10543.034574	5178.726667	1021.319336	34.254753
10543.034574	5178.726667	1020.161133	42.581264
10543.034574	5178.726667	1019.002930	81.559029
10543.034574	5178.726667	1017.843750	-39.892746
10543.034574	5178.726667	1016.684570	-13.489382
10543.034574	5178.726667	1015.525391	59.593735
10543.034574	5178.726667	1014.366211	107.570877
10543.034574	5178.726667	1013.207031	105.129929
10543.034574	5178.726667	1012.046875	184.929321
10543.034574	5178.726667	1010.886719	340.686401
10543.034574	5178.726667	1009.726563	441.110565
10543.034574	5178.726667	1008.565430	447.890442
10543.034574	5178.726667	1007.404297	293.434875
10543.034574	5178.726667	1006.243164	340.878052
10543.034574	5178.726667	1005.082031	571.601196
10543.034574	5178.726667	1003.920898	522.805969
10543.034574	5178.726667	1002.758789	530.094910
10543.034574	5178.726667	1001.596680	560.293030
10543.034574	5178.726667	1000.433594	650.930603
10543.034574	5178.726667	999.271484	585.090698
10543.034574	5178.726667	998.108398	614.157898
10543.034574	5178.726667	996.945313	793.844788
10543.034574	5178.726667	995.782227	683.600037
10543.034574	5178.726667	994.618164	514.072083
10543.034574	5178.726667	993.454102	612.059631
10543.034574	5178.726667	992.290039	772.805115
10543.034574	5178.726667	991.125977	643.265137
10543.034574	5178.726667	989.960938	469.093903
10543.034574	5178.726667	988.796875	407.004517
10543.034574	5178.726667	987.630859	559.332153
10543.034574	5178.726667	986.465820	325.065735
10543.034574	5178.726667	985.300781	481.664185
10543.034574	5178.726667	984.134766	488.807159
10543.034574	5178.726667	982.968750	405.784546
10543.034574	5178.726667	981.801758	197.670532
10543.034574	5178.726667	980.635742	191.645065
10543.034574	5178.726667	979.468750	120.234032
10543.034574	5178.726667	978.301758	47.729259
10543.034574	5178.726667	977.133789	-77.490402
10543.034574	5178.726667	975.966797	12.078273
10543.034574	5178.726667	974.798828	112.866402
10543.034574	5178.726667	973.630859	-55.190617
10543.034574	5178.726667	972.461914	51.465729
10543.034574	5178.726667	971.293945	-32.282425
10543.034574	5178.726667	970.125000	-3.026444
10543.034574	5178.726667	968.956055	-62.643429
10543.034574	5178.726667	967.786133	85.903625
10543.034574	5178.726667	966.617188	144.278107
10543.034574	5178.726667	965.447266	-3.074243
10543.034574	5178.726667	964.276367	-80.111099
10543.034574	5178.726667	963.106445	41.027225
10543.034574	5178.726667	961.935547	-208.277039
10543.034574	5178.726667	960.764648	-131.835587
10543.034574	5178.726667	959.593750	-29.520147
10543.034574	5178.726667	958.422852	-11.671198
10543.034574	5178.726667	957.250977	71.338081
10543.034574	5178.726667	956.079102	-54.178032
10543.034574	5178.726667	954.907227	-33.734848
10543.034574	5178.726667	953.734375	40.184109
10543.034574	5178.726667	952.562500	45.049793
10543.034574	5178.726667	951.389648	-118.158897
10543.034574	5178.726667	950.215820	-153.720947
10543.034574	5178.726667	949.042969	-4.672261
10543.034574	5178.726667	947.869141	-155.057373
10543.034574	5178.726667	946.695313	37.374454
10543.034574	5178.726667	945.521484	53.680157
10543.034574	5178.726667	944.346680	-18.556425
10543.034574	5178.726667	943.172852	-65.167160
10543.034574	5178.726667	941.998047	62.807335
10543.034574	5178.726667	940.822266	-30.587732
10543.034574	5178.726667	939.647461	46.433891
10543.034574	5178.726667	938.471680	156.049377
10543.034574	5178.726667	937.295898	53.614872
10543.034574	5178.726667	936.119141	176.976898
10543.034574	5178.726667	934.943359	-69.694565
10543.034574	5178.726667	933.766602	121.282570
10543.034574	5178.726667	932.589844	-23.057884
10543.034574	5178.726667	931.413086	300.590942
10543.034574	5178.726667	930.235352	-6.542561
10543.034574	5178.726667	929.057617	88.870300
10543.034574	5178.726667	927.879883	-101.768890
10543.034574	5178.726667	926.702148	244.901382
10543.034574	5178.726667	925.523438	114.783348
10543.034574	5178.726667	924.344727	80.011314
10543.034574	5178.726667	923.166016	105.745613
10543.034574	5178.726667	921.987305	82.671005
10543.034574	5178.726667	920.807617	143.270752
10543.034574	5178.726667	919.627930	147.633224
10543.034574	5178.726667	919.497070	37.066097
10543.034574	5178.726667	918.331055	18.652536
10543.034574	5178.726667	917.165039	-229.663254
10543.034574	5178.726667	915.999023	-150.470993
10543.034574	5178.726667	914.833008	5.308544
10543.034574	5178.726667	913.666016	-152.295456
10543.034574	5178.726667	912.499023	-124.182037
10543.034574	5178.726667	911.332031	-98.388199
10543.034574	5178.726667	910.165039	57.303925
10543.034574	5178.726667	908.997070	-23.601873
10543.034574	5178.726667	907.830078	-129.971283
10543.034574	5178.726667	906.661133	4.811366
10543.034574	5178.726667	905.493164	-80.634102
10543.034574	5178.726667	904.325195	114.352341
10543.034574	5178.726667	903.156250	163.319397
10543.034574	5178.726667	901.987305	31.609093
10543.034574	5178.726667	900.818359	119.966599
10543.034574	5178.726667	899.648438	124.951378
10543.034574	5178.726667	898.478516	116.057739
10543.034574	5178.726667	897.308594	116.438057
10543.034574	5178.726667	896.138672	84.435112
10543.034574	5178.726667	894.968750	182.011795
10543.034574	5178.726667	893.797852	175.479523
10543.034574	5178.726667	892.626953	247.588394
10543.034574	5178.726667	891.456055	39.923347
10543.034574	5178.726667	890.284180	232.260651
10543.034574	5178.726667	889.113281	218.840652
10543.034574	5178.726667	887.941406	96.842857
10543.034574	5178.726667	886.768555	148.171524
10543.034574	5178.726667	885.596680	164.843292
10543.034574	5178.726667	884.423828	63.754505
10543.034574	5178.726667	883.250977	-194.274582
10543.034574	5178.726667	882.078125	74.096764
10543.034574	5178.726667	880.905273	194.672150
10543.034574	5178.726667	879.731445	68.331390
10543.034574	5178.726667	878.557617	62.009892
10543.034574	5178.726667	877.383789	-48.085434
10543.034574	5178.726667	876.209961	3.290397
10543.034574	5178.726667	875.035156	-62.917393
10543.034574	5178.726667	873.860352	64.530266
10543.034574	5178.726667	872.685547	118.192787
10543.034574	5178.726667	871.510742	81.987961
10543.034574	5178.726667	870.334961	108.007500
10543.034574	5178.726667	869.159180	-50.217613
10543.034574	5178.726667	867.983398	-65.607491
10543.034574	5178.726667	866.807617	-221.410385
10543.034574	5178.726667	865.630859	-110.143005
10543.034574	5178.726667	864.454102	-3.513679
10543.034574	5178.726667	863.277344	-168.403503
10543.034574	5178.726667	862.100586	-135.395706
10543.034574	5178.726667	860.922852	-129.984573
10543.034574	5178.726667	859.745117	-48.690971
10543.034574	5178.726667	858.567383	-47.880421
10543.034574	5178.726667	857.389648	-47.062965
10543.034574	5178.726667	856.210938	-60.020954
10543.034574	5178.726667	855.032227	-66.073196
10543.034574	5178.726667	853.853516	-143.320572
10543.034574	5178.726667	852.674805	107.865479
10543.034574	5178.726667	851.495117	113.287575
10543.034574	5178.726667	850.315430	-37.381950
10543.034574	5178.726667	849.135742	-132.902222
10543.034574	5178.726667	847.956055	-60.873222
10543.034574	5178.726667	846.775391	-206.804855
10543.034574	5178.726667	845.595703	7.426120
10543.034574	5178.726667	844.415039	-37.550385
10543.034574	5178.726667	843.233398	-29.767962
10543.034574	5178.726667	842.052734	33.023567
10543.034574	5178.726667	840.871094	-179.212906
10543.034574	5178.726667	839.689453	-47.666492
10543.034574	5178.726667	838.506836	106.740730
10543.034574	5178.726667	837.325195	-192.406158
10543.034574	5178.726667	836.142578	-170.841553
10543.034574	5178.726667	834.959961	125.443649
10543.034574	5178.726667	833.777344	-79.668213
10543.034574	5178.726667	832.593750	65.443703
10543.034574	5178.726667	831.410156	-29.743767
10543.034574	5178.726667	830.226563	-152.342422
10543.034574	5178.726667	829.042969	72.739014
10543.034574	5178.726667	827.858398	183.400635
10543.034574	5178.726667	826.673828	-51.185417
10543.034574	5178.726667	825.489258	100.592628
10543.034574	5178.726667	824.304688	119.766457
10543.034574	5178.726667	823.120117	79.526947
10543.034574	5178.726667	821.934570	-61.202450
10543.034574	5178.726667	820.749023	-46.583618
10543.034574	5178.726667	819.562500	-27.406012
10543.034574	5178.726667	818.376953	67.086281
10543.034574	5178.726667	817.190430	79.373474
10543.034574	5178.726667	816.003906	80.238998
10543.034574	5178.726667	814.817383	46.874615
10543.034574	5178.726667	813.629883	-38.940842
10543.034574	5178.726667	812.442383	176.288925
10543.034574	5178.726667	811.254883	229.541824
10543.034574	5178.726667	810.067383	-4.455266
10543.034574	5178.726667	808.878906	48.796146
10543.034574	5178.726667	807.690430	-18.750601
10543.034574	5178.726667	806.501953	86.853050
10543.034574	5178.726667	805.313477	-69.526375
10543.034574	5178.726667	804.124023	-43.678558
10543.034574	5178.726667	802.934570	-8.748791
10543.034574	5178.726667	801.745117	103.541542
10543.034574	5178.726667	800.555664	274.939789
10543.034574	5178.726667	799.365234	136.818298
10543.034574	5178.726667	798.175781	101.098221
10543.034574	5178.726667	796.985352	26.715351
10543.034574	5178.726667	795.793945	225.210907
10543.034574	5178.726667	794.603516	100.780540
10543.034574	5178.726667	793.412109	-25.887163
10543.034574	5178.726667	792.220703	156.528412
10543.034574	5178.726667	791.028320	150.276367
10543.034574	5178.726667	789.836914	116.743912
10543.034574	5178.726667	788.644531	151.335266
10543.034574	5178.726667	787.452148	163.183578
10543.034574	5178.726667	786.258789	170.465591
10543.034574	5178.726667	785.066406	329.778595
10543.034574	5178.726667	783.873047	450.428009
10543.034574	5178.726667	782.679688	380.431793
10543.034574	5178.726667	781.485352	287.757599
10543.034574	5178.726667	780.291992	208.696259
10543.034574	5178.726667	779.097656	70.692581
10543.034574	5178.726667	777.903320	243.265610
10543.034574	5178.726667	776.708008	322.820374
10543.034574	5178.726667	775.512695	241.434525
10543.034574	5178.726667	774.318359	112.472931
10543.034574	5178.726667	773.122070	234.942184
10543.034574	5178.726667	771.926758	377.702209
10543.034574	5178.726667	770.730469	192.096832
10543.034574	5178.726667	769.534180	323.419678
10543.034574	5178.726667	768.337891	325.659149
10543.034574	5178.726667	767.141602	400.260712
10543.034574	5178.726667	765.944336	592.422974
10543.034574	5178.726667	764.747070	628.414307
10543.034574	5178.726667	763.549805	643.999451
10543.034574	5178.726667	762.351563	650.497070
10543.034574	5178.726667	761.154297	727.012390
10543.034574	5178.726667	759.956055	708.545776
10543.034574	5178.726667	758.757813	739.746643
10543.034574	5178.726667	757.558594	721.198059
10543.034574	5178.726667	756.359375	535.495789
10543.034574	5178.726667	755.160156	539.482666
10543.034574	5178.726667	753.960938	674.347290
10543.034574	5178.726667	752.761719	565.361267
10543.034574	5178.726667	751.561523	499.245209
10543.034574	5178.726667	750.361328	649.678040
10543.034574	5178.726667	749.160156	468.441742
10543.034574	5178.726667	747.959961	627.733276
10543.034574	5178.726667	746.758789	602.034546
10543.034574	5178.726667	745.557617	943.708252
10543.034574	5178.726667	744.356445	690.229004
10543.034574	5178.726667	743.154297	614.799683
10543.034574	5178.726667	741.952148	742.084778
10543.034574	5178.726667	740.750000	621.515991
10543.034574	5178.726667	739.547852	883.734070
10543.034574	5178.726667	738.344727	751.812683
10543.034574	5178.726667	737.142578	691.908508
10543.034574	5178.726667	735.939453	600.464539
10543.034574	5178.726667	734.735352	661.988586
10543.034574	5178.726667	733.532227	597.455017
10543.034574	5178.726667	732.328125	523.890564
10543.034574	5178.726667	731.124023	416.563721
10543.034574	5178.726667	729.918945	549.750916
10543.034574	5178.726667	728.714844	455.814667
10543.034574	5178.726667	727.509766	674.188477
10543.034574	5178.726667	726.303711	553.173096
10543.034574	5178.726667	725.098633	474.811096
10543.034574	5178.726667	723.892578	587.290527
10543.034574	5178.726667	722.686523	457.175262
10543.034574	5178.726667	721.480469	360.710510
10543.034574	5178.726667	720.274414	416.819336
10543.034574	5178.726667	719.067383	264.163422
10543.034574	5178.726667	717.860352	275.255066
10543.034574	5178.726667	716.653320	396.161835
10543.034574	5178.726667	715.445313	203.015945
10543.034574	5178.726667	714.238281	245.267303
10543.034574	5178.726667	713.030273	271.732849
10543.034574	5178.726667	711.821289	170.376465
10543.034574	5178.726667	710.613281	254.938461
10543.034574	5178.726667	709.404297	294.584076
10543.034574	5178.726667	708.195313	432.669952
10543.034574	5178.726667	706.986328	530.311523
10543.034574	5178.726667	705.776367	336.813385
10543.034574	5178.726667	704.566406	185.836166
10543.034574	5178.726667	703.356445	285.452362
10543.034574	5178.726667	702.146484	210.440506
10543.034574	5178.726667	700.935547	265.102081
10543.034574	5178.726667	699.724609	225.731750
10543.034574	5178.726667	698.513672	235.475296
10543.034574	5178.726667	697.302734	339.006866
10543.034574	5178.726667	696.090820	341.838531
10543.034574	5178.726667	694.878906	337.875702
10543.034574	5178.726667	693.666992	333.821808
10543.034574	5178.726667	692.455078	293.942841
10543.034574	5178.726667	691.242188	341.071899
10543.034574	5178.726667	690.029297	254.140121
10543.034574	5178.726667	688.816406	323.389069
10543.034574	5178.726667	687.602539	396.976929
10543.034574	5178.726667	686.389648	378.965393
10543.034574	5178.726667	685.175781	253.795364
10543.034574	5178.726667	683.960938	162.032471
10543.034574	5178.726667	682.747070	163.857117
10543.034574	5178.726667	681.532227	306.020325
10543.034574	5178.726667	680.317383	218.466537
10543.034574	5178.726667	679.102539	191.013657
10543.034574	5178.726667	677.886719	310.503906
10543.034574	5178.726667	676.670898	202.658401
10543.034574	5178.726667	675.455078	101.436668
10543.034574	5178.726667	674.239258	456.562866
10543.034574	5178.726667	673.022461	257.186615
10543.034574	5178.726667	671.805664	240.276459
10543.034574	5178.726667	670.588867	109.797852
10543.034574	5178.726667	669.372070	493.128357
10543.034574	5178.726667	668.154297	229.001282
10543.034574	5178.726667	666.936523	318.425629
10543.034574	5178.726667	665.718750	469.954803
10543.034574	5178.726667	664.500977	245.692032
10543.034574	5178.726667	663.282227	561.398682
10543.034574	5178.726667	662.063477	328.110504
10543.034574	5178.726667	660.844727	359.139801
10543.034574	5178.726667	659.625000	272.347321
10543.034574	5178.726667	658.405273	305.379517
10543.034574	5178.726667	657.185547	258.377808
10543.034574	5178.726667	655.965820	446.538300
10543.034574	5178.726667	654.745117	306.117065
10543.034574	5178.726667	653.525391	434.076111
10543.034574	5178.726667	652.303711	269.100647
10543.034574	5178.726667	651.083008	316.965240
10543.034574	5178.726667	649.861328	315.925934
10543.034574	5178.726667	648.640625	290.398651
10543.034574	5178.726667	647.417969	52.027554
10543.034574	5178.726667	646.196289	380.840363
10543.034574	5178.726667	644.973633	115.751640
10543.034574	5178.726667	643.750977	224.941330
10543.034574	5178.726667	642.528320	338.405579
10543.034574	5178.726667	641.305664	172.784164
10543.034574	5178.726667	640.082031	201.887009
10543.034574	5178.726667	638.858398	160.059525
10543.034574	5178.726667	637.634766	177.874146
10543.034574	5178.726667	636.410156	169.025391
10543.034574	5178.726667	635.185547	168.918579
10543.034574	5178.726667	633.960938	93.532448
10543.034574	5178.726667	632.736328	146.275467
10543.034574	5178.726667	631.510742	128.166153
10543.034574	5178.726667	630.285156	222.639511
10543.034574	5178.726667	629.059570	257.322845
10543.034574	5178.726667	627.833984	-59.276627
10543.034574	5178.726667	626.607422	65.764603
10543.034574	5178.726667	625.380859	93.510925
10543.034574	5178.726667	624.154297	74.788940
10543.034574	5178.726667	622.927734	108.929184
10543.034574	5178.726667	621.700195	56.902832
10543.034574	5178.726667	620.472656	62.142853
10543.034574	5178.726667	619.245117	80.508186
10543.034574	5178.726667	618.016602	193.562607
10543.034574	5178.726667	616.788086	97.053856
10543.034574	5178.726667	615.559570	170.180801
10543.034574	5178.726667	614.331055	210.122772
10543.034574	5178.726667	613.101563	194.867203
10543.034574	5178.726667	611.872070	60.583118
10543.034574	5178.726667	610.642578	-58.330299
10543.034574	5178.726667	609.413086	-36.394779
10543.034574	5178.726667	608.182617	18.441336
10543.034574	5178.726667	606.952148	-72.083138
10543.034574	5178.726667	605.721680	-96.663666
10543.034574	5178.726667	604.491211	-11.346279
10543.034574	5178.726667	603.259766	-93.308022
10543.034574	5178.726667	602.028320	7.164930
10543.034574	5178.726667	600.796875	-17.800510
10543.034574	5178.726667	599.564453	25.276670
10543.034574	5178.726667	598.332031	92.412369
10543.034574	5178.726667	597.099609	-97.605309
10543.034574	5178.726667	595.867188	156.039124
10543.034574	5178.726667	594.633789	-9.943004
10543.034574	5178.726667	593.400391	-0.306910
10543.034574	5178.726667	592.166992	140.936798
10543.034574	5178.726667	590.933594	27.467974
10543.034574	5178.726667	589.699219	17.075893
10543.034574	5178.726667	588.464844	114.089706
10543.034574	5178.726667	587.230469	-6.140730
10543.034574	5178.726667	585.995117	-5.813559
10543.034574	5178.726667	584.760742	-102.016136
10543.034574	5178.726667	583.525391	-84.295395
10543.034574	5178.726667	582.289063	-60.094528
10543.034574	5178.726667	581.053711	86.709496
10543.034574	5178.726667	579.817383	-44.803577
10543.034574	5178.726667	578.581055	-58.082226
10543.034574	5178.726667	577.343750	132.176163
10543.034574	5178.726667	576.107422	-220.563019
10543.034574	5178.726667	574.870117	-54.566097
10543.034574	5178.726667	573.631836	-39.689152
10543.034574	5178.726667	572.394531	-18.315071
10543.034574	5178.726667	571.156250	-34.204529
10543.034574	5178.726667	569.917969	-52.338669
10543.034574	5178.726667	568.679688	-13.689561
10543.034574	5178.726667	567.440430	-86.594444
10543.034574	5178.726667	566.202148	89.590744
10543.034574	5178.726667	564.961914	66.815857
10543.034574	5178.726667	563.722656	-132.921341
10543.034574	5178.726667	562.482422	88.832825
10543.034574	5178.726667	561.243164	9.148619
10543.034574	5178.726667	560.001953	-18.181738
10543.034574	5178.726667	558.761719	-132.837677
10543.034574	5178.726667	557.520508	-81.675301
10543.034574	5178.726667	556.279297	-89.481735
10543.034574	5178.726667	555.038086	-34.081375
10543.034574	5178.726667	553.795898	-41.991352
10543.034574	5178.726667	552.554688	6.748827
10543.034574	5178.726667	551.311523	75.028481
10543.034574	5178.726667	550.069336	147.607437
10543.034574	5178.726667	548.826172	6.602894
10543.034574	5178.726667	547.583984	92.163109
10543.034574	5178.726667	546.339844	-133.776962
10543.034574	5178.726667	545.096680	71.454002
10543.034574	5178.726667	543.852539	-56.488880
10543.034574	5178.726667	542.608398	81.105782
10543.034574	5178.726667	541.364258	-35.957390
10543.034574	5178.726667	540.119141	99.341461
10543.034574	5178.726667	538.875000	-15.545362
10543.034574	5178.726667	537.628906	-143.467377
10543.034574	5178.726667	536.383789	4.752953
10543.034574	5178.726667	535.137695	-62.293835
10543.034574	5178.726667	533.892578	-46.740322
10543.034574	5178.726667	532.645508	-144.197830
10543.034574	5178.726667	531.399414	34.244675
10543.034574	5178.726667	530.152344	32.345646
10543.034574	5178.726667	528.905273	-54.235146
10543.034574	5178.726667	527.658203	-99.539742
10543.034574	5178.726667	526.410156	46.147945
10543.034574	5178.726667	525.163086	-94.632767
10543.034574	5178.726667	523.914063	174.634674
10543.034574	5178.726667	522.666016	-85.405312
10543.034574	5178.726667	521.416992	73.163879
10543.034574	5178.726667	520.167969	-2.464832
10543.034574	5178.726667	518.918945	-205.933182
10543.034574	5178.726667	517.669922	-30.078215
10543.034574	5178.726667	516.419922	137.038788
10543.034574	5178.726667	515.169922	48.501244
10543.034574	5178.726667	513.919922	157.088272
10543.034574	5178.726667	512.668945	137.893829
10543.034574	5178.726667	511.417969	40.798141
10543.034574	5178.726667	510.166992	-121.160019
10543.034574	5178.726667	508.916016	-79.635246
10543.034574	5178.726667	507.664063	-18.640999
10543.034574	5178.726667	506.412109	14.234953
10543.034574	5178.726667	505.160156	57.936546
10543.034574	5178.726667	503.907227	99.477654
10543.034574	5178.726667	502.655273	208.044067
10543.034574	5178.726667	501.402344	24.858261
10543.034574	5178.726667	500.148438	62.147293
10543.034574	5178.726667	498.895508	-94.939453
10543.034574	5178.726667	497.641602	121.673058
10543.034574	5178.726667	496.387695	171.979523
10543.034574	5178.726667	495.132813	-36.740662
10543.034574	5178.726667	493.878906	130.198532
10543.034574	5178.726667	492.624023	42.489395
10543.034574	5178.726667	491.368164	90.759048
10543.034574	5178.726667	490.113281	143.371857
10543.034574	5178.726667	488.857422	122.683205
10543.034574	5178.726667	487.601563	-117.847023
10543.034574	5178.726667	486.344727	-82.346825
10543.034574	5178.726667	485.088867	-20.948509
10543.034574	5178.726667	483.832031	-80.186295
10543.034574	5178.726667	482.575195	80.355301
10543.034574	5178.726667	481.317383	146.114548
10543.034574	5178.726667	480.059570	132.230331
10543.034574	5178.726667	478.801758	215.268372
10543.034574	5178.726667	477.543945	313.385162
10543.034574	5178.726667	476.285156	362.013916
10543.034574	5178.726667	475.027344	68.637192
10543.034574	5178.726667	473.767578	31.359972
10543.034574	5178.726667	472.508789	105.970612
10543.034574	5178.726667	471.249023	135.444595
10543.034574	5178.726667	469.989258	33.844475
10543.034574	5178.726667	468.729492	-151.468903
10543.034574	5178.726667	467.469727	-40.171909
10543.034574	5178.726667	466.208984	51.784348
10543.034574	5178.726667	464.948242	-49.525513
10543.034574	5178.726667	463.686523	36.038063
10543.034574	5178.726667	462.425781	14.288666
10543.034574	5178.726667	461.164063	-88.967484
10543.034574	5178.726667	459.901367	88.935333
10543.034574	5178.726667	458.639648	2.952658
10543.034574	5178.726667	457.376953	103.628769
10543.034574	5178.726667	456.114258	-20.847721
10543.034574	5178.726667	454.851563	-16.607697
10543.034574	5178.726667	453.587891	-33.776169
10543.034574	5178.726667	452.324219	92.664970
10543.034574	5178.726667	451.060547	0.556020
10543.034574	5178.726667	449.796875	-59.358582
10543.034574	5178.726667	448.532227	-114.947594
10543.034574	5178.726667	447.267578	-153.364639
10543.034574	5178.726667	446.002930	11.602921
10543.034574	5178.726667	444.737305	105.884628
10543.034574	5178.726667	443.471680	-56.619072
10543.034574	5178.726667	442.206055	-54.330921
10543.034574	5178.726667	440.940430	5.703108
10543.034574	5178.726667	439.673828	35.767220
10543.034574	5178.726667	438.407227	-2.596454
10543.034574	5178.726667	437.140625	-79.426743
10543.034574	5178.726667	435.873047	61.712208
10543.034574	5178.726667	434.605469	-2.322736
10543.034574	5178.726667	433.337891	-145.385559
10543.034574	5178.726667	432.070313	-151.749466
10543.034574	5178.726667	430.801758	106.582870
10543.034574	5178.726667	429.533203	80.867744
10543.034574	5178.726667	428.264648	63.649540
10543.034574	5178.726667	426.996094	116.790764
10543.034574	5178.726667	425.726563	5.585319
10543.034574	5178.726667	424.457031	47.910606
10543.034574	5178.726667	423.186523	28.297144
10543.034574	5178.726667	421.916992	174.888550
10543.034574	5178.726667	420.646484	57.033951
10543.034574	5178.726667	419.375977	192.696655
10543.034574	5178.726667	418.104492	-131.979111
10543.034574	5178.726667	416.833008	86.489960
10543.034574	5178.726667	415.561523	217.426483
10543.034574	5178.726667	414.290039	84.172295
10543.034574	5178.726667	413.017578	-117.296188
10543.034574	5178.726667	411.746094	55.706406
10543.034574	5178.726667	410.472656	177.384308
10543.034574	5178.726667	409.200195	45.703663
10543.034574	5178.726667	407.926758	47.857731
10543.034574	5178.726667	406.653320	-77.769875
10543.034574	5178.726667	405.379883	28.142494
10543.034574	5178.726667	404.105469	-61.758610
10543.034574	5178.726667	402.831055	94.612801
10543.034574	5178.726667	401.556641	186.923798
10543.034574	5178.726667	400.282227	2.813714
10543.034574	5178.726667	399.006836	139.123840
10543.034574	5178.726667	397.731445	-98.573509
10543.034574	5178.726667	396.456055	141.079346
10543.034574	5178.726667	395.179688	98.047585
10543.034574	5178.726667	393.903320	228.652756
10543.034574	5178.726667	392.626953	148.839050
10543.034574	5178.726667	391.350586	49.586246
10543.034574	5178.726667	390.073242	-24.597683
10543.034574	5178.726667	388.795898	42.851051
10543.034574	5178.726667	387.518555	150.092361
10543.034574	5178.726667	386.240234	244.100342
10543.034574	5178.726667	384.961914	28.300425
10543.034574	5178.726667	383.683594	93.772758
10543.034574	5178.726667	382.405273	105.755127
10543.034574	5178.726667	381.125977	-60.656193
10543.034574	5178.726667	379.846680	56.049335
10543.034574	5178.726667	378.567383	-18.335617
10543.034574	5178.726667	377.287109	92.853340
10543.034574	5178.726667	376.006836	264.690613
10543.034574	5178.726667	374.726563	-37.904079
10543.034574	5178.726667	373.446289	56.414108
10543.034574	5178.726667	372.165039	266.213135
10543.034574	5178.726667	370.883789	56.738663
10543.034574	5178.726667	369.602539	144.491699
10543.034574	5178.726667	368.320313	-0.977271
10543.034574	5178.726667	367.039063	72.444473
10543.034574	5178.726667	365.755859	-32.432690
10543.034574	5178.726667	364.473633	45.521351
10543.034574	5178.726667	363.190430	164.704651
10543.034574	5178.726667	361.907227	-63.175140
10543.034574	5178.726667	360.624023	87.785118
10543.034574	5178.726667	359.340820	-38.644993
10543.034574	5178.726667	358.056641	-100.733398
10543.034574	5178.726667	356.772461	49.041706
10543.034574	5178.726667	355.487305	-8.968900
10543.034574	5178.726667	354.202148	24.596327
10543.034574	5178.726667	352.916992	88.542816
10543.034574	5178.726667	351.631836	20.616549
10543.034574	5178.726667	350.346680	191.511887
10543.034574	5178.726667	349.060547	-18.014446
10543.034574	5178.726667	347.774414	-241.450439
10543.034574	5178.726667	346.487305	15.711524
10543.034574	5178.726667	345.200195	60.892681
10543.034574	5178.726667	343.913086	-88.986870
10543.034574	5178.726667	342.625977	-55.266766
10543.034574	5178.726667	341.338867	75.672333
10543.034574	5178.726667	340.050781	-3.252770
10543.034574	5178.726667	338.762695	92.716675
10543.034574	5178.726667	337.473633	111.209534
10543.034574	5178.726667	336.184570	-170.429214
10543.034574	5178.726667	334.895508	10.405689
10543.034574	5178.726667	333.606445	56.962963
10543.034574	5178.726667	332.317383	-62.218742
10543.034574	5178.726667	331.027344	-9.184357
10543.034574	5178.726667	329.736328	3.931842
10543.034574	5178.726667	328.446289	-121.414604
10543.034574	5178.726667	327.155273	-39.175873
10543.034574	5178.726667	325.864258	21.902473
10543.034574	5178.726667	324.573242	61.773819
10543.034574	5178.726667	323.281250	-32.872131
10543.034574	5178.726667	321.989258	-282.914520
10543.034574	5178.726667	320.697266	-130.939957
10543.034574	5178.726667	319.405273	89.625847
10543.034574	5178.726667	318.112305	-212.045181
10543.034574	5178.726667	316.819336	-137.276443
10543.034574	5178.726667	315.526367	-63.230232
10543.034574	5178.726667	314.232422	-10.983284
10543.034574	5178.726667	312.938477	-47.491074
10543.034574	5178.726667	311.644531	21.803490
10543.034574	5178.726667	310.349609	-123.363274
10543.034574	5178.726667	309.054688	129.893082
10543.034574	5178.726667	307.759766	57.803898
10543.034574	5178.726667	306.464844	3.321643
10543.034574	5178.726667	305.168945	66.577820
10543.034574	5178.726667	303.873047	55.263844
10543.034574	5178.726667	302.577148	169.887024
10543.034574	5178.726667	301.281250	195.155212
10543.034574	5178.726667	299.984375	368.978455
