#X		#Y		#Wave		#Intensity
9633.131915	4918.900000	1999.946289	-51.150188
9633.131915	4918.900000	1998.981445	-18.313074
9633.131915	4918.900000	1998.017578	16.327621
9633.131915	4918.900000	1997.052734	50.914795
9633.131915	4918.900000	1996.088867	97.837151
9633.131915	4918.900000	1995.124023	-68.335129
9633.131915	4918.900000	1994.159180	37.957100
9633.131915	4918.900000	1993.193359	-68.786217
9633.131915	4918.900000	1992.228516	22.538952
9633.131915	4918.900000	1991.262695	44.485821
9633.131915	4918.900000	1990.296875	24.317230
9633.131915	4918.900000	1989.331055	78.356186
9633.131915	4918.900000	1988.365234	-8.673694
9633.131915	4918.900000	1987.398438	20.553404
9633.131915	4918.900000	1986.432617	-9.614281
9633.131915	4918.900000	1985.465820	-7.656261
9633.131915	4918.900000	1984.499023	-13.143815
9633.131915	4918.900000	1983.532227	40.663685
9633.131915	4918.900000	1982.565430	54.884781
9633.131915	4918.900000	1981.597656	-9.989933
9633.131915	4918.900000	1980.629883	107.937302
9633.131915	4918.900000	1979.662109	136.881668
9633.131915	4918.900000	1978.694336	-51.514416
9633.131915	4918.900000	1977.726563	21.843330
9633.131915	4918.900000	1976.758789	188.954224
9633.131915	4918.900000	1975.790039	202.964645
9633.131915	4918.900000	1974.821289	73.830742
9633.131915	4918.900000	1973.852539	-23.202351
9633.131915	4918.900000	1972.883789	-33.886108
9633.131915	4918.900000	1971.915039	-17.456406
9633.131915	4918.900000	1970.945313	90.181450
9633.131915	4918.900000	1969.975586	17.797386
9633.131915	4918.900000	1969.005859	-49.646267
9633.131915	4918.900000	1968.036133	-8.649348
9633.131915	4918.900000	1967.066406	39.709190
9633.131915	4918.900000	1966.096680	21.522261
9633.131915	4918.900000	1965.125977	55.050392
9633.131915	4918.900000	1964.155273	-12.410590
9633.131915	4918.900000	1963.184570	28.471684
9633.131915	4918.900000	1962.213867	25.017611
9633.131915	4918.900000	1961.242188	-10.442061
9633.131915	4918.900000	1960.271484	123.888390
9633.131915	4918.900000	1959.299805	-5.087210
9633.131915	4918.900000	1958.328125	47.998737
9633.131915	4918.900000	1957.356445	10.060557
9633.131915	4918.900000	1956.384766	50.810909
9633.131915	4918.900000	1955.412109	-53.508698
9633.131915	4918.900000	1954.439453	-42.274078
9633.131915	4918.900000	1953.467773	52.503708
9633.131915	4918.900000	1952.495117	142.324722
9633.131915	4918.900000	1951.521484	133.841965
9633.131915	4918.900000	1950.548828	167.110489
9633.131915	4918.900000	1949.575195	72.665695
9633.131915	4918.900000	1948.601563	32.265274
9633.131915	4918.900000	1947.627930	-32.672901
9633.131915	4918.900000	1946.654297	71.754395
9633.131915	4918.900000	1945.680664	80.439133
9633.131915	4918.900000	1944.706055	44.955173
9633.131915	4918.900000	1943.732422	78.162971
9633.131915	4918.900000	1942.757813	-62.770386
9633.131915	4918.900000	1941.783203	-5.041584
9633.131915	4918.900000	1940.807617	28.147055
9633.131915	4918.900000	1939.833008	46.614960
9633.131915	4918.900000	1938.857422	-67.260880
9633.131915	4918.900000	1937.881836	-124.742119
9633.131915	4918.900000	1936.906250	48.070705
9633.131915	4918.900000	1935.930664	-4.514524
9633.131915	4918.900000	1934.955078	53.115265
9633.131915	4918.900000	1933.978516	78.893898
9633.131915	4918.900000	1933.001953	-25.076302
9633.131915	4918.900000	1932.025391	61.892899
9633.131915	4918.900000	1931.048828	82.760956
9633.131915	4918.900000	1930.072266	-77.421852
9633.131915	4918.900000	1929.094727	-29.628723
9633.131915	4918.900000	1928.118164	15.702360
9633.131915	4918.900000	1927.140625	97.694611
9633.131915	4918.900000	1926.163086	-20.808998
9633.131915	4918.900000	1925.184570	85.603821
9633.131915	4918.900000	1924.207031	-49.957108
9633.131915	4918.900000	1923.228516	-2.215769
9633.131915	4918.900000	1922.250000	-13.119741
9633.131915	4918.900000	1921.271484	46.812817
9633.131915	4918.900000	1920.292969	-61.770977
9633.131915	4918.900000	1919.314453	73.839706
9633.131915	4918.900000	1918.334961	-0.529805
9633.131915	4918.900000	1917.355469	-50.463123
9633.131915	4918.900000	1916.375977	46.034248
9633.131915	4918.900000	1915.396484	3.435321
9633.131915	4918.900000	1914.416992	-44.023232
9633.131915	4918.900000	1913.436523	30.477552
9633.131915	4918.900000	1912.457031	-31.592546
9633.131915	4918.900000	1911.476563	-54.630623
9633.131915	4918.900000	1910.496094	17.402201
9633.131915	4918.900000	1909.515625	-37.310661
9633.131915	4918.900000	1908.534180	49.317322
9633.131915	4918.900000	1907.552734	60.398479
9633.131915	4918.900000	1906.572266	-35.687054
9633.131915	4918.900000	1905.590820	-31.892519
9633.131915	4918.900000	1904.608398	25.466705
9633.131915	4918.900000	1903.626953	-34.034985
9633.131915	4918.900000	1902.644531	35.479259
9633.131915	4918.900000	1901.663086	-65.361267
9633.131915	4918.900000	1900.680664	-51.815945
9633.131915	4918.900000	1899.698242	-65.028862
9633.131915	4918.900000	1898.714844	65.252510
9633.131915	4918.900000	1897.732422	20.420343
9633.131915	4918.900000	1896.749023	41.246777
9633.131915	4918.900000	1895.765625	76.652618
9633.131915	4918.900000	1894.782227	-38.620205
9633.131915	4918.900000	1893.798828	74.544746
9633.131915	4918.900000	1892.814453	80.784027
9633.131915	4918.900000	1891.831055	-10.126225
9633.131915	4918.900000	1890.846680	73.840042
9633.131915	4918.900000	1889.862305	65.519363
9633.131915	4918.900000	1888.877930	15.939037
9633.131915	4918.900000	1887.892578	34.335228
9633.131915	4918.900000	1886.908203	30.889774
9633.131915	4918.900000	1885.922852	-45.332924
9633.131915	4918.900000	1884.937500	9.458461
9633.131915	4918.900000	1883.952148	32.705517
9633.131915	4918.900000	1882.965820	-16.794073
9633.131915	4918.900000	1881.980469	88.879753
9633.131915	4918.900000	1880.994141	44.241863
9633.131915	4918.900000	1880.007813	-99.732872
9633.131915	4918.900000	1879.021484	-23.169285
9633.131915	4918.900000	1878.035156	-55.640453
9633.131915	4918.900000	1877.047852	57.221123
9633.131915	4918.900000	1876.061523	27.173834
9633.131915	4918.900000	1875.074219	62.508675
9633.131915	4918.900000	1874.086914	59.102833
9633.131915	4918.900000	1873.098633	7.297443
9633.131915	4918.900000	1872.111328	35.363800
9633.131915	4918.900000	1871.123047	24.713757
9633.131915	4918.900000	1870.135742	57.608097
9633.131915	4918.900000	1869.147461	66.308281
9633.131915	4918.900000	1868.158203	-14.455076
9633.131915	4918.900000	1867.169922	-46.837475
9633.131915	4918.900000	1866.180664	19.889833
9633.131915	4918.900000	1865.192383	50.345764
9633.131915	4918.900000	1864.203125	-136.655243
9633.131915	4918.900000	1863.213867	38.757854
9633.131915	4918.900000	1862.223633	-68.468109
9633.131915	4918.900000	1861.234375	92.379982
9633.131915	4918.900000	1860.244141	-38.956657
9633.131915	4918.900000	1859.253906	51.826591
9633.131915	4918.900000	1858.263672	-84.278961
9633.131915	4918.900000	1857.273438	-7.997808
9633.131915	4918.900000	1856.282227	65.842461
9633.131915	4918.900000	1855.291992	43.175411
9633.131915	4918.900000	1854.300781	61.512997
9633.131915	4918.900000	1853.309570	77.432281
9633.131915	4918.900000	1852.317383	37.900352
9633.131915	4918.900000	1851.326172	114.071953
9633.131915	4918.900000	1850.333984	14.303763
9633.131915	4918.900000	1849.342773	97.677528
9633.131915	4918.900000	1848.350586	-6.869261
9633.131915	4918.900000	1847.357422	62.024567
9633.131915	4918.900000	1846.365234	70.693443
9633.131915	4918.900000	1845.372070	-16.941019
9633.131915	4918.900000	1844.379883	44.690960
9633.131915	4918.900000	1843.386719	106.297607
9633.131915	4918.900000	1842.393555	28.325357
9633.131915	4918.900000	1841.399414	-42.402767
9633.131915	4918.900000	1840.406250	52.852463
9633.131915	4918.900000	1839.412109	39.855644
9633.131915	4918.900000	1838.417969	91.777100
9633.131915	4918.900000	1837.423828	35.503632
9633.131915	4918.900000	1836.429688	46.543621
9633.131915	4918.900000	1835.434570	50.367050
9633.131915	4918.900000	1834.440430	-53.925259
9633.131915	4918.900000	1833.445313	-78.914932
9633.131915	4918.900000	1832.450195	-108.701897
9633.131915	4918.900000	1831.454102	-20.826199
9633.131915	4918.900000	1830.458984	-21.812002
9633.131915	4918.900000	1829.462891	-56.404762
9633.131915	4918.900000	1828.466797	-6.996889
9633.131915	4918.900000	1827.470703	59.183430
9633.131915	4918.900000	1826.474609	-42.585892
9633.131915	4918.900000	1825.478516	37.957676
9633.131915	4918.900000	1824.481445	80.098289
9633.131915	4918.900000	1823.484375	-4.849667
9633.131915	4918.900000	1822.487305	90.008430
9633.131915	4918.900000	1821.490234	201.601868
9633.131915	4918.900000	1820.493164	-19.917435
9633.131915	4918.900000	1819.495117	-42.516068
9633.131915	4918.900000	1818.498047	-74.692459
9633.131915	4918.900000	1817.500000	36.824921
9633.131915	4918.900000	1816.500977	-93.535149
9633.131915	4918.900000	1815.502930	3.567807
9633.131915	4918.900000	1814.504883	-42.978573
9633.131915	4918.900000	1813.505859	192.858093
9633.131915	4918.900000	1812.506836	103.214272
9633.131915	4918.900000	1811.507813	114.064674
9633.131915	4918.900000	1810.508789	50.763638
9633.131915	4918.900000	1809.508789	44.866955
9633.131915	4918.900000	1808.508789	-6.458596
9633.131915	4918.900000	1807.508789	92.815155
9633.131915	4918.900000	1806.508789	10.417062
9633.131915	4918.900000	1805.508789	21.227585
9633.131915	4918.900000	1804.508789	84.582512
9633.131915	4918.900000	1803.507813	76.250740
9633.131915	4918.900000	1802.506836	170.598557
9633.131915	4918.900000	1801.505859	-7.280442
9633.131915	4918.900000	1800.504883	51.223717
9633.131915	4918.900000	1799.502930	109.696304
9633.131915	4918.900000	1798.501953	84.621109
9633.131915	4918.900000	1797.500000	28.530888
9633.131915	4918.900000	1796.498047	41.626694
9633.131915	4918.900000	1795.496094	-45.455868
9633.131915	4918.900000	1794.493164	29.624054
9633.131915	4918.900000	1793.491211	-40.754879
9633.131915	4918.900000	1792.488281	74.795959
9633.131915	4918.900000	1791.485352	11.564102
9633.131915	4918.900000	1790.482422	74.623878
9633.131915	4918.900000	1789.478516	147.177673
9633.131915	4918.900000	1788.475586	-35.147694
9633.131915	4918.900000	1787.471680	27.853439
9633.131915	4918.900000	1786.467773	7.492349
9633.131915	4918.900000	1785.463867	18.072620
9633.131915	4918.900000	1784.459961	104.794571
9633.131915	4918.900000	1783.455078	17.772635
9633.131915	4918.900000	1782.450195	-47.816628
9633.131915	4918.900000	1781.445313	48.348686
9633.131915	4918.900000	1780.440430	123.062889
9633.131915	4918.900000	1779.435547	26.547787
9633.131915	4918.900000	1778.429688	-98.469666
9633.131915	4918.900000	1777.424805	-47.572144
9633.131915	4918.900000	1776.418945	-15.716771
9633.131915	4918.900000	1775.413086	27.993303
9633.131915	4918.900000	1774.406250	-142.110031
9633.131915	4918.900000	1773.400391	-67.542686
9633.131915	4918.900000	1772.393555	-80.872490
9633.131915	4918.900000	1771.386719	12.621705
9633.131915	4918.900000	1770.379883	72.837486
9633.131915	4918.900000	1769.373047	35.719837
9633.131915	4918.900000	1768.365234	41.310543
9633.131915	4918.900000	1767.358398	87.214928
9633.131915	4918.900000	1766.350586	125.972969
9633.131915	4918.900000	1765.342773	15.309535
9633.131915	4918.900000	1764.334961	-0.490066
9633.131915	4918.900000	1763.326172	95.112000
9633.131915	4918.900000	1762.318359	100.606209
9633.131915	4918.900000	1761.309570	11.303405
9633.131915	4918.900000	1760.300781	35.736153
9633.131915	4918.900000	1759.291016	5.666605
9633.131915	4918.900000	1758.282227	-22.035994
9633.131915	4918.900000	1757.272461	191.764557
9633.131915	4918.900000	1756.262695	40.910439
9633.131915	4918.900000	1755.252930	39.209202
9633.131915	4918.900000	1754.243164	-12.199083
9633.131915	4918.900000	1753.233398	42.864231
9633.131915	4918.900000	1752.222656	17.465664
9633.131915	4918.900000	1751.211914	-31.587673
9633.131915	4918.900000	1750.201172	2.122861
9633.131915	4918.900000	1749.190430	92.544960
9633.131915	4918.900000	1748.179688	48.189323
9633.131915	4918.900000	1747.167969	-22.160307
9633.131915	4918.900000	1746.156250	-38.154263
9633.131915	4918.900000	1745.144531	-56.519154
9633.131915	4918.900000	1744.132813	111.695419
9633.131915	4918.900000	1743.121094	-34.236671
9633.131915	4918.900000	1742.108398	18.191671
9633.131915	4918.900000	1741.095703	-40.359028
9633.131915	4918.900000	1740.083008	59.221798
9633.131915	4918.900000	1739.070313	17.173124
9633.131915	4918.900000	1738.057617	-72.057808
9633.131915	4918.900000	1737.043945	36.860725
9633.131915	4918.900000	1736.030273	37.242664
9633.131915	4918.900000	1735.016602	87.123146
9633.131915	4918.900000	1734.002930	-49.261532
9633.131915	4918.900000	1732.989258	19.441399
9633.131915	4918.900000	1731.974609	24.477188
9633.131915	4918.900000	1730.959961	71.903992
9633.131915	4918.900000	1729.945313	-31.458134
9633.131915	4918.900000	1728.930664	-0.555001
9633.131915	4918.900000	1727.916016	13.838236
9633.131915	4918.900000	1726.900391	-35.354031
9633.131915	4918.900000	1725.885742	89.636330
9633.131915	4918.900000	1724.870117	59.244038
9633.131915	4918.900000	1723.853516	2.965142
9633.131915	4918.900000	1722.837891	94.895256
9633.131915	4918.900000	1721.822266	38.601830
9633.131915	4918.900000	1720.805664	-31.796000
9633.131915	4918.900000	1719.789063	-24.597559
9633.131915	4918.900000	1718.772461	24.893700
9633.131915	4918.900000	1717.754883	36.746834
9633.131915	4918.900000	1716.738281	-101.799782
9633.131915	4918.900000	1715.720703	-38.274300
9633.131915	4918.900000	1714.703125	55.746193
9633.131915	4918.900000	1713.685547	-9.973143
9633.131915	4918.900000	1712.667969	-7.593168
9633.131915	4918.900000	1711.649414	27.633333
9633.131915	4918.900000	1710.630859	72.219185
9633.131915	4918.900000	1709.612305	-54.526001
9633.131915	4918.900000	1708.593750	11.142921
9633.131915	4918.900000	1707.575195	104.919350
9633.131915	4918.900000	1706.555664	64.965981
9633.131915	4918.900000	1705.536133	20.323536
9633.131915	4918.900000	1704.516602	247.622437
9633.131915	4918.900000	1703.497070	31.830278
9633.131915	4918.900000	1702.477539	-15.168879
9633.131915	4918.900000	1701.457031	54.980965
9633.131915	4918.900000	1700.437500	71.213234
9633.131915	4918.900000	1699.416992	-97.600243
9633.131915	4918.900000	1698.395508	-64.987022
9633.131915	4918.900000	1697.375000	79.976387
9633.131915	4918.900000	1696.354492	39.953094
9633.131915	4918.900000	1695.333008	-42.195850
9633.131915	4918.900000	1694.311523	55.837311
9633.131915	4918.900000	1693.290039	-28.651701
9633.131915	4918.900000	1692.267578	8.498427
9633.131915	4918.900000	1691.246094	8.206489
9633.131915	4918.900000	1690.223633	-22.495747
9633.131915	4918.900000	1689.201172	201.593842
9633.131915	4918.900000	1688.178711	-46.513927
9633.131915	4918.900000	1687.155273	62.966965
9633.131915	4918.900000	1686.132813	-28.520624
9633.131915	4918.900000	1685.109375	34.171165
9633.131915	4918.900000	1684.085938	-3.593357
9633.131915	4918.900000	1683.062500	66.046249
9633.131915	4918.900000	1682.039063	86.622787
9633.131915	4918.900000	1681.014648	-35.196438
9633.131915	4918.900000	1679.990234	64.701714
9633.131915	4918.900000	1678.965820	43.228474
9633.131915	4918.900000	1677.941406	-15.571871
9633.131915	4918.900000	1676.916992	46.909676
9633.131915	4918.900000	1675.891602	46.395535
9633.131915	4918.900000	1674.866211	52.862198
9633.131915	4918.900000	1673.840820	-3.618930
9633.131915	4918.900000	1672.815430	149.642197
9633.131915	4918.900000	1671.790039	121.097351
9633.131915	4918.900000	1670.763672	41.300461
9633.131915	4918.900000	1669.737305	87.288872
9633.131915	4918.900000	1668.710938	200.775345
9633.131915	4918.900000	1667.684570	-9.403317
9633.131915	4918.900000	1666.658203	-40.282406
9633.131915	4918.900000	1665.630859	7.961740
9633.131915	4918.900000	1664.603516	102.710526
9633.131915	4918.900000	1663.576172	1.999479
9633.131915	4918.900000	1662.548828	117.621941
9633.131915	4918.900000	1661.520508	72.731369
9633.131915	4918.900000	1660.493164	158.047363
9633.131915	4918.900000	1659.464844	36.433823
9633.131915	4918.900000	1658.436523	137.967529
9633.131915	4918.900000	1657.408203	274.305145
9633.131915	4918.900000	1656.378906	136.441101
9633.131915	4918.900000	1655.350586	7.912773
9633.131915	4918.900000	1654.321289	0.179656
9633.131915	4918.900000	1653.291992	-2.917481
9633.131915	4918.900000	1652.261719	149.506683
9633.131915	4918.900000	1651.232422	137.077194
9633.131915	4918.900000	1650.202148	154.806259
9633.131915	4918.900000	1649.171875	-22.364990
9633.131915	4918.900000	1648.141602	78.873169
9633.131915	4918.900000	1647.111328	166.147369
9633.131915	4918.900000	1646.080078	-117.614891
9633.131915	4918.900000	1645.049805	111.057266
9633.131915	4918.900000	1644.018555	105.531647
9633.131915	4918.900000	1642.987305	120.855171
9633.131915	4918.900000	1641.955078	150.062759
9633.131915	4918.900000	1640.923828	21.733976
9633.131915	4918.900000	1639.891602	224.631607
9633.131915	4918.900000	1638.859375	267.668793
9633.131915	4918.900000	1637.827148	137.048630
9633.131915	4918.900000	1636.794922	126.832535
9633.131915	4918.900000	1635.761719	220.748993
9633.131915	4918.900000	1634.729492	85.561752
9633.131915	4918.900000	1633.696289	308.978821
9633.131915	4918.900000	1632.662109	224.689590
9633.131915	4918.900000	1631.628906	212.112350
9633.131915	4918.900000	1630.594727	324.376251
9633.131915	4918.900000	1629.561523	198.506119
9633.131915	4918.900000	1628.527344	169.740143
9633.131915	4918.900000	1627.493164	309.653229
9633.131915	4918.900000	1626.458008	186.144180
9633.131915	4918.900000	1625.423828	219.739868
9633.131915	4918.900000	1624.388672	320.282196
9633.131915	4918.900000	1623.353516	199.133209
9633.131915	4918.900000	1622.318359	336.562378
9633.131915	4918.900000	1621.282227	333.146942
9633.131915	4918.900000	1620.247070	348.189728
9633.131915	4918.900000	1619.210938	379.367554
9633.131915	4918.900000	1618.174805	279.053680
9633.131915	4918.900000	1617.137695	363.260986
9633.131915	4918.900000	1616.101563	256.062469
9633.131915	4918.900000	1615.064453	282.601288
9633.131915	4918.900000	1614.027344	258.420441
9633.131915	4918.900000	1612.990234	416.286469
9633.131915	4918.900000	1611.953125	253.848206
9633.131915	4918.900000	1610.916016	349.453278
9633.131915	4918.900000	1609.877930	364.410431
9633.131915	4918.900000	1608.839844	331.005066
9633.131915	4918.900000	1607.801758	417.317932
9633.131915	4918.900000	1606.763672	282.636810
9633.131915	4918.900000	1605.724609	177.918411
9633.131915	4918.900000	1604.685547	356.228882
9633.131915	4918.900000	1603.646484	311.338928
9633.131915	4918.900000	1602.607422	330.860107
9633.131915	4918.900000	1601.568359	403.257446
9633.131915	4918.900000	1600.528320	376.767395
9633.131915	4918.900000	1599.489258	407.750671
9633.131915	4918.900000	1598.449219	365.180420
9633.131915	4918.900000	1597.408203	285.861572
9633.131915	4918.900000	1596.368164	429.398499
9633.131915	4918.900000	1595.327148	425.886902
9633.131915	4918.900000	1594.287109	231.789597
9633.131915	4918.900000	1593.246094	242.091690
9633.131915	4918.900000	1592.204102	337.315155
9633.131915	4918.900000	1591.163086	262.680267
9633.131915	4918.900000	1590.121094	284.439850
9633.131915	4918.900000	1589.079102	283.250824
9633.131915	4918.900000	1588.037109	272.888367
9633.131915	4918.900000	1586.995117	200.616806
9633.131915	4918.900000	1585.953125	256.763763
9633.131915	4918.900000	1584.910156	241.828384
9633.131915	4918.900000	1583.867188	249.818024
9633.131915	4918.900000	1582.824219	223.436264
9633.131915	4918.900000	1581.781250	325.355194
9633.131915	4918.900000	1580.737305	223.386230
9633.131915	4918.900000	1579.693359	265.727875
9633.131915	4918.900000	1578.649414	330.950165
9633.131915	4918.900000	1577.605469	199.288925
9633.131915	4918.900000	1576.561523	243.906677
9633.131915	4918.900000	1575.516602	171.809967
9633.131915	4918.900000	1574.472656	298.779816
9633.131915	4918.900000	1573.427734	361.656952
9633.131915	4918.900000	1572.381836	298.734802
9633.131915	4918.900000	1571.336914	164.965759
9633.131915	4918.900000	1570.291016	241.556549
9633.131915	4918.900000	1569.246094	315.838928
9633.131915	4918.900000	1568.200195	157.019669
9633.131915	4918.900000	1567.153320	320.392883
9633.131915	4918.900000	1566.107422	182.201736
9633.131915	4918.900000	1565.060547	274.721069
9633.131915	4918.900000	1564.013672	193.682312
9633.131915	4918.900000	1562.966797	267.911560
9633.131915	4918.900000	1561.919922	353.528687
9633.131915	4918.900000	1560.872070	336.430420
9633.131915	4918.900000	1559.825195	408.323883
9633.131915	4918.900000	1558.777344	290.869049
9633.131915	4918.900000	1557.729492	196.273117
9633.131915	4918.900000	1556.680664	265.886444
9633.131915	4918.900000	1555.632813	273.930817
9633.131915	4918.900000	1554.583984	234.113068
9633.131915	4918.900000	1553.535156	144.185806
9633.131915	4918.900000	1552.486328	254.793259
9633.131915	4918.900000	1551.436523	189.966522
9633.131915	4918.900000	1550.387695	259.543915
9633.131915	4918.900000	1549.337891	383.746613
9633.131915	4918.900000	1548.288086	271.150360
9633.131915	4918.900000	1547.238281	393.042969
9633.131915	4918.900000	1546.187500	162.171860
9633.131915	4918.900000	1545.136719	240.824661
9633.131915	4918.900000	1544.086914	178.424759
9633.131915	4918.900000	1543.035156	363.951385
9633.131915	4918.900000	1541.984375	324.307037
9633.131915	4918.900000	1540.933594	300.601440
9633.131915	4918.900000	1539.881836	279.186096
9633.131915	4918.900000	1538.830078	282.786591
9633.131915	4918.900000	1537.778320	170.522232
9633.131915	4918.900000	1536.725586	244.580994
9633.131915	4918.900000	1535.673828	193.710571
9633.131915	4918.900000	1534.621094	142.868744
9633.131915	4918.900000	1533.568359	201.030518
9633.131915	4918.900000	1532.515625	331.814270
9633.131915	4918.900000	1531.461914	176.616943
9633.131915	4918.900000	1530.409180	205.276505
9633.131915	4918.900000	1529.355469	211.249832
9633.131915	4918.900000	1528.301758	124.244804
9633.131915	4918.900000	1527.247070	189.210693
9633.131915	4918.900000	1526.193359	100.001701
9633.131915	4918.900000	1525.138672	169.505219
9633.131915	4918.900000	1524.083984	270.721313
9633.131915	4918.900000	1523.029297	120.410141
9633.131915	4918.900000	1521.974609	162.723770
9633.131915	4918.900000	1520.918945	26.107389
9633.131915	4918.900000	1519.863281	170.347122
9633.131915	4918.900000	1518.807617	137.953644
9633.131915	4918.900000	1517.751953	128.222290
9633.131915	4918.900000	1516.696289	136.613205
9633.131915	4918.900000	1515.639648	86.185158
9633.131915	4918.900000	1514.583008	124.016937
9633.131915	4918.900000	1513.526367	3.526435
9633.131915	4918.900000	1512.469727	152.192581
9633.131915	4918.900000	1511.412109	-42.835701
9633.131915	4918.900000	1510.355469	123.893990
9633.131915	4918.900000	1509.297852	46.496994
9633.131915	4918.900000	1508.240234	-1.480472
9633.131915	4918.900000	1507.181641	97.413307
9633.131915	4918.900000	1506.124023	26.890621
9633.131915	4918.900000	1505.065430	80.608910
9633.131915	4918.900000	1504.006836	114.002518
9633.131915	4918.900000	1502.948242	90.967819
9633.131915	4918.900000	1501.888672	13.793543
9633.131915	4918.900000	1500.830078	-67.844093
9633.131915	4918.900000	1499.770508	-9.567523
9633.131915	4918.900000	1498.710938	-73.092148
9633.131915	4918.900000	1497.650391	-66.670227
9633.131915	4918.900000	1496.590820	-200.015549
9633.131915	4918.900000	1495.530273	-74.067322
9633.131915	4918.900000	1494.469727	87.907219
9633.131915	4918.900000	1493.409180	-22.805168
9633.131915	4918.900000	1492.348633	42.261230
9633.131915	4918.900000	1491.287109	14.972674
9633.131915	4918.900000	1490.225586	30.499344
9633.131915	4918.900000	1489.164063	95.569885
9633.131915	4918.900000	1488.102539	-28.450327
9633.131915	4918.900000	1487.041016	25.390734
9633.131915	4918.900000	1485.978516	-13.026187
9633.131915	4918.900000	1484.916016	175.804688
9633.131915	4918.900000	1483.853516	-4.286432
9633.131915	4918.900000	1482.791016	-121.320427
9633.131915	4918.900000	1481.727539	36.003685
9633.131915	4918.900000	1480.664063	35.931591
9633.131915	4918.900000	1479.600586	65.094513
9633.131915	4918.900000	1478.537109	-40.519398
9633.131915	4918.900000	1477.473633	58.308483
9633.131915	4918.900000	1476.409180	71.762764
9633.131915	4918.900000	1475.344727	-2.301106
9633.131915	4918.900000	1474.280273	15.720253
9633.131915	4918.900000	1473.215820	22.509811
9633.131915	4918.900000	1472.151367	24.874559
9633.131915	4918.900000	1471.085938	-91.602371
9633.131915	4918.900000	1470.020508	101.349655
9633.131915	4918.900000	1468.955078	52.118183
9633.131915	4918.900000	1467.888672	-171.523163
9633.131915	4918.900000	1466.823242	32.399681
9633.131915	4918.900000	1465.756836	75.131142
9633.131915	4918.900000	1464.690430	8.299898
9633.131915	4918.900000	1463.624023	8.612086
9633.131915	4918.900000	1462.556641	169.894409
9633.131915	4918.900000	1461.490234	-4.108303
9633.131915	4918.900000	1460.422852	56.363731
9633.131915	4918.900000	1459.355469	-8.076812
9633.131915	4918.900000	1458.287109	63.860954
9633.131915	4918.900000	1457.219727	184.771072
9633.131915	4918.900000	1456.151367	47.093868
9633.131915	4918.900000	1455.083008	-133.037048
9633.131915	4918.900000	1454.014648	16.782440
9633.131915	4918.900000	1452.945313	-61.308784
9633.131915	4918.900000	1451.876953	33.141739
9633.131915	4918.900000	1450.807617	-37.539955
9633.131915	4918.900000	1449.738281	54.412189
9633.131915	4918.900000	1448.668945	90.810974
9633.131915	4918.900000	1447.598633	-11.334751
9633.131915	4918.900000	1446.528320	69.784447
9633.131915	4918.900000	1445.458008	112.428879
9633.131915	4918.900000	1444.387695	-4.977807
9633.131915	4918.900000	1443.317383	25.340071
9633.131915	4918.900000	1442.246094	12.975445
9633.131915	4918.900000	1441.174805	4.021566
9633.131915	4918.900000	1440.103516	28.503876
9633.131915	4918.900000	1439.032227	56.771542
9633.131915	4918.900000	1437.960938	-71.325058
9633.131915	4918.900000	1436.888672	26.894035
9633.131915	4918.900000	1435.816406	66.649384
9633.131915	4918.900000	1434.744141	-69.248909
9633.131915	4918.900000	1433.670898	7.072027
9633.131915	4918.900000	1432.598633	13.713985
9633.131915	4918.900000	1431.525391	16.928314
9633.131915	4918.900000	1430.452148	26.231119
9633.131915	4918.900000	1429.378906	135.132690
9633.131915	4918.900000	1428.304688	89.015991
9633.131915	4918.900000	1427.231445	10.890078
9633.131915	4918.900000	1426.157227	6.574611
9633.131915	4918.900000	1425.083008	120.329231
9633.131915	4918.900000	1424.007813	-28.983500
9633.131915	4918.900000	1422.933594	-0.654546
9633.131915	4918.900000	1421.858398	-97.585251
9633.131915	4918.900000	1420.783203	65.051788
9633.131915	4918.900000	1419.708008	58.938725
9633.131915	4918.900000	1418.631836	59.745827
9633.131915	4918.900000	1417.555664	-6.801129
9633.131915	4918.900000	1416.479492	54.095715
9633.131915	4918.900000	1415.403320	73.335289
9633.131915	4918.900000	1414.327148	140.891220
9633.131915	4918.900000	1413.250000	120.793259
9633.131915	4918.900000	1412.173828	122.363754
9633.131915	4918.900000	1411.096680	144.014282
9633.131915	4918.900000	1410.018555	244.259567
9633.131915	4918.900000	1408.941406	251.898819
9633.131915	4918.900000	1407.863281	256.589386
9633.131915	4918.900000	1406.785156	250.958176
9633.131915	4918.900000	1405.707031	320.162354
9633.131915	4918.900000	1404.628906	443.875763
9633.131915	4918.900000	1403.549805	214.492599
9633.131915	4918.900000	1402.470703	166.685547
9633.131915	4918.900000	1401.391602	221.896484
9633.131915	4918.900000	1400.312500	225.300186
9633.131915	4918.900000	1399.233398	85.377098
9633.131915	4918.900000	1398.153320	159.761261
9633.131915	4918.900000	1397.073242	243.417725
9633.131915	4918.900000	1395.993164	123.171165
9633.131915	4918.900000	1394.913086	88.487373
9633.131915	4918.900000	1393.832031	42.438946
9633.131915	4918.900000	1392.750977	135.931763
9633.131915	4918.900000	1391.669922	158.508240
9633.131915	4918.900000	1390.588867	191.014557
9633.131915	4918.900000	1389.506836	126.585884
9633.131915	4918.900000	1388.425781	197.981018
9633.131915	4918.900000	1387.343750	96.012405
9633.131915	4918.900000	1386.261719	62.500797
9633.131915	4918.900000	1385.178711	72.453537
9633.131915	4918.900000	1384.096680	-1.305321
9633.131915	4918.900000	1383.013672	149.683304
9633.131915	4918.900000	1381.930664	65.528152
9633.131915	4918.900000	1380.846680	100.333336
9633.131915	4918.900000	1379.763672	22.221556
9633.131915	4918.900000	1378.679688	131.513870
9633.131915	4918.900000	1377.595703	111.243248
9633.131915	4918.900000	1376.511719	134.061478
9633.131915	4918.900000	1375.427734	-40.771484
9633.131915	4918.900000	1374.342773	96.487961
9633.131915	4918.900000	1373.257813	16.864162
9633.131915	4918.900000	1372.172852	-38.831440
9633.131915	4918.900000	1371.087891	23.091265
9633.131915	4918.900000	1370.001953	-25.574717
9633.131915	4918.900000	1368.916992	81.975243
9633.131915	4918.900000	1367.831055	133.194931
9633.131915	4918.900000	1366.744141	105.599464
9633.131915	4918.900000	1365.658203	70.030205
9633.131915	4918.900000	1364.571289	-13.427107
9633.131915	4918.900000	1363.484375	17.057091
9633.131915	4918.900000	1362.397461	90.073036
9633.131915	4918.900000	1361.310547	160.208527
9633.131915	4918.900000	1360.222656	-8.105336
9633.131915	4918.900000	1359.135742	68.764557
9633.131915	4918.900000	1358.047852	35.296280
9633.131915	4918.900000	1356.958984	-11.944539
9633.131915	4918.900000	1355.871094	62.002457
9633.131915	4918.900000	1354.782227	33.172832
9633.131915	4918.900000	1353.693359	124.864449
9633.131915	4918.900000	1352.604492	-0.977486
9633.131915	4918.900000	1351.515625	30.108822
9633.131915	4918.900000	1350.425781	43.680153
9633.131915	4918.900000	1349.335938	79.098480
9633.131915	4918.900000	1348.246094	106.183037
9633.131915	4918.900000	1347.156250	-41.080959
9633.131915	4918.900000	1346.066406	-28.681898
9633.131915	4918.900000	1344.975586	72.182686
9633.131915	4918.900000	1343.884766	23.100002
9633.131915	4918.900000	1342.793945	158.981796
9633.131915	4918.900000	1341.702148	116.193832
9633.131915	4918.900000	1340.611328	75.481041
9633.131915	4918.900000	1339.519531	35.710564
9633.131915	4918.900000	1338.427734	91.706825
9633.131915	4918.900000	1337.334961	56.167667
9633.131915	4918.900000	1336.243164	108.678711
9633.131915	4918.900000	1335.150391	-43.344669
9633.131915	4918.900000	1334.057617	20.979483
9633.131915	4918.900000	1332.964844	30.640043
9633.131915	4918.900000	1331.871094	29.683090
9633.131915	4918.900000	1330.778320	9.775345
9633.131915	4918.900000	1329.684570	18.440512
9633.131915	4918.900000	1328.590820	-46.254002
9633.131915	4918.900000	1327.496094	92.243317
9633.131915	4918.900000	1326.402344	37.639328
9633.131915	4918.900000	1325.307617	-35.854389
9633.131915	4918.900000	1324.212891	47.162998
9633.131915	4918.900000	1323.117188	-60.385357
9633.131915	4918.900000	1322.022461	86.255363
9633.131915	4918.900000	1320.926758	34.130363
9633.131915	4918.900000	1319.831055	12.212908
9633.131915	4918.900000	1318.735352	8.228433
9633.131915	4918.900000	1317.638672	65.082344
9633.131915	4918.900000	1316.542969	139.554428
9633.131915	4918.900000	1315.446289	39.183468
9633.131915	4918.900000	1314.349609	66.465088
9633.131915	4918.900000	1313.251953	18.864342
9633.131915	4918.900000	1312.155273	22.717520
9633.131915	4918.900000	1311.057617	13.530069
9633.131915	4918.900000	1309.959961	15.256547
9633.131915	4918.900000	1308.862305	9.348447
9633.131915	4918.900000	1307.763672	-20.867794
9633.131915	4918.900000	1306.665039	-45.442307
9633.131915	4918.900000	1305.566406	-33.056416
9633.131915	4918.900000	1304.467773	-78.399986
9633.131915	4918.900000	1303.369141	41.070271
9633.131915	4918.900000	1302.269531	27.976992
9633.131915	4918.900000	1301.169922	-10.197067
9633.131915	4918.900000	1300.070313	20.866766
9633.131915	4918.900000	1298.970703	59.112167
9633.131915	4918.900000	1297.870117	-159.288620
9633.131915	4918.900000	1296.769531	109.169579
9633.131915	4918.900000	1295.668945	-53.076668
9633.131915	4918.900000	1294.568359	-69.609810
9633.131915	4918.900000	1293.466797	-6.315883
9633.131915	4918.900000	1292.366211	-21.647451
9633.131915	4918.900000	1291.264648	1.236133
9633.131915	4918.900000	1290.162109	49.371101
9633.131915	4918.900000	1289.060547	-96.213730
9633.131915	4918.900000	1287.958008	-13.770662
9633.131915	4918.900000	1286.855469	34.298351
9633.131915	4918.900000	1285.752930	34.409630
9633.131915	4918.900000	1284.650391	-11.467287
9633.131915	4918.900000	1283.546875	0.197917
9633.131915	4918.900000	1282.444336	65.944160
9633.131915	4918.900000	1281.339844	31.012943
9633.131915	4918.900000	1280.236328	2.156286
9633.131915	4918.900000	1279.132813	91.361786
9633.131915	4918.900000	1278.028320	-45.715916
9633.131915	4918.900000	1276.923828	33.670773
9633.131915	4918.900000	1275.819336	13.450612
9633.131915	4918.900000	1274.713867	54.154980
9633.131915	4918.900000	1273.608398	-50.766907
9633.131915	4918.900000	1272.503906	2.667102
9633.131915	4918.900000	1271.397461	11.874795
9633.131915	4918.900000	1270.291992	6.318366
9633.131915	4918.900000	1269.185547	22.213400
9633.131915	4918.900000	1268.080078	62.899815
9633.131915	4918.900000	1266.972656	-16.005758
9633.131915	4918.900000	1265.866211	62.022240
9633.131915	4918.900000	1264.759766	-41.741600
9633.131915	4918.900000	1263.652344	-1.455526
9633.131915	4918.900000	1262.544922	-64.129387
9633.131915	4918.900000	1261.436523	123.603241
9633.131915	4918.900000	1260.329102	-33.555290
9633.131915	4918.900000	1259.220703	45.646889
9633.131915	4918.900000	1258.112305	-139.622635
9633.131915	4918.900000	1257.003906	-32.162132
9633.131915	4918.900000	1255.895508	82.770615
9633.131915	4918.900000	1254.786133	32.229588
9633.131915	4918.900000	1253.676758	-32.756561
9633.131915	4918.900000	1252.567383	-54.040081
9633.131915	4918.900000	1251.458008	-128.546219
9633.131915	4918.900000	1250.347656	49.125225
9633.131915	4918.900000	1249.237305	78.671570
9633.131915	4918.900000	1248.126953	-19.384918
9633.131915	4918.900000	1247.016602	3.999020
9633.131915	4918.900000	1245.905273	19.160126
9633.131915	4918.900000	1244.793945	-49.401077
9633.131915	4918.900000	1243.682617	56.222683
9633.131915	4918.900000	1242.571289	-29.804239
9633.131915	4918.900000	1241.459961	36.932999
9633.131915	4918.900000	1240.347656	71.859787
9633.131915	4918.900000	1239.235352	-23.346136
9633.131915	4918.900000	1238.123047	44.348488
9633.131915	4918.900000	1237.009766	70.070229
9633.131915	4918.900000	1235.897461	-9.957598
9633.131915	4918.900000	1234.784180	-31.863718
9633.131915	4918.900000	1233.670898	85.708298
9633.131915	4918.900000	1232.556641	-6.065640
9633.131915	4918.900000	1231.443359	-27.192228
9633.131915	4918.900000	1230.329102	22.009405
9633.131915	4918.900000	1229.214844	58.243336
9633.131915	4918.900000	1228.099609	98.532646
9633.131915	4918.900000	1226.985352	65.103790
9633.131915	4918.900000	1225.870117	35.670601
9633.131915	4918.900000	1224.754883	13.817038
9633.131915	4918.900000	1223.639648	50.551453
9633.131915	4918.900000	1222.523438	99.368622
9633.131915	4918.900000	1221.408203	127.087738
9633.131915	4918.900000	1220.291992	178.000809
9633.131915	4918.900000	1219.174805	166.109604
9633.131915	4918.900000	1218.058594	131.707413
9633.131915	4918.900000	1216.941406	64.838448
9633.131915	4918.900000	1215.824219	79.772202
9633.131915	4918.900000	1214.707031	117.920105
9633.131915	4918.900000	1213.589844	42.168442
9633.131915	4918.900000	1212.471680	20.623577
9633.131915	4918.900000	1211.353516	-46.179867
9633.131915	4918.900000	1210.235352	45.993763
9633.131915	4918.900000	1209.117188	-1.215830
9633.131915	4918.900000	1207.998047	56.092407
9633.131915	4918.900000	1206.878906	72.267548
9633.131915	4918.900000	1205.759766	97.771072
9633.131915	4918.900000	1204.640625	43.646744
9633.131915	4918.900000	1203.520508	-90.576698
9633.131915	4918.900000	1202.401367	-49.270256
9633.131915	4918.900000	1201.281250	-49.106991
9633.131915	4918.900000	1200.160156	37.125805
9633.131915	4918.900000	1199.040039	-48.473385
9633.131915	4918.900000	1197.918945	-1.609356
9633.131915	4918.900000	1196.797852	2.088700
9633.131915	4918.900000	1195.676758	-8.866941
9633.131915	4918.900000	1194.555664	-2.477919
9633.131915	4918.900000	1193.433594	-16.039478
9633.131915	4918.900000	1192.311523	-0.993298
9633.131915	4918.900000	1191.189453	-121.852242
9633.131915	4918.900000	1190.066406	-76.586861
9633.131915	4918.900000	1188.944336	-90.301003
9633.131915	4918.900000	1187.821289	-102.146042
9633.131915	4918.900000	1186.698242	-61.339031
9633.131915	4918.900000	1185.574219	-22.979670
9633.131915	4918.900000	1184.451172	-6.200354
9633.131915	4918.900000	1183.327148	-60.098518
9633.131915	4918.900000	1182.203125	-95.076492
9633.131915	4918.900000	1181.078125	-59.105091
9633.131915	4918.900000	1179.954102	-22.070095
9633.131915	4918.900000	1178.829102	-4.229602
9633.131915	4918.900000	1177.704102	-40.480804
9633.131915	4918.900000	1176.579102	38.060902
9633.131915	4918.900000	1175.453125	-49.123394
9633.131915	4918.900000	1174.327148	-64.384483
9633.131915	4918.900000	1173.201172	-46.907822
9633.131915	4918.900000	1172.075195	-98.593712
9633.131915	4918.900000	1170.949219	64.048424
9633.131915	4918.900000	1169.822266	-0.357537
9633.131915	4918.900000	1168.695313	-52.706291
9633.131915	4918.900000	1167.568359	-41.358585
9633.131915	4918.900000	1166.440430	-48.137810
9633.131915	4918.900000	1165.313477	31.782797
9633.131915	4918.900000	1164.185547	-99.312744
9633.131915	4918.900000	1163.057617	81.107903
9633.131915	4918.900000	1161.928711	-32.573112
9633.131915	4918.900000	1160.800781	80.406326
9633.131915	4918.900000	1159.671875	64.514290
9633.131915	4918.900000	1158.541992	57.136852
9633.131915	4918.900000	1157.413086	-42.715790
9633.131915	4918.900000	1156.283203	-33.516769
9633.131915	4918.900000	1155.154297	-60.775623
9633.131915	4918.900000	1154.023438	-29.480961
9633.131915	4918.900000	1152.893555	-39.915920
9633.131915	4918.900000	1151.763672	-54.921276
9633.131915	4918.900000	1150.632813	54.144608
9633.131915	4918.900000	1149.501953	62.183044
9633.131915	4918.900000	1148.370117	28.772909
9633.131915	4918.900000	1147.239258	-21.210470
9633.131915	4918.900000	1146.107422	20.095842
9633.131915	4918.900000	1144.975586	-75.215141
9633.131915	4918.900000	1143.843750	11.489752
9633.131915	4918.900000	1142.710938	62.442204
9633.131915	4918.900000	1141.578125	62.632950
9633.131915	4918.900000	1140.445313	86.273788
9633.131915	4918.900000	1139.312500	102.780144
9633.131915	4918.900000	1138.178711	14.762066
9633.131915	4918.900000	1137.045898	29.230062
9633.131915	4918.900000	1135.912109	35.232239
9633.131915	4918.900000	1134.777344	39.796791
9633.131915	4918.900000	1133.643555	7.063657
9633.131915	4918.900000	1132.508789	84.179787
9633.131915	4918.900000	1131.374023	54.773449
9633.131915	4918.900000	1130.239258	73.253731
9633.131915	4918.900000	1129.104492	140.842712
9633.131915	4918.900000	1127.968750	101.802719
9633.131915	4918.900000	1126.833008	48.271854
9633.131915	4918.900000	1125.697266	146.177994
9633.131915	4918.900000	1124.560547	143.599869
9633.131915	4918.900000	1123.424805	125.685173
9633.131915	4918.900000	1122.288086	94.174446
9633.131915	4918.900000	1121.151367	59.794449
9633.131915	4918.900000	1120.013672	55.563576
9633.131915	4918.900000	1118.876953	19.614960
9633.131915	4918.900000	1117.739258	-25.485739
9633.131915	4918.900000	1116.601563	21.919447
9633.131915	4918.900000	1115.462891	45.854000
9633.131915	4918.900000	1114.324219	-10.832928
9633.131915	4918.900000	1113.186523	-35.924236
9633.131915	4918.900000	1112.046875	101.191902
9633.131915	4918.900000	1110.908203	65.628128
9633.131915	4918.900000	1109.769531	83.431854
9633.131915	4918.900000	1108.629883	22.948530
9633.131915	4918.900000	1107.490234	101.487343
9633.131915	4918.900000	1106.349609	118.311203
9633.131915	4918.900000	1105.209961	40.372112
9633.131915	4918.900000	1104.069336	190.725510
9633.131915	4918.900000	1102.928711	77.132507
9633.131915	4918.900000	1101.787109	39.516171
9633.131915	4918.900000	1100.646484	44.570515
9633.131915	4918.900000	1099.504883	100.206863
9633.131915	4918.900000	1098.363281	135.913437
9633.131915	4918.900000	1097.221680	-66.884750
9633.131915	4918.900000	1096.079102	108.454041
9633.131915	4918.900000	1094.936523	79.753532
9633.131915	4918.900000	1093.793945	-101.946274
9633.131915	4918.900000	1092.651367	-29.282639
9633.131915	4918.900000	1091.507813	-4.678292
9633.131915	4918.900000	1090.364258	52.760109
9633.131915	4918.900000	1089.220703	46.774963
9633.131915	4918.900000	1088.077148	75.753448
9633.131915	4918.900000	1086.933594	70.592743
9633.131915	4918.900000	1085.789063	48.730656
9633.131915	4918.900000	1084.644531	50.373592
9633.131915	4918.900000	1083.499023	69.791618
9633.131915	4918.900000	1082.354492	88.473076
9633.131915	4918.900000	1081.208984	24.185410
9633.131915	4918.900000	1080.063477	87.735901
9633.131915	4918.900000	1078.917969	-13.511206
9633.131915	4918.900000	1077.771484	-5.411874
9633.131915	4918.900000	1076.625977	62.093655
9633.131915	4918.900000	1075.479492	-10.162582
9633.131915	4918.900000	1074.332031	23.776402
9633.131915	4918.900000	1073.185547	128.219223
9633.131915	4918.900000	1072.038086	-15.341276
9633.131915	4918.900000	1070.890625	12.849577
9633.131915	4918.900000	1069.743164	-15.460915
9633.131915	4918.900000	1068.594727	47.980343
9633.131915	4918.900000	1067.447266	22.653961
9633.131915	4918.900000	1066.298828	91.540001
9633.131915	4918.900000	1065.149414	52.163330
9633.131915	4918.900000	1064.000977	17.266594
9633.131915	4918.900000	1062.851563	81.383751
9633.131915	4918.900000	1061.702148	14.939229
9633.131915	4918.900000	1060.552734	106.679626
9633.131915	4918.900000	1059.402344	20.015179
9633.131915	4918.900000	1058.252930	110.183289
9633.131915	4918.900000	1057.102539	32.199982
9633.131915	4918.900000	1055.951172	90.904106
9633.131915	4918.900000	1054.800781	223.723312
9633.131915	4918.900000	1053.649414	54.547836
9633.131915	4918.900000	1052.498047	119.096405
9633.131915	4918.900000	1051.346680	25.302635
9633.131915	4918.900000	1050.194336	58.681427
9633.131915	4918.900000	1049.042969	70.468910
9633.131915	4918.900000	1047.890625	20.302275
9633.131915	4918.900000	1046.738281	56.497242
9633.131915	4918.900000	1045.584961	-9.104906
9633.131915	4918.900000	1044.431641	25.639692
9633.131915	4918.900000	1043.278320	27.823603
9633.131915	4918.900000	1042.125000	-2.199381
9633.131915	4918.900000	1040.971680	-49.743675
9633.131915	4918.900000	1039.817383	89.575653
9633.131915	4918.900000	1038.663086	124.999710
9633.131915	4918.900000	1037.508789	-18.612589
9633.131915	4918.900000	1036.353516	45.129040
9633.131915	4918.900000	1035.198242	0.048740
9633.131915	4918.900000	1034.042969	28.685373
9633.131915	4918.900000	1032.887695	25.434494
9633.131915	4918.900000	1031.732422	73.071541
9633.131915	4918.900000	1030.576172	12.898127
9633.131915	4918.900000	1029.419922	84.288986
9633.131915	4918.900000	1028.263672	85.178009
9633.131915	4918.900000	1027.106445	136.909760
9633.131915	4918.900000	1025.949219	-14.251606
9633.131915	4918.900000	1024.792969	-10.466651
9633.131915	4918.900000	1023.634766	-61.322258
9633.131915	4918.900000	1022.477539	0.217054
9633.131915	4918.900000	1021.319336	10.043878
9633.131915	4918.900000	1020.161133	118.887299
9633.131915	4918.900000	1019.002930	56.713196
9633.131915	4918.900000	1017.843750	-114.396889
9633.131915	4918.900000	1016.684570	9.698511
9633.131915	4918.900000	1015.525391	147.598099
9633.131915	4918.900000	1014.366211	19.057074
9633.131915	4918.900000	1013.207031	171.934631
9633.131915	4918.900000	1012.046875	-10.565918
9633.131915	4918.900000	1010.886719	-53.848442
9633.131915	4918.900000	1009.726563	41.341030
9633.131915	4918.900000	1008.565430	46.680893
9633.131915	4918.900000	1007.404297	83.805138
9633.131915	4918.900000	1006.243164	105.001442
9633.131915	4918.900000	1005.082031	-13.790183
9633.131915	4918.900000	1003.920898	17.214035
9633.131915	4918.900000	1002.758789	-72.056091
9633.131915	4918.900000	1001.596680	46.314247
9633.131915	4918.900000	1000.433594	2.971158
9633.131915	4918.900000	999.271484	54.357277
9633.131915	4918.900000	998.108398	-38.768471
9633.131915	4918.900000	996.945313	42.543674
9633.131915	4918.900000	995.782227	173.164154
9633.131915	4918.900000	994.618164	119.321075
9633.131915	4918.900000	993.454102	47.409771
9633.131915	4918.900000	992.290039	8.196454
9633.131915	4918.900000	991.125977	21.926565
9633.131915	4918.900000	989.960938	-0.640332
9633.131915	4918.900000	988.796875	-18.383453
9633.131915	4918.900000	987.630859	23.139742
9633.131915	4918.900000	986.465820	10.004715
9633.131915	4918.900000	985.300781	108.122147
9633.131915	4918.900000	984.134766	19.460777
9633.131915	4918.900000	982.968750	-10.898648
9633.131915	4918.900000	981.801758	67.924706
9633.131915	4918.900000	980.635742	168.956543
9633.131915	4918.900000	979.468750	36.151794
9633.131915	4918.900000	978.301758	20.005796
9633.131915	4918.900000	977.133789	161.055359
9633.131915	4918.900000	975.966797	85.395584
9633.131915	4918.900000	974.798828	89.460602
9633.131915	4918.900000	973.630859	48.014320
9633.131915	4918.900000	972.461914	20.227808
9633.131915	4918.900000	971.293945	-41.264221
9633.131915	4918.900000	970.125000	11.528212
9633.131915	4918.900000	968.956055	0.635895
9633.131915	4918.900000	967.786133	-8.284292
9633.131915	4918.900000	966.617188	-23.812422
9633.131915	4918.900000	965.447266	-19.408522
9633.131915	4918.900000	964.276367	-12.122070
9633.131915	4918.900000	963.106445	40.397316
9633.131915	4918.900000	961.935547	-92.661011
9633.131915	4918.900000	960.764648	-20.853125
9633.131915	4918.900000	959.593750	-18.452610
9633.131915	4918.900000	958.422852	-3.918596
9633.131915	4918.900000	957.250977	-51.403828
9633.131915	4918.900000	956.079102	8.517577
9633.131915	4918.900000	954.907227	8.830585
9633.131915	4918.900000	953.734375	20.668072
9633.131915	4918.900000	952.562500	-32.404366
9633.131915	4918.900000	951.389648	-23.001453
9633.131915	4918.900000	950.215820	21.300480
9633.131915	4918.900000	949.042969	-11.050125
9633.131915	4918.900000	947.869141	-41.322811
9633.131915	4918.900000	946.695313	81.435944
9633.131915	4918.900000	945.521484	81.631760
9633.131915	4918.900000	944.346680	81.673340
9633.131915	4918.900000	943.172852	-24.578938
9633.131915	4918.900000	941.998047	19.459316
9633.131915	4918.900000	940.822266	12.549911
9633.131915	4918.900000	939.647461	-19.617168
9633.131915	4918.900000	938.471680	-100.419952
9633.131915	4918.900000	937.295898	-28.759127
9633.131915	4918.900000	936.119141	107.683647
9633.131915	4918.900000	934.943359	-28.599594
9633.131915	4918.900000	933.766602	-26.337519
9633.131915	4918.900000	932.589844	-26.180058
9633.131915	4918.900000	931.413086	98.559898
9633.131915	4918.900000	930.235352	20.038317
9633.131915	4918.900000	929.057617	8.509809
9633.131915	4918.900000	927.879883	-3.017713
9633.131915	4918.900000	926.702148	63.972935
9633.131915	4918.900000	925.523438	-12.188236
9633.131915	4918.900000	924.344727	10.899654
9633.131915	4918.900000	923.166016	61.665409
9633.131915	4918.900000	921.987305	87.036606
9633.131915	4918.900000	920.807617	45.504868
9633.131915	4918.900000	919.627930	46.173962
9633.131915	4918.900000	919.497070	38.650566
9633.131915	4918.900000	918.331055	8.656440
9633.131915	4918.900000	917.165039	31.689367
9633.131915	4918.900000	915.999023	-65.136795
9633.131915	4918.900000	914.833008	-2.934518
9633.131915	4918.900000	913.666016	38.504585
9633.131915	4918.900000	912.499023	26.946655
9633.131915	4918.900000	911.332031	22.297779
9633.131915	4918.900000	910.165039	49.880302
9633.131915	4918.900000	908.997070	-62.968258
9633.131915	4918.900000	907.830078	-63.004486
9633.131915	4918.900000	906.661133	-166.587341
9633.131915	4918.900000	905.493164	-72.288864
9633.131915	4918.900000	904.325195	-74.633850
9633.131915	4918.900000	903.156250	24.200062
9633.131915	4918.900000	901.987305	-17.254608
9633.131915	4918.900000	900.818359	-5.827377
9633.131915	4918.900000	899.648438	-15.090919
9633.131915	4918.900000	898.478516	-84.094009
9633.131915	4918.900000	897.308594	-40.507954
9633.131915	4918.900000	896.138672	14.540593
9633.131915	4918.900000	894.968750	67.267769
9633.131915	4918.900000	893.797852	48.800346
9633.131915	4918.900000	892.626953	-27.046186
9633.131915	4918.900000	891.456055	34.828339
9633.131915	4918.900000	890.284180	-20.339706
9633.131915	4918.900000	889.113281	46.090630
9633.131915	4918.900000	887.941406	158.361084
9633.131915	4918.900000	886.768555	-27.507538
9633.131915	4918.900000	885.596680	-16.144789
9633.131915	4918.900000	884.423828	29.592417
9633.131915	4918.900000	883.250977	-30.105421
9633.131915	4918.900000	882.078125	61.433872
9633.131915	4918.900000	880.905273	59.015766
9633.131915	4918.900000	879.731445	97.820457
9633.131915	4918.900000	878.557617	65.625610
9633.131915	4918.900000	877.383789	12.838247
9633.131915	4918.900000	876.209961	47.044357
9633.131915	4918.900000	875.035156	46.909962
9633.131915	4918.900000	873.860352	1.016435
9633.131915	4918.900000	872.685547	85.520554
9633.131915	4918.900000	871.510742	-28.973635
9633.131915	4918.900000	870.334961	0.623706
9633.131915	4918.900000	869.159180	-26.942232
9633.131915	4918.900000	867.983398	25.493868
9633.131915	4918.900000	866.807617	98.472076
9633.131915	4918.900000	865.630859	-52.469528
9633.131915	4918.900000	864.454102	-73.156815
9633.131915	4918.900000	863.277344	24.911726
9633.131915	4918.900000	862.100586	-87.113503
9633.131915	4918.900000	860.922852	1.784078
9633.131915	4918.900000	859.745117	-34.879837
9633.131915	4918.900000	858.567383	-12.204100
9633.131915	4918.900000	857.389648	30.991970
9633.131915	4918.900000	856.210938	62.765217
9633.131915	4918.900000	855.032227	3.309067
9633.131915	4918.900000	853.853516	55.590580
9633.131915	4918.900000	852.674805	59.981106
9633.131915	4918.900000	851.495117	105.389771
9633.131915	4918.900000	850.315430	16.347157
9633.131915	4918.900000	849.135742	9.348635
9633.131915	4918.900000	847.956055	104.841232
9633.131915	4918.900000	846.775391	-77.511543
9633.131915	4918.900000	845.595703	-41.235683
9633.131915	4918.900000	844.415039	13.233130
9633.131915	4918.900000	843.233398	1.683707
9633.131915	4918.900000	842.052734	-46.266624
9633.131915	4918.900000	840.871094	-80.549904
9633.131915	4918.900000	839.689453	-1.106496
9633.131915	4918.900000	838.506836	10.088409
9633.131915	4918.900000	837.325195	5.363327
9633.131915	4918.900000	836.142578	32.459049
9633.131915	4918.900000	834.959961	27.728178
9633.131915	4918.900000	833.777344	-70.151817
9633.131915	4918.900000	832.593750	-70.319710
9633.131915	4918.900000	831.410156	-27.340145
9633.131915	4918.900000	830.226563	40.595940
9633.131915	4918.900000	829.042969	-43.592533
9633.131915	4918.900000	827.858398	-95.973320
9633.131915	4918.900000	826.673828	-75.722137
9633.131915	4918.900000	825.489258	94.250832
9633.131915	4918.900000	824.304688	-85.150902
9633.131915	4918.900000	823.120117	14.450332
9633.131915	4918.900000	821.934570	18.783873
9633.131915	4918.900000	820.749023	-47.157299
9633.131915	4918.900000	819.562500	-115.339149
9633.131915	4918.900000	818.376953	52.154011
9633.131915	4918.900000	817.190430	13.425439
9633.131915	4918.900000	816.003906	29.068697
9633.131915	4918.900000	814.817383	1.678705
9633.131915	4918.900000	813.629883	58.065598
9633.131915	4918.900000	812.442383	28.412785
9633.131915	4918.900000	811.254883	66.661369
9633.131915	4918.900000	810.067383	95.841560
9633.131915	4918.900000	808.878906	-78.583687
9633.131915	4918.900000	807.690430	88.570259
9633.131915	4918.900000	806.501953	49.884384
9633.131915	4918.900000	805.313477	-38.523952
9633.131915	4918.900000	804.124023	-7.105137
9633.131915	4918.900000	802.934570	-61.573963
9633.131915	4918.900000	801.745117	-21.131916
9633.131915	4918.900000	800.555664	23.807840
9633.131915	4918.900000	799.365234	-66.776634
9633.131915	4918.900000	798.175781	52.658550
9633.131915	4918.900000	796.985352	108.833008
9633.131915	4918.900000	795.793945	-35.889820
9633.131915	4918.900000	794.603516	-9.061978
9633.131915	4918.900000	793.412109	-72.490250
9633.131915	4918.900000	792.220703	96.428459
9633.131915	4918.900000	791.028320	-9.849562
9633.131915	4918.900000	789.836914	39.482552
9633.131915	4918.900000	788.644531	-48.714043
9633.131915	4918.900000	787.452148	-85.043045
9633.131915	4918.900000	786.258789	-15.458331
9633.131915	4918.900000	785.066406	130.686813
9633.131915	4918.900000	783.873047	13.247919
9633.131915	4918.900000	782.679688	28.711607
9633.131915	4918.900000	781.485352	-41.387741
9633.131915	4918.900000	780.291992	30.344185
9633.131915	4918.900000	779.097656	-1.478358
9633.131915	4918.900000	777.903320	4.956721
9633.131915	4918.900000	776.708008	27.131041
9633.131915	4918.900000	775.512695	-22.678217
9633.131915	4918.900000	774.318359	-94.957771
9633.131915	4918.900000	773.122070	-27.830204
9633.131915	4918.900000	771.926758	43.758961
9633.131915	4918.900000	770.730469	61.380947
9633.131915	4918.900000	769.534180	18.329058
9633.131915	4918.900000	768.337891	137.017715
9633.131915	4918.900000	767.141602	156.837433
9633.131915	4918.900000	765.944336	142.963623
9633.131915	4918.900000	764.747070	122.354637
9633.131915	4918.900000	763.549805	164.589935
9633.131915	4918.900000	762.351563	191.093933
9633.131915	4918.900000	761.154297	130.086487
9633.131915	4918.900000	759.956055	127.414864
9633.131915	4918.900000	758.757813	122.494698
9633.131915	4918.900000	757.558594	155.683975
9633.131915	4918.900000	756.359375	132.813400
9633.131915	4918.900000	755.160156	98.739273
9633.131915	4918.900000	753.960938	131.890656
9633.131915	4918.900000	752.761719	129.178055
9633.131915	4918.900000	751.561523	110.780945
9633.131915	4918.900000	750.361328	65.512718
9633.131915	4918.900000	749.160156	165.774765
9633.131915	4918.900000	747.959961	111.544373
9633.131915	4918.900000	746.758789	164.744095
9633.131915	4918.900000	745.557617	56.823093
9633.131915	4918.900000	744.356445	148.021439
9633.131915	4918.900000	743.154297	198.917480
9633.131915	4918.900000	741.952148	131.277527
9633.131915	4918.900000	740.750000	48.007935
9633.131915	4918.900000	739.547852	18.404438
9633.131915	4918.900000	738.344727	151.926468
9633.131915	4918.900000	737.142578	220.594406
9633.131915	4918.900000	735.939453	300.391693
9633.131915	4918.900000	734.735352	257.322296
9633.131915	4918.900000	733.532227	127.185715
9633.131915	4918.900000	732.328125	224.779785
9633.131915	4918.900000	731.124023	18.803747
9633.131915	4918.900000	729.918945	136.440338
9633.131915	4918.900000	728.714844	44.319191
9633.131915	4918.900000	727.509766	137.345261
9633.131915	4918.900000	726.303711	38.550819
9633.131915	4918.900000	725.098633	66.863419
9633.131915	4918.900000	723.892578	48.344444
9633.131915	4918.900000	722.686523	-25.890560
9633.131915	4918.900000	721.480469	-42.177933
9633.131915	4918.900000	720.274414	26.176752
9633.131915	4918.900000	719.067383	-16.863819
9633.131915	4918.900000	717.860352	51.432396
9633.131915	4918.900000	716.653320	-11.655952
9633.131915	4918.900000	715.445313	136.710266
9633.131915	4918.900000	714.238281	-42.106682
9633.131915	4918.900000	713.030273	110.627281
9633.131915	4918.900000	711.821289	14.163181
9633.131915	4918.900000	710.613281	57.827229
9633.131915	4918.900000	709.404297	32.535065
9633.131915	4918.900000	708.195313	-1.651599
9633.131915	4918.900000	706.986328	48.614254
9633.131915	4918.900000	705.776367	18.854523
9633.131915	4918.900000	704.566406	104.610695
9633.131915	4918.900000	703.356445	-9.576373
9633.131915	4918.900000	702.146484	42.812454
9633.131915	4918.900000	700.935547	104.044647
9633.131915	4918.900000	699.724609	40.936874
9633.131915	4918.900000	698.513672	144.278046
9633.131915	4918.900000	697.302734	74.502106
9633.131915	4918.900000	696.090820	9.176273
9633.131915	4918.900000	694.878906	23.701746
9633.131915	4918.900000	693.666992	-37.182610
9633.131915	4918.900000	692.455078	-0.516247
9633.131915	4918.900000	691.242188	47.199902
9633.131915	4918.900000	690.029297	28.402977
9633.131915	4918.900000	688.816406	115.938538
9633.131915	4918.900000	687.602539	94.886673
9633.131915	4918.900000	686.389648	14.035994
9633.131915	4918.900000	685.175781	229.883469
9633.131915	4918.900000	683.960938	173.353241
9633.131915	4918.900000	682.747070	72.567734
9633.131915	4918.900000	681.532227	33.761162
9633.131915	4918.900000	680.317383	189.625168
9633.131915	4918.900000	679.102539	113.176239
9633.131915	4918.900000	677.886719	145.092239
9633.131915	4918.900000	676.670898	150.447952
9633.131915	4918.900000	675.455078	111.576973
9633.131915	4918.900000	674.239258	46.186218
9633.131915	4918.900000	673.022461	71.388832
9633.131915	4918.900000	671.805664	131.905136
9633.131915	4918.900000	670.588867	-19.633890
9633.131915	4918.900000	669.372070	7.719408
9633.131915	4918.900000	668.154297	72.569572
9633.131915	4918.900000	666.936523	121.924110
9633.131915	4918.900000	665.718750	129.313431
9633.131915	4918.900000	664.500977	19.756214
9633.131915	4918.900000	663.282227	146.230759
9633.131915	4918.900000	662.063477	52.113274
9633.131915	4918.900000	660.844727	59.433456
9633.131915	4918.900000	659.625000	110.815781
9633.131915	4918.900000	658.405273	87.227356
9633.131915	4918.900000	657.185547	57.019150
9633.131915	4918.900000	655.965820	75.267014
9633.131915	4918.900000	654.745117	102.295822
9633.131915	4918.900000	653.525391	-79.889900
9633.131915	4918.900000	652.303711	-74.895485
9633.131915	4918.900000	651.083008	-54.515408
9633.131915	4918.900000	649.861328	42.853466
9633.131915	4918.900000	648.640625	43.358627
9633.131915	4918.900000	647.417969	59.238312
9633.131915	4918.900000	646.196289	22.312263
9633.131915	4918.900000	644.973633	-65.189301
9633.131915	4918.900000	643.750977	14.389407
9633.131915	4918.900000	642.528320	-53.335201
9633.131915	4918.900000	641.305664	-52.936417
9633.131915	4918.900000	640.082031	57.281086
9633.131915	4918.900000	638.858398	-52.204311
9633.131915	4918.900000	637.634766	40.357605
9633.131915	4918.900000	636.410156	40.650154
9633.131915	4918.900000	635.185547	54.091240
9633.131915	4918.900000	633.960938	52.143967
9633.131915	4918.900000	632.736328	-11.256626
9633.131915	4918.900000	631.510742	35.025620
9633.131915	4918.900000	630.285156	-83.215584
9633.131915	4918.900000	629.059570	112.118866
9633.131915	4918.900000	627.833984	-45.590164
9633.131915	4918.900000	626.607422	-12.576694
9633.131915	4918.900000	625.380859	29.166700
9633.131915	4918.900000	624.154297	-16.760370
9633.131915	4918.900000	622.927734	20.542498
9633.131915	4918.900000	621.700195	-7.888244
9633.131915	4918.900000	620.472656	-31.949638
9633.131915	4918.900000	619.245117	-14.432923
9633.131915	4918.900000	618.016602	13.996170
9633.131915	4918.900000	616.788086	-36.375748
9633.131915	4918.900000	615.559570	27.003366
9633.131915	4918.900000	614.331055	35.657967
9633.131915	4918.900000	613.101563	72.712067
9633.131915	4918.900000	611.872070	2.608615
9633.131915	4918.900000	610.642578	-47.815178
9633.131915	4918.900000	609.413086	13.206624
9633.131915	4918.900000	608.182617	-52.534782
9633.131915	4918.900000	606.952148	-118.269455
9633.131915	4918.900000	605.721680	-7.108654
9633.131915	4918.900000	604.491211	7.916698
9633.131915	4918.900000	603.259766	-14.195456
9633.131915	4918.900000	602.028320	-14.494919
9633.131915	4918.900000	600.796875	13.550384
9633.131915	4918.900000	599.564453	-32.608997
9633.131915	4918.900000	598.332031	113.160782
9633.131915	4918.900000	597.099609	18.986305
9633.131915	4918.900000	595.867188	-3.225099
9633.131915	4918.900000	594.633789	-47.245087
9633.131915	4918.900000	593.400391	-1.920926
9633.131915	4918.900000	592.166992	67.329781
9633.131915	4918.900000	590.933594	147.421967
9633.131915	4918.900000	589.699219	-22.985170
9633.131915	4918.900000	588.464844	22.214069
9633.131915	4918.900000	587.230469	-13.168652
9633.131915	4918.900000	585.995117	97.260223
9633.131915	4918.900000	584.760742	37.902508
9633.131915	4918.900000	583.525391	56.865707
9633.131915	4918.900000	582.289063	125.825241
9633.131915	4918.900000	581.053711	72.964264
9633.131915	4918.900000	579.817383	124.460777
9633.131915	4918.900000	578.581055	47.674042
9633.131915	4918.900000	577.343750	-5.195329
9633.131915	4918.900000	576.107422	96.201241
9633.131915	4918.900000	574.870117	21.585598
9633.131915	4918.900000	573.631836	-85.593857
9633.131915	4918.900000	572.394531	-23.383471
9633.131915	4918.900000	571.156250	149.492981
9633.131915	4918.900000	569.917969	135.627777
9633.131915	4918.900000	568.679688	13.256754
9633.131915	4918.900000	567.440430	40.609745
9633.131915	4918.900000	566.202148	96.132973
9633.131915	4918.900000	564.961914	14.996729
9633.131915	4918.900000	563.722656	33.610527
9633.131915	4918.900000	562.482422	110.723114
9633.131915	4918.900000	561.243164	109.772522
9633.131915	4918.900000	560.001953	28.637152
9633.131915	4918.900000	558.761719	19.007210
9633.131915	4918.900000	557.520508	102.490486
9633.131915	4918.900000	556.279297	49.511974
9633.131915	4918.900000	555.038086	20.354153
9633.131915	4918.900000	553.795898	86.423302
9633.131915	4918.900000	552.554688	29.111250
9633.131915	4918.900000	551.311523	17.237608
9633.131915	4918.900000	550.069336	-31.412699
9633.131915	4918.900000	548.826172	47.528988
9633.131915	4918.900000	547.583984	76.699455
9633.131915	4918.900000	546.339844	30.186039
9633.131915	4918.900000	545.096680	113.347755
9633.131915	4918.900000	543.852539	-15.282241
9633.131915	4918.900000	542.608398	-12.098895
9633.131915	4918.900000	541.364258	-62.921501
9633.131915	4918.900000	540.119141	-64.072853
9633.131915	4918.900000	538.875000	27.594715
9633.131915	4918.900000	537.628906	15.608556
9633.131915	4918.900000	536.383789	14.408448
9633.131915	4918.900000	535.137695	80.075531
9633.131915	4918.900000	533.892578	-37.632359
9633.131915	4918.900000	532.645508	-30.228718
9633.131915	4918.900000	531.399414	84.964844
9633.131915	4918.900000	530.152344	-32.701302
9633.131915	4918.900000	528.905273	-5.934982
9633.131915	4918.900000	527.658203	38.048027
9633.131915	4918.900000	526.410156	8.760319
9633.131915	4918.900000	525.163086	-37.750153
9633.131915	4918.900000	523.914063	-0.276785
9633.131915	4918.900000	522.666016	-16.643764
9633.131915	4918.900000	521.416992	10.032900
9633.131915	4918.900000	520.167969	-47.230721
9633.131915	4918.900000	518.918945	0.941641
9633.131915	4918.900000	517.669922	-79.968536
9633.131915	4918.900000	516.419922	-94.187973
9633.131915	4918.900000	515.169922	-86.906883
9633.131915	4918.900000	513.919922	10.646008
9633.131915	4918.900000	512.668945	56.571838
9633.131915	4918.900000	511.417969	14.379612
9633.131915	4918.900000	510.166992	-21.354481
9633.131915	4918.900000	508.916016	-54.930237
9633.131915	4918.900000	507.664063	-34.817089
9633.131915	4918.900000	506.412109	-25.450626
9633.131915	4918.900000	505.160156	-13.945600
9633.131915	4918.900000	503.907227	3.986588
9633.131915	4918.900000	502.655273	-42.451752
9633.131915	4918.900000	501.402344	26.950356
9633.131915	4918.900000	500.148438	-55.938961
9633.131915	4918.900000	498.895508	-74.473312
9633.131915	4918.900000	497.641602	3.454984
9633.131915	4918.900000	496.387695	-40.807972
9633.131915	4918.900000	495.132813	-63.629894
9633.131915	4918.900000	493.878906	72.077721
9633.131915	4918.900000	492.624023	-0.021350
9633.131915	4918.900000	491.368164	-31.409861
9633.131915	4918.900000	490.113281	-4.983230
9633.131915	4918.900000	488.857422	66.374931
9633.131915	4918.900000	487.601563	-65.584557
9633.131915	4918.900000	486.344727	14.309091
9633.131915	4918.900000	485.088867	4.334234
9633.131915	4918.900000	483.832031	-46.269985
9633.131915	4918.900000	482.575195	18.598524
9633.131915	4918.900000	481.317383	17.172499
9633.131915	4918.900000	480.059570	-31.269487
9633.131915	4918.900000	478.801758	-19.866337
9633.131915	4918.900000	477.543945	-25.557985
9633.131915	4918.900000	476.285156	-178.613464
9633.131915	4918.900000	475.027344	29.253988
9633.131915	4918.900000	473.767578	-21.281994
9633.131915	4918.900000	472.508789	-39.779926
9633.131915	4918.900000	471.249023	20.679350
9633.131915	4918.900000	469.989258	44.843735
9633.131915	4918.900000	468.729492	-12.055209
9633.131915	4918.900000	467.469727	-15.619204
9633.131915	4918.900000	466.208984	59.698967
9633.131915	4918.900000	464.948242	51.852200
9633.131915	4918.900000	463.686523	-19.928261
9633.131915	4918.900000	462.425781	31.899025
9633.131915	4918.900000	461.164063	62.397316
9633.131915	4918.900000	459.901367	26.856100
9633.131915	4918.900000	458.639648	25.397310
9633.131915	4918.900000	457.376953	55.865120
9633.131915	4918.900000	456.114258	-20.100746
9633.131915	4918.900000	454.851563	84.831078
9633.131915	4918.900000	453.587891	42.918953
9633.131915	4918.900000	452.324219	62.701195
9633.131915	4918.900000	451.060547	42.065475
9633.131915	4918.900000	449.796875	121.355972
9633.131915	4918.900000	448.532227	-56.591469
9633.131915	4918.900000	447.267578	18.419065
9633.131915	4918.900000	446.002930	19.025835
9633.131915	4918.900000	444.737305	49.359970
9633.131915	4918.900000	443.471680	60.557705
9633.131915	4918.900000	442.206055	122.698601
9633.131915	4918.900000	440.940430	116.871193
9633.131915	4918.900000	439.673828	-29.043818
9633.131915	4918.900000	438.407227	71.231758
9633.131915	4918.900000	437.140625	67.498985
9633.131915	4918.900000	435.873047	123.138390
9633.131915	4918.900000	434.605469	170.255203
9633.131915	4918.900000	433.337891	35.009235
9633.131915	4918.900000	432.070313	58.773624
9633.131915	4918.900000	430.801758	118.531685
9633.131915	4918.900000	429.533203	46.884350
9633.131915	4918.900000	428.264648	-35.344967
9633.131915	4918.900000	426.996094	20.092899
9633.131915	4918.900000	425.726563	39.485176
9633.131915	4918.900000	424.457031	44.024921
9633.131915	4918.900000	423.186523	-2.260804
9633.131915	4918.900000	421.916992	131.300720
9633.131915	4918.900000	420.646484	4.567482
9633.131915	4918.900000	419.375977	80.898140
9633.131915	4918.900000	418.104492	72.576263
9633.131915	4918.900000	416.833008	214.322723
9633.131915	4918.900000	415.561523	117.128059
9633.131915	4918.900000	414.290039	87.557236
9633.131915	4918.900000	413.017578	114.997665
9633.131915	4918.900000	411.746094	104.363655
9633.131915	4918.900000	410.472656	102.129631
9633.131915	4918.900000	409.200195	47.066517
9633.131915	4918.900000	407.926758	154.511993
9633.131915	4918.900000	406.653320	280.850922
9633.131915	4918.900000	405.379883	170.761703
9633.131915	4918.900000	404.105469	-59.583851
9633.131915	4918.900000	402.831055	131.920639
9633.131915	4918.900000	401.556641	139.829575
9633.131915	4918.900000	400.282227	128.694611
9633.131915	4918.900000	399.006836	121.706734
9633.131915	4918.900000	397.731445	114.648697
9633.131915	4918.900000	396.456055	109.624107
9633.131915	4918.900000	395.179688	3.416301
9633.131915	4918.900000	393.903320	27.734404
9633.131915	4918.900000	392.626953	5.637056
9633.131915	4918.900000	391.350586	33.977970
9633.131915	4918.900000	390.073242	-5.133770
9633.131915	4918.900000	388.795898	12.482971
9633.131915	4918.900000	387.518555	55.233593
9633.131915	4918.900000	386.240234	26.351137
9633.131915	4918.900000	384.961914	62.553982
9633.131915	4918.900000	383.683594	20.846800
9633.131915	4918.900000	382.405273	103.042496
9633.131915	4918.900000	381.125977	113.632584
9633.131915	4918.900000	379.846680	16.949320
9633.131915	4918.900000	378.567383	-0.009209
9633.131915	4918.900000	377.287109	-69.598839
9633.131915	4918.900000	376.006836	18.159311
9633.131915	4918.900000	374.726563	7.080092
9633.131915	4918.900000	373.446289	83.992874
9633.131915	4918.900000	372.165039	74.689270
9633.131915	4918.900000	370.883789	126.058212
9633.131915	4918.900000	369.602539	122.710152
9633.131915	4918.900000	368.320313	-84.196426
9633.131915	4918.900000	367.039063	-87.850731
9633.131915	4918.900000	365.755859	61.292877
9633.131915	4918.900000	364.473633	-47.542309
9633.131915	4918.900000	363.190430	32.005333
9633.131915	4918.900000	361.907227	-68.807983
9633.131915	4918.900000	360.624023	-31.587231
9633.131915	4918.900000	359.340820	-69.968285
9633.131915	4918.900000	358.056641	14.925810
9633.131915	4918.900000	356.772461	74.438156
9633.131915	4918.900000	355.487305	45.806828
9633.131915	4918.900000	354.202148	-12.344335
9633.131915	4918.900000	352.916992	-51.905262
9633.131915	4918.900000	351.631836	4.462698
9633.131915	4918.900000	350.346680	52.172485
9633.131915	4918.900000	349.060547	53.596016
9633.131915	4918.900000	347.774414	117.411850
9633.131915	4918.900000	346.487305	-42.625153
9633.131915	4918.900000	345.200195	60.251476
9633.131915	4918.900000	343.913086	-2.188888
9633.131915	4918.900000	342.625977	16.488459
9633.131915	4918.900000	341.338867	18.124998
9633.131915	4918.900000	340.050781	42.359825
9633.131915	4918.900000	338.762695	-27.651304
9633.131915	4918.900000	337.473633	45.910618
9633.131915	4918.900000	336.184570	52.333488
9633.131915	4918.900000	334.895508	93.809486
9633.131915	4918.900000	333.606445	-0.617382
9633.131915	4918.900000	332.317383	-64.152359
9633.131915	4918.900000	331.027344	1.084632
9633.131915	4918.900000	329.736328	-48.718075
9633.131915	4918.900000	328.446289	-44.784916
9633.131915	4918.900000	327.155273	6.566264
9633.131915	4918.900000	325.864258	-7.106170
9633.131915	4918.900000	324.573242	-62.879566
9633.131915	4918.900000	323.281250	-77.522003
9633.131915	4918.900000	321.989258	-84.345474
9633.131915	4918.900000	320.697266	-33.452072
9633.131915	4918.900000	319.405273	83.423531
9633.131915	4918.900000	318.112305	-1.975767
9633.131915	4918.900000	316.819336	20.179068
9633.131915	4918.900000	315.526367	-12.284523
9633.131915	4918.900000	314.232422	-124.293785
9633.131915	4918.900000	312.938477	80.936714
9633.131915	4918.900000	311.644531	17.559191
9633.131915	4918.900000	310.349609	73.970245
9633.131915	4918.900000	309.054688	-5.227400
9633.131915	4918.900000	307.759766	-14.506001
9633.131915	4918.900000	306.464844	-5.799077
9633.131915	4918.900000	305.168945	60.257813
9633.131915	4918.900000	303.873047	106.891579
9633.131915	4918.900000	302.577148	49.083229
9633.131915	4918.900000	301.281250	19.559027
9633.131915	4918.900000	299.984375	148.832123
