#X		#Y		#Wave		#Intensity
319.814362	6202.193333	1999.946289	24.834669
319.814362	6202.193333	1998.981445	62.727306
319.814362	6202.193333	1998.017578	5.588759
319.814362	6202.193333	1997.052734	57.459682
319.814362	6202.193333	1996.088867	-66.651138
319.814362	6202.193333	1995.124023	-52.039700
319.814362	6202.193333	1994.159180	-25.096535
319.814362	6202.193333	1993.193359	-3.160407
319.814362	6202.193333	1992.228516	48.433037
319.814362	6202.193333	1991.262695	90.063614
319.814362	6202.193333	1990.296875	7.891676
319.814362	6202.193333	1989.331055	27.161478
319.814362	6202.193333	1988.365234	31.540583
319.814362	6202.193333	1987.398438	-25.958588
319.814362	6202.193333	1986.432617	-167.558014
319.814362	6202.193333	1985.465820	29.604898
319.814362	6202.193333	1984.499023	-0.778587
319.814362	6202.193333	1983.532227	-38.600571
319.814362	6202.193333	1982.565430	54.532463
319.814362	6202.193333	1981.597656	61.120907
319.814362	6202.193333	1980.629883	82.496704
319.814362	6202.193333	1979.662109	-19.659555
319.814362	6202.193333	1978.694336	46.110516
319.814362	6202.193333	1977.726563	-122.722008
319.814362	6202.193333	1976.758789	-131.069626
319.814362	6202.193333	1975.790039	-75.274269
319.814362	6202.193333	1974.821289	52.032471
319.814362	6202.193333	1973.852539	-10.701103
319.814362	6202.193333	1972.883789	-80.836769
319.814362	6202.193333	1971.915039	41.390640
319.814362	6202.193333	1970.945313	72.316208
319.814362	6202.193333	1969.975586	16.922680
319.814362	6202.193333	1969.005859	18.217587
319.814362	6202.193333	1968.036133	46.597137
319.814362	6202.193333	1967.066406	151.326172
319.814362	6202.193333	1966.096680	49.065998
319.814362	6202.193333	1965.125977	42.879765
319.814362	6202.193333	1964.155273	88.389160
319.814362	6202.193333	1963.184570	42.766685
319.814362	6202.193333	1962.213867	6.988530
319.814362	6202.193333	1961.242188	17.967323
319.814362	6202.193333	1960.271484	16.622231
319.814362	6202.193333	1959.299805	-31.484331
319.814362	6202.193333	1958.328125	151.629715
319.814362	6202.193333	1957.356445	86.269089
319.814362	6202.193333	1956.384766	28.294199
319.814362	6202.193333	1955.412109	36.702457
319.814362	6202.193333	1954.439453	-65.513794
319.814362	6202.193333	1953.467773	14.149046
319.814362	6202.193333	1952.495117	56.912773
319.814362	6202.193333	1951.521484	16.123512
319.814362	6202.193333	1950.548828	46.565830
319.814362	6202.193333	1949.575195	135.919403
319.814362	6202.193333	1948.601563	171.214203
319.814362	6202.193333	1947.627930	93.566818
319.814362	6202.193333	1946.654297	-3.697124
319.814362	6202.193333	1945.680664	-42.042564
319.814362	6202.193333	1944.706055	15.296705
319.814362	6202.193333	1943.732422	-0.981108
319.814362	6202.193333	1942.757813	105.360100
319.814362	6202.193333	1941.783203	52.272640
319.814362	6202.193333	1940.807617	4.098813
319.814362	6202.193333	1939.833008	-7.298110
319.814362	6202.193333	1938.857422	111.184570
319.814362	6202.193333	1937.881836	-108.509384
319.814362	6202.193333	1936.906250	-46.410202
319.814362	6202.193333	1935.930664	-50.471436
319.814362	6202.193333	1934.955078	60.556461
319.814362	6202.193333	1933.978516	-26.781187
319.814362	6202.193333	1933.001953	5.854620
319.814362	6202.193333	1932.025391	126.580833
319.814362	6202.193333	1931.048828	-7.230703
319.814362	6202.193333	1930.072266	-72.494308
319.814362	6202.193333	1929.094727	33.485172
319.814362	6202.193333	1928.118164	107.628181
319.814362	6202.193333	1927.140625	-6.539496
319.814362	6202.193333	1926.163086	133.580887
319.814362	6202.193333	1925.184570	-46.553825
319.814362	6202.193333	1924.207031	-11.570095
319.814362	6202.193333	1923.228516	50.272667
319.814362	6202.193333	1922.250000	55.902290
319.814362	6202.193333	1921.271484	20.004490
319.814362	6202.193333	1920.292969	-6.114903
319.814362	6202.193333	1919.314453	-39.552902
319.814362	6202.193333	1918.334961	66.158478
319.814362	6202.193333	1917.355469	37.594025
319.814362	6202.193333	1916.375977	1.716755
319.814362	6202.193333	1915.396484	85.395462
319.814362	6202.193333	1914.416992	15.368538
319.814362	6202.193333	1913.436523	62.425713
319.814362	6202.193333	1912.457031	-5.138093
319.814362	6202.193333	1911.476563	15.084069
319.814362	6202.193333	1910.496094	-8.576699
319.814362	6202.193333	1909.515625	-41.979191
319.814362	6202.193333	1908.534180	44.017345
319.814362	6202.193333	1907.552734	15.485216
319.814362	6202.193333	1906.572266	-83.669785
319.814362	6202.193333	1905.590820	55.854259
319.814362	6202.193333	1904.608398	95.500763
319.814362	6202.193333	1903.626953	96.184265
319.814362	6202.193333	1902.644531	123.636345
319.814362	6202.193333	1901.663086	-77.654747
319.814362	6202.193333	1900.680664	-55.049240
319.814362	6202.193333	1899.698242	42.951408
319.814362	6202.193333	1898.714844	-56.075584
319.814362	6202.193333	1897.732422	46.749138
319.814362	6202.193333	1896.749023	-40.089466
319.814362	6202.193333	1895.765625	-122.035248
319.814362	6202.193333	1894.782227	-97.025696
319.814362	6202.193333	1893.798828	170.942627
319.814362	6202.193333	1892.814453	96.285782
319.814362	6202.193333	1891.831055	99.377739
319.814362	6202.193333	1890.846680	61.184860
319.814362	6202.193333	1889.862305	59.422947
319.814362	6202.193333	1888.877930	91.644730
319.814362	6202.193333	1887.892578	31.627077
319.814362	6202.193333	1886.908203	107.516418
319.814362	6202.193333	1885.922852	117.871376
319.814362	6202.193333	1884.937500	-22.165991
319.814362	6202.193333	1883.952148	12.458001
319.814362	6202.193333	1882.965820	-49.920708
319.814362	6202.193333	1881.980469	69.541077
319.814362	6202.193333	1880.994141	77.462013
319.814362	6202.193333	1880.007813	7.831800
319.814362	6202.193333	1879.021484	18.181168
319.814362	6202.193333	1878.035156	18.835272
319.814362	6202.193333	1877.047852	-65.282082
319.814362	6202.193333	1876.061523	116.997978
319.814362	6202.193333	1875.074219	11.100736
319.814362	6202.193333	1874.086914	38.375244
319.814362	6202.193333	1873.098633	140.661316
319.814362	6202.193333	1872.111328	-23.258902
319.814362	6202.193333	1871.123047	110.447083
319.814362	6202.193333	1870.135742	-80.016701
319.814362	6202.193333	1869.147461	-64.852928
319.814362	6202.193333	1868.158203	25.256697
319.814362	6202.193333	1867.169922	-15.209872
319.814362	6202.193333	1866.180664	-29.077391
319.814362	6202.193333	1865.192383	-113.020737
319.814362	6202.193333	1864.203125	-39.890553
319.814362	6202.193333	1863.213867	59.780865
319.814362	6202.193333	1862.223633	38.653603
319.814362	6202.193333	1861.234375	80.315483
319.814362	6202.193333	1860.244141	-39.797043
319.814362	6202.193333	1859.253906	79.099152
319.814362	6202.193333	1858.263672	55.560650
319.814362	6202.193333	1857.273438	89.937462
319.814362	6202.193333	1856.282227	97.760757
319.814362	6202.193333	1855.291992	-60.848423
319.814362	6202.193333	1854.300781	139.917435
319.814362	6202.193333	1853.309570	34.396637
319.814362	6202.193333	1852.317383	119.351303
319.814362	6202.193333	1851.326172	25.918598
319.814362	6202.193333	1850.333984	-16.879143
319.814362	6202.193333	1849.342773	2.978078
319.814362	6202.193333	1848.350586	109.540894
319.814362	6202.193333	1847.357422	-12.736189
319.814362	6202.193333	1846.365234	7.097505
319.814362	6202.193333	1845.372070	111.179504
319.814362	6202.193333	1844.379883	61.171444
319.814362	6202.193333	1843.386719	-17.701757
319.814362	6202.193333	1842.393555	74.284470
319.814362	6202.193333	1841.399414	144.579697
319.814362	6202.193333	1840.406250	106.611679
319.814362	6202.193333	1839.412109	83.080902
319.814362	6202.193333	1838.417969	-10.169387
319.814362	6202.193333	1837.423828	33.629272
319.814362	6202.193333	1836.429688	72.600342
319.814362	6202.193333	1835.434570	85.119133
319.814362	6202.193333	1834.440430	61.591988
319.814362	6202.193333	1833.445313	167.777435
319.814362	6202.193333	1832.450195	199.469421
319.814362	6202.193333	1831.454102	51.058891
319.814362	6202.193333	1830.458984	65.945847
319.814362	6202.193333	1829.462891	107.223755
319.814362	6202.193333	1828.466797	-38.701599
319.814362	6202.193333	1827.470703	69.750755
319.814362	6202.193333	1826.474609	55.814632
319.814362	6202.193333	1825.478516	-18.081829
319.814362	6202.193333	1824.481445	-132.722534
319.814362	6202.193333	1823.484375	-50.729984
319.814362	6202.193333	1822.487305	-11.920674
319.814362	6202.193333	1821.490234	-45.030521
319.814362	6202.193333	1820.493164	-56.567894
319.814362	6202.193333	1819.495117	49.280933
319.814362	6202.193333	1818.498047	97.599205
319.814362	6202.193333	1817.500000	16.573055
319.814362	6202.193333	1816.500977	-11.754150
319.814362	6202.193333	1815.502930	105.951355
319.814362	6202.193333	1814.504883	-39.672005
319.814362	6202.193333	1813.505859	200.022980
319.814362	6202.193333	1812.506836	54.422657
319.814362	6202.193333	1811.507813	2.162199
319.814362	6202.193333	1810.508789	-30.952305
319.814362	6202.193333	1809.508789	170.273697
319.814362	6202.193333	1808.508789	-70.868172
319.814362	6202.193333	1807.508789	22.713350
319.814362	6202.193333	1806.508789	37.387821
319.814362	6202.193333	1805.508789	-5.294527
319.814362	6202.193333	1804.508789	57.144276
319.814362	6202.193333	1803.507813	-81.079773
319.814362	6202.193333	1802.506836	-35.381535
319.814362	6202.193333	1801.505859	-44.621906
319.814362	6202.193333	1800.504883	10.585778
319.814362	6202.193333	1799.502930	29.964334
319.814362	6202.193333	1798.501953	63.646572
319.814362	6202.193333	1797.500000	-10.051708
319.814362	6202.193333	1796.498047	-19.326082
319.814362	6202.193333	1795.496094	38.171059
319.814362	6202.193333	1794.493164	95.637596
319.814362	6202.193333	1793.491211	17.190796
319.814362	6202.193333	1792.488281	43.638584
319.814362	6202.193333	1791.485352	-34.785378
319.814362	6202.193333	1790.482422	41.681072
319.814362	6202.193333	1789.478516	82.377403
319.814362	6202.193333	1788.475586	182.594284
319.814362	6202.193333	1787.471680	16.064386
319.814362	6202.193333	1786.467773	82.907158
319.814362	6202.193333	1785.463867	97.349129
319.814362	6202.193333	1784.459961	97.498169
319.814362	6202.193333	1783.455078	157.123886
319.814362	6202.193333	1782.450195	54.947323
319.814362	6202.193333	1781.445313	52.699898
319.814362	6202.193333	1780.440430	5.261464
319.814362	6202.193333	1779.435547	41.050453
319.814362	6202.193333	1778.429688	-18.271957
319.814362	6202.193333	1777.424805	43.635372
319.814362	6202.193333	1776.418945	60.359470
319.814362	6202.193333	1775.413086	110.330910
319.814362	6202.193333	1774.406250	100.889069
319.814362	6202.193333	1773.400391	86.693512
319.814362	6202.193333	1772.393555	34.502110
319.814362	6202.193333	1771.386719	-8.181771
319.814362	6202.193333	1770.379883	58.326916
319.814362	6202.193333	1769.373047	-17.586098
319.814362	6202.193333	1768.365234	146.159744
319.814362	6202.193333	1767.358398	27.541975
319.814362	6202.193333	1766.350586	-8.028780
319.814362	6202.193333	1765.342773	89.199921
319.814362	6202.193333	1764.334961	39.388721
319.814362	6202.193333	1763.326172	22.771955
319.814362	6202.193333	1762.318359	15.634858
319.814362	6202.193333	1761.309570	72.467087
319.814362	6202.193333	1760.300781	98.471817
319.814362	6202.193333	1759.291016	58.134827
319.814362	6202.193333	1758.282227	13.069531
319.814362	6202.193333	1757.272461	79.294357
319.814362	6202.193333	1756.262695	43.693169
319.814362	6202.193333	1755.252930	-77.108528
319.814362	6202.193333	1754.243164	55.328247
319.814362	6202.193333	1753.233398	-122.228912
319.814362	6202.193333	1752.222656	24.340506
319.814362	6202.193333	1751.211914	-6.530766
319.814362	6202.193333	1750.201172	118.662674
319.814362	6202.193333	1749.190430	2.660103
319.814362	6202.193333	1748.179688	108.878052
319.814362	6202.193333	1747.167969	-33.092297
319.814362	6202.193333	1746.156250	-21.436810
319.814362	6202.193333	1745.144531	-14.519226
319.814362	6202.193333	1744.132813	84.499847
319.814362	6202.193333	1743.121094	133.883621
319.814362	6202.193333	1742.108398	6.166607
319.814362	6202.193333	1741.095703	-45.973728
319.814362	6202.193333	1740.083008	48.220955
319.814362	6202.193333	1739.070313	-112.465614
319.814362	6202.193333	1738.057617	-117.394722
319.814362	6202.193333	1737.043945	-44.494766
319.814362	6202.193333	1736.030273	40.160770
319.814362	6202.193333	1735.016602	4.527998
319.814362	6202.193333	1734.002930	49.050812
319.814362	6202.193333	1732.989258	86.478279
319.814362	6202.193333	1731.974609	-19.862650
319.814362	6202.193333	1730.959961	-27.217775
319.814362	6202.193333	1729.945313	-107.600708
319.814362	6202.193333	1728.930664	59.325516
319.814362	6202.193333	1727.916016	94.319748
319.814362	6202.193333	1726.900391	2.163985
319.814362	6202.193333	1725.885742	32.433083
319.814362	6202.193333	1724.870117	-33.804153
319.814362	6202.193333	1723.853516	67.027031
319.814362	6202.193333	1722.837891	-32.140060
319.814362	6202.193333	1721.822266	66.287598
319.814362	6202.193333	1720.805664	-35.209309
319.814362	6202.193333	1719.789063	74.919907
319.814362	6202.193333	1718.772461	-92.371063
319.814362	6202.193333	1717.754883	-5.790513
319.814362	6202.193333	1716.738281	-41.432392
319.814362	6202.193333	1715.720703	92.076691
319.814362	6202.193333	1714.703125	-23.445946
319.814362	6202.193333	1713.685547	-66.131561
319.814362	6202.193333	1712.667969	-73.589462
319.814362	6202.193333	1711.649414	-1.238881
319.814362	6202.193333	1710.630859	-22.803492
319.814362	6202.193333	1709.612305	44.803219
319.814362	6202.193333	1708.593750	-58.887901
319.814362	6202.193333	1707.575195	-12.424127
319.814362	6202.193333	1706.555664	-87.936638
319.814362	6202.193333	1705.536133	-8.672505
319.814362	6202.193333	1704.516602	51.800983
319.814362	6202.193333	1703.497070	4.427764
319.814362	6202.193333	1702.477539	-78.084549
319.814362	6202.193333	1701.457031	43.264690
319.814362	6202.193333	1700.437500	-39.234993
319.814362	6202.193333	1699.416992	-13.975482
319.814362	6202.193333	1698.395508	161.129730
319.814362	6202.193333	1697.375000	45.860943
319.814362	6202.193333	1696.354492	-109.161591
319.814362	6202.193333	1695.333008	23.720463
319.814362	6202.193333	1694.311523	30.196630
319.814362	6202.193333	1693.290039	15.611253
319.814362	6202.193333	1692.267578	78.208595
319.814362	6202.193333	1691.246094	119.732864
319.814362	6202.193333	1690.223633	-11.778687
319.814362	6202.193333	1689.201172	-38.053509
319.814362	6202.193333	1688.178711	19.813295
319.814362	6202.193333	1687.155273	-11.142024
319.814362	6202.193333	1686.132813	-100.492615
319.814362	6202.193333	1685.109375	27.410582
319.814362	6202.193333	1684.085938	-8.211146
319.814362	6202.193333	1683.062500	-111.533951
319.814362	6202.193333	1682.039063	48.967686
319.814362	6202.193333	1681.014648	6.347083
319.814362	6202.193333	1679.990234	-73.597290
319.814362	6202.193333	1678.965820	-43.859463
319.814362	6202.193333	1677.941406	-130.767914
319.814362	6202.193333	1676.916992	8.574436
319.814362	6202.193333	1675.891602	40.598850
319.814362	6202.193333	1674.866211	7.332321
319.814362	6202.193333	1673.840820	67.308662
319.814362	6202.193333	1672.815430	110.946465
319.814362	6202.193333	1671.790039	33.408928
319.814362	6202.193333	1670.763672	23.451527
319.814362	6202.193333	1669.737305	27.469433
319.814362	6202.193333	1668.710938	1.212285
319.814362	6202.193333	1667.684570	-6.411583
319.814362	6202.193333	1666.658203	6.914362
319.814362	6202.193333	1665.630859	-30.967985
319.814362	6202.193333	1664.603516	77.750130
319.814362	6202.193333	1663.576172	149.203125
319.814362	6202.193333	1662.548828	-53.826656
319.814362	6202.193333	1661.520508	-112.604729
319.814362	6202.193333	1660.493164	156.462845
319.814362	6202.193333	1659.464844	-27.860172
319.814362	6202.193333	1658.436523	85.369728
319.814362	6202.193333	1657.408203	68.431488
319.814362	6202.193333	1656.378906	72.405785
319.814362	6202.193333	1655.350586	22.957369
319.814362	6202.193333	1654.321289	36.226936
319.814362	6202.193333	1653.291992	-41.060246
319.814362	6202.193333	1652.261719	69.713120
319.814362	6202.193333	1651.232422	92.249374
319.814362	6202.193333	1650.202148	119.416283
319.814362	6202.193333	1649.171875	79.291641
319.814362	6202.193333	1648.141602	104.131462
319.814362	6202.193333	1647.111328	54.750320
319.814362	6202.193333	1646.080078	56.397858
319.814362	6202.193333	1645.049805	109.048866
319.814362	6202.193333	1644.018555	214.987625
319.814362	6202.193333	1642.987305	-10.493720
319.814362	6202.193333	1641.955078	104.695305
319.814362	6202.193333	1640.923828	32.210625
319.814362	6202.193333	1639.891602	66.290154
319.814362	6202.193333	1638.859375	37.837849
319.814362	6202.193333	1637.827148	102.002296
319.814362	6202.193333	1636.794922	92.075630
319.814362	6202.193333	1635.761719	5.784066
319.814362	6202.193333	1634.729492	137.022766
319.814362	6202.193333	1633.696289	129.412979
319.814362	6202.193333	1632.662109	175.002213
319.814362	6202.193333	1631.628906	141.956604
319.814362	6202.193333	1630.594727	71.934052
319.814362	6202.193333	1629.561523	105.961021
319.814362	6202.193333	1628.527344	82.199318
319.814362	6202.193333	1627.493164	275.647614
319.814362	6202.193333	1626.458008	57.813877
319.814362	6202.193333	1625.423828	149.571243
319.814362	6202.193333	1624.388672	178.944839
319.814362	6202.193333	1623.353516	127.502647
319.814362	6202.193333	1622.318359	161.493820
319.814362	6202.193333	1621.282227	135.468369
319.814362	6202.193333	1620.247070	268.674377
319.814362	6202.193333	1619.210938	281.865997
319.814362	6202.193333	1618.174805	274.298218
319.814362	6202.193333	1617.137695	222.919510
319.814362	6202.193333	1616.101563	298.380219
319.814362	6202.193333	1615.064453	226.279800
319.814362	6202.193333	1614.027344	251.013809
319.814362	6202.193333	1612.990234	181.265503
319.814362	6202.193333	1611.953125	268.213745
319.814362	6202.193333	1610.916016	258.389893
319.814362	6202.193333	1609.877930	345.298615
319.814362	6202.193333	1608.839844	197.321808
319.814362	6202.193333	1607.801758	166.814087
319.814362	6202.193333	1606.763672	140.928406
319.814362	6202.193333	1605.724609	209.405792
319.814362	6202.193333	1604.685547	185.833664
319.814362	6202.193333	1603.646484	249.687729
319.814362	6202.193333	1602.607422	182.433456
319.814362	6202.193333	1601.568359	193.391296
319.814362	6202.193333	1600.528320	287.112366
319.814362	6202.193333	1599.489258	293.462646
319.814362	6202.193333	1598.449219	242.365494
319.814362	6202.193333	1597.408203	248.733688
319.814362	6202.193333	1596.368164	211.462433
319.814362	6202.193333	1595.327148	298.234436
319.814362	6202.193333	1594.287109	162.245193
319.814362	6202.193333	1593.246094	173.247253
319.814362	6202.193333	1592.204102	347.221222
319.814362	6202.193333	1591.163086	238.864044
319.814362	6202.193333	1590.121094	213.156296
319.814362	6202.193333	1589.079102	214.995850
319.814362	6202.193333	1588.037109	301.704590
319.814362	6202.193333	1586.995117	204.939865
319.814362	6202.193333	1585.953125	218.269211
319.814362	6202.193333	1584.910156	105.529503
319.814362	6202.193333	1583.867188	171.600922
319.814362	6202.193333	1582.824219	228.490921
319.814362	6202.193333	1581.781250	246.423279
319.814362	6202.193333	1580.737305	216.257355
319.814362	6202.193333	1579.693359	188.403580
319.814362	6202.193333	1578.649414	208.650665
319.814362	6202.193333	1577.605469	185.407410
319.814362	6202.193333	1576.561523	237.708603
319.814362	6202.193333	1575.516602	150.418579
319.814362	6202.193333	1574.472656	189.000473
319.814362	6202.193333	1573.427734	266.459656
319.814362	6202.193333	1572.381836	289.014069
319.814362	6202.193333	1571.336914	204.112137
319.814362	6202.193333	1570.291016	183.258820
319.814362	6202.193333	1569.246094	150.999191
319.814362	6202.193333	1568.200195	52.495449
319.814362	6202.193333	1567.153320	109.392769
319.814362	6202.193333	1566.107422	129.734695
319.814362	6202.193333	1565.060547	134.092682
319.814362	6202.193333	1564.013672	106.495148
319.814362	6202.193333	1562.966797	188.494934
319.814362	6202.193333	1561.919922	51.369007
319.814362	6202.193333	1560.872070	58.067272
319.814362	6202.193333	1559.825195	64.776695
319.814362	6202.193333	1558.777344	76.056152
319.814362	6202.193333	1557.729492	39.452057
319.814362	6202.193333	1556.680664	121.439751
319.814362	6202.193333	1555.632813	228.485382
319.814362	6202.193333	1554.583984	155.442383
319.814362	6202.193333	1553.535156	80.162262
319.814362	6202.193333	1552.486328	134.789169
319.814362	6202.193333	1551.436523	64.123222
319.814362	6202.193333	1550.387695	100.539124
319.814362	6202.193333	1549.337891	196.153595
319.814362	6202.193333	1548.288086	152.875717
319.814362	6202.193333	1547.238281	20.861841
319.814362	6202.193333	1546.187500	105.097183
319.814362	6202.193333	1545.136719	155.185608
319.814362	6202.193333	1544.086914	116.554649
319.814362	6202.193333	1543.035156	125.710648
319.814362	6202.193333	1541.984375	32.555641
319.814362	6202.193333	1540.933594	82.674980
319.814362	6202.193333	1539.881836	73.691177
319.814362	6202.193333	1538.830078	178.350082
319.814362	6202.193333	1537.778320	37.601974
319.814362	6202.193333	1536.725586	-46.288010
319.814362	6202.193333	1535.673828	26.580801
319.814362	6202.193333	1534.621094	17.688784
319.814362	6202.193333	1533.568359	33.788555
319.814362	6202.193333	1532.515625	163.386551
319.814362	6202.193333	1531.461914	143.170303
319.814362	6202.193333	1530.409180	43.566738
319.814362	6202.193333	1529.355469	30.217970
319.814362	6202.193333	1528.301758	128.022537
319.814362	6202.193333	1527.247070	1.314052
319.814362	6202.193333	1526.193359	90.047600
319.814362	6202.193333	1525.138672	40.494823
319.814362	6202.193333	1524.083984	83.892090
319.814362	6202.193333	1523.029297	-142.339157
319.814362	6202.193333	1521.974609	82.334366
319.814362	6202.193333	1520.918945	-41.856201
319.814362	6202.193333	1519.863281	157.830811
319.814362	6202.193333	1518.807617	17.858364
319.814362	6202.193333	1517.751953	18.296328
319.814362	6202.193333	1516.696289	86.642815
319.814362	6202.193333	1515.639648	62.209621
319.814362	6202.193333	1514.583008	-30.062950
319.814362	6202.193333	1513.526367	-138.114777
319.814362	6202.193333	1512.469727	7.157203
319.814362	6202.193333	1511.412109	-42.045002
319.814362	6202.193333	1510.355469	-48.262897
319.814362	6202.193333	1509.297852	-22.823017
319.814362	6202.193333	1508.240234	2.624026
319.814362	6202.193333	1507.181641	34.853516
319.814362	6202.193333	1506.124023	-66.169342
319.814362	6202.193333	1505.065430	15.774459
319.814362	6202.193333	1504.006836	27.714401
319.814362	6202.193333	1502.948242	57.724258
319.814362	6202.193333	1501.888672	-135.685745
319.814362	6202.193333	1500.830078	-112.389931
319.814362	6202.193333	1499.770508	68.826958
319.814362	6202.193333	1498.710938	-22.922184
319.814362	6202.193333	1497.650391	-107.853149
319.814362	6202.193333	1496.590820	-91.276428
319.814362	6202.193333	1495.530273	-81.452232
319.814362	6202.193333	1494.469727	-105.419098
319.814362	6202.193333	1493.409180	-32.470463
319.814362	6202.193333	1492.348633	-54.150242
319.814362	6202.193333	1491.287109	-53.280571
319.814362	6202.193333	1490.225586	28.674147
319.814362	6202.193333	1489.164063	-42.483818
319.814362	6202.193333	1488.102539	37.220657
319.814362	6202.193333	1487.041016	114.660637
319.814362	6202.193333	1485.978516	189.836807
319.814362	6202.193333	1484.916016	-18.441393
319.814362	6202.193333	1483.853516	16.268927
319.814362	6202.193333	1482.791016	3.772466
319.814362	6202.193333	1481.727539	29.523588
319.814362	6202.193333	1480.664063	39.547966
319.814362	6202.193333	1479.600586	-24.576262
319.814362	6202.193333	1478.537109	-131.345673
319.814362	6202.193333	1477.473633	-85.303719
319.814362	6202.193333	1476.409180	-70.671738
319.814362	6202.193333	1475.344727	-15.686350
319.814362	6202.193333	1474.280273	70.827736
319.814362	6202.193333	1473.215820	11.377838
319.814362	6202.193333	1472.151367	48.449806
319.814362	6202.193333	1471.085938	2.478130
319.814362	6202.193333	1470.020508	-43.246067
319.814362	6202.193333	1468.955078	99.027695
319.814362	6202.193333	1467.888672	48.917549
319.814362	6202.193333	1466.823242	92.686241
319.814362	6202.193333	1465.756836	87.182381
319.814362	6202.193333	1464.690430	63.868370
319.814362	6202.193333	1463.624023	168.241272
319.814362	6202.193333	1462.556641	93.423691
319.814362	6202.193333	1461.490234	57.297821
319.814362	6202.193333	1460.422852	167.631378
319.814362	6202.193333	1459.355469	1.741169
319.814362	6202.193333	1458.287109	43.092152
319.814362	6202.193333	1457.219727	-24.357935
319.814362	6202.193333	1456.151367	55.003960
319.814362	6202.193333	1455.083008	65.694771
319.814362	6202.193333	1454.014648	-31.144417
319.814362	6202.193333	1452.945313	59.644302
319.814362	6202.193333	1451.876953	12.179629
319.814362	6202.193333	1450.807617	64.621155
319.814362	6202.193333	1449.738281	-38.951279
319.814362	6202.193333	1448.668945	-12.327755
319.814362	6202.193333	1447.598633	69.764458
319.814362	6202.193333	1446.528320	28.977404
319.814362	6202.193333	1445.458008	-12.444327
319.814362	6202.193333	1444.387695	76.022179
319.814362	6202.193333	1443.317383	73.675217
319.814362	6202.193333	1442.246094	10.490715
319.814362	6202.193333	1441.174805	-114.342262
319.814362	6202.193333	1440.103516	-62.624538
319.814362	6202.193333	1439.032227	194.168747
319.814362	6202.193333	1437.960938	215.011658
319.814362	6202.193333	1436.888672	2.904607
319.814362	6202.193333	1435.816406	142.044891
319.814362	6202.193333	1434.744141	96.813293
319.814362	6202.193333	1433.670898	102.023766
319.814362	6202.193333	1432.598633	2.632765
319.814362	6202.193333	1431.525391	7.584635
319.814362	6202.193333	1430.452148	-40.800392
319.814362	6202.193333	1429.378906	80.938072
319.814362	6202.193333	1428.304688	74.715614
319.814362	6202.193333	1427.231445	-23.007586
319.814362	6202.193333	1426.157227	-72.415436
319.814362	6202.193333	1425.083008	-158.971970
319.814362	6202.193333	1424.007813	-41.457855
319.814362	6202.193333	1422.933594	58.054760
319.814362	6202.193333	1421.858398	87.018295
319.814362	6202.193333	1420.783203	73.455482
319.814362	6202.193333	1419.708008	-90.036598
319.814362	6202.193333	1418.631836	-4.247794
319.814362	6202.193333	1417.555664	-14.435236
319.814362	6202.193333	1416.479492	0.492804
319.814362	6202.193333	1415.403320	89.869255
319.814362	6202.193333	1414.327148	-97.343056
319.814362	6202.193333	1413.250000	-103.806000
319.814362	6202.193333	1412.173828	-51.304459
319.814362	6202.193333	1411.096680	-126.115204
319.814362	6202.193333	1410.018555	5.463400
319.814362	6202.193333	1408.941406	-53.092400
319.814362	6202.193333	1407.863281	-5.233593
319.814362	6202.193333	1406.785156	67.402649
319.814362	6202.193333	1405.707031	145.131668
319.814362	6202.193333	1404.628906	21.945089
319.814362	6202.193333	1403.549805	139.454605
319.814362	6202.193333	1402.470703	66.046898
319.814362	6202.193333	1401.391602	51.414276
319.814362	6202.193333	1400.312500	92.970711
319.814362	6202.193333	1399.233398	166.189255
319.814362	6202.193333	1398.153320	118.684593
319.814362	6202.193333	1397.073242	212.503998
319.814362	6202.193333	1395.993164	124.391022
319.814362	6202.193333	1394.913086	132.165894
319.814362	6202.193333	1393.832031	58.986790
319.814362	6202.193333	1392.750977	122.201714
319.814362	6202.193333	1391.669922	100.548355
319.814362	6202.193333	1390.588867	74.907967
319.814362	6202.193333	1389.506836	18.724920
319.814362	6202.193333	1388.425781	98.223946
319.814362	6202.193333	1387.343750	-80.188507
319.814362	6202.193333	1386.261719	156.083496
319.814362	6202.193333	1385.178711	98.882355
319.814362	6202.193333	1384.096680	80.283737
319.814362	6202.193333	1383.013672	-66.879524
319.814362	6202.193333	1381.930664	159.895187
319.814362	6202.193333	1380.846680	158.652939
319.814362	6202.193333	1379.763672	50.481041
319.814362	6202.193333	1378.679688	-34.763680
319.814362	6202.193333	1377.595703	-38.247097
319.814362	6202.193333	1376.511719	8.067784
319.814362	6202.193333	1375.427734	74.091011
319.814362	6202.193333	1374.342773	49.195839
319.814362	6202.193333	1373.257813	37.153831
319.814362	6202.193333	1372.172852	11.492220
319.814362	6202.193333	1371.087891	11.284618
319.814362	6202.193333	1370.001953	129.667511
319.814362	6202.193333	1368.916992	-15.540117
319.814362	6202.193333	1367.831055	79.824471
319.814362	6202.193333	1366.744141	69.534149
319.814362	6202.193333	1365.658203	100.176376
319.814362	6202.193333	1364.571289	59.675686
319.814362	6202.193333	1363.484375	185.015930
319.814362	6202.193333	1362.397461	31.396683
319.814362	6202.193333	1361.310547	-30.067905
319.814362	6202.193333	1360.222656	21.071730
319.814362	6202.193333	1359.135742	126.871666
319.814362	6202.193333	1358.047852	13.774629
319.814362	6202.193333	1356.958984	15.471437
319.814362	6202.193333	1355.871094	21.716352
319.814362	6202.193333	1354.782227	12.106453
319.814362	6202.193333	1353.693359	46.574707
319.814362	6202.193333	1352.604492	77.351456
319.814362	6202.193333	1351.515625	89.533249
319.814362	6202.193333	1350.425781	45.371510
319.814362	6202.193333	1349.335938	-27.236000
319.814362	6202.193333	1348.246094	93.156395
319.814362	6202.193333	1347.156250	118.011452
319.814362	6202.193333	1346.066406	51.751900
319.814362	6202.193333	1344.975586	154.950485
319.814362	6202.193333	1343.884766	14.264685
319.814362	6202.193333	1342.793945	48.450722
319.814362	6202.193333	1341.702148	-50.463066
319.814362	6202.193333	1340.611328	32.994095
319.814362	6202.193333	1339.519531	86.571892
319.814362	6202.193333	1338.427734	97.547874
319.814362	6202.193333	1337.334961	29.959690
319.814362	6202.193333	1336.243164	10.474824
319.814362	6202.193333	1335.150391	114.801521
319.814362	6202.193333	1334.057617	19.483902
319.814362	6202.193333	1332.964844	13.898787
319.814362	6202.193333	1331.871094	8.942747
319.814362	6202.193333	1330.778320	59.251938
319.814362	6202.193333	1329.684570	75.433113
319.814362	6202.193333	1328.590820	118.509361
319.814362	6202.193333	1327.496094	132.212234
319.814362	6202.193333	1326.402344	58.739861
319.814362	6202.193333	1325.307617	73.063286
319.814362	6202.193333	1324.212891	47.308125
319.814362	6202.193333	1323.117188	110.322159
319.814362	6202.193333	1322.022461	-26.714130
319.814362	6202.193333	1320.926758	-0.121124
319.814362	6202.193333	1319.831055	79.350281
319.814362	6202.193333	1318.735352	-63.882084
319.814362	6202.193333	1317.638672	-24.661793
319.814362	6202.193333	1316.542969	-30.722507
319.814362	6202.193333	1315.446289	49.954330
319.814362	6202.193333	1314.349609	59.059685
319.814362	6202.193333	1313.251953	99.073242
319.814362	6202.193333	1312.155273	-10.442320
319.814362	6202.193333	1311.057617	78.721062
319.814362	6202.193333	1309.959961	17.483807
319.814362	6202.193333	1308.862305	42.588463
319.814362	6202.193333	1307.763672	15.497169
319.814362	6202.193333	1306.665039	-34.569859
319.814362	6202.193333	1305.566406	15.317416
319.814362	6202.193333	1304.467773	78.041679
319.814362	6202.193333	1303.369141	36.153564
319.814362	6202.193333	1302.269531	-35.488758
319.814362	6202.193333	1301.169922	13.372985
319.814362	6202.193333	1300.070313	57.585827
319.814362	6202.193333	1298.970703	53.647686
319.814362	6202.193333	1297.870117	-72.344498
319.814362	6202.193333	1296.769531	-32.660297
319.814362	6202.193333	1295.668945	52.799282
319.814362	6202.193333	1294.568359	98.164963
319.814362	6202.193333	1293.466797	36.702648
319.814362	6202.193333	1292.366211	117.870361
319.814362	6202.193333	1291.264648	59.774773
319.814362	6202.193333	1290.162109	47.524632
319.814362	6202.193333	1289.060547	2.056951
319.814362	6202.193333	1287.958008	-37.392685
319.814362	6202.193333	1286.855469	-23.141726
319.814362	6202.193333	1285.752930	-18.458860
319.814362	6202.193333	1284.650391	-85.074203
319.814362	6202.193333	1283.546875	-16.588022
319.814362	6202.193333	1282.444336	5.174933
319.814362	6202.193333	1281.339844	-31.978954
319.814362	6202.193333	1280.236328	60.405880
319.814362	6202.193333	1279.132813	48.522625
319.814362	6202.193333	1278.028320	32.839378
319.814362	6202.193333	1276.923828	34.541595
319.814362	6202.193333	1275.819336	-4.528569
319.814362	6202.193333	1274.713867	-42.547539
319.814362	6202.193333	1273.608398	9.311741
319.814362	6202.193333	1272.503906	-16.327785
319.814362	6202.193333	1271.397461	57.120102
319.814362	6202.193333	1270.291992	-61.913494
319.814362	6202.193333	1269.185547	-3.034698
319.814362	6202.193333	1268.080078	-101.560974
319.814362	6202.193333	1266.972656	-27.559412
319.814362	6202.193333	1265.866211	-21.247835
319.814362	6202.193333	1264.759766	60.840893
319.814362	6202.193333	1263.652344	-17.862709
319.814362	6202.193333	1262.544922	27.350737
319.814362	6202.193333	1261.436523	4.529427
319.814362	6202.193333	1260.329102	12.558043
319.814362	6202.193333	1259.220703	-46.144627
319.814362	6202.193333	1258.112305	7.739680
319.814362	6202.193333	1257.003906	-9.902443
319.814362	6202.193333	1255.895508	-5.414372
319.814362	6202.193333	1254.786133	18.902975
319.814362	6202.193333	1253.676758	52.005066
319.814362	6202.193333	1252.567383	16.141294
319.814362	6202.193333	1251.458008	137.619171
319.814362	6202.193333	1250.347656	32.246155
319.814362	6202.193333	1249.237305	5.948447
319.814362	6202.193333	1248.126953	80.464691
319.814362	6202.193333	1247.016602	-57.281395
319.814362	6202.193333	1245.905273	15.609954
319.814362	6202.193333	1244.793945	-25.851583
319.814362	6202.193333	1243.682617	-35.169537
319.814362	6202.193333	1242.571289	-8.742451
319.814362	6202.193333	1241.459961	-53.233032
319.814362	6202.193333	1240.347656	-21.807926
319.814362	6202.193333	1239.235352	43.301346
319.814362	6202.193333	1238.123047	56.025829
319.814362	6202.193333	1237.009766	5.010401
319.814362	6202.193333	1235.897461	4.606106
319.814362	6202.193333	1234.784180	5.236103
319.814362	6202.193333	1233.670898	-4.264225
319.814362	6202.193333	1232.556641	2.084469
319.814362	6202.193333	1231.443359	-25.022514
319.814362	6202.193333	1230.329102	-31.133711
319.814362	6202.193333	1229.214844	22.636084
319.814362	6202.193333	1228.099609	2.656832
319.814362	6202.193333	1226.985352	30.902666
319.814362	6202.193333	1225.870117	6.921716
319.814362	6202.193333	1224.754883	39.231522
319.814362	6202.193333	1223.639648	-1.235882
319.814362	6202.193333	1222.523438	-13.820015
319.814362	6202.193333	1221.408203	-37.222004
319.814362	6202.193333	1220.291992	-35.290222
319.814362	6202.193333	1219.174805	-32.288448
319.814362	6202.193333	1218.058594	-65.516907
319.814362	6202.193333	1216.941406	4.915757
319.814362	6202.193333	1215.824219	-0.754627
319.814362	6202.193333	1214.707031	-12.248359
319.814362	6202.193333	1213.589844	-3.801364
319.814362	6202.193333	1212.471680	-18.149664
319.814362	6202.193333	1211.353516	-19.307901
319.814362	6202.193333	1210.235352	-96.967072
319.814362	6202.193333	1209.117188	-38.925106
319.814362	6202.193333	1207.998047	-16.190992
319.814362	6202.193333	1206.878906	-27.018606
319.814362	6202.193333	1205.759766	-7.234684
319.814362	6202.193333	1204.640625	-96.385201
319.814362	6202.193333	1203.520508	-27.964016
319.814362	6202.193333	1202.401367	33.820560
319.814362	6202.193333	1201.281250	-105.773026
319.814362	6202.193333	1200.160156	-39.676495
319.814362	6202.193333	1199.040039	14.889176
319.814362	6202.193333	1197.918945	-50.710171
319.814362	6202.193333	1196.797852	4.957675
319.814362	6202.193333	1195.676758	-22.224054
319.814362	6202.193333	1194.555664	-70.669487
319.814362	6202.193333	1193.433594	-41.307571
319.814362	6202.193333	1192.311523	19.848120
319.814362	6202.193333	1191.189453	-8.891928
319.814362	6202.193333	1190.066406	-13.719857
319.814362	6202.193333	1188.944336	25.330950
319.814362	6202.193333	1187.821289	18.202925
319.814362	6202.193333	1186.698242	-19.684855
319.814362	6202.193333	1185.574219	10.257189
319.814362	6202.193333	1184.451172	34.007927
319.814362	6202.193333	1183.327148	-45.491707
319.814362	6202.193333	1182.203125	-68.155136
319.814362	6202.193333	1181.078125	9.047152
319.814362	6202.193333	1179.954102	-39.718922
319.814362	6202.193333	1178.829102	-56.130623
319.814362	6202.193333	1177.704102	-41.906033
319.814362	6202.193333	1176.579102	-0.000762
319.814362	6202.193333	1175.453125	-1.977129
319.814362	6202.193333	1174.327148	-66.825653
319.814362	6202.193333	1173.201172	9.899428
319.814362	6202.193333	1172.075195	-26.647636
319.814362	6202.193333	1170.949219	21.977453
319.814362	6202.193333	1169.822266	17.391069
319.814362	6202.193333	1168.695313	-58.229305
319.814362	6202.193333	1167.568359	46.277916
319.814362	6202.193333	1166.440430	-39.628136
319.814362	6202.193333	1165.313477	-75.905388
319.814362	6202.193333	1164.185547	-63.689739
319.814362	6202.193333	1163.057617	-2.646446
319.814362	6202.193333	1161.928711	-15.909656
319.814362	6202.193333	1160.800781	-31.435291
319.814362	6202.193333	1159.671875	-23.982830
319.814362	6202.193333	1158.541992	-14.320868
319.814362	6202.193333	1157.413086	4.098123
319.814362	6202.193333	1156.283203	-89.824226
319.814362	6202.193333	1155.154297	-71.540855
319.814362	6202.193333	1154.023438	-52.854622
319.814362	6202.193333	1152.893555	6.612004
319.814362	6202.193333	1151.763672	-78.732666
319.814362	6202.193333	1150.632813	35.419552
319.814362	6202.193333	1149.501953	108.936211
319.814362	6202.193333	1148.370117	4.443350
319.814362	6202.193333	1147.239258	25.989122
319.814362	6202.193333	1146.107422	31.873974
319.814362	6202.193333	1144.975586	64.121735
319.814362	6202.193333	1143.843750	106.482391
319.814362	6202.193333	1142.710938	26.326593
319.814362	6202.193333	1141.578125	55.785618
319.814362	6202.193333	1140.445313	-72.472572
319.814362	6202.193333	1139.312500	46.677498
319.814362	6202.193333	1138.178711	93.859894
319.814362	6202.193333	1137.045898	-19.052429
319.814362	6202.193333	1135.912109	102.991379
319.814362	6202.193333	1134.777344	-73.738686
319.814362	6202.193333	1133.643555	-22.421848
319.814362	6202.193333	1132.508789	92.381851
319.814362	6202.193333	1131.374023	103.599640
319.814362	6202.193333	1130.239258	73.599213
319.814362	6202.193333	1129.104492	57.971390
319.814362	6202.193333	1127.968750	115.706383
319.814362	6202.193333	1126.833008	5.580100
319.814362	6202.193333	1125.697266	-36.894760
319.814362	6202.193333	1124.560547	21.929722
319.814362	6202.193333	1123.424805	178.809494
319.814362	6202.193333	1122.288086	54.320164
319.814362	6202.193333	1121.151367	17.582878
319.814362	6202.193333	1120.013672	90.533134
319.814362	6202.193333	1118.876953	80.328308
319.814362	6202.193333	1117.739258	37.824223
319.814362	6202.193333	1116.601563	3.570287
319.814362	6202.193333	1115.462891	-22.945778
319.814362	6202.193333	1114.324219	11.696051
319.814362	6202.193333	1113.186523	-52.593948
319.814362	6202.193333	1112.046875	6.291364
319.814362	6202.193333	1110.908203	37.525169
319.814362	6202.193333	1109.769531	44.548798
319.814362	6202.193333	1108.629883	122.212738
319.814362	6202.193333	1107.490234	63.224644
319.814362	6202.193333	1106.349609	19.921326
319.814362	6202.193333	1105.209961	116.189316
319.814362	6202.193333	1104.069336	133.070343
319.814362	6202.193333	1102.928711	85.324852
319.814362	6202.193333	1101.787109	152.459534
319.814362	6202.193333	1100.646484	58.171524
319.814362	6202.193333	1099.504883	197.063553
319.814362	6202.193333	1098.363281	117.239334
319.814362	6202.193333	1097.221680	90.946465
319.814362	6202.193333	1096.079102	37.147675
319.814362	6202.193333	1094.936523	163.662048
319.814362	6202.193333	1093.793945	48.723980
319.814362	6202.193333	1092.651367	182.299835
319.814362	6202.193333	1091.507813	118.950470
319.814362	6202.193333	1090.364258	-47.365376
319.814362	6202.193333	1089.220703	74.728813
319.814362	6202.193333	1088.077148	113.740891
319.814362	6202.193333	1086.933594	144.604492
319.814362	6202.193333	1085.789063	-6.049706
319.814362	6202.193333	1084.644531	78.829834
319.814362	6202.193333	1083.499023	64.354729
319.814362	6202.193333	1082.354492	92.800423
319.814362	6202.193333	1081.208984	120.230919
319.814362	6202.193333	1080.063477	99.822784
319.814362	6202.193333	1078.917969	92.237206
319.814362	6202.193333	1077.771484	23.317709
319.814362	6202.193333	1076.625977	16.036577
319.814362	6202.193333	1075.479492	14.235100
319.814362	6202.193333	1074.332031	85.646225
319.814362	6202.193333	1073.185547	3.400971
319.814362	6202.193333	1072.038086	100.194595
319.814362	6202.193333	1070.890625	78.276474
319.814362	6202.193333	1069.743164	40.614437
319.814362	6202.193333	1068.594727	63.813698
319.814362	6202.193333	1067.447266	49.104439
319.814362	6202.193333	1066.298828	154.972412
319.814362	6202.193333	1065.149414	56.956715
319.814362	6202.193333	1064.000977	-31.629908
319.814362	6202.193333	1062.851563	47.531273
319.814362	6202.193333	1061.702148	122.748756
319.814362	6202.193333	1060.552734	-11.925154
319.814362	6202.193333	1059.402344	87.427719
319.814362	6202.193333	1058.252930	97.370148
319.814362	6202.193333	1057.102539	178.587540
319.814362	6202.193333	1055.951172	192.023758
319.814362	6202.193333	1054.800781	26.679642
319.814362	6202.193333	1053.649414	-18.921089
319.814362	6202.193333	1052.498047	70.884598
319.814362	6202.193333	1051.346680	86.359970
319.814362	6202.193333	1050.194336	8.521783
319.814362	6202.193333	1049.042969	-71.692589
319.814362	6202.193333	1047.890625	19.809887
319.814362	6202.193333	1046.738281	92.563370
319.814362	6202.193333	1045.584961	107.776993
319.814362	6202.193333	1044.431641	85.457573
319.814362	6202.193333	1043.278320	73.952354
319.814362	6202.193333	1042.125000	90.233078
319.814362	6202.193333	1040.971680	61.380886
319.814362	6202.193333	1039.817383	109.988197
319.814362	6202.193333	1038.663086	67.847488
319.814362	6202.193333	1037.508789	70.482765
319.814362	6202.193333	1036.353516	61.453239
319.814362	6202.193333	1035.198242	172.210083
319.814362	6202.193333	1034.042969	63.955055
319.814362	6202.193333	1032.887695	153.884979
319.814362	6202.193333	1031.732422	41.621052
319.814362	6202.193333	1030.576172	127.759079
319.814362	6202.193333	1029.419922	-27.936266
319.814362	6202.193333	1028.263672	95.924263
319.814362	6202.193333	1027.106445	112.401802
319.814362	6202.193333	1025.949219	133.891907
319.814362	6202.193333	1024.792969	16.229078
319.814362	6202.193333	1023.634766	163.184494
319.814362	6202.193333	1022.477539	93.344574
319.814362	6202.193333	1021.319336	15.491169
319.814362	6202.193333	1020.161133	-15.985039
319.814362	6202.193333	1019.002930	-58.505848
319.814362	6202.193333	1017.843750	118.200317
319.814362	6202.193333	1016.684570	130.146698
319.814362	6202.193333	1015.525391	102.661507
319.814362	6202.193333	1014.366211	87.373222
319.814362	6202.193333	1013.207031	1.729200
319.814362	6202.193333	1012.046875	115.929222
319.814362	6202.193333	1010.886719	-45.631130
319.814362	6202.193333	1009.726563	32.638550
319.814362	6202.193333	1008.565430	24.191463
319.814362	6202.193333	1007.404297	-11.036279
319.814362	6202.193333	1006.243164	0.731278
319.814362	6202.193333	1005.082031	50.751045
319.814362	6202.193333	1003.920898	17.697905
319.814362	6202.193333	1002.758789	11.294097
319.814362	6202.193333	1001.596680	20.826809
319.814362	6202.193333	1000.433594	113.367401
319.814362	6202.193333	999.271484	-42.374573
319.814362	6202.193333	998.108398	-11.537714
319.814362	6202.193333	996.945313	-0.462767
319.814362	6202.193333	995.782227	78.936279
319.814362	6202.193333	994.618164	-39.061695
319.814362	6202.193333	993.454102	-31.946358
319.814362	6202.193333	992.290039	-30.128281
319.814362	6202.193333	991.125977	134.729034
319.814362	6202.193333	989.960938	30.660814
319.814362	6202.193333	988.796875	8.658356
319.814362	6202.193333	987.630859	57.071308
319.814362	6202.193333	986.465820	140.739136
319.814362	6202.193333	985.300781	33.838165
319.814362	6202.193333	984.134766	85.942673
319.814362	6202.193333	982.968750	42.654797
319.814362	6202.193333	981.801758	47.346172
319.814362	6202.193333	980.635742	144.061340
319.814362	6202.193333	979.468750	114.086945
319.814362	6202.193333	978.301758	79.968971
319.814362	6202.193333	977.133789	-8.083527
319.814362	6202.193333	975.966797	-5.870759
319.814362	6202.193333	974.798828	61.895401
319.814362	6202.193333	973.630859	75.047554
319.814362	6202.193333	972.461914	16.993956
319.814362	6202.193333	971.293945	53.918293
319.814362	6202.193333	970.125000	-19.167194
319.814362	6202.193333	968.956055	31.929472
319.814362	6202.193333	967.786133	41.431973
319.814362	6202.193333	966.617188	97.614807
319.814362	6202.193333	965.447266	155.432114
319.814362	6202.193333	964.276367	114.840500
319.814362	6202.193333	963.106445	-9.965122
319.814362	6202.193333	961.935547	18.889790
319.814362	6202.193333	960.764648	99.557648
319.814362	6202.193333	959.593750	92.442810
319.814362	6202.193333	958.422852	50.232834
319.814362	6202.193333	957.250977	-118.849823
319.814362	6202.193333	956.079102	-68.172043
319.814362	6202.193333	954.907227	171.385620
319.814362	6202.193333	953.734375	3.160377
319.814362	6202.193333	952.562500	110.288506
319.814362	6202.193333	951.389648	-76.971642
319.814362	6202.193333	950.215820	-62.493057
319.814362	6202.193333	949.042969	-74.630424
319.814362	6202.193333	947.869141	32.968102
319.814362	6202.193333	946.695313	-37.729156
319.814362	6202.193333	945.521484	31.227545
319.814362	6202.193333	944.346680	86.544075
319.814362	6202.193333	943.172852	51.009277
319.814362	6202.193333	941.998047	-24.840652
319.814362	6202.193333	940.822266	73.084175
319.814362	6202.193333	939.647461	73.403404
319.814362	6202.193333	938.471680	104.560959
319.814362	6202.193333	937.295898	57.360069
319.814362	6202.193333	936.119141	-25.302465
319.814362	6202.193333	934.943359	105.707870
319.814362	6202.193333	933.766602	-3.275591
319.814362	6202.193333	932.589844	96.892914
319.814362	6202.193333	931.413086	-23.971649
319.814362	6202.193333	930.235352	7.288506
319.814362	6202.193333	929.057617	-13.768760
319.814362	6202.193333	927.879883	-103.593124
319.814362	6202.193333	926.702148	-55.753159
319.814362	6202.193333	925.523438	-60.117462
319.814362	6202.193333	924.344727	-57.354000
319.814362	6202.193333	923.166016	-18.981070
319.814362	6202.193333	921.987305	47.858292
319.814362	6202.193333	920.807617	-1.584633
319.814362	6202.193333	919.627930	-0.353808
319.814362	6202.193333	919.497070	84.351341
319.814362	6202.193333	918.331055	132.156433
319.814362	6202.193333	917.165039	2.099601
319.814362	6202.193333	915.999023	149.480194
319.814362	6202.193333	914.833008	19.477905
319.814362	6202.193333	913.666016	-3.826388
319.814362	6202.193333	912.499023	-95.829208
319.814362	6202.193333	911.332031	-10.127473
319.814362	6202.193333	910.165039	-35.771706
319.814362	6202.193333	908.997070	-21.147587
319.814362	6202.193333	907.830078	66.861717
319.814362	6202.193333	906.661133	-29.780466
319.814362	6202.193333	905.493164	6.139295
319.814362	6202.193333	904.325195	-130.668732
319.814362	6202.193333	903.156250	-68.716423
319.814362	6202.193333	901.987305	7.403609
319.814362	6202.193333	900.818359	-53.647503
319.814362	6202.193333	899.648438	15.352481
319.814362	6202.193333	898.478516	79.599770
319.814362	6202.193333	897.308594	-33.407349
319.814362	6202.193333	896.138672	11.928281
319.814362	6202.193333	894.968750	24.178425
319.814362	6202.193333	893.797852	-13.167336
319.814362	6202.193333	892.626953	74.646027
319.814362	6202.193333	891.456055	105.770103
319.814362	6202.193333	890.284180	35.396633
319.814362	6202.193333	889.113281	50.002941
319.814362	6202.193333	887.941406	-65.150299
319.814362	6202.193333	886.768555	50.903938
319.814362	6202.193333	885.596680	8.908347
319.814362	6202.193333	884.423828	77.749100
319.814362	6202.193333	883.250977	7.483678
319.814362	6202.193333	882.078125	-27.398191
319.814362	6202.193333	880.905273	-38.700253
319.814362	6202.193333	879.731445	86.645447
319.814362	6202.193333	878.557617	4.669045
319.814362	6202.193333	877.383789	-100.819923
319.814362	6202.193333	876.209961	43.303501
319.814362	6202.193333	875.035156	-26.836084
319.814362	6202.193333	873.860352	-0.453431
319.814362	6202.193333	872.685547	72.979988
319.814362	6202.193333	871.510742	59.343273
319.814362	6202.193333	870.334961	19.843788
319.814362	6202.193333	869.159180	43.853191
319.814362	6202.193333	867.983398	44.344582
319.814362	6202.193333	866.807617	49.538616
319.814362	6202.193333	865.630859	82.934395
319.814362	6202.193333	864.454102	-57.551266
319.814362	6202.193333	863.277344	-169.788528
319.814362	6202.193333	862.100586	44.481567
319.814362	6202.193333	860.922852	21.503748
319.814362	6202.193333	859.745117	78.357651
319.814362	6202.193333	858.567383	-3.294185
319.814362	6202.193333	857.389648	86.398033
319.814362	6202.193333	856.210938	18.859680
319.814362	6202.193333	855.032227	87.403053
319.814362	6202.193333	853.853516	80.871338
319.814362	6202.193333	852.674805	50.896080
319.814362	6202.193333	851.495117	74.854050
319.814362	6202.193333	850.315430	35.520180
319.814362	6202.193333	849.135742	-113.932983
319.814362	6202.193333	847.956055	24.847023
319.814362	6202.193333	846.775391	44.111000
319.814362	6202.193333	845.595703	-32.650448
319.814362	6202.193333	844.415039	91.982567
319.814362	6202.193333	843.233398	90.155716
319.814362	6202.193333	842.052734	121.095688
319.814362	6202.193333	840.871094	56.086136
319.814362	6202.193333	839.689453	37.893185
319.814362	6202.193333	838.506836	36.082325
319.814362	6202.193333	837.325195	-19.514786
319.814362	6202.193333	836.142578	-30.664789
319.814362	6202.193333	834.959961	-34.797367
319.814362	6202.193333	833.777344	-52.950939
319.814362	6202.193333	832.593750	-127.174034
319.814362	6202.193333	831.410156	-65.872414
319.814362	6202.193333	830.226563	-112.035187
319.814362	6202.193333	829.042969	-8.729823
319.814362	6202.193333	827.858398	-12.861071
319.814362	6202.193333	826.673828	-101.021942
319.814362	6202.193333	825.489258	16.218849
319.814362	6202.193333	824.304688	12.082891
319.814362	6202.193333	823.120117	-6.048577
319.814362	6202.193333	821.934570	71.450211
319.814362	6202.193333	820.749023	43.985756
319.814362	6202.193333	819.562500	-88.375763
319.814362	6202.193333	818.376953	33.374065
319.814362	6202.193333	817.190430	8.262016
319.814362	6202.193333	816.003906	-37.810062
319.814362	6202.193333	814.817383	2.322270
319.814362	6202.193333	813.629883	-43.731594
319.814362	6202.193333	812.442383	-40.871811
319.814362	6202.193333	811.254883	-19.391703
319.814362	6202.193333	810.067383	-4.904915
319.814362	6202.193333	808.878906	-46.272526
319.814362	6202.193333	807.690430	-13.177648
319.814362	6202.193333	806.501953	43.161098
319.814362	6202.193333	805.313477	-112.149231
319.814362	6202.193333	804.124023	-0.016370
319.814362	6202.193333	802.934570	-69.248901
319.814362	6202.193333	801.745117	-26.899683
319.814362	6202.193333	800.555664	96.754784
319.814362	6202.193333	799.365234	-109.527214
319.814362	6202.193333	798.175781	-46.301933
319.814362	6202.193333	796.985352	19.216843
319.814362	6202.193333	795.793945	42.915688
319.814362	6202.193333	794.603516	82.848236
319.814362	6202.193333	793.412109	-116.272568
319.814362	6202.193333	792.220703	-27.605398
319.814362	6202.193333	791.028320	23.905844
319.814362	6202.193333	789.836914	61.474728
319.814362	6202.193333	788.644531	-60.972214
319.814362	6202.193333	787.452148	-46.592663
319.814362	6202.193333	786.258789	-15.997540
319.814362	6202.193333	785.066406	-10.912203
319.814362	6202.193333	783.873047	-96.190918
319.814362	6202.193333	782.679688	-88.783844
319.814362	6202.193333	781.485352	96.941254
319.814362	6202.193333	780.291992	118.187263
319.814362	6202.193333	779.097656	-41.146450
319.814362	6202.193333	777.903320	-3.689717
319.814362	6202.193333	776.708008	63.828342
319.814362	6202.193333	775.512695	-9.811688
319.814362	6202.193333	774.318359	50.727436
319.814362	6202.193333	773.122070	58.048401
319.814362	6202.193333	771.926758	194.834610
319.814362	6202.193333	770.730469	-42.918709
319.814362	6202.193333	769.534180	22.175016
319.814362	6202.193333	768.337891	47.954018
319.814362	6202.193333	767.141602	191.532394
319.814362	6202.193333	765.944336	46.337250
319.814362	6202.193333	764.747070	21.272236
319.814362	6202.193333	763.549805	247.859192
319.814362	6202.193333	762.351563	72.713882
319.814362	6202.193333	761.154297	149.176834
319.814362	6202.193333	759.956055	54.863266
319.814362	6202.193333	758.757813	172.804825
319.814362	6202.193333	757.558594	55.447350
319.814362	6202.193333	756.359375	30.362999
319.814362	6202.193333	755.160156	106.715454
319.814362	6202.193333	753.960938	95.442551
319.814362	6202.193333	752.761719	-40.270798
319.814362	6202.193333	751.561523	-7.751258
319.814362	6202.193333	750.361328	133.006241
319.814362	6202.193333	749.160156	-16.473906
319.814362	6202.193333	747.959961	52.831581
319.814362	6202.193333	746.758789	13.906194
319.814362	6202.193333	745.557617	131.489410
319.814362	6202.193333	744.356445	-4.098605
319.814362	6202.193333	743.154297	108.818604
319.814362	6202.193333	741.952148	118.176094
319.814362	6202.193333	740.750000	168.911469
319.814362	6202.193333	739.547852	212.717941
319.814362	6202.193333	738.344727	49.620327
319.814362	6202.193333	737.142578	150.864960
319.814362	6202.193333	735.939453	38.374870
319.814362	6202.193333	734.735352	79.832512
319.814362	6202.193333	733.532227	139.633957
319.814362	6202.193333	732.328125	40.960945
319.814362	6202.193333	731.124023	96.131706
319.814362	6202.193333	729.918945	151.268631
319.814362	6202.193333	728.714844	-2.455292
319.814362	6202.193333	727.509766	27.417765
319.814362	6202.193333	726.303711	13.684266
319.814362	6202.193333	725.098633	-57.389965
319.814362	6202.193333	723.892578	-25.267815
319.814362	6202.193333	722.686523	41.213963
319.814362	6202.193333	721.480469	50.357727
319.814362	6202.193333	720.274414	73.233177
319.814362	6202.193333	719.067383	178.560532
319.814362	6202.193333	717.860352	-34.543316
319.814362	6202.193333	716.653320	13.486468
319.814362	6202.193333	715.445313	31.719677
319.814362	6202.193333	714.238281	-11.872588
319.814362	6202.193333	713.030273	8.619409
319.814362	6202.193333	711.821289	15.361286
319.814362	6202.193333	710.613281	-14.515628
319.814362	6202.193333	709.404297	95.119530
319.814362	6202.193333	708.195313	8.045145
319.814362	6202.193333	706.986328	55.875114
319.814362	6202.193333	705.776367	119.670860
319.814362	6202.193333	704.566406	89.732529
319.814362	6202.193333	703.356445	30.090778
319.814362	6202.193333	702.146484	18.428116
319.814362	6202.193333	700.935547	187.171402
319.814362	6202.193333	699.724609	54.437973
319.814362	6202.193333	698.513672	-16.619919
319.814362	6202.193333	697.302734	8.193666
319.814362	6202.193333	696.090820	30.700077
319.814362	6202.193333	694.878906	44.055775
319.814362	6202.193333	693.666992	-33.844311
319.814362	6202.193333	692.455078	86.666473
319.814362	6202.193333	691.242188	79.436050
319.814362	6202.193333	690.029297	161.090652
319.814362	6202.193333	688.816406	26.194183
319.814362	6202.193333	687.602539	21.211699
319.814362	6202.193333	686.389648	86.832672
319.814362	6202.193333	685.175781	20.313990
319.814362	6202.193333	683.960938	122.307877
319.814362	6202.193333	682.747070	53.500221
319.814362	6202.193333	681.532227	107.613419
319.814362	6202.193333	680.317383	0.119775
319.814362	6202.193333	679.102539	51.912788
319.814362	6202.193333	677.886719	174.181076
319.814362	6202.193333	676.670898	-81.129120
319.814362	6202.193333	675.455078	184.323700
319.814362	6202.193333	674.239258	70.023117
319.814362	6202.193333	673.022461	114.844238
319.814362	6202.193333	671.805664	114.184532
319.814362	6202.193333	670.588867	154.399673
319.814362	6202.193333	669.372070	85.558716
319.814362	6202.193333	668.154297	64.416588
319.814362	6202.193333	666.936523	-47.547127
319.814362	6202.193333	665.718750	-39.179142
319.814362	6202.193333	664.500977	-10.407717
319.814362	6202.193333	663.282227	90.938309
319.814362	6202.193333	662.063477	94.682579
319.814362	6202.193333	660.844727	66.656601
319.814362	6202.193333	659.625000	22.752455
319.814362	6202.193333	658.405273	-43.820427
319.814362	6202.193333	657.185547	68.670357
319.814362	6202.193333	655.965820	49.666706
319.814362	6202.193333	654.745117	39.715664
319.814362	6202.193333	653.525391	-6.489790
319.814362	6202.193333	652.303711	94.503990
319.814362	6202.193333	651.083008	-17.388237
319.814362	6202.193333	649.861328	65.420769
319.814362	6202.193333	648.640625	121.019112
319.814362	6202.193333	647.417969	9.138609
319.814362	6202.193333	646.196289	39.805782
319.814362	6202.193333	644.973633	59.133644
319.814362	6202.193333	643.750977	132.704880
319.814362	6202.193333	642.528320	-4.022726
319.814362	6202.193333	641.305664	123.741882
319.814362	6202.193333	640.082031	25.455069
319.814362	6202.193333	638.858398	-34.399544
319.814362	6202.193333	637.634766	54.837029
319.814362	6202.193333	636.410156	159.826431
319.814362	6202.193333	635.185547	102.186157
319.814362	6202.193333	633.960938	89.700905
319.814362	6202.193333	632.736328	-78.524757
319.814362	6202.193333	631.510742	-3.000120
319.814362	6202.193333	630.285156	-44.835426
319.814362	6202.193333	629.059570	129.857086
319.814362	6202.193333	627.833984	9.051144
319.814362	6202.193333	626.607422	55.114841
319.814362	6202.193333	625.380859	83.109161
319.814362	6202.193333	624.154297	97.553230
319.814362	6202.193333	622.927734	-14.199838
319.814362	6202.193333	621.700195	-62.849098
319.814362	6202.193333	620.472656	43.903549
319.814362	6202.193333	619.245117	1.983987
319.814362	6202.193333	618.016602	-51.190907
319.814362	6202.193333	616.788086	-34.587627
319.814362	6202.193333	615.559570	128.257568
319.814362	6202.193333	614.331055	-39.697216
319.814362	6202.193333	613.101563	42.072796
319.814362	6202.193333	611.872070	171.016693
319.814362	6202.193333	610.642578	18.848955
319.814362	6202.193333	609.413086	8.344622
319.814362	6202.193333	608.182617	-49.366364
319.814362	6202.193333	606.952148	-8.205443
319.814362	6202.193333	605.721680	-9.759146
319.814362	6202.193333	604.491211	26.853292
319.814362	6202.193333	603.259766	-33.120541
319.814362	6202.193333	602.028320	-5.529519
319.814362	6202.193333	600.796875	64.680229
319.814362	6202.193333	599.564453	67.523849
319.814362	6202.193333	598.332031	5.288751
319.814362	6202.193333	597.099609	32.788570
319.814362	6202.193333	595.867188	-67.565628
319.814362	6202.193333	594.633789	-24.396429
319.814362	6202.193333	593.400391	-12.642680
319.814362	6202.193333	592.166992	48.397701
319.814362	6202.193333	590.933594	53.381641
319.814362	6202.193333	589.699219	159.158447
319.814362	6202.193333	588.464844	38.663853
319.814362	6202.193333	587.230469	5.538414
319.814362	6202.193333	585.995117	102.262779
319.814362	6202.193333	584.760742	-20.419886
319.814362	6202.193333	583.525391	85.194664
319.814362	6202.193333	582.289063	83.358315
319.814362	6202.193333	581.053711	195.591873
319.814362	6202.193333	579.817383	81.889122
319.814362	6202.193333	578.581055	151.567917
319.814362	6202.193333	577.343750	8.838384
319.814362	6202.193333	576.107422	2.491662
319.814362	6202.193333	574.870117	219.584198
319.814362	6202.193333	573.631836	83.599098
319.814362	6202.193333	572.394531	126.344681
319.814362	6202.193333	571.156250	162.361710
319.814362	6202.193333	569.917969	193.887817
319.814362	6202.193333	568.679688	171.820007
319.814362	6202.193333	567.440430	27.011854
319.814362	6202.193333	566.202148	154.456573
319.814362	6202.193333	564.961914	170.302628
319.814362	6202.193333	563.722656	259.729919
319.814362	6202.193333	562.482422	72.624100
319.814362	6202.193333	561.243164	79.534836
319.814362	6202.193333	560.001953	35.170586
319.814362	6202.193333	558.761719	106.689346
319.814362	6202.193333	557.520508	167.029724
319.814362	6202.193333	556.279297	-28.807104
319.814362	6202.193333	555.038086	138.410538
319.814362	6202.193333	553.795898	143.022797
319.814362	6202.193333	552.554688	40.783520
319.814362	6202.193333	551.311523	74.330727
319.814362	6202.193333	550.069336	-1.164505
319.814362	6202.193333	548.826172	65.731956
319.814362	6202.193333	547.583984	-56.445240
319.814362	6202.193333	546.339844	-67.401375
319.814362	6202.193333	545.096680	-49.457520
319.814362	6202.193333	543.852539	-13.746952
319.814362	6202.193333	542.608398	-53.607803
319.814362	6202.193333	541.364258	-95.677765
319.814362	6202.193333	540.119141	13.302938
319.814362	6202.193333	538.875000	-28.771889
319.814362	6202.193333	537.628906	-53.073166
319.814362	6202.193333	536.383789	-4.115750
319.814362	6202.193333	535.137695	51.474110
319.814362	6202.193333	533.892578	71.537750
319.814362	6202.193333	532.645508	87.151047
319.814362	6202.193333	531.399414	71.706863
319.814362	6202.193333	530.152344	-30.210621
319.814362	6202.193333	528.905273	89.599777
319.814362	6202.193333	527.658203	-56.609753
319.814362	6202.193333	526.410156	-36.565826
319.814362	6202.193333	525.163086	-18.746439
319.814362	6202.193333	523.914063	-9.797934
319.814362	6202.193333	522.666016	-22.998341
319.814362	6202.193333	521.416992	-51.692715
319.814362	6202.193333	520.167969	-111.365204
319.814362	6202.193333	518.918945	-7.246070
319.814362	6202.193333	517.669922	-0.525553
319.814362	6202.193333	516.419922	-18.142450
319.814362	6202.193333	515.169922	6.269657
319.814362	6202.193333	513.919922	-75.464592
319.814362	6202.193333	512.668945	-90.843330
319.814362	6202.193333	511.417969	-50.959648
319.814362	6202.193333	510.166992	-86.223526
319.814362	6202.193333	508.916016	-139.145325
319.814362	6202.193333	507.664063	24.416681
319.814362	6202.193333	506.412109	11.244637
319.814362	6202.193333	505.160156	-154.260941
319.814362	6202.193333	503.907227	-154.142929
319.814362	6202.193333	502.655273	-56.919495
319.814362	6202.193333	501.402344	95.423355
319.814362	6202.193333	500.148438	-1.569859
319.814362	6202.193333	498.895508	-52.203728
319.814362	6202.193333	497.641602	-25.640059
319.814362	6202.193333	496.387695	73.662712
319.814362	6202.193333	495.132813	51.701702
319.814362	6202.193333	493.878906	-27.539417
319.814362	6202.193333	492.624023	-25.231028
319.814362	6202.193333	491.368164	80.600273
319.814362	6202.193333	490.113281	-55.846558
319.814362	6202.193333	488.857422	-0.688467
319.814362	6202.193333	487.601563	-42.404503
319.814362	6202.193333	486.344727	30.335634
319.814362	6202.193333	485.088867	-31.167625
319.814362	6202.193333	483.832031	98.736809
319.814362	6202.193333	482.575195	57.041492
319.814362	6202.193333	481.317383	35.154308
319.814362	6202.193333	480.059570	118.798737
319.814362	6202.193333	478.801758	63.942394
319.814362	6202.193333	477.543945	-63.403152
319.814362	6202.193333	476.285156	-1.758323
319.814362	6202.193333	475.027344	-54.353851
319.814362	6202.193333	473.767578	86.318451
319.814362	6202.193333	472.508789	-3.596994
319.814362	6202.193333	471.249023	-27.623568
319.814362	6202.193333	469.989258	71.255501
319.814362	6202.193333	468.729492	-9.823622
319.814362	6202.193333	467.469727	-55.770931
319.814362	6202.193333	466.208984	-18.361156
319.814362	6202.193333	464.948242	-27.015121
319.814362	6202.193333	463.686523	-7.169960
319.814362	6202.193333	462.425781	115.676025
319.814362	6202.193333	461.164063	-48.587646
319.814362	6202.193333	459.901367	32.581501
319.814362	6202.193333	458.639648	37.052284
319.814362	6202.193333	457.376953	72.173599
319.814362	6202.193333	456.114258	111.653336
319.814362	6202.193333	454.851563	52.610794
319.814362	6202.193333	453.587891	52.673527
319.814362	6202.193333	452.324219	37.414108
319.814362	6202.193333	451.060547	65.903137
319.814362	6202.193333	449.796875	72.501228
319.814362	6202.193333	448.532227	85.646347
319.814362	6202.193333	447.267578	144.682907
319.814362	6202.193333	446.002930	70.363533
319.814362	6202.193333	444.737305	114.058907
319.814362	6202.193333	443.471680	26.646076
319.814362	6202.193333	442.206055	39.728371
319.814362	6202.193333	440.940430	52.790665
319.814362	6202.193333	439.673828	81.113617
319.814362	6202.193333	438.407227	28.646429
319.814362	6202.193333	437.140625	-4.174727
319.814362	6202.193333	435.873047	-10.820086
319.814362	6202.193333	434.605469	8.693398
319.814362	6202.193333	433.337891	128.496109
319.814362	6202.193333	432.070313	56.352161
319.814362	6202.193333	430.801758	-57.203300
319.814362	6202.193333	429.533203	58.104885
319.814362	6202.193333	428.264648	140.652771
319.814362	6202.193333	426.996094	-101.456612
319.814362	6202.193333	425.726563	-25.502594
319.814362	6202.193333	424.457031	120.068916
319.814362	6202.193333	423.186523	76.138573
319.814362	6202.193333	421.916992	-30.926748
319.814362	6202.193333	420.646484	92.686028
319.814362	6202.193333	419.375977	33.452503
319.814362	6202.193333	418.104492	98.189293
319.814362	6202.193333	416.833008	188.952499
319.814362	6202.193333	415.561523	33.944790
319.814362	6202.193333	414.290039	-3.658337
319.814362	6202.193333	413.017578	-32.600948
319.814362	6202.193333	411.746094	47.061493
319.814362	6202.193333	410.472656	-42.808533
319.814362	6202.193333	409.200195	51.917442
319.814362	6202.193333	407.926758	61.858837
319.814362	6202.193333	406.653320	34.831303
319.814362	6202.193333	405.379883	172.708862
319.814362	6202.193333	404.105469	126.011597
319.814362	6202.193333	402.831055	18.521364
319.814362	6202.193333	401.556641	91.039230
319.814362	6202.193333	400.282227	61.530251
319.814362	6202.193333	399.006836	38.461239
319.814362	6202.193333	397.731445	19.659883
319.814362	6202.193333	396.456055	70.134949
319.814362	6202.193333	395.179688	-35.500439
319.814362	6202.193333	393.903320	73.278854
319.814362	6202.193333	392.626953	108.284805
319.814362	6202.193333	391.350586	43.578842
319.814362	6202.193333	390.073242	100.030067
319.814362	6202.193333	388.795898	110.904999
319.814362	6202.193333	387.518555	104.359749
319.814362	6202.193333	386.240234	71.745354
319.814362	6202.193333	384.961914	101.757957
319.814362	6202.193333	383.683594	153.266296
319.814362	6202.193333	382.405273	16.538937
319.814362	6202.193333	381.125977	-94.317741
319.814362	6202.193333	379.846680	144.835480
319.814362	6202.193333	378.567383	-0.831034
319.814362	6202.193333	377.287109	-34.249104
319.814362	6202.193333	376.006836	197.841324
319.814362	6202.193333	374.726563	90.695000
319.814362	6202.193333	373.446289	26.618351
319.814362	6202.193333	372.165039	29.314667
319.814362	6202.193333	370.883789	-9.147904
319.814362	6202.193333	369.602539	16.959080
319.814362	6202.193333	368.320313	60.133614
319.814362	6202.193333	367.039063	109.586433
319.814362	6202.193333	365.755859	42.409378
319.814362	6202.193333	364.473633	-1.212035
319.814362	6202.193333	363.190430	58.424709
319.814362	6202.193333	361.907227	63.974720
319.814362	6202.193333	360.624023	2.543529
319.814362	6202.193333	359.340820	31.376186
319.814362	6202.193333	358.056641	6.146729
319.814362	6202.193333	356.772461	73.266693
319.814362	6202.193333	355.487305	64.796707
319.814362	6202.193333	354.202148	-120.342377
319.814362	6202.193333	352.916992	40.696358
319.814362	6202.193333	351.631836	-69.576256
319.814362	6202.193333	350.346680	15.614625
319.814362	6202.193333	349.060547	36.002781
319.814362	6202.193333	347.774414	-4.070822
319.814362	6202.193333	346.487305	-20.776945
319.814362	6202.193333	345.200195	121.216194
319.814362	6202.193333	343.913086	-65.778755
319.814362	6202.193333	342.625977	92.742615
319.814362	6202.193333	341.338867	126.358284
319.814362	6202.193333	340.050781	-85.070274
319.814362	6202.193333	338.762695	-43.503948
319.814362	6202.193333	337.473633	-100.997643
319.814362	6202.193333	336.184570	-70.864174
319.814362	6202.193333	334.895508	-154.765671
319.814362	6202.193333	333.606445	-39.588085
319.814362	6202.193333	332.317383	12.997806
319.814362	6202.193333	331.027344	-31.278524
319.814362	6202.193333	329.736328	-43.798576
319.814362	6202.193333	328.446289	-28.857018
319.814362	6202.193333	327.155273	43.481705
319.814362	6202.193333	325.864258	-64.510040
319.814362	6202.193333	324.573242	19.789766
319.814362	6202.193333	323.281250	-46.234737
319.814362	6202.193333	321.989258	-91.288879
319.814362	6202.193333	320.697266	-81.165314
319.814362	6202.193333	319.405273	-50.135891
319.814362	6202.193333	318.112305	-66.673714
319.814362	6202.193333	316.819336	151.480286
319.814362	6202.193333	315.526367	176.638062
319.814362	6202.193333	314.232422	100.795418
319.814362	6202.193333	312.938477	133.414978
319.814362	6202.193333	311.644531	65.063889
319.814362	6202.193333	310.349609	115.761391
319.814362	6202.193333	309.054688	-7.102142
319.814362	6202.193333	307.759766	155.558777
319.814362	6202.193333	306.464844	142.523254
319.814362	6202.193333	305.168945	305.965973
319.814362	6202.193333	303.873047	287.360077
319.814362	6202.193333	302.577148	251.046921
319.814362	6202.193333	301.281250	316.442291
319.814362	6202.193333	299.984375	359.787750
