#X		#Y		#Wave		#Intensity
464.420745	6334.403333	1999.946289	-11.772590
464.420745	6334.403333	1998.981445	95.378815
464.420745	6334.403333	1998.017578	-19.065466
464.420745	6334.403333	1997.052734	30.143332
464.420745	6334.403333	1996.088867	-37.057880
464.420745	6334.403333	1995.124023	19.677134
464.420745	6334.403333	1994.159180	49.199024
464.420745	6334.403333	1993.193359	-37.625870
464.420745	6334.403333	1992.228516	63.793842
464.420745	6334.403333	1991.262695	34.027622
464.420745	6334.403333	1990.296875	-37.755119
464.420745	6334.403333	1989.331055	34.050491
464.420745	6334.403333	1988.365234	6.912645
464.420745	6334.403333	1987.398438	76.291901
464.420745	6334.403333	1986.432617	-54.631359
464.420745	6334.403333	1985.465820	-24.750313
464.420745	6334.403333	1984.499023	-9.675910
464.420745	6334.403333	1983.532227	-73.665878
464.420745	6334.403333	1982.565430	-51.104877
464.420745	6334.403333	1981.597656	60.427528
464.420745	6334.403333	1980.629883	-28.145460
464.420745	6334.403333	1979.662109	120.450768
464.420745	6334.403333	1978.694336	-56.938835
464.420745	6334.403333	1977.726563	-54.002495
464.420745	6334.403333	1976.758789	77.320122
464.420745	6334.403333	1975.790039	-43.118572
464.420745	6334.403333	1974.821289	147.423950
464.420745	6334.403333	1973.852539	73.939720
464.420745	6334.403333	1972.883789	165.769958
464.420745	6334.403333	1971.915039	43.029324
464.420745	6334.403333	1970.945313	-54.989101
464.420745	6334.403333	1969.975586	-5.035477
464.420745	6334.403333	1969.005859	15.340381
464.420745	6334.403333	1968.036133	208.230286
464.420745	6334.403333	1967.066406	-81.857925
464.420745	6334.403333	1966.096680	-31.868511
464.420745	6334.403333	1965.125977	59.986469
464.420745	6334.403333	1964.155273	80.408546
464.420745	6334.403333	1963.184570	44.208378
464.420745	6334.403333	1962.213867	47.419323
464.420745	6334.403333	1961.242188	114.629761
464.420745	6334.403333	1960.271484	51.410046
464.420745	6334.403333	1959.299805	-78.203804
464.420745	6334.403333	1958.328125	60.355495
464.420745	6334.403333	1957.356445	117.714165
464.420745	6334.403333	1956.384766	-83.121170
464.420745	6334.403333	1955.412109	-20.826624
464.420745	6334.403333	1954.439453	73.404396
464.420745	6334.403333	1953.467773	0.497594
464.420745	6334.403333	1952.495117	23.446274
464.420745	6334.403333	1951.521484	66.042793
464.420745	6334.403333	1950.548828	64.417595
464.420745	6334.403333	1949.575195	-25.607821
464.420745	6334.403333	1948.601563	12.073488
464.420745	6334.403333	1947.627930	-70.540016
464.420745	6334.403333	1946.654297	-35.315071
464.420745	6334.403333	1945.680664	-19.733171
464.420745	6334.403333	1944.706055	49.817417
464.420745	6334.403333	1943.732422	-15.567955
464.420745	6334.403333	1942.757813	-2.451430
464.420745	6334.403333	1941.783203	194.559662
464.420745	6334.403333	1940.807617	92.406700
464.420745	6334.403333	1939.833008	-7.258268
464.420745	6334.403333	1938.857422	81.809792
464.420745	6334.403333	1937.881836	-39.873337
464.420745	6334.403333	1936.906250	88.357468
464.420745	6334.403333	1935.930664	-28.389765
464.420745	6334.403333	1934.955078	-52.042175
464.420745	6334.403333	1933.978516	14.898329
464.420745	6334.403333	1933.001953	-11.210607
464.420745	6334.403333	1932.025391	11.634104
464.420745	6334.403333	1931.048828	76.063972
464.420745	6334.403333	1930.072266	-18.560467
464.420745	6334.403333	1929.094727	55.623646
464.420745	6334.403333	1928.118164	-21.854452
464.420745	6334.403333	1927.140625	27.838221
464.420745	6334.403333	1926.163086	84.839691
464.420745	6334.403333	1925.184570	119.814613
464.420745	6334.403333	1924.207031	-23.627626
464.420745	6334.403333	1923.228516	-3.320552
464.420745	6334.403333	1922.250000	7.199615
464.420745	6334.403333	1921.271484	44.574745
464.420745	6334.403333	1920.292969	142.977478
464.420745	6334.403333	1919.314453	-100.477631
464.420745	6334.403333	1918.334961	27.190474
464.420745	6334.403333	1917.355469	-25.802885
464.420745	6334.403333	1916.375977	11.500619
464.420745	6334.403333	1915.396484	75.617905
464.420745	6334.403333	1914.416992	49.450191
464.420745	6334.403333	1913.436523	-32.810051
464.420745	6334.403333	1912.457031	14.182728
464.420745	6334.403333	1911.476563	-114.378738
464.420745	6334.403333	1910.496094	3.277147
464.420745	6334.403333	1909.515625	128.189819
464.420745	6334.403333	1908.534180	-39.335960
464.420745	6334.403333	1907.552734	-111.802948
464.420745	6334.403333	1906.572266	15.466787
464.420745	6334.403333	1905.590820	135.371979
464.420745	6334.403333	1904.608398	84.793350
464.420745	6334.403333	1903.626953	24.486353
464.420745	6334.403333	1902.644531	59.108456
464.420745	6334.403333	1901.663086	-79.058487
464.420745	6334.403333	1900.680664	-22.556246
464.420745	6334.403333	1899.698242	-9.868917
464.420745	6334.403333	1898.714844	-16.653673
464.420745	6334.403333	1897.732422	27.615097
464.420745	6334.403333	1896.749023	37.821339
464.420745	6334.403333	1895.765625	-139.143982
464.420745	6334.403333	1894.782227	26.596558
464.420745	6334.403333	1893.798828	27.044868
464.420745	6334.403333	1892.814453	22.622360
464.420745	6334.403333	1891.831055	117.771301
464.420745	6334.403333	1890.846680	84.170944
464.420745	6334.403333	1889.862305	2.015097
464.420745	6334.403333	1888.877930	33.966827
464.420745	6334.403333	1887.892578	-9.341552
464.420745	6334.403333	1886.908203	15.298469
464.420745	6334.403333	1885.922852	-88.663918
464.420745	6334.403333	1884.937500	62.089657
464.420745	6334.403333	1883.952148	125.469864
464.420745	6334.403333	1882.965820	150.019119
464.420745	6334.403333	1881.980469	-2.420630
464.420745	6334.403333	1880.994141	22.121193
464.420745	6334.403333	1880.007813	131.458649
464.420745	6334.403333	1879.021484	-13.658255
464.420745	6334.403333	1878.035156	59.286644
464.420745	6334.403333	1877.047852	-30.080284
464.420745	6334.403333	1876.061523	-17.720196
464.420745	6334.403333	1875.074219	-65.903336
464.420745	6334.403333	1874.086914	-46.302864
464.420745	6334.403333	1873.098633	-21.881323
464.420745	6334.403333	1872.111328	9.780606
464.420745	6334.403333	1871.123047	-16.644032
464.420745	6334.403333	1870.135742	-16.461468
464.420745	6334.403333	1869.147461	32.076015
464.420745	6334.403333	1868.158203	179.716003
464.420745	6334.403333	1867.169922	29.947237
464.420745	6334.403333	1866.180664	-54.518734
464.420745	6334.403333	1865.192383	30.194084
464.420745	6334.403333	1864.203125	37.548656
464.420745	6334.403333	1863.213867	32.811874
464.420745	6334.403333	1862.223633	160.899551
464.420745	6334.403333	1861.234375	102.996849
464.420745	6334.403333	1860.244141	112.703384
464.420745	6334.403333	1859.253906	-92.432655
464.420745	6334.403333	1858.263672	-73.060135
464.420745	6334.403333	1857.273438	163.455292
464.420745	6334.403333	1856.282227	122.439552
464.420745	6334.403333	1855.291992	189.970016
464.420745	6334.403333	1854.300781	47.659851
464.420745	6334.403333	1853.309570	1.836616
464.420745	6334.403333	1852.317383	54.854996
464.420745	6334.403333	1851.326172	69.282196
464.420745	6334.403333	1850.333984	134.297226
464.420745	6334.403333	1849.342773	127.001045
464.420745	6334.403333	1848.350586	138.967148
464.420745	6334.403333	1847.357422	54.583275
464.420745	6334.403333	1846.365234	196.566650
464.420745	6334.403333	1845.372070	71.257797
464.420745	6334.403333	1844.379883	97.629837
464.420745	6334.403333	1843.386719	66.223473
464.420745	6334.403333	1842.393555	104.596832
464.420745	6334.403333	1841.399414	159.784683
464.420745	6334.403333	1840.406250	65.821724
464.420745	6334.403333	1839.412109	118.573303
464.420745	6334.403333	1838.417969	10.208420
464.420745	6334.403333	1837.423828	62.932720
464.420745	6334.403333	1836.429688	55.543644
464.420745	6334.403333	1835.434570	156.279053
464.420745	6334.403333	1834.440430	35.941280
464.420745	6334.403333	1833.445313	-29.114632
464.420745	6334.403333	1832.450195	28.325754
464.420745	6334.403333	1831.454102	28.107689
464.420745	6334.403333	1830.458984	-137.763779
464.420745	6334.403333	1829.462891	66.051659
464.420745	6334.403333	1828.466797	41.804127
464.420745	6334.403333	1827.470703	72.741264
464.420745	6334.403333	1826.474609	118.052605
464.420745	6334.403333	1825.478516	-50.120182
464.420745	6334.403333	1824.481445	139.056870
464.420745	6334.403333	1823.484375	148.341751
464.420745	6334.403333	1822.487305	16.189104
464.420745	6334.403333	1821.490234	-103.938576
464.420745	6334.403333	1820.493164	22.775185
464.420745	6334.403333	1819.495117	65.582283
464.420745	6334.403333	1818.498047	53.276516
464.420745	6334.403333	1817.500000	100.836685
464.420745	6334.403333	1816.500977	150.763824
464.420745	6334.403333	1815.502930	155.182816
464.420745	6334.403333	1814.504883	276.871429
464.420745	6334.403333	1813.505859	180.743103
464.420745	6334.403333	1812.506836	87.036880
464.420745	6334.403333	1811.507813	55.552620
464.420745	6334.403333	1810.508789	-64.416641
464.420745	6334.403333	1809.508789	181.501053
464.420745	6334.403333	1808.508789	-50.826370
464.420745	6334.403333	1807.508789	156.737869
464.420745	6334.403333	1806.508789	251.895493
464.420745	6334.403333	1805.508789	117.630478
464.420745	6334.403333	1804.508789	98.077644
464.420745	6334.403333	1803.507813	174.063004
464.420745	6334.403333	1802.506836	152.104431
464.420745	6334.403333	1801.505859	101.496887
464.420745	6334.403333	1800.504883	-37.421169
464.420745	6334.403333	1799.502930	40.891582
464.420745	6334.403333	1798.501953	59.515285
464.420745	6334.403333	1797.500000	161.625290
464.420745	6334.403333	1796.498047	132.498749
464.420745	6334.403333	1795.496094	34.215805
464.420745	6334.403333	1794.493164	-35.424427
464.420745	6334.403333	1793.491211	133.353058
464.420745	6334.403333	1792.488281	154.281662
464.420745	6334.403333	1791.485352	103.704971
464.420745	6334.403333	1790.482422	-65.988274
464.420745	6334.403333	1789.478516	-37.906231
464.420745	6334.403333	1788.475586	54.466888
464.420745	6334.403333	1787.471680	30.116381
464.420745	6334.403333	1786.467773	15.293089
464.420745	6334.403333	1785.463867	64.738762
464.420745	6334.403333	1784.459961	-50.051910
464.420745	6334.403333	1783.455078	-57.731541
464.420745	6334.403333	1782.450195	-41.623985
464.420745	6334.403333	1781.445313	100.534973
464.420745	6334.403333	1780.440430	54.765404
464.420745	6334.403333	1779.435547	-57.565456
464.420745	6334.403333	1778.429688	148.682251
464.420745	6334.403333	1777.424805	-108.615280
464.420745	6334.403333	1776.418945	-78.291183
464.420745	6334.403333	1775.413086	92.190079
464.420745	6334.403333	1774.406250	-50.950615
464.420745	6334.403333	1773.400391	3.079494
464.420745	6334.403333	1772.393555	52.332954
464.420745	6334.403333	1771.386719	127.677361
464.420745	6334.403333	1770.379883	-1.139200
464.420745	6334.403333	1769.373047	-27.867167
464.420745	6334.403333	1768.365234	-35.610386
464.420745	6334.403333	1767.358398	-97.914452
464.420745	6334.403333	1766.350586	103.065140
464.420745	6334.403333	1765.342773	-63.590626
464.420745	6334.403333	1764.334961	-33.405628
464.420745	6334.403333	1763.326172	-7.979341
464.420745	6334.403333	1762.318359	12.694432
464.420745	6334.403333	1761.309570	73.636429
464.420745	6334.403333	1760.300781	4.251379
464.420745	6334.403333	1759.291016	-27.214987
464.420745	6334.403333	1758.282227	99.995018
464.420745	6334.403333	1757.272461	28.261961
464.420745	6334.403333	1756.262695	-64.753059
464.420745	6334.403333	1755.252930	119.180458
464.420745	6334.403333	1754.243164	42.739803
464.420745	6334.403333	1753.233398	-33.676552
464.420745	6334.403333	1752.222656	93.360695
464.420745	6334.403333	1751.211914	-9.061080
464.420745	6334.403333	1750.201172	-61.791943
464.420745	6334.403333	1749.190430	72.257996
464.420745	6334.403333	1748.179688	57.342182
464.420745	6334.403333	1747.167969	35.336681
464.420745	6334.403333	1746.156250	55.865009
464.420745	6334.403333	1745.144531	90.555626
464.420745	6334.403333	1744.132813	-66.081177
464.420745	6334.403333	1743.121094	-55.002399
464.420745	6334.403333	1742.108398	-62.820766
464.420745	6334.403333	1741.095703	-32.872211
464.420745	6334.403333	1740.083008	32.462433
464.420745	6334.403333	1739.070313	57.654892
464.420745	6334.403333	1738.057617	14.418571
464.420745	6334.403333	1737.043945	18.367302
464.420745	6334.403333	1736.030273	64.759392
464.420745	6334.403333	1735.016602	205.443024
464.420745	6334.403333	1734.002930	-59.396717
464.420745	6334.403333	1732.989258	-5.956078
464.420745	6334.403333	1731.974609	125.222015
464.420745	6334.403333	1730.959961	-5.170029
464.420745	6334.403333	1729.945313	74.128563
464.420745	6334.403333	1728.930664	73.319969
464.420745	6334.403333	1727.916016	105.473564
464.420745	6334.403333	1726.900391	15.190455
464.420745	6334.403333	1725.885742	120.302711
464.420745	6334.403333	1724.870117	107.704407
464.420745	6334.403333	1723.853516	45.695862
464.420745	6334.403333	1722.837891	44.871845
464.420745	6334.403333	1721.822266	288.648895
464.420745	6334.403333	1720.805664	146.680374
464.420745	6334.403333	1719.789063	-23.449728
464.420745	6334.403333	1718.772461	-36.026505
464.420745	6334.403333	1717.754883	-32.152969
464.420745	6334.403333	1716.738281	16.362837
464.420745	6334.403333	1715.720703	158.825119
464.420745	6334.403333	1714.703125	82.791054
464.420745	6334.403333	1713.685547	25.570250
464.420745	6334.403333	1712.667969	-5.804538
464.420745	6334.403333	1711.649414	150.624222
464.420745	6334.403333	1710.630859	20.655897
464.420745	6334.403333	1709.612305	144.162613
464.420745	6334.403333	1708.593750	-65.527977
464.420745	6334.403333	1707.575195	-24.155569
464.420745	6334.403333	1706.555664	89.898010
464.420745	6334.403333	1705.536133	-11.812492
464.420745	6334.403333	1704.516602	-38.468670
464.420745	6334.403333	1703.497070	185.675613
464.420745	6334.403333	1702.477539	51.189724
464.420745	6334.403333	1701.457031	183.848572
464.420745	6334.403333	1700.437500	122.027763
464.420745	6334.403333	1699.416992	88.331261
464.420745	6334.403333	1698.395508	136.599442
464.420745	6334.403333	1697.375000	30.332420
464.420745	6334.403333	1696.354492	50.502377
464.420745	6334.403333	1695.333008	21.515068
464.420745	6334.403333	1694.311523	165.682587
464.420745	6334.403333	1693.290039	-1.342173
464.420745	6334.403333	1692.267578	32.839203
464.420745	6334.403333	1691.246094	-35.884949
464.420745	6334.403333	1690.223633	5.300253
464.420745	6334.403333	1689.201172	74.518448
464.420745	6334.403333	1688.178711	87.617325
464.420745	6334.403333	1687.155273	110.053925
464.420745	6334.403333	1686.132813	-45.070038
464.420745	6334.403333	1685.109375	138.547623
464.420745	6334.403333	1684.085938	-7.186268
464.420745	6334.403333	1683.062500	113.308929
464.420745	6334.403333	1682.039063	65.678268
464.420745	6334.403333	1681.014648	-180.324829
464.420745	6334.403333	1679.990234	136.142532
464.420745	6334.403333	1678.965820	158.520798
464.420745	6334.403333	1677.941406	45.596672
464.420745	6334.403333	1676.916992	-20.641525
464.420745	6334.403333	1675.891602	90.352600
464.420745	6334.403333	1674.866211	129.033752
464.420745	6334.403333	1673.840820	-2.451060
464.420745	6334.403333	1672.815430	-68.635941
464.420745	6334.403333	1671.790039	-67.228363
464.420745	6334.403333	1670.763672	-44.859169
464.420745	6334.403333	1669.737305	89.293030
464.420745	6334.403333	1668.710938	18.478790
464.420745	6334.403333	1667.684570	-40.668533
464.420745	6334.403333	1666.658203	-76.517036
464.420745	6334.403333	1665.630859	-61.155586
464.420745	6334.403333	1664.603516	121.726974
464.420745	6334.403333	1663.576172	146.348480
464.420745	6334.403333	1662.548828	110.487328
464.420745	6334.403333	1661.520508	76.962845
464.420745	6334.403333	1660.493164	101.576973
464.420745	6334.403333	1659.464844	19.251553
464.420745	6334.403333	1658.436523	-9.588986
464.420745	6334.403333	1657.408203	68.469002
464.420745	6334.403333	1656.378906	-16.128178
464.420745	6334.403333	1655.350586	-65.850082
464.420745	6334.403333	1654.321289	179.376022
464.420745	6334.403333	1653.291992	59.978966
464.420745	6334.403333	1652.261719	-8.303432
464.420745	6334.403333	1651.232422	-44.063786
464.420745	6334.403333	1650.202148	50.135399
464.420745	6334.403333	1649.171875	153.578415
464.420745	6334.403333	1648.141602	52.858112
464.420745	6334.403333	1647.111328	202.644485
464.420745	6334.403333	1646.080078	301.360443
464.420745	6334.403333	1645.049805	100.987572
464.420745	6334.403333	1644.018555	183.461426
464.420745	6334.403333	1642.987305	240.413971
464.420745	6334.403333	1641.955078	248.688507
464.420745	6334.403333	1640.923828	115.659683
464.420745	6334.403333	1639.891602	156.381256
464.420745	6334.403333	1638.859375	210.981247
464.420745	6334.403333	1637.827148	186.848419
464.420745	6334.403333	1636.794922	273.829559
464.420745	6334.403333	1635.761719	157.126358
464.420745	6334.403333	1634.729492	128.394730
464.420745	6334.403333	1633.696289	194.519501
464.420745	6334.403333	1632.662109	117.221458
464.420745	6334.403333	1631.628906	259.635468
464.420745	6334.403333	1630.594727	254.028717
464.420745	6334.403333	1629.561523	190.641022
464.420745	6334.403333	1628.527344	346.828461
464.420745	6334.403333	1627.493164	202.577957
464.420745	6334.403333	1626.458008	102.276779
464.420745	6334.403333	1625.423828	69.000710
464.420745	6334.403333	1624.388672	345.179565
464.420745	6334.403333	1623.353516	251.843201
464.420745	6334.403333	1622.318359	195.479507
464.420745	6334.403333	1621.282227	279.921661
464.420745	6334.403333	1620.247070	262.807343
464.420745	6334.403333	1619.210938	234.165543
464.420745	6334.403333	1618.174805	288.574463
464.420745	6334.403333	1617.137695	299.147552
464.420745	6334.403333	1616.101563	261.302277
464.420745	6334.403333	1615.064453	292.629669
464.420745	6334.403333	1614.027344	155.700104
464.420745	6334.403333	1612.990234	327.607422
464.420745	6334.403333	1611.953125	264.455750
464.420745	6334.403333	1610.916016	180.601639
464.420745	6334.403333	1609.877930	304.050629
464.420745	6334.403333	1608.839844	349.169495
464.420745	6334.403333	1607.801758	143.347458
464.420745	6334.403333	1606.763672	305.872253
464.420745	6334.403333	1605.724609	355.577576
464.420745	6334.403333	1604.685547	212.006454
464.420745	6334.403333	1603.646484	227.215591
464.420745	6334.403333	1602.607422	541.402893
464.420745	6334.403333	1601.568359	372.600159
464.420745	6334.403333	1600.528320	268.236908
464.420745	6334.403333	1599.489258	235.174759
464.420745	6334.403333	1598.449219	342.309631
464.420745	6334.403333	1597.408203	348.311554
464.420745	6334.403333	1596.368164	324.456268
464.420745	6334.403333	1595.327148	268.459503
464.420745	6334.403333	1594.287109	283.676544
464.420745	6334.403333	1593.246094	314.961823
464.420745	6334.403333	1592.204102	277.378998
464.420745	6334.403333	1591.163086	258.177307
464.420745	6334.403333	1590.121094	170.154617
464.420745	6334.403333	1589.079102	224.400726
464.420745	6334.403333	1588.037109	264.870819
464.420745	6334.403333	1586.995117	32.451252
464.420745	6334.403333	1585.953125	146.321838
464.420745	6334.403333	1584.910156	228.062042
464.420745	6334.403333	1583.867188	282.275787
464.420745	6334.403333	1582.824219	208.161896
464.420745	6334.403333	1581.781250	347.135071
464.420745	6334.403333	1580.737305	135.625397
464.420745	6334.403333	1579.693359	114.273369
464.420745	6334.403333	1578.649414	331.047852
464.420745	6334.403333	1577.605469	110.532021
464.420745	6334.403333	1576.561523	274.599976
464.420745	6334.403333	1575.516602	337.929932
464.420745	6334.403333	1574.472656	259.406189
464.420745	6334.403333	1573.427734	359.327301
464.420745	6334.403333	1572.381836	372.316986
464.420745	6334.403333	1571.336914	286.996796
464.420745	6334.403333	1570.291016	274.867554
464.420745	6334.403333	1569.246094	358.743622
464.420745	6334.403333	1568.200195	280.356781
464.420745	6334.403333	1567.153320	213.431366
464.420745	6334.403333	1566.107422	196.793869
464.420745	6334.403333	1565.060547	397.122437
464.420745	6334.403333	1564.013672	188.680054
464.420745	6334.403333	1562.966797	427.758301
464.420745	6334.403333	1561.919922	333.529724
464.420745	6334.403333	1560.872070	269.011017
464.420745	6334.403333	1559.825195	215.936249
464.420745	6334.403333	1558.777344	217.636108
464.420745	6334.403333	1557.729492	344.775757
464.420745	6334.403333	1556.680664	389.790955
464.420745	6334.403333	1555.632813	421.123169
464.420745	6334.403333	1554.583984	457.010406
464.420745	6334.403333	1553.535156	388.071411
464.420745	6334.403333	1552.486328	478.653046
464.420745	6334.403333	1551.436523	498.595337
464.420745	6334.403333	1550.387695	468.438812
464.420745	6334.403333	1549.337891	360.887878
464.420745	6334.403333	1548.288086	410.470947
464.420745	6334.403333	1547.238281	380.384399
464.420745	6334.403333	1546.187500	493.684204
464.420745	6334.403333	1545.136719	477.266846
464.420745	6334.403333	1544.086914	358.506866
464.420745	6334.403333	1543.035156	389.905823
464.420745	6334.403333	1541.984375	300.793457
464.420745	6334.403333	1540.933594	375.412750
464.420745	6334.403333	1539.881836	427.285553
464.420745	6334.403333	1538.830078	329.166168
464.420745	6334.403333	1537.778320	203.834091
464.420745	6334.403333	1536.725586	269.378052
464.420745	6334.403333	1535.673828	421.214203
464.420745	6334.403333	1534.621094	343.662567
464.420745	6334.403333	1533.568359	409.181488
464.420745	6334.403333	1532.515625	279.485504
464.420745	6334.403333	1531.461914	86.311874
464.420745	6334.403333	1530.409180	136.002884
464.420745	6334.403333	1529.355469	251.472885
464.420745	6334.403333	1528.301758	244.439484
464.420745	6334.403333	1527.247070	219.282089
464.420745	6334.403333	1526.193359	266.698364
464.420745	6334.403333	1525.138672	332.242920
464.420745	6334.403333	1524.083984	356.985352
464.420745	6334.403333	1523.029297	-30.636728
464.420745	6334.403333	1521.974609	87.076538
464.420745	6334.403333	1520.918945	130.017349
464.420745	6334.403333	1519.863281	206.923706
464.420745	6334.403333	1518.807617	265.703430
464.420745	6334.403333	1517.751953	138.866943
464.420745	6334.403333	1516.696289	52.831852
464.420745	6334.403333	1515.639648	9.837098
464.420745	6334.403333	1514.583008	89.033691
464.420745	6334.403333	1513.526367	-69.266716
464.420745	6334.403333	1512.469727	52.912575
464.420745	6334.403333	1511.412109	100.451691
464.420745	6334.403333	1510.355469	249.707977
464.420745	6334.403333	1509.297852	-30.468567
464.420745	6334.403333	1508.240234	91.674500
464.420745	6334.403333	1507.181641	-5.341994
464.420745	6334.403333	1506.124023	252.299606
464.420745	6334.403333	1505.065430	195.972366
464.420745	6334.403333	1504.006836	24.541973
464.420745	6334.403333	1502.948242	182.758545
464.420745	6334.403333	1501.888672	110.734772
464.420745	6334.403333	1500.830078	-85.341248
464.420745	6334.403333	1499.770508	138.279221
464.420745	6334.403333	1498.710938	23.509109
464.420745	6334.403333	1497.650391	-120.512436
464.420745	6334.403333	1496.590820	127.839043
464.420745	6334.403333	1495.530273	19.958410
464.420745	6334.403333	1494.469727	4.540768
464.420745	6334.403333	1493.409180	110.823540
464.420745	6334.403333	1492.348633	45.871796
464.420745	6334.403333	1491.287109	145.385803
464.420745	6334.403333	1490.225586	114.270561
464.420745	6334.403333	1489.164063	143.976852
464.420745	6334.403333	1488.102539	18.372980
464.420745	6334.403333	1487.041016	-50.896912
464.420745	6334.403333	1485.978516	23.886595
464.420745	6334.403333	1484.916016	127.949188
464.420745	6334.403333	1483.853516	132.943314
464.420745	6334.403333	1482.791016	160.488251
464.420745	6334.403333	1481.727539	59.900139
464.420745	6334.403333	1480.664063	-2.410344
464.420745	6334.403333	1479.600586	164.531509
464.420745	6334.403333	1478.537109	73.092529
464.420745	6334.403333	1477.473633	163.612167
464.420745	6334.403333	1476.409180	20.536562
464.420745	6334.403333	1475.344727	23.542395
464.420745	6334.403333	1474.280273	13.115603
464.420745	6334.403333	1473.215820	-13.069877
464.420745	6334.403333	1472.151367	-50.377224
464.420745	6334.403333	1471.085938	-0.160973
464.420745	6334.403333	1470.020508	170.970764
464.420745	6334.403333	1468.955078	104.502472
464.420745	6334.403333	1467.888672	56.247627
464.420745	6334.403333	1466.823242	110.923813
464.420745	6334.403333	1465.756836	125.215538
464.420745	6334.403333	1464.690430	94.612251
464.420745	6334.403333	1463.624023	22.029085
464.420745	6334.403333	1462.556641	141.709808
464.420745	6334.403333	1461.490234	59.859058
464.420745	6334.403333	1460.422852	190.277313
464.420745	6334.403333	1459.355469	10.631605
464.420745	6334.403333	1458.287109	96.742470
464.420745	6334.403333	1457.219727	156.095612
464.420745	6334.403333	1456.151367	143.265106
464.420745	6334.403333	1455.083008	21.904718
464.420745	6334.403333	1454.014648	13.722548
464.420745	6334.403333	1452.945313	-31.514498
464.420745	6334.403333	1451.876953	28.114126
464.420745	6334.403333	1450.807617	-4.249916
464.420745	6334.403333	1449.738281	13.112465
464.420745	6334.403333	1448.668945	28.128590
464.420745	6334.403333	1447.598633	22.617718
464.420745	6334.403333	1446.528320	-48.979942
464.420745	6334.403333	1445.458008	101.538803
464.420745	6334.403333	1444.387695	18.756536
464.420745	6334.403333	1443.317383	84.924797
464.420745	6334.403333	1442.246094	175.377594
464.420745	6334.403333	1441.174805	160.458832
464.420745	6334.403333	1440.103516	347.215424
464.420745	6334.403333	1439.032227	174.156265
464.420745	6334.403333	1437.960938	17.463491
464.420745	6334.403333	1436.888672	199.294495
464.420745	6334.403333	1435.816406	20.015989
464.420745	6334.403333	1434.744141	106.209084
464.420745	6334.403333	1433.670898	149.512650
464.420745	6334.403333	1432.598633	89.178421
464.420745	6334.403333	1431.525391	42.166725
464.420745	6334.403333	1430.452148	36.132248
464.420745	6334.403333	1429.378906	120.256180
464.420745	6334.403333	1428.304688	21.879658
464.420745	6334.403333	1427.231445	35.841564
464.420745	6334.403333	1426.157227	11.965742
464.420745	6334.403333	1425.083008	127.620125
464.420745	6334.403333	1424.007813	31.315369
464.420745	6334.403333	1422.933594	73.051285
464.420745	6334.403333	1421.858398	100.235405
464.420745	6334.403333	1420.783203	7.307335
464.420745	6334.403333	1419.708008	31.078623
464.420745	6334.403333	1418.631836	-52.106464
464.420745	6334.403333	1417.555664	-16.516411
464.420745	6334.403333	1416.479492	18.071466
464.420745	6334.403333	1415.403320	42.800743
464.420745	6334.403333	1414.327148	-17.351025
464.420745	6334.403333	1413.250000	101.170990
464.420745	6334.403333	1412.173828	-51.458118
464.420745	6334.403333	1411.096680	49.384972
464.420745	6334.403333	1410.018555	15.797026
464.420745	6334.403333	1408.941406	27.333357
464.420745	6334.403333	1407.863281	-152.338623
464.420745	6334.403333	1406.785156	-36.764523
464.420745	6334.403333	1405.707031	124.073738
464.420745	6334.403333	1404.628906	111.280663
464.420745	6334.403333	1403.549805	188.375122
464.420745	6334.403333	1402.470703	-69.244232
464.420745	6334.403333	1401.391602	-64.382095
464.420745	6334.403333	1400.312500	-119.537018
464.420745	6334.403333	1399.233398	-77.387222
464.420745	6334.403333	1398.153320	-131.854126
464.420745	6334.403333	1397.073242	63.169250
464.420745	6334.403333	1395.993164	115.653122
464.420745	6334.403333	1394.913086	64.201958
464.420745	6334.403333	1393.832031	79.293350
464.420745	6334.403333	1392.750977	25.110857
464.420745	6334.403333	1391.669922	105.615875
464.420745	6334.403333	1390.588867	-10.038301
464.420745	6334.403333	1389.506836	-52.355919
464.420745	6334.403333	1388.425781	-12.941815
464.420745	6334.403333	1387.343750	39.292721
464.420745	6334.403333	1386.261719	53.733231
464.420745	6334.403333	1385.178711	86.028870
464.420745	6334.403333	1384.096680	152.472061
464.420745	6334.403333	1383.013672	238.064789
464.420745	6334.403333	1381.930664	-57.556534
464.420745	6334.403333	1380.846680	-116.200188
464.420745	6334.403333	1379.763672	44.658482
464.420745	6334.403333	1378.679688	21.124172
464.420745	6334.403333	1377.595703	85.946472
464.420745	6334.403333	1376.511719	56.381195
464.420745	6334.403333	1375.427734	118.778870
464.420745	6334.403333	1374.342773	119.267876
464.420745	6334.403333	1373.257813	69.703651
464.420745	6334.403333	1372.172852	88.129112
464.420745	6334.403333	1371.087891	87.052979
464.420745	6334.403333	1370.001953	155.646194
464.420745	6334.403333	1368.916992	-49.422539
464.420745	6334.403333	1367.831055	59.960209
464.420745	6334.403333	1366.744141	85.072769
464.420745	6334.403333	1365.658203	-40.263485
464.420745	6334.403333	1364.571289	70.068932
464.420745	6334.403333	1363.484375	15.291454
464.420745	6334.403333	1362.397461	59.725773
464.420745	6334.403333	1361.310547	49.610092
464.420745	6334.403333	1360.222656	15.470521
464.420745	6334.403333	1359.135742	95.483124
464.420745	6334.403333	1358.047852	27.529331
464.420745	6334.403333	1356.958984	-58.344006
464.420745	6334.403333	1355.871094	-77.224640
464.420745	6334.403333	1354.782227	-19.978077
464.420745	6334.403333	1353.693359	89.815117
464.420745	6334.403333	1352.604492	74.595764
464.420745	6334.403333	1351.515625	-88.547852
464.420745	6334.403333	1350.425781	93.315834
464.420745	6334.403333	1349.335938	-25.807411
464.420745	6334.403333	1348.246094	43.882118
464.420745	6334.403333	1347.156250	171.699249
464.420745	6334.403333	1346.066406	176.425613
464.420745	6334.403333	1344.975586	-14.799593
464.420745	6334.403333	1343.884766	1.613252
464.420745	6334.403333	1342.793945	-64.850128
464.420745	6334.403333	1341.702148	-141.539246
464.420745	6334.403333	1340.611328	-27.924831
464.420745	6334.403333	1339.519531	94.134048
464.420745	6334.403333	1338.427734	-70.373672
464.420745	6334.403333	1337.334961	-27.170979
464.420745	6334.403333	1336.243164	-39.410904
464.420745	6334.403333	1335.150391	101.472458
464.420745	6334.403333	1334.057617	93.188156
464.420745	6334.403333	1332.964844	-48.924095
464.420745	6334.403333	1331.871094	-1.142369
464.420745	6334.403333	1330.778320	-66.932411
464.420745	6334.403333	1329.684570	77.665932
464.420745	6334.403333	1328.590820	12.558846
464.420745	6334.403333	1327.496094	23.180264
464.420745	6334.403333	1326.402344	116.705383
464.420745	6334.403333	1325.307617	-47.865475
464.420745	6334.403333	1324.212891	-20.819052
464.420745	6334.403333	1323.117188	-98.582687
464.420745	6334.403333	1322.022461	143.503021
464.420745	6334.403333	1320.926758	72.554283
464.420745	6334.403333	1319.831055	42.123116
464.420745	6334.403333	1318.735352	-90.774025
464.420745	6334.403333	1317.638672	18.089897
464.420745	6334.403333	1316.542969	143.670975
464.420745	6334.403333	1315.446289	148.386353
464.420745	6334.403333	1314.349609	12.067765
464.420745	6334.403333	1313.251953	99.501396
464.420745	6334.403333	1312.155273	8.246196
464.420745	6334.403333	1311.057617	142.340576
464.420745	6334.403333	1309.959961	-2.621166
464.420745	6334.403333	1308.862305	118.576149
464.420745	6334.403333	1307.763672	166.632370
464.420745	6334.403333	1306.665039	87.235985
464.420745	6334.403333	1305.566406	8.655385
464.420745	6334.403333	1304.467773	158.218506
464.420745	6334.403333	1303.369141	227.712753
464.420745	6334.403333	1302.269531	124.297554
464.420745	6334.403333	1301.169922	52.393223
464.420745	6334.403333	1300.070313	62.195381
464.420745	6334.403333	1298.970703	48.315170
464.420745	6334.403333	1297.870117	145.003845
464.420745	6334.403333	1296.769531	35.583046
464.420745	6334.403333	1295.668945	2.641925
464.420745	6334.403333	1294.568359	23.936150
464.420745	6334.403333	1293.466797	60.856194
464.420745	6334.403333	1292.366211	-88.808182
464.420745	6334.403333	1291.264648	-56.920826
464.420745	6334.403333	1290.162109	-19.204565
464.420745	6334.403333	1289.060547	85.058983
464.420745	6334.403333	1287.958008	8.385439
464.420745	6334.403333	1286.855469	130.259369
464.420745	6334.403333	1285.752930	27.092184
464.420745	6334.403333	1284.650391	120.614639
464.420745	6334.403333	1283.546875	165.112335
464.420745	6334.403333	1282.444336	178.774673
464.420745	6334.403333	1281.339844	80.896446
464.420745	6334.403333	1280.236328	132.508606
464.420745	6334.403333	1279.132813	336.763947
464.420745	6334.403333	1278.028320	145.025803
464.420745	6334.403333	1276.923828	169.421158
464.420745	6334.403333	1275.819336	113.341904
464.420745	6334.403333	1274.713867	226.501953
464.420745	6334.403333	1273.608398	265.615662
464.420745	6334.403333	1272.503906	98.431076
464.420745	6334.403333	1271.397461	76.493286
464.420745	6334.403333	1270.291992	197.974030
464.420745	6334.403333	1269.185547	71.986984
464.420745	6334.403333	1268.080078	45.130386
464.420745	6334.403333	1266.972656	62.027138
464.420745	6334.403333	1265.866211	19.489431
464.420745	6334.403333	1264.759766	99.760063
464.420745	6334.403333	1263.652344	39.104820
464.420745	6334.403333	1262.544922	52.925934
464.420745	6334.403333	1261.436523	64.933060
464.420745	6334.403333	1260.329102	117.355606
464.420745	6334.403333	1259.220703	-24.970360
464.420745	6334.403333	1258.112305	53.183994
464.420745	6334.403333	1257.003906	49.317955
464.420745	6334.403333	1255.895508	52.290161
464.420745	6334.403333	1254.786133	27.906519
464.420745	6334.403333	1253.676758	-54.944019
464.420745	6334.403333	1252.567383	29.449251
464.420745	6334.403333	1251.458008	174.048004
464.420745	6334.403333	1250.347656	-19.419479
464.420745	6334.403333	1249.237305	46.081242
464.420745	6334.403333	1248.126953	-28.290897
464.420745	6334.403333	1247.016602	36.133781
464.420745	6334.403333	1245.905273	-34.119041
464.420745	6334.403333	1244.793945	30.415693
464.420745	6334.403333	1243.682617	69.444290
464.420745	6334.403333	1242.571289	-64.130669
464.420745	6334.403333	1241.459961	-11.504247
464.420745	6334.403333	1240.347656	16.929338
464.420745	6334.403333	1239.235352	-1.183245
464.420745	6334.403333	1238.123047	-132.064896
464.420745	6334.403333	1237.009766	-91.220177
464.420745	6334.403333	1235.897461	33.073162
464.420745	6334.403333	1234.784180	20.485950
464.420745	6334.403333	1233.670898	27.068634
464.420745	6334.403333	1232.556641	-33.528049
464.420745	6334.403333	1231.443359	-41.180531
464.420745	6334.403333	1230.329102	-56.831223
464.420745	6334.403333	1229.214844	-13.479993
464.420745	6334.403333	1228.099609	-89.407242
464.420745	6334.403333	1226.985352	-20.194021
464.420745	6334.403333	1225.870117	29.047848
464.420745	6334.403333	1224.754883	28.776981
464.420745	6334.403333	1223.639648	-14.696321
464.420745	6334.403333	1222.523438	-23.550886
464.420745	6334.403333	1221.408203	38.529667
464.420745	6334.403333	1220.291992	-83.206589
464.420745	6334.403333	1219.174805	29.157089
464.420745	6334.403333	1218.058594	-21.989687
464.420745	6334.403333	1216.941406	12.493258
464.420745	6334.403333	1215.824219	-14.246033
464.420745	6334.403333	1214.707031	-54.012489
464.420745	6334.403333	1213.589844	48.538849
464.420745	6334.403333	1212.471680	75.085617
464.420745	6334.403333	1211.353516	45.360344
464.420745	6334.403333	1210.235352	70.962868
464.420745	6334.403333	1209.117188	160.903687
464.420745	6334.403333	1207.998047	141.201248
464.420745	6334.403333	1206.878906	210.485550
464.420745	6334.403333	1205.759766	75.602028
464.420745	6334.403333	1204.640625	80.902992
464.420745	6334.403333	1203.520508	-34.723972
464.420745	6334.403333	1202.401367	189.228912
464.420745	6334.403333	1201.281250	143.975052
464.420745	6334.403333	1200.160156	89.176804
464.420745	6334.403333	1199.040039	98.667633
464.420745	6334.403333	1197.918945	13.019832
464.420745	6334.403333	1196.797852	-46.254280
464.420745	6334.403333	1195.676758	-11.584142
464.420745	6334.403333	1194.555664	7.601780
464.420745	6334.403333	1193.433594	5.852687
464.420745	6334.403333	1192.311523	49.298580
464.420745	6334.403333	1191.189453	53.150650
464.420745	6334.403333	1190.066406	-19.100506
464.420745	6334.403333	1188.944336	-92.674103
464.420745	6334.403333	1187.821289	22.552885
464.420745	6334.403333	1186.698242	109.099648
464.420745	6334.403333	1185.574219	-36.872822
464.420745	6334.403333	1184.451172	-60.267788
464.420745	6334.403333	1183.327148	23.782875
464.420745	6334.403333	1182.203125	-17.830544
464.420745	6334.403333	1181.078125	-106.639442
464.420745	6334.403333	1179.954102	-15.348802
464.420745	6334.403333	1178.829102	53.147255
464.420745	6334.403333	1177.704102	2.209265
464.420745	6334.403333	1176.579102	-4.476476
464.420745	6334.403333	1175.453125	37.809090
464.420745	6334.403333	1174.327148	-73.263908
464.420745	6334.403333	1173.201172	-54.033092
464.420745	6334.403333	1172.075195	-71.665192
464.420745	6334.403333	1170.949219	-80.661896
464.420745	6334.403333	1169.822266	-84.519989
464.420745	6334.403333	1168.695313	0.620638
464.420745	6334.403333	1167.568359	34.929199
464.420745	6334.403333	1166.440430	-12.334768
464.420745	6334.403333	1165.313477	-84.793533
464.420745	6334.403333	1164.185547	-136.699280
464.420745	6334.403333	1163.057617	-99.893539
464.420745	6334.403333	1161.928711	-33.939545
464.420745	6334.403333	1160.800781	-15.849625
464.420745	6334.403333	1159.671875	-41.687077
464.420745	6334.403333	1158.541992	107.645035
464.420745	6334.403333	1157.413086	58.005524
464.420745	6334.403333	1156.283203	-12.634281
464.420745	6334.403333	1155.154297	137.855957
464.420745	6334.403333	1154.023438	15.839518
464.420745	6334.403333	1152.893555	22.831142
464.420745	6334.403333	1151.763672	-41.879910
464.420745	6334.403333	1150.632813	6.322722
464.420745	6334.403333	1149.501953	58.658695
464.420745	6334.403333	1148.370117	14.924041
464.420745	6334.403333	1147.239258	-74.184334
464.420745	6334.403333	1146.107422	44.593292
464.420745	6334.403333	1144.975586	39.126534
464.420745	6334.403333	1143.843750	-84.374344
464.420745	6334.403333	1142.710938	22.108803
464.420745	6334.403333	1141.578125	97.901688
464.420745	6334.403333	1140.445313	-20.507114
464.420745	6334.403333	1139.312500	62.074127
464.420745	6334.403333	1138.178711	47.622505
464.420745	6334.403333	1137.045898	-49.538387
464.420745	6334.403333	1135.912109	40.886143
464.420745	6334.403333	1134.777344	160.632217
464.420745	6334.403333	1133.643555	61.148502
464.420745	6334.403333	1132.508789	32.318497
464.420745	6334.403333	1131.374023	130.306885
464.420745	6334.403333	1130.239258	152.085205
464.420745	6334.403333	1129.104492	209.700638
464.420745	6334.403333	1127.968750	131.450012
464.420745	6334.403333	1126.833008	124.888229
464.420745	6334.403333	1125.697266	72.654289
464.420745	6334.403333	1124.560547	88.977600
464.420745	6334.403333	1123.424805	172.219193
464.420745	6334.403333	1122.288086	48.021141
464.420745	6334.403333	1121.151367	89.635666
464.420745	6334.403333	1120.013672	56.551891
464.420745	6334.403333	1118.876953	64.671509
464.420745	6334.403333	1117.739258	170.994385
464.420745	6334.403333	1116.601563	72.333847
464.420745	6334.403333	1115.462891	190.151627
464.420745	6334.403333	1114.324219	82.436882
464.420745	6334.403333	1113.186523	115.106064
464.420745	6334.403333	1112.046875	51.479111
464.420745	6334.403333	1110.908203	140.092285
464.420745	6334.403333	1109.769531	91.979561
464.420745	6334.403333	1108.629883	212.409241
464.420745	6334.403333	1107.490234	113.986275
464.420745	6334.403333	1106.349609	138.349075
464.420745	6334.403333	1105.209961	212.773743
464.420745	6334.403333	1104.069336	218.165543
464.420745	6334.403333	1102.928711	113.136871
464.420745	6334.403333	1101.787109	198.530640
464.420745	6334.403333	1100.646484	249.683136
464.420745	6334.403333	1099.504883	129.559113
464.420745	6334.403333	1098.363281	242.224625
464.420745	6334.403333	1097.221680	329.461334
464.420745	6334.403333	1096.079102	258.412354
464.420745	6334.403333	1094.936523	183.237076
464.420745	6334.403333	1093.793945	87.311401
464.420745	6334.403333	1092.651367	215.521469
464.420745	6334.403333	1091.507813	205.653915
464.420745	6334.403333	1090.364258	168.554230
464.420745	6334.403333	1089.220703	181.753113
464.420745	6334.403333	1088.077148	245.568832
464.420745	6334.403333	1086.933594	133.858276
464.420745	6334.403333	1085.789063	184.528595
464.420745	6334.403333	1084.644531	264.233978
464.420745	6334.403333	1083.499023	113.649147
464.420745	6334.403333	1082.354492	166.813141
464.420745	6334.403333	1081.208984	131.780014
464.420745	6334.403333	1080.063477	97.288536
464.420745	6334.403333	1078.917969	99.021744
464.420745	6334.403333	1077.771484	145.790024
464.420745	6334.403333	1076.625977	107.101341
464.420745	6334.403333	1075.479492	77.337753
464.420745	6334.403333	1074.332031	111.854141
464.420745	6334.403333	1073.185547	-32.643185
464.420745	6334.403333	1072.038086	142.392776
464.420745	6334.403333	1070.890625	223.660385
464.420745	6334.403333	1069.743164	111.842735
464.420745	6334.403333	1068.594727	109.213448
464.420745	6334.403333	1067.447266	-29.491163
464.420745	6334.403333	1066.298828	46.844570
464.420745	6334.403333	1065.149414	112.000847
464.420745	6334.403333	1064.000977	144.183807
464.420745	6334.403333	1062.851563	149.158920
464.420745	6334.403333	1061.702148	156.167694
464.420745	6334.403333	1060.552734	146.167633
464.420745	6334.403333	1059.402344	-98.336273
464.420745	6334.403333	1058.252930	45.016094
464.420745	6334.403333	1057.102539	175.704895
464.420745	6334.403333	1055.951172	59.546001
464.420745	6334.403333	1054.800781	125.475342
464.420745	6334.403333	1053.649414	24.608723
464.420745	6334.403333	1052.498047	146.650696
464.420745	6334.403333	1051.346680	54.324413
464.420745	6334.403333	1050.194336	137.076141
464.420745	6334.403333	1049.042969	-137.918243
464.420745	6334.403333	1047.890625	86.220062
464.420745	6334.403333	1046.738281	183.106857
464.420745	6334.403333	1045.584961	196.069702
464.420745	6334.403333	1044.431641	26.120897
464.420745	6334.403333	1043.278320	21.895243
464.420745	6334.403333	1042.125000	60.701855
464.420745	6334.403333	1040.971680	44.849365
464.420745	6334.403333	1039.817383	95.987022
464.420745	6334.403333	1038.663086	-30.403519
464.420745	6334.403333	1037.508789	152.887268
464.420745	6334.403333	1036.353516	182.282990
464.420745	6334.403333	1035.198242	139.165268
464.420745	6334.403333	1034.042969	154.235809
464.420745	6334.403333	1032.887695	125.447815
464.420745	6334.403333	1031.732422	87.820854
464.420745	6334.403333	1030.576172	65.610512
464.420745	6334.403333	1029.419922	31.137470
464.420745	6334.403333	1028.263672	93.178162
464.420745	6334.403333	1027.106445	89.239090
464.420745	6334.403333	1025.949219	39.835342
464.420745	6334.403333	1024.792969	-48.093132
464.420745	6334.403333	1023.634766	-10.504574
464.420745	6334.403333	1022.477539	113.014496
464.420745	6334.403333	1021.319336	84.678078
464.420745	6334.403333	1020.161133	-81.756447
464.420745	6334.403333	1019.002930	31.412169
464.420745	6334.403333	1017.843750	165.660049
464.420745	6334.403333	1016.684570	107.653793
464.420745	6334.403333	1015.525391	59.459412
464.420745	6334.403333	1014.366211	15.578955
464.420745	6334.403333	1013.207031	42.168282
464.420745	6334.403333	1012.046875	50.189766
464.420745	6334.403333	1010.886719	-0.743605
464.420745	6334.403333	1009.726563	-34.686901
464.420745	6334.403333	1008.565430	202.732849
464.420745	6334.403333	1007.404297	67.369919
464.420745	6334.403333	1006.243164	113.596962
464.420745	6334.403333	1005.082031	34.489773
464.420745	6334.403333	1003.920898	39.264294
464.420745	6334.403333	1002.758789	16.919897
464.420745	6334.403333	1001.596680	12.721575
464.420745	6334.403333	1000.433594	83.774147
464.420745	6334.403333	999.271484	116.112457
464.420745	6334.403333	998.108398	11.342511
464.420745	6334.403333	996.945313	6.407580
464.420745	6334.403333	995.782227	25.622250
464.420745	6334.403333	994.618164	28.657679
464.420745	6334.403333	993.454102	62.344410
464.420745	6334.403333	992.290039	79.158165
464.420745	6334.403333	991.125977	42.527298
464.420745	6334.403333	989.960938	95.938843
464.420745	6334.403333	988.796875	57.631062
464.420745	6334.403333	987.630859	-22.099833
464.420745	6334.403333	986.465820	82.915573
464.420745	6334.403333	985.300781	110.594467
464.420745	6334.403333	984.134766	88.877434
464.420745	6334.403333	982.968750	-54.166565
464.420745	6334.403333	981.801758	36.975300
464.420745	6334.403333	980.635742	51.670406
464.420745	6334.403333	979.468750	65.904686
464.420745	6334.403333	978.301758	0.212980
464.420745	6334.403333	977.133789	-78.925133
464.420745	6334.403333	975.966797	-38.510807
464.420745	6334.403333	974.798828	-12.528920
464.420745	6334.403333	973.630859	22.122330
464.420745	6334.403333	972.461914	-22.391493
464.420745	6334.403333	971.293945	-46.841946
464.420745	6334.403333	970.125000	-84.587051
464.420745	6334.403333	968.956055	133.015594
464.420745	6334.403333	967.786133	104.086571
464.420745	6334.403333	966.617188	-5.546931
464.420745	6334.403333	965.447266	42.269180
464.420745	6334.403333	964.276367	117.766983
464.420745	6334.403333	963.106445	-4.649128
464.420745	6334.403333	961.935547	-4.630780
464.420745	6334.403333	960.764648	40.303864
464.420745	6334.403333	959.593750	-11.039352
464.420745	6334.403333	958.422852	34.596096
464.420745	6334.403333	957.250977	88.667145
464.420745	6334.403333	956.079102	198.668854
464.420745	6334.403333	954.907227	171.905121
464.420745	6334.403333	953.734375	109.839699
464.420745	6334.403333	952.562500	7.867897
464.420745	6334.403333	951.389648	-91.843246
464.420745	6334.403333	950.215820	-79.047470
464.420745	6334.403333	949.042969	-29.024694
464.420745	6334.403333	947.869141	-15.735373
464.420745	6334.403333	946.695313	-58.215111
464.420745	6334.403333	945.521484	-102.689308
464.420745	6334.403333	944.346680	59.560101
464.420745	6334.403333	943.172852	29.997938
464.420745	6334.403333	941.998047	2.747147
464.420745	6334.403333	940.822266	102.813263
464.420745	6334.403333	939.647461	-11.613738
464.420745	6334.403333	938.471680	-98.663895
464.420745	6334.403333	937.295898	-78.563652
464.420745	6334.403333	936.119141	-1.055454
464.420745	6334.403333	934.943359	106.428673
464.420745	6334.403333	933.766602	74.233734
464.420745	6334.403333	932.589844	-82.723145
464.420745	6334.403333	931.413086	111.999649
464.420745	6334.403333	930.235352	134.582489
464.420745	6334.403333	929.057617	37.525547
464.420745	6334.403333	927.879883	32.710850
464.420745	6334.403333	926.702148	-4.525954
464.420745	6334.403333	925.523438	50.442257
464.420745	6334.403333	924.344727	155.201630
464.420745	6334.403333	923.166016	127.923241
464.420745	6334.403333	921.987305	142.979370
464.420745	6334.403333	920.807617	-21.230438
464.420745	6334.403333	919.627930	-20.108774
464.420745	6334.403333	919.497070	66.146629
464.420745	6334.403333	918.331055	53.799232
464.420745	6334.403333	917.165039	-60.562340
464.420745	6334.403333	915.999023	-60.453522
464.420745	6334.403333	914.833008	46.595596
464.420745	6334.403333	913.666016	-77.658531
464.420745	6334.403333	912.499023	39.284348
464.420745	6334.403333	911.332031	-32.730862
464.420745	6334.403333	910.165039	94.085091
464.420745	6334.403333	908.997070	-12.705703
464.420745	6334.403333	907.830078	-25.063808
464.420745	6334.403333	906.661133	-116.894127
464.420745	6334.403333	905.493164	24.715923
464.420745	6334.403333	904.325195	-136.608093
464.420745	6334.403333	903.156250	74.438103
464.420745	6334.403333	901.987305	-143.913773
464.420745	6334.403333	900.818359	49.672882
464.420745	6334.403333	899.648438	-7.356566
464.420745	6334.403333	898.478516	-79.245964
464.420745	6334.403333	897.308594	119.158661
464.420745	6334.403333	896.138672	178.653885
464.420745	6334.403333	894.968750	-128.698135
464.420745	6334.403333	893.797852	-9.708870
464.420745	6334.403333	892.626953	10.128813
464.420745	6334.403333	891.456055	104.265762
464.420745	6334.403333	890.284180	228.080902
464.420745	6334.403333	889.113281	-31.935556
464.420745	6334.403333	887.941406	-2.215395
464.420745	6334.403333	886.768555	-49.233059
464.420745	6334.403333	885.596680	-7.152650
464.420745	6334.403333	884.423828	84.388985
464.420745	6334.403333	883.250977	89.320847
464.420745	6334.403333	882.078125	64.573769
464.420745	6334.403333	880.905273	64.560493
464.420745	6334.403333	879.731445	59.603294
464.420745	6334.403333	878.557617	94.190262
464.420745	6334.403333	877.383789	27.454355
464.420745	6334.403333	876.209961	123.793671
464.420745	6334.403333	875.035156	20.030472
464.420745	6334.403333	873.860352	69.413094
464.420745	6334.403333	872.685547	-61.454800
464.420745	6334.403333	871.510742	113.813156
464.420745	6334.403333	870.334961	54.559723
464.420745	6334.403333	869.159180	-12.070768
464.420745	6334.403333	867.983398	-36.736877
464.420745	6334.403333	866.807617	12.600104
464.420745	6334.403333	865.630859	74.247284
464.420745	6334.403333	864.454102	-71.221336
464.420745	6334.403333	863.277344	76.690475
464.420745	6334.403333	862.100586	56.965736
464.420745	6334.403333	860.922852	64.353943
464.420745	6334.403333	859.745117	-95.767197
464.420745	6334.403333	858.567383	-2.148548
464.420745	6334.403333	857.389648	-71.080521
464.420745	6334.403333	856.210938	37.270344
464.420745	6334.403333	855.032227	12.666509
464.420745	6334.403333	853.853516	192.323410
464.420745	6334.403333	852.674805	20.082960
464.420745	6334.403333	851.495117	29.942669
464.420745	6334.403333	850.315430	128.335403
464.420745	6334.403333	849.135742	42.279789
464.420745	6334.403333	847.956055	74.260811
464.420745	6334.403333	846.775391	-11.742581
464.420745	6334.403333	845.595703	30.070744
464.420745	6334.403333	844.415039	-21.487860
464.420745	6334.403333	843.233398	-129.515472
464.420745	6334.403333	842.052734	140.692337
464.420745	6334.403333	840.871094	74.421043
464.420745	6334.403333	839.689453	69.549255
464.420745	6334.403333	838.506836	47.503700
464.420745	6334.403333	837.325195	108.896965
464.420745	6334.403333	836.142578	135.923721
464.420745	6334.403333	834.959961	-50.446117
464.420745	6334.403333	833.777344	96.768929
464.420745	6334.403333	832.593750	25.723135
464.420745	6334.403333	831.410156	-59.996929
464.420745	6334.403333	830.226563	-101.565529
464.420745	6334.403333	829.042969	-57.355667
464.420745	6334.403333	827.858398	-81.751167
464.420745	6334.403333	826.673828	121.643600
464.420745	6334.403333	825.489258	50.703190
464.420745	6334.403333	824.304688	-96.098244
464.420745	6334.403333	823.120117	-42.124447
464.420745	6334.403333	821.934570	-22.428677
464.420745	6334.403333	820.749023	60.876369
464.420745	6334.403333	819.562500	-71.111694
464.420745	6334.403333	818.376953	87.993011
464.420745	6334.403333	817.190430	-31.712927
464.420745	6334.403333	816.003906	51.542526
464.420745	6334.403333	814.817383	129.878525
464.420745	6334.403333	813.629883	44.462494
464.420745	6334.403333	812.442383	-33.584896
464.420745	6334.403333	811.254883	20.306660
464.420745	6334.403333	810.067383	230.476990
464.420745	6334.403333	808.878906	-13.578810
464.420745	6334.403333	807.690430	-23.181536
464.420745	6334.403333	806.501953	57.527199
464.420745	6334.403333	805.313477	135.766617
464.420745	6334.403333	804.124023	-3.147904
464.420745	6334.403333	802.934570	77.518990
464.420745	6334.403333	801.745117	99.630058
464.420745	6334.403333	800.555664	48.592499
464.420745	6334.403333	799.365234	226.715347
464.420745	6334.403333	798.175781	163.494659
464.420745	6334.403333	796.985352	-43.453888
464.420745	6334.403333	795.793945	-9.140105
464.420745	6334.403333	794.603516	-6.500073
464.420745	6334.403333	793.412109	159.293793
464.420745	6334.403333	792.220703	62.088585
464.420745	6334.403333	791.028320	33.081535
464.420745	6334.403333	789.836914	-10.512119
464.420745	6334.403333	788.644531	155.159622
464.420745	6334.403333	787.452148	116.431168
464.420745	6334.403333	786.258789	-9.830869
464.420745	6334.403333	785.066406	73.074089
464.420745	6334.403333	783.873047	2.793467
464.420745	6334.403333	782.679688	165.876465
464.420745	6334.403333	781.485352	110.192650
464.420745	6334.403333	780.291992	-110.674149
464.420745	6334.403333	779.097656	13.475744
464.420745	6334.403333	777.903320	191.004013
464.420745	6334.403333	776.708008	96.524345
464.420745	6334.403333	775.512695	48.208492
464.420745	6334.403333	774.318359	29.038221
464.420745	6334.403333	773.122070	12.306996
464.420745	6334.403333	771.926758	82.918877
464.420745	6334.403333	770.730469	-9.003139
464.420745	6334.403333	769.534180	-30.560772
464.420745	6334.403333	768.337891	49.720451
464.420745	6334.403333	767.141602	144.513733
464.420745	6334.403333	765.944336	195.647125
464.420745	6334.403333	764.747070	125.612122
464.420745	6334.403333	763.549805	-82.473732
464.420745	6334.403333	762.351563	14.696585
464.420745	6334.403333	761.154297	39.182396
464.420745	6334.403333	759.956055	-52.546623
464.420745	6334.403333	758.757813	-124.873009
464.420745	6334.403333	757.558594	204.543961
464.420745	6334.403333	756.359375	117.678665
464.420745	6334.403333	755.160156	-5.434385
464.420745	6334.403333	753.960938	11.772996
464.420745	6334.403333	752.761719	-108.849754
464.420745	6334.403333	751.561523	70.339813
464.420745	6334.403333	750.361328	99.604660
464.420745	6334.403333	749.160156	75.696106
464.420745	6334.403333	747.959961	-54.505268
464.420745	6334.403333	746.758789	117.274376
464.420745	6334.403333	745.557617	11.266232
464.420745	6334.403333	744.356445	42.921288
464.420745	6334.403333	743.154297	48.009892
464.420745	6334.403333	741.952148	14.479555
464.420745	6334.403333	740.750000	72.651360
464.420745	6334.403333	739.547852	-6.710241
464.420745	6334.403333	738.344727	15.258825
464.420745	6334.403333	737.142578	95.088066
464.420745	6334.403333	735.939453	80.857422
464.420745	6334.403333	734.735352	160.635010
464.420745	6334.403333	733.532227	81.322914
464.420745	6334.403333	732.328125	23.725651
464.420745	6334.403333	731.124023	52.867867
464.420745	6334.403333	729.918945	79.586266
464.420745	6334.403333	728.714844	-67.078392
464.420745	6334.403333	727.509766	113.715485
464.420745	6334.403333	726.303711	22.454950
464.420745	6334.403333	725.098633	-30.271362
464.420745	6334.403333	723.892578	63.776051
464.420745	6334.403333	722.686523	66.375275
464.420745	6334.403333	721.480469	95.421082
464.420745	6334.403333	720.274414	165.321930
464.420745	6334.403333	719.067383	-10.002537
464.420745	6334.403333	717.860352	-26.640921
464.420745	6334.403333	716.653320	9.583286
464.420745	6334.403333	715.445313	50.590687
464.420745	6334.403333	714.238281	122.795677
464.420745	6334.403333	713.030273	36.477676
464.420745	6334.403333	711.821289	-59.414845
464.420745	6334.403333	710.613281	-8.857604
464.420745	6334.403333	709.404297	-8.725022
464.420745	6334.403333	708.195313	-13.399612
464.420745	6334.403333	706.986328	-90.045692
464.420745	6334.403333	705.776367	34.789494
464.420745	6334.403333	704.566406	-56.238949
464.420745	6334.403333	703.356445	-1.004324
464.420745	6334.403333	702.146484	-44.071350
464.420745	6334.403333	700.935547	47.062504
464.420745	6334.403333	699.724609	11.171021
464.420745	6334.403333	698.513672	32.770050
464.420745	6334.403333	697.302734	-46.231491
464.420745	6334.403333	696.090820	51.965767
464.420745	6334.403333	694.878906	-31.816515
464.420745	6334.403333	693.666992	92.638687
464.420745	6334.403333	692.455078	63.892143
464.420745	6334.403333	691.242188	-7.914047
464.420745	6334.403333	690.029297	-17.517746
464.420745	6334.403333	688.816406	-3.218051
464.420745	6334.403333	687.602539	13.454258
464.420745	6334.403333	686.389648	8.592656
464.420745	6334.403333	685.175781	-53.634186
464.420745	6334.403333	683.960938	6.003412
464.420745	6334.403333	682.747070	99.042847
464.420745	6334.403333	681.532227	153.817261
464.420745	6334.403333	680.317383	65.290070
464.420745	6334.403333	679.102539	-4.117618
464.420745	6334.403333	677.886719	93.559914
464.420745	6334.403333	676.670898	160.159637
464.420745	6334.403333	675.455078	128.900528
464.420745	6334.403333	674.239258	133.416626
464.420745	6334.403333	673.022461	25.833229
464.420745	6334.403333	671.805664	116.167564
464.420745	6334.403333	670.588867	-12.854553
464.420745	6334.403333	669.372070	-13.146460
464.420745	6334.403333	668.154297	208.136368
464.420745	6334.403333	666.936523	79.123985
464.420745	6334.403333	665.718750	133.538803
464.420745	6334.403333	664.500977	-0.202438
464.420745	6334.403333	663.282227	99.402466
464.420745	6334.403333	662.063477	20.432352
464.420745	6334.403333	660.844727	-27.588106
464.420745	6334.403333	659.625000	36.214821
464.420745	6334.403333	658.405273	-7.070202
464.420745	6334.403333	657.185547	-38.465370
464.420745	6334.403333	655.965820	84.681435
464.420745	6334.403333	654.745117	96.028557
464.420745	6334.403333	653.525391	152.506683
464.420745	6334.403333	652.303711	52.113686
464.420745	6334.403333	651.083008	11.133013
464.420745	6334.403333	649.861328	119.784805
464.420745	6334.403333	648.640625	133.381744
464.420745	6334.403333	647.417969	139.829224
464.420745	6334.403333	646.196289	94.031029
464.420745	6334.403333	644.973633	-30.084328
464.420745	6334.403333	643.750977	61.742962
464.420745	6334.403333	642.528320	106.065445
464.420745	6334.403333	641.305664	67.338028
464.420745	6334.403333	640.082031	59.429337
464.420745	6334.403333	638.858398	151.068497
464.420745	6334.403333	637.634766	-37.032738
464.420745	6334.403333	636.410156	123.260811
464.420745	6334.403333	635.185547	89.192520
464.420745	6334.403333	633.960938	90.644547
464.420745	6334.403333	632.736328	68.390182
464.420745	6334.403333	631.510742	-43.849495
464.420745	6334.403333	630.285156	40.406754
464.420745	6334.403333	629.059570	22.837513
464.420745	6334.403333	627.833984	31.278103
464.420745	6334.403333	626.607422	110.659500
464.420745	6334.403333	625.380859	26.788242
464.420745	6334.403333	624.154297	110.815590
464.420745	6334.403333	622.927734	-1.440195
464.420745	6334.403333	621.700195	35.234512
464.420745	6334.403333	620.472656	12.790402
464.420745	6334.403333	619.245117	-30.933743
464.420745	6334.403333	618.016602	8.009068
464.420745	6334.403333	616.788086	-2.684307
464.420745	6334.403333	615.559570	12.572981
464.420745	6334.403333	614.331055	11.273548
464.420745	6334.403333	613.101563	90.192451
464.420745	6334.403333	611.872070	39.273251
464.420745	6334.403333	610.642578	63.840603
464.420745	6334.403333	609.413086	1.102974
464.420745	6334.403333	608.182617	-26.263260
464.420745	6334.403333	606.952148	-22.995104
464.420745	6334.403333	605.721680	-106.967567
464.420745	6334.403333	604.491211	80.079109
464.420745	6334.403333	603.259766	43.189407
464.420745	6334.403333	602.028320	32.200661
464.420745	6334.403333	600.796875	-9.426670
464.420745	6334.403333	599.564453	10.157043
464.420745	6334.403333	598.332031	-62.103859
464.420745	6334.403333	597.099609	-66.106300
464.420745	6334.403333	595.867188	108.702980
464.420745	6334.403333	594.633789	-13.017358
464.420745	6334.403333	593.400391	84.033592
464.420745	6334.403333	592.166992	11.701605
464.420745	6334.403333	590.933594	5.205025
464.420745	6334.403333	589.699219	-8.367365
464.420745	6334.403333	588.464844	161.347946
464.420745	6334.403333	587.230469	98.354988
464.420745	6334.403333	585.995117	94.089661
464.420745	6334.403333	584.760742	134.424133
464.420745	6334.403333	583.525391	-50.702026
464.420745	6334.403333	582.289063	-3.362938
464.420745	6334.403333	581.053711	-103.936302
464.420745	6334.403333	579.817383	-12.071504
464.420745	6334.403333	578.581055	37.499020
464.420745	6334.403333	577.343750	40.111012
464.420745	6334.403333	576.107422	-8.894295
464.420745	6334.403333	574.870117	-114.174194
464.420745	6334.403333	573.631836	43.103966
464.420745	6334.403333	572.394531	115.922691
464.420745	6334.403333	571.156250	17.639233
464.420745	6334.403333	569.917969	-17.376120
464.420745	6334.403333	568.679688	24.889078
464.420745	6334.403333	567.440430	221.657211
464.420745	6334.403333	566.202148	153.775742
464.420745	6334.403333	564.961914	67.173523
464.420745	6334.403333	563.722656	-94.296516
464.420745	6334.403333	562.482422	-42.817329
464.420745	6334.403333	561.243164	-68.571556
464.420745	6334.403333	560.001953	106.780113
464.420745	6334.403333	558.761719	38.875057
464.420745	6334.403333	557.520508	6.040462
464.420745	6334.403333	556.279297	15.266527
464.420745	6334.403333	555.038086	45.497437
464.420745	6334.403333	553.795898	87.374931
464.420745	6334.403333	552.554688	-29.604641
464.420745	6334.403333	551.311523	51.926586
464.420745	6334.403333	550.069336	40.021404
464.420745	6334.403333	548.826172	0.091809
464.420745	6334.403333	547.583984	16.168486
464.420745	6334.403333	546.339844	71.880394
464.420745	6334.403333	545.096680	-10.071047
464.420745	6334.403333	543.852539	57.248066
464.420745	6334.403333	542.608398	-106.307068
464.420745	6334.403333	541.364258	47.221493
464.420745	6334.403333	540.119141	53.838707
464.420745	6334.403333	538.875000	74.419250
464.420745	6334.403333	537.628906	60.029362
464.420745	6334.403333	536.383789	-17.253723
464.420745	6334.403333	535.137695	-87.533829
464.420745	6334.403333	533.892578	58.717648
464.420745	6334.403333	532.645508	118.768997
464.420745	6334.403333	531.399414	-2.731114
464.420745	6334.403333	530.152344	-21.822586
464.420745	6334.403333	528.905273	0.952031
464.420745	6334.403333	527.658203	-64.667511
464.420745	6334.403333	526.410156	4.584459
464.420745	6334.403333	525.163086	31.955446
464.420745	6334.403333	523.914063	73.245842
464.420745	6334.403333	522.666016	-10.964316
464.420745	6334.403333	521.416992	-127.672531
464.420745	6334.403333	520.167969	-81.755730
464.420745	6334.403333	518.918945	103.459953
464.420745	6334.403333	517.669922	-138.588425
464.420745	6334.403333	516.419922	58.149940
464.420745	6334.403333	515.169922	6.491039
464.420745	6334.403333	513.919922	-5.709126
464.420745	6334.403333	512.668945	-108.376305
464.420745	6334.403333	511.417969	55.695148
464.420745	6334.403333	510.166992	-65.499107
464.420745	6334.403333	508.916016	-84.646996
464.420745	6334.403333	507.664063	79.301315
464.420745	6334.403333	506.412109	-11.707795
464.420745	6334.403333	505.160156	-79.513626
464.420745	6334.403333	503.907227	119.062569
464.420745	6334.403333	502.655273	-29.792076
464.420745	6334.403333	501.402344	-90.608818
464.420745	6334.403333	500.148438	-88.905670
464.420745	6334.403333	498.895508	26.191999
464.420745	6334.403333	497.641602	-46.164940
464.420745	6334.403333	496.387695	73.502113
464.420745	6334.403333	495.132813	-33.521187
464.420745	6334.403333	493.878906	0.546990
464.420745	6334.403333	492.624023	36.914158
464.420745	6334.403333	491.368164	15.489533
464.420745	6334.403333	490.113281	54.156952
464.420745	6334.403333	488.857422	18.885656
464.420745	6334.403333	487.601563	89.880249
464.420745	6334.403333	486.344727	133.138306
464.420745	6334.403333	485.088867	26.322382
464.420745	6334.403333	483.832031	-15.813590
464.420745	6334.403333	482.575195	48.228882
464.420745	6334.403333	481.317383	96.100182
464.420745	6334.403333	480.059570	35.545353
464.420745	6334.403333	478.801758	-24.975220
464.420745	6334.403333	477.543945	-90.071472
464.420745	6334.403333	476.285156	20.062717
464.420745	6334.403333	475.027344	-40.386845
464.420745	6334.403333	473.767578	35.144894
464.420745	6334.403333	472.508789	71.493492
464.420745	6334.403333	471.249023	22.617481
464.420745	6334.403333	469.989258	-122.939949
464.420745	6334.403333	468.729492	65.397194
464.420745	6334.403333	467.469727	2.778579
464.420745	6334.403333	466.208984	-20.681612
464.420745	6334.403333	464.948242	18.000124
464.420745	6334.403333	463.686523	72.778259
464.420745	6334.403333	462.425781	-28.834152
464.420745	6334.403333	461.164063	2.963680
464.420745	6334.403333	459.901367	0.278857
464.420745	6334.403333	458.639648	-18.477772
464.420745	6334.403333	457.376953	54.694771
464.420745	6334.403333	456.114258	6.096135
464.420745	6334.403333	454.851563	53.994408
464.420745	6334.403333	453.587891	-130.035950
464.420745	6334.403333	452.324219	0.543826
464.420745	6334.403333	451.060547	103.537872
464.420745	6334.403333	449.796875	96.351822
464.420745	6334.403333	448.532227	93.769508
464.420745	6334.403333	447.267578	-71.655823
464.420745	6334.403333	446.002930	26.728907
464.420745	6334.403333	444.737305	-76.681709
464.420745	6334.403333	443.471680	-72.298470
464.420745	6334.403333	442.206055	48.974964
464.420745	6334.403333	440.940430	53.352032
464.420745	6334.403333	439.673828	133.333145
464.420745	6334.403333	438.407227	144.581512
464.420745	6334.403333	437.140625	87.140518
464.420745	6334.403333	435.873047	38.890331
464.420745	6334.403333	434.605469	-2.464529
464.420745	6334.403333	433.337891	116.388702
464.420745	6334.403333	432.070313	70.474640
464.420745	6334.403333	430.801758	196.134674
464.420745	6334.403333	429.533203	99.924156
464.420745	6334.403333	428.264648	136.366531
464.420745	6334.403333	426.996094	213.941254
464.420745	6334.403333	425.726563	120.084213
464.420745	6334.403333	424.457031	156.504257
464.420745	6334.403333	423.186523	85.543877
464.420745	6334.403333	421.916992	67.142319
464.420745	6334.403333	420.646484	210.863525
464.420745	6334.403333	419.375977	25.786684
464.420745	6334.403333	418.104492	16.524956
464.420745	6334.403333	416.833008	148.736465
464.420745	6334.403333	415.561523	48.181240
464.420745	6334.403333	414.290039	-56.902733
464.420745	6334.403333	413.017578	70.644707
464.420745	6334.403333	411.746094	33.971207
464.420745	6334.403333	410.472656	-43.734177
464.420745	6334.403333	409.200195	10.753311
464.420745	6334.403333	407.926758	83.421913
464.420745	6334.403333	406.653320	-35.308701
464.420745	6334.403333	405.379883	19.069782
464.420745	6334.403333	404.105469	109.826607
464.420745	6334.403333	402.831055	109.455872
464.420745	6334.403333	401.556641	190.985123
464.420745	6334.403333	400.282227	58.551136
464.420745	6334.403333	399.006836	76.280518
464.420745	6334.403333	397.731445	-1.567850
464.420745	6334.403333	396.456055	134.323624
464.420745	6334.403333	395.179688	-54.999481
464.420745	6334.403333	393.903320	135.292709
464.420745	6334.403333	392.626953	205.004242
464.420745	6334.403333	391.350586	140.578644
464.420745	6334.403333	390.073242	62.486584
464.420745	6334.403333	388.795898	27.508734
464.420745	6334.403333	387.518555	-30.230618
464.420745	6334.403333	386.240234	43.636532
464.420745	6334.403333	384.961914	201.362747
464.420745	6334.403333	383.683594	61.692970
464.420745	6334.403333	382.405273	123.891991
464.420745	6334.403333	381.125977	52.152607
464.420745	6334.403333	379.846680	118.663536
464.420745	6334.403333	378.567383	178.237915
464.420745	6334.403333	377.287109	94.880302
464.420745	6334.403333	376.006836	52.230774
464.420745	6334.403333	374.726563	91.037018
464.420745	6334.403333	373.446289	30.033829
464.420745	6334.403333	372.165039	61.767635
464.420745	6334.403333	370.883789	-28.914827
464.420745	6334.403333	369.602539	-20.108419
464.420745	6334.403333	368.320313	15.693782
464.420745	6334.403333	367.039063	82.997612
464.420745	6334.403333	365.755859	43.777332
464.420745	6334.403333	364.473633	99.388535
464.420745	6334.403333	363.190430	53.036789
464.420745	6334.403333	361.907227	-50.003094
464.420745	6334.403333	360.624023	47.954300
464.420745	6334.403333	359.340820	-82.564537
464.420745	6334.403333	358.056641	33.000591
464.420745	6334.403333	356.772461	-21.110994
464.420745	6334.403333	355.487305	64.568756
464.420745	6334.403333	354.202148	5.473817
464.420745	6334.403333	352.916992	27.409256
464.420745	6334.403333	351.631836	-27.656546
464.420745	6334.403333	350.346680	20.812906
464.420745	6334.403333	349.060547	-39.303051
464.420745	6334.403333	347.774414	-27.520990
464.420745	6334.403333	346.487305	-0.272653
464.420745	6334.403333	345.200195	76.238724
464.420745	6334.403333	343.913086	-12.135854
464.420745	6334.403333	342.625977	-139.118896
464.420745	6334.403333	341.338867	-2.825314
464.420745	6334.403333	340.050781	-22.370739
464.420745	6334.403333	338.762695	-107.588081
464.420745	6334.403333	337.473633	-134.633774
464.420745	6334.403333	336.184570	-29.275867
464.420745	6334.403333	334.895508	-16.646004
464.420745	6334.403333	333.606445	-15.703290
464.420745	6334.403333	332.317383	52.271545
464.420745	6334.403333	331.027344	-60.162468
464.420745	6334.403333	329.736328	-8.905025
464.420745	6334.403333	328.446289	-0.863044
464.420745	6334.403333	327.155273	-6.828591
464.420745	6334.403333	325.864258	20.386120
464.420745	6334.403333	324.573242	-38.316277
464.420745	6334.403333	323.281250	239.320313
464.420745	6334.403333	321.989258	-105.718971
464.420745	6334.403333	320.697266	-35.894012
464.420745	6334.403333	319.405273	-65.467339
464.420745	6334.403333	318.112305	34.474838
464.420745	6334.403333	316.819336	55.200455
464.420745	6334.403333	315.526367	-66.060150
464.420745	6334.403333	314.232422	-71.366226
464.420745	6334.403333	312.938477	104.217270
464.420745	6334.403333	311.644531	70.532135
464.420745	6334.403333	310.349609	94.356407
464.420745	6334.403333	309.054688	27.771799
464.420745	6334.403333	307.759766	-48.543423
464.420745	6334.403333	306.464844	-15.911468
464.420745	6334.403333	305.168945	62.860283
464.420745	6334.403333	303.873047	10.891503
464.420745	6334.403333	302.577148	170.664612
464.420745	6334.403333	301.281250	87.790939
464.420745	6334.403333	299.984375	216.508102
