#X		#Y		#Wave		#Intensity
584.926064	6101.811667	1999.946289	-39.776039
584.926064	6101.811667	1998.981445	-22.822338
584.926064	6101.811667	1998.017578	8.415820
584.926064	6101.811667	1997.052734	-32.243851
584.926064	6101.811667	1996.088867	-3.533429
584.926064	6101.811667	1995.124023	35.056072
584.926064	6101.811667	1994.159180	-40.316299
584.926064	6101.811667	1993.193359	13.088050
584.926064	6101.811667	1992.228516	31.795404
584.926064	6101.811667	1991.262695	33.152180
584.926064	6101.811667	1990.296875	71.617455
584.926064	6101.811667	1989.331055	55.617043
584.926064	6101.811667	1988.365234	91.562820
584.926064	6101.811667	1987.398438	-6.087815
584.926064	6101.811667	1986.432617	-12.209908
584.926064	6101.811667	1985.465820	8.856889
584.926064	6101.811667	1984.499023	59.571377
584.926064	6101.811667	1983.532227	-20.741823
584.926064	6101.811667	1982.565430	-49.138962
584.926064	6101.811667	1981.597656	70.711456
584.926064	6101.811667	1980.629883	71.934692
584.926064	6101.811667	1979.662109	85.499352
584.926064	6101.811667	1978.694336	-26.886726
584.926064	6101.811667	1977.726563	-33.073341
584.926064	6101.811667	1976.758789	-56.542633
584.926064	6101.811667	1975.790039	43.391739
584.926064	6101.811667	1974.821289	-17.107176
584.926064	6101.811667	1973.852539	18.629074
584.926064	6101.811667	1972.883789	-56.650509
584.926064	6101.811667	1971.915039	16.065510
584.926064	6101.811667	1970.945313	96.147942
584.926064	6101.811667	1969.975586	48.004414
584.926064	6101.811667	1969.005859	-27.236490
584.926064	6101.811667	1968.036133	92.232986
584.926064	6101.811667	1967.066406	34.256008
584.926064	6101.811667	1966.096680	37.885906
584.926064	6101.811667	1965.125977	39.049797
584.926064	6101.811667	1964.155273	-11.499787
584.926064	6101.811667	1963.184570	80.769211
584.926064	6101.811667	1962.213867	72.078293
584.926064	6101.811667	1961.242188	14.167765
584.926064	6101.811667	1960.271484	-43.719685
584.926064	6101.811667	1959.299805	26.346912
584.926064	6101.811667	1958.328125	-9.381222
584.926064	6101.811667	1957.356445	-25.419947
584.926064	6101.811667	1956.384766	-24.238510
584.926064	6101.811667	1955.412109	-18.139391
584.926064	6101.811667	1954.439453	42.034832
584.926064	6101.811667	1953.467773	38.295319
584.926064	6101.811667	1952.495117	46.844227
584.926064	6101.811667	1951.521484	70.131943
584.926064	6101.811667	1950.548828	-2.373893
584.926064	6101.811667	1949.575195	18.465136
584.926064	6101.811667	1948.601563	81.038551
584.926064	6101.811667	1947.627930	50.311588
584.926064	6101.811667	1946.654297	36.780228
584.926064	6101.811667	1945.680664	25.711437
584.926064	6101.811667	1944.706055	71.077820
584.926064	6101.811667	1943.732422	6.050730
584.926064	6101.811667	1942.757813	-83.473351
584.926064	6101.811667	1941.783203	47.721176
584.926064	6101.811667	1940.807617	34.228962
584.926064	6101.811667	1939.833008	-50.334858
584.926064	6101.811667	1938.857422	-100.554268
584.926064	6101.811667	1937.881836	-55.193218
584.926064	6101.811667	1936.906250	29.351376
584.926064	6101.811667	1935.930664	101.622520
584.926064	6101.811667	1934.955078	-19.584589
584.926064	6101.811667	1933.978516	82.058327
584.926064	6101.811667	1933.001953	-34.195160
584.926064	6101.811667	1932.025391	1.340992
584.926064	6101.811667	1931.048828	-41.434769
584.926064	6101.811667	1930.072266	-1.007796
584.926064	6101.811667	1929.094727	46.746807
584.926064	6101.811667	1928.118164	26.011354
584.926064	6101.811667	1927.140625	37.075191
584.926064	6101.811667	1926.163086	-17.867277
584.926064	6101.811667	1925.184570	71.425545
584.926064	6101.811667	1924.207031	131.364899
584.926064	6101.811667	1923.228516	-1.737858
584.926064	6101.811667	1922.250000	-24.856350
584.926064	6101.811667	1921.271484	52.177834
584.926064	6101.811667	1920.292969	53.486706
584.926064	6101.811667	1919.314453	54.799454
584.926064	6101.811667	1918.334961	95.172607
584.926064	6101.811667	1917.355469	174.584900
584.926064	6101.811667	1916.375977	58.759655
584.926064	6101.811667	1915.396484	-30.181635
584.926064	6101.811667	1914.416992	78.493126
584.926064	6101.811667	1913.436523	-112.839951
584.926064	6101.811667	1912.457031	37.269032
584.926064	6101.811667	1911.476563	45.928829
584.926064	6101.811667	1910.496094	-23.408484
584.926064	6101.811667	1909.515625	-34.229103
584.926064	6101.811667	1908.534180	74.346504
584.926064	6101.811667	1907.552734	97.622917
584.926064	6101.811667	1906.572266	-59.339920
584.926064	6101.811667	1905.590820	56.494747
584.926064	6101.811667	1904.608398	-61.441307
584.926064	6101.811667	1903.626953	-118.474167
584.926064	6101.811667	1902.644531	-34.323883
584.926064	6101.811667	1901.663086	-37.801670
584.926064	6101.811667	1900.680664	2.515725
584.926064	6101.811667	1899.698242	74.441628
584.926064	6101.811667	1898.714844	85.543800
584.926064	6101.811667	1897.732422	33.425072
584.926064	6101.811667	1896.749023	3.206949
584.926064	6101.811667	1895.765625	9.461031
584.926064	6101.811667	1894.782227	1.133463
584.926064	6101.811667	1893.798828	-48.493919
584.926064	6101.811667	1892.814453	28.218424
584.926064	6101.811667	1891.831055	-31.107672
584.926064	6101.811667	1890.846680	-12.704690
584.926064	6101.811667	1889.862305	-16.158281
584.926064	6101.811667	1888.877930	2.236967
584.926064	6101.811667	1887.892578	76.445549
584.926064	6101.811667	1886.908203	148.201096
584.926064	6101.811667	1885.922852	8.862664
584.926064	6101.811667	1884.937500	73.327278
584.926064	6101.811667	1883.952148	72.288864
584.926064	6101.811667	1882.965820	83.373779
584.926064	6101.811667	1881.980469	24.151567
584.926064	6101.811667	1880.994141	35.240589
584.926064	6101.811667	1880.007813	7.551516
584.926064	6101.811667	1879.021484	47.712597
584.926064	6101.811667	1878.035156	49.098907
584.926064	6101.811667	1877.047852	-2.800158
584.926064	6101.811667	1876.061523	78.502678
584.926064	6101.811667	1875.074219	12.088397
584.926064	6101.811667	1874.086914	107.878174
584.926064	6101.811667	1873.098633	89.882637
584.926064	6101.811667	1872.111328	-29.735161
584.926064	6101.811667	1871.123047	-6.574895
584.926064	6101.811667	1870.135742	81.881973
584.926064	6101.811667	1869.147461	22.784296
584.926064	6101.811667	1868.158203	-45.966011
584.926064	6101.811667	1867.169922	-17.995403
584.926064	6101.811667	1866.180664	58.300755
584.926064	6101.811667	1865.192383	76.568962
584.926064	6101.811667	1864.203125	56.169460
584.926064	6101.811667	1863.213867	6.786630
584.926064	6101.811667	1862.223633	-124.697113
584.926064	6101.811667	1861.234375	36.045185
584.926064	6101.811667	1860.244141	30.138874
584.926064	6101.811667	1859.253906	-38.528530
584.926064	6101.811667	1858.263672	-61.320469
584.926064	6101.811667	1857.273438	51.013870
584.926064	6101.811667	1856.282227	-17.632364
584.926064	6101.811667	1855.291992	-47.665333
584.926064	6101.811667	1854.300781	107.996330
584.926064	6101.811667	1853.309570	89.995789
584.926064	6101.811667	1852.317383	100.924171
584.926064	6101.811667	1851.326172	56.409050
584.926064	6101.811667	1850.333984	117.932877
584.926064	6101.811667	1849.342773	136.061249
584.926064	6101.811667	1848.350586	-33.711689
584.926064	6101.811667	1847.357422	10.917375
584.926064	6101.811667	1846.365234	-2.265975
584.926064	6101.811667	1845.372070	1.401094
584.926064	6101.811667	1844.379883	9.874851
584.926064	6101.811667	1843.386719	39.997066
584.926064	6101.811667	1842.393555	94.162186
584.926064	6101.811667	1841.399414	32.828228
584.926064	6101.811667	1840.406250	41.261585
584.926064	6101.811667	1839.412109	-12.839579
584.926064	6101.811667	1838.417969	43.669704
584.926064	6101.811667	1837.423828	13.612053
584.926064	6101.811667	1836.429688	60.466335
584.926064	6101.811667	1835.434570	-3.240365
584.926064	6101.811667	1834.440430	57.998665
584.926064	6101.811667	1833.445313	-65.750565
584.926064	6101.811667	1832.450195	79.515610
584.926064	6101.811667	1831.454102	212.712433
584.926064	6101.811667	1830.458984	55.369621
584.926064	6101.811667	1829.462891	-13.115067
584.926064	6101.811667	1828.466797	-9.589495
584.926064	6101.811667	1827.470703	-56.459789
584.926064	6101.811667	1826.474609	-124.911369
584.926064	6101.811667	1825.478516	22.511219
584.926064	6101.811667	1824.481445	23.592556
584.926064	6101.811667	1823.484375	-47.261017
584.926064	6101.811667	1822.487305	42.505322
584.926064	6101.811667	1821.490234	7.604847
584.926064	6101.811667	1820.493164	66.157814
584.926064	6101.811667	1819.495117	-90.934776
584.926064	6101.811667	1818.498047	-3.662248
584.926064	6101.811667	1817.500000	81.172028
584.926064	6101.811667	1816.500977	36.668995
584.926064	6101.811667	1815.502930	73.565468
584.926064	6101.811667	1814.504883	79.322990
584.926064	6101.811667	1813.505859	22.849348
584.926064	6101.811667	1812.506836	2.274885
584.926064	6101.811667	1811.507813	-11.126559
584.926064	6101.811667	1810.508789	-5.400234
584.926064	6101.811667	1809.508789	64.874077
584.926064	6101.811667	1808.508789	34.700291
584.926064	6101.811667	1807.508789	147.943573
584.926064	6101.811667	1806.508789	-1.747479
584.926064	6101.811667	1805.508789	164.004028
584.926064	6101.811667	1804.508789	-21.489979
584.926064	6101.811667	1803.507813	134.625488
584.926064	6101.811667	1802.506836	109.181099
584.926064	6101.811667	1801.505859	69.409431
584.926064	6101.811667	1800.504883	108.416153
584.926064	6101.811667	1799.502930	123.529114
584.926064	6101.811667	1798.501953	-57.043808
584.926064	6101.811667	1797.500000	32.029900
584.926064	6101.811667	1796.498047	28.031166
584.926064	6101.811667	1795.496094	19.252176
584.926064	6101.811667	1794.493164	36.692368
584.926064	6101.811667	1793.491211	73.186699
584.926064	6101.811667	1792.488281	-23.821823
584.926064	6101.811667	1791.485352	-51.697224
584.926064	6101.811667	1790.482422	108.651276
584.926064	6101.811667	1789.478516	-5.021311
584.926064	6101.811667	1788.475586	155.233383
584.926064	6101.811667	1787.471680	93.958344
584.926064	6101.811667	1786.467773	-3.017995
584.926064	6101.811667	1785.463867	109.500633
584.926064	6101.811667	1784.459961	136.288376
584.926064	6101.811667	1783.455078	39.321362
584.926064	6101.811667	1782.450195	1.853619
584.926064	6101.811667	1781.445313	-30.855350
584.926064	6101.811667	1780.440430	-20.758690
584.926064	6101.811667	1779.435547	53.517857
584.926064	6101.811667	1778.429688	1.761910
584.926064	6101.811667	1777.424805	97.371819
584.926064	6101.811667	1776.418945	107.385475
584.926064	6101.811667	1775.413086	72.242043
584.926064	6101.811667	1774.406250	13.344353
584.926064	6101.811667	1773.400391	-59.791725
584.926064	6101.811667	1772.393555	-90.173050
584.926064	6101.811667	1771.386719	38.504337
584.926064	6101.811667	1770.379883	-27.512968
584.926064	6101.811667	1769.373047	-22.324078
584.926064	6101.811667	1768.365234	4.203261
584.926064	6101.811667	1767.358398	30.709349
584.926064	6101.811667	1766.350586	33.473812
584.926064	6101.811667	1765.342773	-6.459309
584.926064	6101.811667	1764.334961	-84.323631
584.926064	6101.811667	1763.326172	22.720808
584.926064	6101.811667	1762.318359	-21.964855
584.926064	6101.811667	1761.309570	21.025118
584.926064	6101.811667	1760.300781	61.616920
584.926064	6101.811667	1759.291016	38.226902
584.926064	6101.811667	1758.282227	14.834940
584.926064	6101.811667	1757.272461	22.218279
584.926064	6101.811667	1756.262695	1.179142
584.926064	6101.811667	1755.252930	27.472204
584.926064	6101.811667	1754.243164	72.673676
584.926064	6101.811667	1753.233398	82.357086
584.926064	6101.811667	1752.222656	16.328119
584.926064	6101.811667	1751.211914	-35.497650
584.926064	6101.811667	1750.201172	28.547792
584.926064	6101.811667	1749.190430	-39.833599
584.926064	6101.811667	1748.179688	-27.836601
584.926064	6101.811667	1747.167969	3.048048
584.926064	6101.811667	1746.156250	-13.346296
584.926064	6101.811667	1745.144531	38.760696
584.926064	6101.811667	1744.132813	67.217224
584.926064	6101.811667	1743.121094	100.373947
584.926064	6101.811667	1742.108398	8.373851
584.926064	6101.811667	1741.095703	60.388256
584.926064	6101.811667	1740.083008	-31.592543
584.926064	6101.811667	1739.070313	18.026497
584.926064	6101.811667	1738.057617	29.868731
584.926064	6101.811667	1737.043945	20.465061
584.926064	6101.811667	1736.030273	-24.320515
584.926064	6101.811667	1735.016602	-24.301889
584.926064	6101.811667	1734.002930	-59.655010
584.926064	6101.811667	1732.989258	-7.800457
584.926064	6101.811667	1731.974609	62.873440
584.926064	6101.811667	1730.959961	13.352805
584.926064	6101.811667	1729.945313	-24.382296
584.926064	6101.811667	1728.930664	-66.823967
584.926064	6101.811667	1727.916016	60.274940
584.926064	6101.811667	1726.900391	97.852966
584.926064	6101.811667	1725.885742	24.781092
584.926064	6101.811667	1724.870117	-85.928207
584.926064	6101.811667	1723.853516	-46.024628
584.926064	6101.811667	1722.837891	-36.726227
584.926064	6101.811667	1721.822266	-32.145515
584.926064	6101.811667	1720.805664	-95.772469
584.926064	6101.811667	1719.789063	0.486577
584.926064	6101.811667	1718.772461	16.778206
584.926064	6101.811667	1717.754883	35.401722
584.926064	6101.811667	1716.738281	112.752701
584.926064	6101.811667	1715.720703	-42.513958
584.926064	6101.811667	1714.703125	30.103426
584.926064	6101.811667	1713.685547	15.794165
584.926064	6101.811667	1712.667969	20.263929
584.926064	6101.811667	1711.649414	1.246304
584.926064	6101.811667	1710.630859	-22.467440
584.926064	6101.811667	1709.612305	54.720463
584.926064	6101.811667	1708.593750	115.447083
584.926064	6101.811667	1707.575195	-44.350464
584.926064	6101.811667	1706.555664	-37.587788
584.926064	6101.811667	1705.536133	-40.215515
584.926064	6101.811667	1704.516602	-68.638565
584.926064	6101.811667	1703.497070	20.133892
584.926064	6101.811667	1702.477539	76.055840
584.926064	6101.811667	1701.457031	17.141068
584.926064	6101.811667	1700.437500	-25.359838
584.926064	6101.811667	1699.416992	-2.276831
584.926064	6101.811667	1698.395508	23.128956
584.926064	6101.811667	1697.375000	50.860107
584.926064	6101.811667	1696.354492	13.032699
584.926064	6101.811667	1695.333008	132.007904
584.926064	6101.811667	1694.311523	126.919662
584.926064	6101.811667	1693.290039	-27.893049
584.926064	6101.811667	1692.267578	-16.593237
584.926064	6101.811667	1691.246094	104.604965
584.926064	6101.811667	1690.223633	-50.138027
584.926064	6101.811667	1689.201172	85.029282
584.926064	6101.811667	1688.178711	47.191246
584.926064	6101.811667	1687.155273	-49.057602
584.926064	6101.811667	1686.132813	13.588680
584.926064	6101.811667	1685.109375	34.158379
584.926064	6101.811667	1684.085938	113.096771
584.926064	6101.811667	1683.062500	-25.144117
584.926064	6101.811667	1682.039063	2.405825
584.926064	6101.811667	1681.014648	32.271027
584.926064	6101.811667	1679.990234	-54.557068
584.926064	6101.811667	1678.965820	124.612099
584.926064	6101.811667	1677.941406	28.457865
584.926064	6101.811667	1676.916992	30.286018
584.926064	6101.811667	1675.891602	53.091682
584.926064	6101.811667	1674.866211	50.239365
584.926064	6101.811667	1673.840820	-34.195599
584.926064	6101.811667	1672.815430	-11.406195
584.926064	6101.811667	1671.790039	41.658737
584.926064	6101.811667	1670.763672	155.262604
584.926064	6101.811667	1669.737305	198.947449
584.926064	6101.811667	1668.710938	51.667725
584.926064	6101.811667	1667.684570	55.768799
584.926064	6101.811667	1666.658203	27.276434
584.926064	6101.811667	1665.630859	126.786552
584.926064	6101.811667	1664.603516	100.608284
584.926064	6101.811667	1663.576172	125.615295
584.926064	6101.811667	1662.548828	38.967152
584.926064	6101.811667	1661.520508	24.434803
584.926064	6101.811667	1660.493164	-43.567448
584.926064	6101.811667	1659.464844	93.009750
584.926064	6101.811667	1658.436523	41.280224
584.926064	6101.811667	1657.408203	131.309540
584.926064	6101.811667	1656.378906	-4.049810
584.926064	6101.811667	1655.350586	18.588417
584.926064	6101.811667	1654.321289	-51.678112
584.926064	6101.811667	1653.291992	-49.943317
584.926064	6101.811667	1652.261719	172.318390
584.926064	6101.811667	1651.232422	104.376541
584.926064	6101.811667	1650.202148	217.455032
584.926064	6101.811667	1649.171875	107.764153
584.926064	6101.811667	1648.141602	70.021057
584.926064	6101.811667	1647.111328	43.886539
584.926064	6101.811667	1646.080078	96.593933
584.926064	6101.811667	1645.049805	84.371056
584.926064	6101.811667	1644.018555	130.094360
584.926064	6101.811667	1642.987305	80.787369
584.926064	6101.811667	1641.955078	145.024475
584.926064	6101.811667	1640.923828	181.440475
584.926064	6101.811667	1639.891602	217.839340
584.926064	6101.811667	1638.859375	64.348549
584.926064	6101.811667	1637.827148	128.536377
584.926064	6101.811667	1636.794922	176.496216
584.926064	6101.811667	1635.761719	175.836639
584.926064	6101.811667	1634.729492	80.315727
584.926064	6101.811667	1633.696289	70.422005
584.926064	6101.811667	1632.662109	185.424149
584.926064	6101.811667	1631.628906	131.578522
584.926064	6101.811667	1630.594727	133.239151
584.926064	6101.811667	1629.561523	234.296387
584.926064	6101.811667	1628.527344	203.582794
584.926064	6101.811667	1627.493164	221.404556
584.926064	6101.811667	1626.458008	195.325119
584.926064	6101.811667	1625.423828	254.718231
584.926064	6101.811667	1624.388672	182.459427
584.926064	6101.811667	1623.353516	172.568039
584.926064	6101.811667	1622.318359	206.540771
584.926064	6101.811667	1621.282227	182.801880
584.926064	6101.811667	1620.247070	230.607468
584.926064	6101.811667	1619.210938	188.420181
584.926064	6101.811667	1618.174805	171.623642
584.926064	6101.811667	1617.137695	182.507095
584.926064	6101.811667	1616.101563	271.783386
584.926064	6101.811667	1615.064453	213.490646
584.926064	6101.811667	1614.027344	150.613297
584.926064	6101.811667	1612.990234	249.065979
584.926064	6101.811667	1611.953125	278.366638
584.926064	6101.811667	1610.916016	178.666534
584.926064	6101.811667	1609.877930	320.818909
584.926064	6101.811667	1608.839844	234.968292
584.926064	6101.811667	1607.801758	213.612595
584.926064	6101.811667	1606.763672	298.143524
584.926064	6101.811667	1605.724609	154.825272
584.926064	6101.811667	1604.685547	174.918533
584.926064	6101.811667	1603.646484	298.520599
584.926064	6101.811667	1602.607422	240.390839
584.926064	6101.811667	1601.568359	313.352631
584.926064	6101.811667	1600.528320	275.938660
584.926064	6101.811667	1599.489258	305.201508
584.926064	6101.811667	1598.449219	162.101517
584.926064	6101.811667	1597.408203	292.473541
584.926064	6101.811667	1596.368164	239.029251
584.926064	6101.811667	1595.327148	362.453918
584.926064	6101.811667	1594.287109	253.915710
584.926064	6101.811667	1593.246094	290.057709
584.926064	6101.811667	1592.204102	238.964981
584.926064	6101.811667	1591.163086	268.220703
584.926064	6101.811667	1590.121094	341.062714
584.926064	6101.811667	1589.079102	260.182281
584.926064	6101.811667	1588.037109	280.255554
584.926064	6101.811667	1586.995117	226.946182
584.926064	6101.811667	1585.953125	288.296478
584.926064	6101.811667	1584.910156	290.028229
584.926064	6101.811667	1583.867188	255.096832
584.926064	6101.811667	1582.824219	355.372284
584.926064	6101.811667	1581.781250	302.125641
584.926064	6101.811667	1580.737305	109.188057
584.926064	6101.811667	1579.693359	184.258606
584.926064	6101.811667	1578.649414	279.911591
584.926064	6101.811667	1577.605469	299.993256
584.926064	6101.811667	1576.561523	153.003448
584.926064	6101.811667	1575.516602	138.789963
584.926064	6101.811667	1574.472656	209.236084
584.926064	6101.811667	1573.427734	103.538513
584.926064	6101.811667	1572.381836	148.817719
584.926064	6101.811667	1571.336914	70.622711
584.926064	6101.811667	1570.291016	152.478607
584.926064	6101.811667	1569.246094	90.325256
584.926064	6101.811667	1568.200195	126.457832
584.926064	6101.811667	1567.153320	215.126663
584.926064	6101.811667	1566.107422	95.912430
584.926064	6101.811667	1565.060547	127.473854
584.926064	6101.811667	1564.013672	101.948837
584.926064	6101.811667	1562.966797	163.187302
584.926064	6101.811667	1561.919922	112.573586
584.926064	6101.811667	1560.872070	178.362045
584.926064	6101.811667	1559.825195	182.534622
584.926064	6101.811667	1558.777344	170.744019
584.926064	6101.811667	1557.729492	131.598572
584.926064	6101.811667	1556.680664	131.236176
584.926064	6101.811667	1555.632813	169.637512
584.926064	6101.811667	1554.583984	125.977791
584.926064	6101.811667	1553.535156	230.462463
584.926064	6101.811667	1552.486328	143.535416
584.926064	6101.811667	1551.436523	225.210587
584.926064	6101.811667	1550.387695	97.340378
584.926064	6101.811667	1549.337891	65.159668
584.926064	6101.811667	1548.288086	146.825745
584.926064	6101.811667	1547.238281	155.632828
584.926064	6101.811667	1546.187500	-74.497864
584.926064	6101.811667	1545.136719	70.874619
584.926064	6101.811667	1544.086914	22.847446
584.926064	6101.811667	1543.035156	129.495483
584.926064	6101.811667	1541.984375	-23.106176
584.926064	6101.811667	1540.933594	56.246174
584.926064	6101.811667	1539.881836	106.025536
584.926064	6101.811667	1538.830078	-21.460745
584.926064	6101.811667	1537.778320	128.300797
584.926064	6101.811667	1536.725586	-1.396026
584.926064	6101.811667	1535.673828	143.777008
584.926064	6101.811667	1534.621094	32.310608
584.926064	6101.811667	1533.568359	-58.671276
584.926064	6101.811667	1532.515625	97.800125
584.926064	6101.811667	1531.461914	158.903442
584.926064	6101.811667	1530.409180	197.303955
584.926064	6101.811667	1529.355469	72.367188
584.926064	6101.811667	1528.301758	56.352814
584.926064	6101.811667	1527.247070	35.816669
584.926064	6101.811667	1526.193359	99.182259
584.926064	6101.811667	1525.138672	8.396487
584.926064	6101.811667	1524.083984	60.426968
584.926064	6101.811667	1523.029297	105.648468
584.926064	6101.811667	1521.974609	89.696976
584.926064	6101.811667	1520.918945	78.288811
584.926064	6101.811667	1519.863281	57.836098
584.926064	6101.811667	1518.807617	78.151848
584.926064	6101.811667	1517.751953	-14.708038
584.926064	6101.811667	1516.696289	-66.787010
584.926064	6101.811667	1515.639648	10.132255
584.926064	6101.811667	1514.583008	39.523857
584.926064	6101.811667	1513.526367	30.462992
584.926064	6101.811667	1512.469727	-23.811331
584.926064	6101.811667	1511.412109	134.462677
584.926064	6101.811667	1510.355469	-3.427534
584.926064	6101.811667	1509.297852	-114.136597
584.926064	6101.811667	1508.240234	21.492636
584.926064	6101.811667	1507.181641	41.863819
584.926064	6101.811667	1506.124023	48.685730
584.926064	6101.811667	1505.065430	-61.912037
584.926064	6101.811667	1504.006836	35.252293
584.926064	6101.811667	1502.948242	39.838856
584.926064	6101.811667	1501.888672	73.769905
584.926064	6101.811667	1500.830078	-20.915319
584.926064	6101.811667	1499.770508	-212.560028
584.926064	6101.811667	1498.710938	-79.332367
584.926064	6101.811667	1497.650391	1.984387
584.926064	6101.811667	1496.590820	92.297073
584.926064	6101.811667	1495.530273	49.587982
584.926064	6101.811667	1494.469727	-42.676304
584.926064	6101.811667	1493.409180	54.376015
584.926064	6101.811667	1492.348633	-51.352005
584.926064	6101.811667	1491.287109	-44.414124
584.926064	6101.811667	1490.225586	-53.233429
584.926064	6101.811667	1489.164063	3.251073
584.926064	6101.811667	1488.102539	25.956833
584.926064	6101.811667	1487.041016	-27.856415
584.926064	6101.811667	1485.978516	-115.392532
584.926064	6101.811667	1484.916016	6.328410
584.926064	6101.811667	1483.853516	-36.174828
584.926064	6101.811667	1482.791016	-26.935001
584.926064	6101.811667	1481.727539	-58.159599
584.926064	6101.811667	1480.664063	49.995770
584.926064	6101.811667	1479.600586	41.269096
584.926064	6101.811667	1478.537109	-37.114315
584.926064	6101.811667	1477.473633	-34.585182
584.926064	6101.811667	1476.409180	8.397584
584.926064	6101.811667	1475.344727	87.305275
584.926064	6101.811667	1474.280273	-22.440287
584.926064	6101.811667	1473.215820	-19.841827
584.926064	6101.811667	1472.151367	16.374035
584.926064	6101.811667	1471.085938	92.963997
584.926064	6101.811667	1470.020508	-72.554314
584.926064	6101.811667	1468.955078	100.325645
584.926064	6101.811667	1467.888672	-60.681164
584.926064	6101.811667	1466.823242	20.371643
584.926064	6101.811667	1465.756836	0.609121
584.926064	6101.811667	1464.690430	83.854767
584.926064	6101.811667	1463.624023	30.385868
584.926064	6101.811667	1462.556641	-60.960754
584.926064	6101.811667	1461.490234	-26.661894
584.926064	6101.811667	1460.422852	-19.784807
584.926064	6101.811667	1459.355469	110.400696
584.926064	6101.811667	1458.287109	46.032494
584.926064	6101.811667	1457.219727	10.438414
584.926064	6101.811667	1456.151367	-73.447281
584.926064	6101.811667	1455.083008	120.559425
584.926064	6101.811667	1454.014648	-37.130886
584.926064	6101.811667	1452.945313	85.948547
584.926064	6101.811667	1451.876953	21.619617
584.926064	6101.811667	1450.807617	137.658203
584.926064	6101.811667	1449.738281	122.719482
584.926064	6101.811667	1448.668945	101.461342
584.926064	6101.811667	1447.598633	122.046364
584.926064	6101.811667	1446.528320	32.770329
584.926064	6101.811667	1445.458008	93.188828
584.926064	6101.811667	1444.387695	51.960472
584.926064	6101.811667	1443.317383	63.508041
584.926064	6101.811667	1442.246094	-28.487532
584.926064	6101.811667	1441.174805	73.486038
584.926064	6101.811667	1440.103516	7.774135
584.926064	6101.811667	1439.032227	48.016815
584.926064	6101.811667	1437.960938	55.402229
584.926064	6101.811667	1436.888672	92.443130
584.926064	6101.811667	1435.816406	149.843170
584.926064	6101.811667	1434.744141	88.363991
584.926064	6101.811667	1433.670898	30.805462
584.926064	6101.811667	1432.598633	-21.987820
584.926064	6101.811667	1431.525391	43.106438
584.926064	6101.811667	1430.452148	10.570911
584.926064	6101.811667	1429.378906	168.052002
584.926064	6101.811667	1428.304688	31.592278
584.926064	6101.811667	1427.231445	33.340481
584.926064	6101.811667	1426.157227	16.638433
584.926064	6101.811667	1425.083008	46.060337
584.926064	6101.811667	1424.007813	-6.049214
584.926064	6101.811667	1422.933594	74.654266
584.926064	6101.811667	1421.858398	-5.211467
584.926064	6101.811667	1420.783203	-49.992413
584.926064	6101.811667	1419.708008	-23.021420
584.926064	6101.811667	1418.631836	12.831530
584.926064	6101.811667	1417.555664	-45.755161
584.926064	6101.811667	1416.479492	-58.061607
584.926064	6101.811667	1415.403320	30.615955
584.926064	6101.811667	1414.327148	26.377289
584.926064	6101.811667	1413.250000	64.367813
584.926064	6101.811667	1412.173828	-45.195282
584.926064	6101.811667	1411.096680	-18.342836
584.926064	6101.811667	1410.018555	45.592793
584.926064	6101.811667	1408.941406	8.120762
584.926064	6101.811667	1407.863281	60.829636
584.926064	6101.811667	1406.785156	11.072335
584.926064	6101.811667	1405.707031	-43.111195
584.926064	6101.811667	1404.628906	82.673721
584.926064	6101.811667	1403.549805	45.889687
584.926064	6101.811667	1402.470703	106.596130
584.926064	6101.811667	1401.391602	22.179203
584.926064	6101.811667	1400.312500	-47.163445
584.926064	6101.811667	1399.233398	32.371315
584.926064	6101.811667	1398.153320	157.994141
584.926064	6101.811667	1397.073242	121.830856
584.926064	6101.811667	1395.993164	74.254173
584.926064	6101.811667	1394.913086	79.959557
584.926064	6101.811667	1393.832031	48.077831
584.926064	6101.811667	1392.750977	-109.048874
584.926064	6101.811667	1391.669922	-91.379387
584.926064	6101.811667	1390.588867	75.379890
584.926064	6101.811667	1389.506836	-11.934394
584.926064	6101.811667	1388.425781	13.216338
584.926064	6101.811667	1387.343750	-39.414196
584.926064	6101.811667	1386.261719	-49.216789
584.926064	6101.811667	1385.178711	-2.260548
584.926064	6101.811667	1384.096680	-54.834064
584.926064	6101.811667	1383.013672	18.522207
584.926064	6101.811667	1381.930664	-29.508558
584.926064	6101.811667	1380.846680	-64.481544
584.926064	6101.811667	1379.763672	64.094185
584.926064	6101.811667	1378.679688	57.481407
584.926064	6101.811667	1377.595703	-0.679917
584.926064	6101.811667	1376.511719	61.094730
584.926064	6101.811667	1375.427734	36.759357
584.926064	6101.811667	1374.342773	24.449467
584.926064	6101.811667	1373.257813	15.642894
584.926064	6101.811667	1372.172852	120.159126
584.926064	6101.811667	1371.087891	83.272728
584.926064	6101.811667	1370.001953	17.119690
584.926064	6101.811667	1368.916992	120.759041
584.926064	6101.811667	1367.831055	-43.030045
584.926064	6101.811667	1366.744141	-19.798929
584.926064	6101.811667	1365.658203	-40.794262
584.926064	6101.811667	1364.571289	34.673779
584.926064	6101.811667	1363.484375	23.790787
584.926064	6101.811667	1362.397461	144.537628
584.926064	6101.811667	1361.310547	17.764547
584.926064	6101.811667	1360.222656	-62.256458
584.926064	6101.811667	1359.135742	129.782166
584.926064	6101.811667	1358.047852	39.398113
584.926064	6101.811667	1356.958984	-1.784666
584.926064	6101.811667	1355.871094	152.243027
584.926064	6101.811667	1354.782227	-98.257675
584.926064	6101.811667	1353.693359	18.020395
584.926064	6101.811667	1352.604492	8.923580
584.926064	6101.811667	1351.515625	33.526016
584.926064	6101.811667	1350.425781	62.369228
584.926064	6101.811667	1349.335938	57.361225
584.926064	6101.811667	1348.246094	142.790497
584.926064	6101.811667	1347.156250	30.172327
584.926064	6101.811667	1346.066406	-5.379585
584.926064	6101.811667	1344.975586	152.982193
584.926064	6101.811667	1343.884766	80.907608
584.926064	6101.811667	1342.793945	124.362160
584.926064	6101.811667	1341.702148	152.495773
584.926064	6101.811667	1340.611328	126.392143
584.926064	6101.811667	1339.519531	76.211784
584.926064	6101.811667	1338.427734	114.278748
584.926064	6101.811667	1337.334961	163.637482
584.926064	6101.811667	1336.243164	179.088242
584.926064	6101.811667	1335.150391	53.459515
584.926064	6101.811667	1334.057617	12.924957
584.926064	6101.811667	1332.964844	1.986933
584.926064	6101.811667	1331.871094	53.385689
584.926064	6101.811667	1330.778320	68.742554
584.926064	6101.811667	1329.684570	103.626961
584.926064	6101.811667	1328.590820	132.071228
584.926064	6101.811667	1327.496094	82.011879
584.926064	6101.811667	1326.402344	89.043411
584.926064	6101.811667	1325.307617	59.532608
584.926064	6101.811667	1324.212891	-2.209642
584.926064	6101.811667	1323.117188	80.553963
584.926064	6101.811667	1322.022461	112.163063
584.926064	6101.811667	1320.926758	58.067425
584.926064	6101.811667	1319.831055	29.784742
584.926064	6101.811667	1318.735352	14.358406
584.926064	6101.811667	1317.638672	47.536457
584.926064	6101.811667	1316.542969	58.080185
584.926064	6101.811667	1315.446289	58.205463
584.926064	6101.811667	1314.349609	48.431461
584.926064	6101.811667	1313.251953	-13.975233
584.926064	6101.811667	1312.155273	105.622917
584.926064	6101.811667	1311.057617	101.070175
584.926064	6101.811667	1309.959961	99.519287
584.926064	6101.811667	1308.862305	116.011932
584.926064	6101.811667	1307.763672	86.820793
584.926064	6101.811667	1306.665039	28.439917
584.926064	6101.811667	1305.566406	47.673454
584.926064	6101.811667	1304.467773	97.207382
584.926064	6101.811667	1303.369141	85.597321
584.926064	6101.811667	1302.269531	31.653538
584.926064	6101.811667	1301.169922	16.222149
584.926064	6101.811667	1300.070313	49.492561
584.926064	6101.811667	1298.970703	113.085579
584.926064	6101.811667	1297.870117	20.231380
584.926064	6101.811667	1296.769531	198.020248
584.926064	6101.811667	1295.668945	21.841787
584.926064	6101.811667	1294.568359	55.921539
584.926064	6101.811667	1293.466797	199.598816
584.926064	6101.811667	1292.366211	-26.359335
584.926064	6101.811667	1291.264648	43.087814
584.926064	6101.811667	1290.162109	26.746855
584.926064	6101.811667	1289.060547	44.507431
584.926064	6101.811667	1287.958008	-88.386887
584.926064	6101.811667	1286.855469	55.227474
584.926064	6101.811667	1285.752930	-13.841180
584.926064	6101.811667	1284.650391	56.068256
584.926064	6101.811667	1283.546875	54.905910
584.926064	6101.811667	1282.444336	74.052200
584.926064	6101.811667	1281.339844	28.210329
584.926064	6101.811667	1280.236328	145.377243
584.926064	6101.811667	1279.132813	113.111214
584.926064	6101.811667	1278.028320	131.154587
584.926064	6101.811667	1276.923828	146.862381
584.926064	6101.811667	1275.819336	95.356644
584.926064	6101.811667	1274.713867	23.527172
584.926064	6101.811667	1273.608398	-5.879646
584.926064	6101.811667	1272.503906	-13.210910
584.926064	6101.811667	1271.397461	-0.001799
584.926064	6101.811667	1270.291992	130.024780
584.926064	6101.811667	1269.185547	-11.119405
584.926064	6101.811667	1268.080078	65.209381
584.926064	6101.811667	1266.972656	15.993981
584.926064	6101.811667	1265.866211	2.537178
584.926064	6101.811667	1264.759766	3.922604
584.926064	6101.811667	1263.652344	-77.043709
584.926064	6101.811667	1262.544922	-75.148277
584.926064	6101.811667	1261.436523	-17.592407
584.926064	6101.811667	1260.329102	-32.454704
584.926064	6101.811667	1259.220703	31.661793
584.926064	6101.811667	1258.112305	-48.990837
584.926064	6101.811667	1257.003906	-60.291008
584.926064	6101.811667	1255.895508	41.555714
584.926064	6101.811667	1254.786133	-10.418338
584.926064	6101.811667	1253.676758	-2.480840
584.926064	6101.811667	1252.567383	-38.386181
584.926064	6101.811667	1251.458008	-23.745428
584.926064	6101.811667	1250.347656	55.448093
584.926064	6101.811667	1249.237305	2.753884
584.926064	6101.811667	1248.126953	-18.470131
584.926064	6101.811667	1247.016602	7.355896
584.926064	6101.811667	1245.905273	-95.591927
584.926064	6101.811667	1244.793945	-10.394466
584.926064	6101.811667	1243.682617	-94.266541
584.926064	6101.811667	1242.571289	-47.297729
584.926064	6101.811667	1241.459961	27.576445
584.926064	6101.811667	1240.347656	-76.954987
584.926064	6101.811667	1239.235352	-79.068565
584.926064	6101.811667	1238.123047	-30.308937
584.926064	6101.811667	1237.009766	-36.323990
584.926064	6101.811667	1235.897461	-10.180654
584.926064	6101.811667	1234.784180	-30.522884
584.926064	6101.811667	1233.670898	-23.665617
584.926064	6101.811667	1232.556641	-23.319252
584.926064	6101.811667	1231.443359	-12.772116
584.926064	6101.811667	1230.329102	-29.290747
584.926064	6101.811667	1229.214844	20.365604
584.926064	6101.811667	1228.099609	7.784379
584.926064	6101.811667	1226.985352	3.982707
584.926064	6101.811667	1225.870117	83.610291
584.926064	6101.811667	1224.754883	8.711843
584.926064	6101.811667	1223.639648	15.750070
584.926064	6101.811667	1222.523438	60.419575
584.926064	6101.811667	1221.408203	17.180893
584.926064	6101.811667	1220.291992	35.581154
584.926064	6101.811667	1219.174805	69.071327
584.926064	6101.811667	1218.058594	111.797035
584.926064	6101.811667	1216.941406	88.792442
584.926064	6101.811667	1215.824219	64.666283
584.926064	6101.811667	1214.707031	78.197182
584.926064	6101.811667	1213.589844	45.772652
584.926064	6101.811667	1212.471680	50.576298
584.926064	6101.811667	1211.353516	8.826977
584.926064	6101.811667	1210.235352	81.896576
584.926064	6101.811667	1209.117188	-24.139395
584.926064	6101.811667	1207.998047	97.145584
584.926064	6101.811667	1206.878906	91.628593
584.926064	6101.811667	1205.759766	51.321655
584.926064	6101.811667	1204.640625	1.155761
584.926064	6101.811667	1203.520508	-9.227487
584.926064	6101.811667	1202.401367	29.076906
584.926064	6101.811667	1201.281250	-26.454073
584.926064	6101.811667	1200.160156	-65.513710
584.926064	6101.811667	1199.040039	-85.534157
584.926064	6101.811667	1197.918945	-14.366063
584.926064	6101.811667	1196.797852	10.749757
584.926064	6101.811667	1195.676758	-13.049651
584.926064	6101.811667	1194.555664	11.403768
584.926064	6101.811667	1193.433594	-11.719090
584.926064	6101.811667	1192.311523	7.854651
584.926064	6101.811667	1191.189453	-90.257729
584.926064	6101.811667	1190.066406	-23.312098
584.926064	6101.811667	1188.944336	-15.342599
584.926064	6101.811667	1187.821289	11.632360
584.926064	6101.811667	1186.698242	-46.978828
584.926064	6101.811667	1185.574219	-21.899557
584.926064	6101.811667	1184.451172	11.123398
584.926064	6101.811667	1183.327148	51.300140
584.926064	6101.811667	1182.203125	7.606208
584.926064	6101.811667	1181.078125	-10.007959
584.926064	6101.811667	1179.954102	46.269958
584.926064	6101.811667	1178.829102	37.694984
584.926064	6101.811667	1177.704102	-32.211926
584.926064	6101.811667	1176.579102	-30.070532
584.926064	6101.811667	1175.453125	-87.590065
584.926064	6101.811667	1174.327148	-113.925346
584.926064	6101.811667	1173.201172	-95.654869
584.926064	6101.811667	1172.075195	-65.511681
584.926064	6101.811667	1170.949219	-45.752754
584.926064	6101.811667	1169.822266	1.757422
584.926064	6101.811667	1168.695313	-56.775856
584.926064	6101.811667	1167.568359	-7.102470
584.926064	6101.811667	1166.440430	78.102539
584.926064	6101.811667	1165.313477	18.774561
584.926064	6101.811667	1164.185547	-45.766914
584.926064	6101.811667	1163.057617	-82.062431
584.926064	6101.811667	1161.928711	-114.898605
584.926064	6101.811667	1160.800781	-66.142517
584.926064	6101.811667	1159.671875	-52.668041
584.926064	6101.811667	1158.541992	-32.576366
584.926064	6101.811667	1157.413086	48.254421
584.926064	6101.811667	1156.283203	-87.225075
584.926064	6101.811667	1155.154297	-43.600700
584.926064	6101.811667	1154.023438	73.104424
584.926064	6101.811667	1152.893555	-36.642475
584.926064	6101.811667	1151.763672	29.386658
584.926064	6101.811667	1150.632813	-32.070587
584.926064	6101.811667	1149.501953	-8.005920
584.926064	6101.811667	1148.370117	-33.904652
584.926064	6101.811667	1147.239258	37.221813
584.926064	6101.811667	1146.107422	-20.118746
584.926064	6101.811667	1144.975586	23.670815
584.926064	6101.811667	1143.843750	-46.195007
584.926064	6101.811667	1142.710938	-69.213959
584.926064	6101.811667	1141.578125	5.955009
584.926064	6101.811667	1140.445313	23.060326
584.926064	6101.811667	1139.312500	64.139732
584.926064	6101.811667	1138.178711	-32.692932
584.926064	6101.811667	1137.045898	101.922485
584.926064	6101.811667	1135.912109	107.842430
584.926064	6101.811667	1134.777344	57.867367
584.926064	6101.811667	1133.643555	-11.662366
584.926064	6101.811667	1132.508789	-26.240379
584.926064	6101.811667	1131.374023	105.017319
584.926064	6101.811667	1130.239258	94.619667
584.926064	6101.811667	1129.104492	79.244301
584.926064	6101.811667	1127.968750	75.577370
584.926064	6101.811667	1126.833008	42.340752
584.926064	6101.811667	1125.697266	189.808517
584.926064	6101.811667	1124.560547	44.571625
584.926064	6101.811667	1123.424805	78.263565
584.926064	6101.811667	1122.288086	115.533875
584.926064	6101.811667	1121.151367	14.392485
584.926064	6101.811667	1120.013672	54.624714
584.926064	6101.811667	1118.876953	14.456303
584.926064	6101.811667	1117.739258	79.611534
584.926064	6101.811667	1116.601563	43.155506
584.926064	6101.811667	1115.462891	147.263687
584.926064	6101.811667	1114.324219	71.773140
584.926064	6101.811667	1113.186523	68.155655
584.926064	6101.811667	1112.046875	40.300186
584.926064	6101.811667	1110.908203	173.574448
584.926064	6101.811667	1109.769531	79.263306
584.926064	6101.811667	1108.629883	89.544220
584.926064	6101.811667	1107.490234	60.061836
584.926064	6101.811667	1106.349609	117.131821
584.926064	6101.811667	1105.209961	-0.294885
584.926064	6101.811667	1104.069336	106.924370
584.926064	6101.811667	1102.928711	128.648804
584.926064	6101.811667	1101.787109	77.745621
584.926064	6101.811667	1100.646484	50.288513
584.926064	6101.811667	1099.504883	118.573273
584.926064	6101.811667	1098.363281	49.460785
584.926064	6101.811667	1097.221680	101.467339
584.926064	6101.811667	1096.079102	40.420860
584.926064	6101.811667	1094.936523	180.273056
584.926064	6101.811667	1093.793945	29.920565
584.926064	6101.811667	1092.651367	-0.500704
584.926064	6101.811667	1091.507813	56.719547
584.926064	6101.811667	1090.364258	60.308372
584.926064	6101.811667	1089.220703	25.960272
584.926064	6101.811667	1088.077148	70.645134
584.926064	6101.811667	1086.933594	14.547683
584.926064	6101.811667	1085.789063	52.414894
584.926064	6101.811667	1084.644531	132.788223
584.926064	6101.811667	1083.499023	50.700798
584.926064	6101.811667	1082.354492	88.697220
584.926064	6101.811667	1081.208984	-1.144703
584.926064	6101.811667	1080.063477	152.517715
584.926064	6101.811667	1078.917969	-13.667883
584.926064	6101.811667	1077.771484	90.769638
584.926064	6101.811667	1076.625977	170.595505
584.926064	6101.811667	1075.479492	8.254789
584.926064	6101.811667	1074.332031	39.939106
584.926064	6101.811667	1073.185547	43.084503
584.926064	6101.811667	1072.038086	-64.228127
584.926064	6101.811667	1070.890625	-5.644943
584.926064	6101.811667	1069.743164	22.890856
584.926064	6101.811667	1068.594727	-29.790607
584.926064	6101.811667	1067.447266	125.896027
584.926064	6101.811667	1066.298828	16.197771
584.926064	6101.811667	1065.149414	126.415115
584.926064	6101.811667	1064.000977	135.139206
584.926064	6101.811667	1062.851563	105.670334
584.926064	6101.811667	1061.702148	28.942345
584.926064	6101.811667	1060.552734	158.845520
584.926064	6101.811667	1059.402344	96.401016
584.926064	6101.811667	1058.252930	139.091431
584.926064	6101.811667	1057.102539	40.939861
584.926064	6101.811667	1055.951172	109.882530
584.926064	6101.811667	1054.800781	146.817993
584.926064	6101.811667	1053.649414	120.891975
584.926064	6101.811667	1052.498047	83.235466
584.926064	6101.811667	1051.346680	74.713364
584.926064	6101.811667	1050.194336	108.099335
584.926064	6101.811667	1049.042969	49.581364
584.926064	6101.811667	1047.890625	30.116819
584.926064	6101.811667	1046.738281	-49.228809
584.926064	6101.811667	1045.584961	-92.994293
584.926064	6101.811667	1044.431641	90.222252
584.926064	6101.811667	1043.278320	58.769608
584.926064	6101.811667	1042.125000	3.017057
584.926064	6101.811667	1040.971680	35.041405
584.926064	6101.811667	1039.817383	163.841064
584.926064	6101.811667	1038.663086	120.233849
584.926064	6101.811667	1037.508789	5.927918
584.926064	6101.811667	1036.353516	132.336761
584.926064	6101.811667	1035.198242	80.046204
584.926064	6101.811667	1034.042969	-1.140857
584.926064	6101.811667	1032.887695	96.716133
584.926064	6101.811667	1031.732422	41.852665
584.926064	6101.811667	1030.576172	100.646164
584.926064	6101.811667	1029.419922	19.190693
584.926064	6101.811667	1028.263672	85.361877
584.926064	6101.811667	1027.106445	90.430740
584.926064	6101.811667	1025.949219	103.049400
584.926064	6101.811667	1024.792969	127.445595
584.926064	6101.811667	1023.634766	54.485455
584.926064	6101.811667	1022.477539	11.173224
584.926064	6101.811667	1021.319336	-14.868506
584.926064	6101.811667	1020.161133	8.895597
584.926064	6101.811667	1019.002930	89.978355
584.926064	6101.811667	1017.843750	49.809113
584.926064	6101.811667	1016.684570	0.905088
584.926064	6101.811667	1015.525391	71.059364
584.926064	6101.811667	1014.366211	52.885834
584.926064	6101.811667	1013.207031	52.336754
584.926064	6101.811667	1012.046875	-14.570552
584.926064	6101.811667	1010.886719	14.704474
584.926064	6101.811667	1009.726563	8.159990
584.926064	6101.811667	1008.565430	103.452034
584.926064	6101.811667	1007.404297	53.619648
584.926064	6101.811667	1006.243164	-91.511871
584.926064	6101.811667	1005.082031	26.629356
584.926064	6101.811667	1003.920898	-1.564470
584.926064	6101.811667	1002.758789	40.289330
584.926064	6101.811667	1001.596680	6.902061
584.926064	6101.811667	1000.433594	-66.277397
584.926064	6101.811667	999.271484	130.717514
584.926064	6101.811667	998.108398	113.818420
584.926064	6101.811667	996.945313	27.361286
584.926064	6101.811667	995.782227	-44.077370
584.926064	6101.811667	994.618164	99.878654
584.926064	6101.811667	993.454102	131.967621
584.926064	6101.811667	992.290039	115.616623
584.926064	6101.811667	991.125977	99.309631
584.926064	6101.811667	989.960938	-13.660827
584.926064	6101.811667	988.796875	124.505211
584.926064	6101.811667	987.630859	55.978706
584.926064	6101.811667	986.465820	93.420387
584.926064	6101.811667	985.300781	31.063240
584.926064	6101.811667	984.134766	46.856136
584.926064	6101.811667	982.968750	-79.871788
584.926064	6101.811667	981.801758	10.298111
584.926064	6101.811667	980.635742	-23.957554
584.926064	6101.811667	979.468750	79.177933
584.926064	6101.811667	978.301758	67.363701
584.926064	6101.811667	977.133789	54.236237
584.926064	6101.811667	975.966797	58.343567
584.926064	6101.811667	974.798828	-22.644169
584.926064	6101.811667	973.630859	32.169132
584.926064	6101.811667	972.461914	-31.998192
584.926064	6101.811667	971.293945	11.791622
584.926064	6101.811667	970.125000	-75.606575
584.926064	6101.811667	968.956055	81.937614
584.926064	6101.811667	967.786133	-20.626698
584.926064	6101.811667	966.617188	-68.227631
584.926064	6101.811667	965.447266	154.526672
584.926064	6101.811667	964.276367	133.737411
584.926064	6101.811667	963.106445	4.902074
584.926064	6101.811667	961.935547	42.864326
584.926064	6101.811667	960.764648	-46.125973
584.926064	6101.811667	959.593750	79.023247
584.926064	6101.811667	958.422852	207.801010
584.926064	6101.811667	957.250977	8.263309
584.926064	6101.811667	956.079102	20.156731
584.926064	6101.811667	954.907227	32.928558
584.926064	6101.811667	953.734375	30.374323
584.926064	6101.811667	952.562500	5.115919
584.926064	6101.811667	951.389648	-57.837627
584.926064	6101.811667	950.215820	-3.391280
584.926064	6101.811667	949.042969	-23.951099
584.926064	6101.811667	947.869141	42.348984
584.926064	6101.811667	946.695313	0.629413
584.926064	6101.811667	945.521484	95.574509
584.926064	6101.811667	944.346680	93.826141
584.926064	6101.811667	943.172852	-82.108658
584.926064	6101.811667	941.998047	156.241135
584.926064	6101.811667	940.822266	93.332336
584.926064	6101.811667	939.647461	-6.962893
584.926064	6101.811667	938.471680	24.235254
584.926064	6101.811667	937.295898	98.024818
584.926064	6101.811667	936.119141	105.807793
584.926064	6101.811667	934.943359	21.998150
584.926064	6101.811667	933.766602	48.910667
584.926064	6101.811667	932.589844	7.318828
584.926064	6101.811667	931.413086	-151.728577
584.926064	6101.811667	930.235352	49.156143
584.926064	6101.811667	929.057617	125.368950
584.926064	6101.811667	927.879883	131.066559
584.926064	6101.811667	926.702148	183.769409
584.926064	6101.811667	925.523438	88.419464
584.926064	6101.811667	924.344727	131.786133
584.926064	6101.811667	923.166016	13.023926
584.926064	6101.811667	921.987305	70.533401
584.926064	6101.811667	920.807617	29.390129
584.926064	6101.811667	919.627930	31.391270
584.926064	6101.811667	919.497070	84.804459
584.926064	6101.811667	918.331055	71.882088
584.926064	6101.811667	917.165039	117.679367
584.926064	6101.811667	915.999023	39.083931
584.926064	6101.811667	914.833008	56.756840
584.926064	6101.811667	913.666016	-63.976242
584.926064	6101.811667	912.499023	-25.129318
584.926064	6101.811667	911.332031	20.761154
584.926064	6101.811667	910.165039	132.309113
584.926064	6101.811667	908.997070	77.394234
584.926064	6101.811667	907.830078	50.648769
584.926064	6101.811667	906.661133	131.733475
584.926064	6101.811667	905.493164	-5.077031
584.926064	6101.811667	904.325195	43.237556
584.926064	6101.811667	903.156250	40.036015
584.926064	6101.811667	901.987305	32.176212
584.926064	6101.811667	900.818359	54.774506
584.926064	6101.811667	899.648438	147.601578
584.926064	6101.811667	898.478516	107.035500
584.926064	6101.811667	897.308594	-50.465843
584.926064	6101.811667	896.138672	42.394085
584.926064	6101.811667	894.968750	-61.198563
584.926064	6101.811667	893.797852	22.320440
584.926064	6101.811667	892.626953	112.840530
584.926064	6101.811667	891.456055	-35.039295
584.926064	6101.811667	890.284180	-21.607065
584.926064	6101.811667	889.113281	1.184108
584.926064	6101.811667	887.941406	84.717781
584.926064	6101.811667	886.768555	-69.949242
584.926064	6101.811667	885.596680	-65.772629
584.926064	6101.811667	884.423828	-47.568439
584.926064	6101.811667	883.250977	-29.350227
584.926064	6101.811667	882.078125	72.880150
584.926064	6101.811667	880.905273	93.441643
584.926064	6101.811667	879.731445	118.682343
584.926064	6101.811667	878.557617	-12.301046
584.926064	6101.811667	877.383789	103.916618
584.926064	6101.811667	876.209961	147.849106
584.926064	6101.811667	875.035156	126.534492
584.926064	6101.811667	873.860352	-32.218426
584.926064	6101.811667	872.685547	39.732037
584.926064	6101.811667	871.510742	-35.053989
584.926064	6101.811667	870.334961	92.794159
584.926064	6101.811667	869.159180	52.990723
584.926064	6101.811667	867.983398	34.171017
584.926064	6101.811667	866.807617	-7.892667
584.926064	6101.811667	865.630859	75.719940
584.926064	6101.811667	864.454102	-80.275040
584.926064	6101.811667	863.277344	-10.597774
584.926064	6101.811667	862.100586	96.272316
584.926064	6101.811667	860.922852	-40.974678
584.926064	6101.811667	859.745117	-20.099272
584.926064	6101.811667	858.567383	-38.717869
584.926064	6101.811667	857.389648	-106.099953
584.926064	6101.811667	856.210938	-64.262169
584.926064	6101.811667	855.032227	40.278797
584.926064	6101.811667	853.853516	5.483439
584.926064	6101.811667	852.674805	84.466782
584.926064	6101.811667	851.495117	-17.592459
584.926064	6101.811667	850.315430	-3.571876
584.926064	6101.811667	849.135742	93.977539
584.926064	6101.811667	847.956055	-82.193703
584.926064	6101.811667	846.775391	-7.822847
584.926064	6101.811667	845.595703	-9.980218
584.926064	6101.811667	844.415039	13.380404
584.926064	6101.811667	843.233398	18.209270
584.926064	6101.811667	842.052734	11.463579
584.926064	6101.811667	840.871094	55.703770
584.926064	6101.811667	839.689453	127.734238
584.926064	6101.811667	838.506836	49.235287
584.926064	6101.811667	837.325195	-54.686588
584.926064	6101.811667	836.142578	-21.981354
584.926064	6101.811667	834.959961	40.809387
584.926064	6101.811667	833.777344	-118.531403
584.926064	6101.811667	832.593750	-32.583645
584.926064	6101.811667	831.410156	2.460876
584.926064	6101.811667	830.226563	-85.048721
584.926064	6101.811667	829.042969	-93.906876
584.926064	6101.811667	827.858398	68.295052
584.926064	6101.811667	826.673828	70.991440
584.926064	6101.811667	825.489258	-2.544762
584.926064	6101.811667	824.304688	14.048976
584.926064	6101.811667	823.120117	0.624450
584.926064	6101.811667	821.934570	51.871334
584.926064	6101.811667	820.749023	15.384851
584.926064	6101.811667	819.562500	8.932080
584.926064	6101.811667	818.376953	11.719533
584.926064	6101.811667	817.190430	-6.244242
584.926064	6101.811667	816.003906	40.394482
584.926064	6101.811667	814.817383	117.003357
584.926064	6101.811667	813.629883	9.141232
584.926064	6101.811667	812.442383	-52.563530
584.926064	6101.811667	811.254883	47.095341
584.926064	6101.811667	810.067383	36.119034
584.926064	6101.811667	808.878906	36.677502
584.926064	6101.811667	807.690430	-41.066750
584.926064	6101.811667	806.501953	26.304707
584.926064	6101.811667	805.313477	17.679766
584.926064	6101.811667	804.124023	32.087292
584.926064	6101.811667	802.934570	74.112610
584.926064	6101.811667	801.745117	1.082828
584.926064	6101.811667	800.555664	-37.403950
584.926064	6101.811667	799.365234	4.632561
584.926064	6101.811667	798.175781	46.654507
584.926064	6101.811667	796.985352	77.173050
584.926064	6101.811667	795.793945	70.911293
584.926064	6101.811667	794.603516	92.230530
584.926064	6101.811667	793.412109	115.846779
584.926064	6101.811667	792.220703	61.357018
584.926064	6101.811667	791.028320	165.362656
584.926064	6101.811667	789.836914	7.567980
584.926064	6101.811667	788.644531	17.427774
584.926064	6101.811667	787.452148	64.009979
584.926064	6101.811667	786.258789	46.327362
584.926064	6101.811667	785.066406	10.298059
584.926064	6101.811667	783.873047	-177.097977
584.926064	6101.811667	782.679688	-2.077250
584.926064	6101.811667	781.485352	53.650848
584.926064	6101.811667	780.291992	189.585251
584.926064	6101.811667	779.097656	-27.476223
584.926064	6101.811667	777.903320	-10.726881
584.926064	6101.811667	776.708008	42.673443
584.926064	6101.811667	775.512695	9.016293
584.926064	6101.811667	774.318359	112.766556
584.926064	6101.811667	773.122070	40.190945
584.926064	6101.811667	771.926758	93.536293
584.926064	6101.811667	770.730469	14.128009
584.926064	6101.811667	769.534180	12.544992
584.926064	6101.811667	768.337891	113.901436
584.926064	6101.811667	767.141602	2.514911
584.926064	6101.811667	765.944336	67.244850
584.926064	6101.811667	764.747070	31.355455
584.926064	6101.811667	763.549805	9.192620
584.926064	6101.811667	762.351563	126.434860
584.926064	6101.811667	761.154297	-0.841461
584.926064	6101.811667	759.956055	180.305954
584.926064	6101.811667	758.757813	121.579575
584.926064	6101.811667	757.558594	122.241875
584.926064	6101.811667	756.359375	118.333702
584.926064	6101.811667	755.160156	55.081566
584.926064	6101.811667	753.960938	115.071083
584.926064	6101.811667	752.761719	86.056114
584.926064	6101.811667	751.561523	31.960724
584.926064	6101.811667	750.361328	130.670517
584.926064	6101.811667	749.160156	53.779499
584.926064	6101.811667	747.959961	-34.486702
584.926064	6101.811667	746.758789	25.415184
584.926064	6101.811667	745.557617	73.892029
584.926064	6101.811667	744.356445	97.282387
584.926064	6101.811667	743.154297	11.334517
584.926064	6101.811667	741.952148	32.437981
584.926064	6101.811667	740.750000	78.567078
584.926064	6101.811667	739.547852	76.868736
584.926064	6101.811667	738.344727	93.370476
584.926064	6101.811667	737.142578	-40.310322
584.926064	6101.811667	735.939453	-85.227676
584.926064	6101.811667	734.735352	-27.792568
584.926064	6101.811667	733.532227	-45.429047
584.926064	6101.811667	732.328125	5.133019
584.926064	6101.811667	731.124023	94.301086
584.926064	6101.811667	729.918945	33.448330
584.926064	6101.811667	728.714844	11.228650
584.926064	6101.811667	727.509766	79.864990
584.926064	6101.811667	726.303711	116.670502
584.926064	6101.811667	725.098633	33.111664
584.926064	6101.811667	723.892578	10.866923
584.926064	6101.811667	722.686523	-45.424004
584.926064	6101.811667	721.480469	38.974930
584.926064	6101.811667	720.274414	87.028046
584.926064	6101.811667	719.067383	-32.787567
584.926064	6101.811667	717.860352	-0.638049
584.926064	6101.811667	716.653320	-0.256092
584.926064	6101.811667	715.445313	-8.952973
584.926064	6101.811667	714.238281	-103.778595
584.926064	6101.811667	713.030273	98.229225
584.926064	6101.811667	711.821289	-148.374146
584.926064	6101.811667	710.613281	-68.769394
584.926064	6101.811667	709.404297	-16.382841
584.926064	6101.811667	708.195313	-0.255253
584.926064	6101.811667	706.986328	18.112135
584.926064	6101.811667	705.776367	77.188957
584.926064	6101.811667	704.566406	-19.880213
584.926064	6101.811667	703.356445	2.954676
584.926064	6101.811667	702.146484	21.239273
584.926064	6101.811667	700.935547	10.108442
584.926064	6101.811667	699.724609	-32.682568
584.926064	6101.811667	698.513672	-57.394257
584.926064	6101.811667	697.302734	26.343018
584.926064	6101.811667	696.090820	-2.923823
584.926064	6101.811667	694.878906	46.852283
584.926064	6101.811667	693.666992	-52.446564
584.926064	6101.811667	692.455078	-65.933624
584.926064	6101.811667	691.242188	-4.946560
584.926064	6101.811667	690.029297	62.764656
584.926064	6101.811667	688.816406	87.559181
584.926064	6101.811667	687.602539	134.882278
584.926064	6101.811667	686.389648	19.783937
584.926064	6101.811667	685.175781	-7.348296
584.926064	6101.811667	683.960938	-9.690948
584.926064	6101.811667	682.747070	78.096611
584.926064	6101.811667	681.532227	-14.440446
584.926064	6101.811667	680.317383	7.936099
584.926064	6101.811667	679.102539	57.310287
584.926064	6101.811667	677.886719	59.352600
584.926064	6101.811667	676.670898	29.851131
584.926064	6101.811667	675.455078	126.394325
584.926064	6101.811667	674.239258	-2.177167
584.926064	6101.811667	673.022461	-0.213197
584.926064	6101.811667	671.805664	129.951370
584.926064	6101.811667	670.588867	3.641579
584.926064	6101.811667	669.372070	-16.954023
584.926064	6101.811667	668.154297	86.085167
584.926064	6101.811667	666.936523	-22.224056
584.926064	6101.811667	665.718750	114.432121
584.926064	6101.811667	664.500977	51.048428
584.926064	6101.811667	663.282227	165.122055
584.926064	6101.811667	662.063477	133.147690
584.926064	6101.811667	660.844727	-2.121401
584.926064	6101.811667	659.625000	75.901291
584.926064	6101.811667	658.405273	142.644104
584.926064	6101.811667	657.185547	101.627426
584.926064	6101.811667	655.965820	69.576241
584.926064	6101.811667	654.745117	30.785957
584.926064	6101.811667	653.525391	135.501328
584.926064	6101.811667	652.303711	15.952530
584.926064	6101.811667	651.083008	138.509033
584.926064	6101.811667	649.861328	269.953339
584.926064	6101.811667	648.640625	206.385635
584.926064	6101.811667	647.417969	174.183044
584.926064	6101.811667	646.196289	195.716553
584.926064	6101.811667	644.973633	-29.088659
584.926064	6101.811667	643.750977	70.780266
584.926064	6101.811667	642.528320	197.438751
584.926064	6101.811667	641.305664	160.663345
584.926064	6101.811667	640.082031	99.268784
584.926064	6101.811667	638.858398	-11.335711
584.926064	6101.811667	637.634766	106.181602
584.926064	6101.811667	636.410156	80.530922
584.926064	6101.811667	635.185547	86.158897
584.926064	6101.811667	633.960938	127.515205
584.926064	6101.811667	632.736328	74.981651
584.926064	6101.811667	631.510742	111.801804
584.926064	6101.811667	630.285156	16.805004
584.926064	6101.811667	629.059570	29.004412
584.926064	6101.811667	627.833984	184.051376
584.926064	6101.811667	626.607422	129.195282
584.926064	6101.811667	625.380859	92.187439
584.926064	6101.811667	624.154297	81.940918
584.926064	6101.811667	622.927734	160.895691
584.926064	6101.811667	621.700195	92.601326
584.926064	6101.811667	620.472656	-33.662907
584.926064	6101.811667	619.245117	47.413803
584.926064	6101.811667	618.016602	-32.037949
584.926064	6101.811667	616.788086	55.634945
584.926064	6101.811667	615.559570	-3.790130
584.926064	6101.811667	614.331055	97.148293
584.926064	6101.811667	613.101563	-44.706852
584.926064	6101.811667	611.872070	-37.363483
584.926064	6101.811667	610.642578	65.662346
584.926064	6101.811667	609.413086	48.444923
584.926064	6101.811667	608.182617	104.631546
584.926064	6101.811667	606.952148	56.217094
584.926064	6101.811667	605.721680	63.395744
584.926064	6101.811667	604.491211	-20.620266
584.926064	6101.811667	603.259766	13.194963
584.926064	6101.811667	602.028320	113.645744
584.926064	6101.811667	600.796875	2.927496
584.926064	6101.811667	599.564453	-16.682964
584.926064	6101.811667	598.332031	32.543812
584.926064	6101.811667	597.099609	52.854027
584.926064	6101.811667	595.867188	-40.101563
584.926064	6101.811667	594.633789	24.557806
584.926064	6101.811667	593.400391	51.435947
584.926064	6101.811667	592.166992	51.650673
584.926064	6101.811667	590.933594	98.424042
584.926064	6101.811667	589.699219	20.952425
584.926064	6101.811667	588.464844	116.443260
584.926064	6101.811667	587.230469	47.816620
584.926064	6101.811667	585.995117	65.635040
584.926064	6101.811667	584.760742	87.851540
584.926064	6101.811667	583.525391	63.508743
584.926064	6101.811667	582.289063	103.387032
584.926064	6101.811667	581.053711	83.429794
584.926064	6101.811667	579.817383	200.729111
584.926064	6101.811667	578.581055	147.506546
584.926064	6101.811667	577.343750	87.643349
584.926064	6101.811667	576.107422	133.987885
584.926064	6101.811667	574.870117	116.135765
584.926064	6101.811667	573.631836	122.596146
584.926064	6101.811667	572.394531	111.339584
584.926064	6101.811667	571.156250	164.176910
584.926064	6101.811667	569.917969	-1.851061
584.926064	6101.811667	568.679688	112.815697
584.926064	6101.811667	567.440430	119.152580
584.926064	6101.811667	566.202148	54.779747
584.926064	6101.811667	564.961914	138.375107
584.926064	6101.811667	563.722656	204.248520
584.926064	6101.811667	562.482422	78.022606
584.926064	6101.811667	561.243164	86.454643
584.926064	6101.811667	560.001953	61.764084
584.926064	6101.811667	558.761719	26.031767
584.926064	6101.811667	557.520508	-29.556581
584.926064	6101.811667	556.279297	29.523239
584.926064	6101.811667	555.038086	57.691650
584.926064	6101.811667	553.795898	-15.563651
584.926064	6101.811667	552.554688	30.190897
584.926064	6101.811667	551.311523	-10.019662
584.926064	6101.811667	550.069336	-63.449337
584.926064	6101.811667	548.826172	134.183350
584.926064	6101.811667	547.583984	-29.383728
584.926064	6101.811667	546.339844	119.689018
584.926064	6101.811667	545.096680	-103.266296
584.926064	6101.811667	543.852539	102.931099
584.926064	6101.811667	542.608398	100.029739
584.926064	6101.811667	541.364258	101.510109
584.926064	6101.811667	540.119141	135.956467
584.926064	6101.811667	538.875000	80.231911
584.926064	6101.811667	537.628906	-30.437056
584.926064	6101.811667	536.383789	43.519779
584.926064	6101.811667	535.137695	44.923878
584.926064	6101.811667	533.892578	81.456825
584.926064	6101.811667	532.645508	5.953844
584.926064	6101.811667	531.399414	42.447231
584.926064	6101.811667	530.152344	89.885056
584.926064	6101.811667	528.905273	-7.565542
584.926064	6101.811667	527.658203	-12.830295
584.926064	6101.811667	526.410156	131.070419
584.926064	6101.811667	525.163086	86.268784
584.926064	6101.811667	523.914063	23.928890
584.926064	6101.811667	522.666016	-49.359840
584.926064	6101.811667	521.416992	-21.803307
584.926064	6101.811667	520.167969	58.322598
584.926064	6101.811667	518.918945	-28.112947
584.926064	6101.811667	517.669922	113.287804
584.926064	6101.811667	516.419922	-54.179459
584.926064	6101.811667	515.169922	23.643490
584.926064	6101.811667	513.919922	-29.924467
584.926064	6101.811667	512.668945	-28.766140
584.926064	6101.811667	511.417969	35.836529
584.926064	6101.811667	510.166992	-13.359106
584.926064	6101.811667	508.916016	-5.677485
584.926064	6101.811667	507.664063	-15.504145
584.926064	6101.811667	506.412109	-53.758457
584.926064	6101.811667	505.160156	-85.449440
584.926064	6101.811667	503.907227	-110.581070
584.926064	6101.811667	502.655273	-113.862900
584.926064	6101.811667	501.402344	-16.671570
584.926064	6101.811667	500.148438	-26.543476
584.926064	6101.811667	498.895508	-29.869537
584.926064	6101.811667	497.641602	-24.471762
584.926064	6101.811667	496.387695	-21.267298
584.926064	6101.811667	495.132813	-55.167919
584.926064	6101.811667	493.878906	2.564145
584.926064	6101.811667	492.624023	-133.854858
584.926064	6101.811667	491.368164	-34.715260
584.926064	6101.811667	490.113281	97.076431
584.926064	6101.811667	488.857422	98.022293
584.926064	6101.811667	487.601563	-18.717665
584.926064	6101.811667	486.344727	-41.728653
584.926064	6101.811667	485.088867	-45.131516
584.926064	6101.811667	483.832031	-94.274574
584.926064	6101.811667	482.575195	-34.535706
584.926064	6101.811667	481.317383	46.939056
584.926064	6101.811667	480.059570	23.904654
584.926064	6101.811667	478.801758	-51.348518
584.926064	6101.811667	477.543945	71.391815
584.926064	6101.811667	476.285156	17.897991
584.926064	6101.811667	475.027344	84.020607
584.926064	6101.811667	473.767578	-36.861252
584.926064	6101.811667	472.508789	48.794361
584.926064	6101.811667	471.249023	27.924076
584.926064	6101.811667	469.989258	-40.741634
584.926064	6101.811667	468.729492	7.914203
584.926064	6101.811667	467.469727	128.209946
584.926064	6101.811667	466.208984	57.377792
584.926064	6101.811667	464.948242	38.668915
584.926064	6101.811667	463.686523	-69.020966
584.926064	6101.811667	462.425781	64.182373
584.926064	6101.811667	461.164063	78.006401
584.926064	6101.811667	459.901367	35.426117
584.926064	6101.811667	458.639648	-20.152050
584.926064	6101.811667	457.376953	-41.025616
584.926064	6101.811667	456.114258	-42.389030
584.926064	6101.811667	454.851563	25.586418
584.926064	6101.811667	453.587891	41.527718
584.926064	6101.811667	452.324219	-57.348003
584.926064	6101.811667	451.060547	36.552559
584.926064	6101.811667	449.796875	-44.972481
584.926064	6101.811667	448.532227	16.398586
584.926064	6101.811667	447.267578	58.257347
584.926064	6101.811667	446.002930	-18.916512
584.926064	6101.811667	444.737305	33.730873
584.926064	6101.811667	443.471680	-30.445543
584.926064	6101.811667	442.206055	-44.869457
584.926064	6101.811667	440.940430	111.491470
584.926064	6101.811667	439.673828	-73.728752
584.926064	6101.811667	438.407227	-23.336376
584.926064	6101.811667	437.140625	31.343933
584.926064	6101.811667	435.873047	53.588413
584.926064	6101.811667	434.605469	-1.931935
584.926064	6101.811667	433.337891	-25.055054
584.926064	6101.811667	432.070313	59.749256
584.926064	6101.811667	430.801758	12.855968
584.926064	6101.811667	429.533203	47.960167
584.926064	6101.811667	428.264648	72.247971
584.926064	6101.811667	426.996094	40.434517
584.926064	6101.811667	425.726563	56.055744
584.926064	6101.811667	424.457031	170.819839
584.926064	6101.811667	423.186523	89.380096
584.926064	6101.811667	421.916992	-30.830008
584.926064	6101.811667	420.646484	64.431602
584.926064	6101.811667	419.375977	32.549305
584.926064	6101.811667	418.104492	155.707916
584.926064	6101.811667	416.833008	110.856949
584.926064	6101.811667	415.561523	68.154350
584.926064	6101.811667	414.290039	31.902086
584.926064	6101.811667	413.017578	79.551590
584.926064	6101.811667	411.746094	43.260216
584.926064	6101.811667	410.472656	32.763176
584.926064	6101.811667	409.200195	30.842957
584.926064	6101.811667	407.926758	170.774811
584.926064	6101.811667	406.653320	1.120404
584.926064	6101.811667	405.379883	48.534912
584.926064	6101.811667	404.105469	108.783775
584.926064	6101.811667	402.831055	57.281624
584.926064	6101.811667	401.556641	37.975491
584.926064	6101.811667	400.282227	149.601929
584.926064	6101.811667	399.006836	-52.245544
584.926064	6101.811667	397.731445	82.874695
584.926064	6101.811667	396.456055	44.104584
584.926064	6101.811667	395.179688	56.786156
584.926064	6101.811667	393.903320	60.836826
584.926064	6101.811667	392.626953	28.386396
584.926064	6101.811667	391.350586	145.956223
584.926064	6101.811667	390.073242	126.255669
584.926064	6101.811667	388.795898	61.511635
584.926064	6101.811667	387.518555	33.157429
584.926064	6101.811667	386.240234	90.427498
584.926064	6101.811667	384.961914	76.947388
584.926064	6101.811667	383.683594	50.564766
584.926064	6101.811667	382.405273	-10.118830
584.926064	6101.811667	381.125977	-23.766603
584.926064	6101.811667	379.846680	30.984234
584.926064	6101.811667	378.567383	59.970619
584.926064	6101.811667	377.287109	48.234566
584.926064	6101.811667	376.006836	124.086823
584.926064	6101.811667	374.726563	251.128540
584.926064	6101.811667	373.446289	136.533295
584.926064	6101.811667	372.165039	98.820137
584.926064	6101.811667	370.883789	33.263645
584.926064	6101.811667	369.602539	89.381432
584.926064	6101.811667	368.320313	164.595184
584.926064	6101.811667	367.039063	-67.734833
584.926064	6101.811667	365.755859	62.771591
584.926064	6101.811667	364.473633	-5.333584
584.926064	6101.811667	363.190430	56.619762
584.926064	6101.811667	361.907227	-120.457832
584.926064	6101.811667	360.624023	-48.070515
584.926064	6101.811667	359.340820	-3.549655
584.926064	6101.811667	358.056641	-65.752190
584.926064	6101.811667	356.772461	-57.727043
584.926064	6101.811667	355.487305	-49.838345
584.926064	6101.811667	354.202148	-54.868156
584.926064	6101.811667	352.916992	-0.401695
584.926064	6101.811667	351.631836	56.028473
584.926064	6101.811667	350.346680	82.484665
584.926064	6101.811667	349.060547	-23.180695
584.926064	6101.811667	347.774414	9.355860
584.926064	6101.811667	346.487305	20.440952
584.926064	6101.811667	345.200195	-92.004982
584.926064	6101.811667	343.913086	-8.935485
584.926064	6101.811667	342.625977	-55.762188
584.926064	6101.811667	341.338867	16.283592
584.926064	6101.811667	340.050781	-3.268091
584.926064	6101.811667	338.762695	93.853668
584.926064	6101.811667	337.473633	42.044136
584.926064	6101.811667	336.184570	-67.281670
584.926064	6101.811667	334.895508	-96.081909
584.926064	6101.811667	333.606445	17.145370
584.926064	6101.811667	332.317383	26.114891
584.926064	6101.811667	331.027344	-22.436134
584.926064	6101.811667	329.736328	-41.500008
584.926064	6101.811667	328.446289	19.811167
584.926064	6101.811667	327.155273	21.477501
584.926064	6101.811667	325.864258	50.457092
584.926064	6101.811667	324.573242	-62.836075
584.926064	6101.811667	323.281250	31.321932
584.926064	6101.811667	321.989258	-63.381363
584.926064	6101.811667	320.697266	-35.463985
584.926064	6101.811667	319.405273	9.103534
584.926064	6101.811667	318.112305	-44.033356
584.926064	6101.811667	316.819336	4.163005
584.926064	6101.811667	315.526367	107.061050
584.926064	6101.811667	314.232422	27.637674
584.926064	6101.811667	312.938477	-22.452026
584.926064	6101.811667	311.644531	-15.741152
584.926064	6101.811667	310.349609	75.203819
584.926064	6101.811667	309.054688	-45.627522
584.926064	6101.811667	307.759766	150.272079
584.926064	6101.811667	306.464844	26.660963
584.926064	6101.811667	305.168945	59.060608
584.926064	6101.811667	303.873047	171.333115
584.926064	6101.811667	302.577148	211.378708
584.926064	6101.811667	301.281250	88.453896
584.926064	6101.811667	299.984375	134.031052
