#X		#Y		#Wave		#Intensity
401.757979	6305.023333	1999.946289	64.567490
401.757979	6305.023333	1998.981445	6.960420
401.757979	6305.023333	1998.017578	11.246118
401.757979	6305.023333	1997.052734	10.365298
401.757979	6305.023333	1996.088867	-37.817127
401.757979	6305.023333	1995.124023	74.836731
401.757979	6305.023333	1994.159180	-85.197159
401.757979	6305.023333	1993.193359	4.740132
401.757979	6305.023333	1992.228516	-39.255604
401.757979	6305.023333	1991.262695	18.072630
401.757979	6305.023333	1990.296875	18.268719
401.757979	6305.023333	1989.331055	211.288361
401.757979	6305.023333	1988.365234	-33.836636
401.757979	6305.023333	1987.398438	-88.574928
401.757979	6305.023333	1986.432617	54.373257
401.757979	6305.023333	1985.465820	-5.643039
401.757979	6305.023333	1984.499023	-11.412266
401.757979	6305.023333	1983.532227	158.152664
401.757979	6305.023333	1982.565430	243.478622
401.757979	6305.023333	1981.597656	-64.220856
401.757979	6305.023333	1980.629883	47.998585
401.757979	6305.023333	1979.662109	113.106575
401.757979	6305.023333	1978.694336	274.357819
401.757979	6305.023333	1977.726563	344.062622
401.757979	6305.023333	1976.758789	383.986328
401.757979	6305.023333	1975.790039	149.825577
401.757979	6305.023333	1974.821289	253.680466
401.757979	6305.023333	1973.852539	-2.821544
401.757979	6305.023333	1972.883789	-47.216198
401.757979	6305.023333	1971.915039	-47.318573
401.757979	6305.023333	1970.945313	28.910818
401.757979	6305.023333	1969.975586	-25.657085
401.757979	6305.023333	1969.005859	109.478859
401.757979	6305.023333	1968.036133	249.390030
401.757979	6305.023333	1967.066406	196.964188
401.757979	6305.023333	1966.096680	11.434674
401.757979	6305.023333	1965.125977	52.479668
401.757979	6305.023333	1964.155273	221.467468
401.757979	6305.023333	1963.184570	-47.944889
401.757979	6305.023333	1962.213867	-21.951012
401.757979	6305.023333	1961.242188	102.400108
401.757979	6305.023333	1960.271484	152.796219
401.757979	6305.023333	1959.299805	67.787872
401.757979	6305.023333	1958.328125	216.411591
401.757979	6305.023333	1957.356445	-63.015789
401.757979	6305.023333	1956.384766	225.584274
401.757979	6305.023333	1955.412109	61.666889
401.757979	6305.023333	1954.439453	-107.174698
401.757979	6305.023333	1953.467773	156.493790
401.757979	6305.023333	1952.495117	41.622910
401.757979	6305.023333	1951.521484	69.219437
401.757979	6305.023333	1950.548828	-156.239838
401.757979	6305.023333	1949.575195	192.956787
401.757979	6305.023333	1948.601563	109.851913
401.757979	6305.023333	1947.627930	-51.828930
401.757979	6305.023333	1946.654297	-130.055557
401.757979	6305.023333	1945.680664	-56.165009
401.757979	6305.023333	1944.706055	-178.617432
401.757979	6305.023333	1943.732422	137.997040
401.757979	6305.023333	1942.757813	49.796272
401.757979	6305.023333	1941.783203	160.197906
401.757979	6305.023333	1940.807617	-18.762436
401.757979	6305.023333	1939.833008	108.684654
401.757979	6305.023333	1938.857422	22.844032
401.757979	6305.023333	1937.881836	208.968307
401.757979	6305.023333	1936.906250	39.775730
401.757979	6305.023333	1935.930664	-90.200104
401.757979	6305.023333	1934.955078	24.720875
401.757979	6305.023333	1933.978516	239.952637
401.757979	6305.023333	1933.001953	102.574944
401.757979	6305.023333	1932.025391	28.852695
401.757979	6305.023333	1931.048828	-289.569336
401.757979	6305.023333	1930.072266	-47.645092
401.757979	6305.023333	1929.094727	-72.456032
401.757979	6305.023333	1928.118164	29.885786
401.757979	6305.023333	1927.140625	78.374390
401.757979	6305.023333	1926.163086	217.276016
401.757979	6305.023333	1925.184570	-78.968582
401.757979	6305.023333	1924.207031	10.990519
401.757979	6305.023333	1923.228516	-77.464317
401.757979	6305.023333	1922.250000	124.797379
401.757979	6305.023333	1921.271484	104.704193
401.757979	6305.023333	1920.292969	-93.663940
401.757979	6305.023333	1919.314453	-52.707615
401.757979	6305.023333	1918.334961	15.073134
401.757979	6305.023333	1917.355469	38.881958
401.757979	6305.023333	1916.375977	-59.340992
401.757979	6305.023333	1915.396484	205.973312
401.757979	6305.023333	1914.416992	19.914392
401.757979	6305.023333	1913.436523	-90.481895
401.757979	6305.023333	1912.457031	-20.417322
401.757979	6305.023333	1911.476563	66.677216
401.757979	6305.023333	1910.496094	292.661530
401.757979	6305.023333	1909.515625	114.013657
401.757979	6305.023333	1908.534180	-123.050056
401.757979	6305.023333	1907.552734	210.001053
401.757979	6305.023333	1906.572266	46.051189
401.757979	6305.023333	1905.590820	128.106659
401.757979	6305.023333	1904.608398	-62.558762
401.757979	6305.023333	1903.626953	-94.940796
401.757979	6305.023333	1902.644531	-17.794025
401.757979	6305.023333	1901.663086	88.510818
401.757979	6305.023333	1900.680664	68.263016
401.757979	6305.023333	1899.698242	103.960907
401.757979	6305.023333	1898.714844	120.185730
401.757979	6305.023333	1897.732422	-21.653982
401.757979	6305.023333	1896.749023	-22.442915
401.757979	6305.023333	1895.765625	-193.380051
401.757979	6305.023333	1894.782227	34.283794
401.757979	6305.023333	1893.798828	116.074158
401.757979	6305.023333	1892.814453	122.525223
401.757979	6305.023333	1891.831055	99.818939
401.757979	6305.023333	1890.846680	196.106552
401.757979	6305.023333	1889.862305	173.385284
401.757979	6305.023333	1888.877930	-72.654381
401.757979	6305.023333	1887.892578	96.405418
401.757979	6305.023333	1886.908203	102.815948
401.757979	6305.023333	1885.922852	58.275154
401.757979	6305.023333	1884.937500	-61.449265
401.757979	6305.023333	1883.952148	-127.781174
401.757979	6305.023333	1882.965820	159.913971
401.757979	6305.023333	1881.980469	-68.871376
401.757979	6305.023333	1880.994141	5.399468
401.757979	6305.023333	1880.007813	-53.647453
401.757979	6305.023333	1879.021484	15.734825
401.757979	6305.023333	1878.035156	29.367464
401.757979	6305.023333	1877.047852	-61.152233
401.757979	6305.023333	1876.061523	197.049057
401.757979	6305.023333	1875.074219	142.833023
401.757979	6305.023333	1874.086914	1.488783
401.757979	6305.023333	1873.098633	46.545185
401.757979	6305.023333	1872.111328	118.189041
401.757979	6305.023333	1871.123047	83.356163
401.757979	6305.023333	1870.135742	-28.876989
401.757979	6305.023333	1869.147461	103.178268
401.757979	6305.023333	1868.158203	65.927917
401.757979	6305.023333	1867.169922	-97.028122
401.757979	6305.023333	1866.180664	-90.739540
401.757979	6305.023333	1865.192383	4.944400
401.757979	6305.023333	1864.203125	-97.530937
401.757979	6305.023333	1863.213867	-23.638186
401.757979	6305.023333	1862.223633	-75.369225
401.757979	6305.023333	1861.234375	-71.555687
401.757979	6305.023333	1860.244141	-91.894913
401.757979	6305.023333	1859.253906	100.177589
401.757979	6305.023333	1858.263672	-202.570953
401.757979	6305.023333	1857.273438	28.032942
401.757979	6305.023333	1856.282227	-30.952896
401.757979	6305.023333	1855.291992	81.318687
401.757979	6305.023333	1854.300781	193.538849
401.757979	6305.023333	1853.309570	148.982056
401.757979	6305.023333	1852.317383	70.682587
401.757979	6305.023333	1851.326172	161.107834
401.757979	6305.023333	1850.333984	82.806221
401.757979	6305.023333	1849.342773	-12.348589
401.757979	6305.023333	1848.350586	44.274773
401.757979	6305.023333	1847.357422	305.576233
401.757979	6305.023333	1846.365234	53.872932
401.757979	6305.023333	1845.372070	110.406448
401.757979	6305.023333	1844.379883	20.071096
401.757979	6305.023333	1843.386719	16.390642
401.757979	6305.023333	1842.393555	-117.236313
401.757979	6305.023333	1841.399414	-135.357727
401.757979	6305.023333	1840.406250	-9.181719
401.757979	6305.023333	1839.412109	359.809448
401.757979	6305.023333	1838.417969	168.441238
401.757979	6305.023333	1837.423828	212.701462
401.757979	6305.023333	1836.429688	14.181459
401.757979	6305.023333	1835.434570	-8.867056
401.757979	6305.023333	1834.440430	109.813866
401.757979	6305.023333	1833.445313	12.248527
401.757979	6305.023333	1832.450195	118.830826
401.757979	6305.023333	1831.454102	124.506699
401.757979	6305.023333	1830.458984	-47.496983
401.757979	6305.023333	1829.462891	152.577301
401.757979	6305.023333	1828.466797	74.178207
401.757979	6305.023333	1827.470703	72.561157
401.757979	6305.023333	1826.474609	-77.809464
401.757979	6305.023333	1825.478516	33.276817
401.757979	6305.023333	1824.481445	14.807739
401.757979	6305.023333	1823.484375	202.504562
401.757979	6305.023333	1822.487305	162.382446
401.757979	6305.023333	1821.490234	165.386261
401.757979	6305.023333	1820.493164	3.026283
401.757979	6305.023333	1819.495117	-17.952074
401.757979	6305.023333	1818.498047	4.159170
401.757979	6305.023333	1817.500000	-117.452446
401.757979	6305.023333	1816.500977	98.556290
401.757979	6305.023333	1815.502930	266.572235
401.757979	6305.023333	1814.504883	130.527298
401.757979	6305.023333	1813.505859	212.265335
401.757979	6305.023333	1812.506836	224.556747
401.757979	6305.023333	1811.507813	-16.749285
401.757979	6305.023333	1810.508789	194.020615
401.757979	6305.023333	1809.508789	141.649658
401.757979	6305.023333	1808.508789	-104.384598
401.757979	6305.023333	1807.508789	-65.917526
401.757979	6305.023333	1806.508789	249.719376
401.757979	6305.023333	1805.508789	-77.539742
401.757979	6305.023333	1804.508789	-22.483398
401.757979	6305.023333	1803.507813	209.264191
401.757979	6305.023333	1802.506836	199.698410
401.757979	6305.023333	1801.505859	-101.185081
401.757979	6305.023333	1800.504883	75.430702
401.757979	6305.023333	1799.502930	-110.829567
401.757979	6305.023333	1798.501953	-36.962589
401.757979	6305.023333	1797.500000	187.142685
401.757979	6305.023333	1796.498047	165.436951
401.757979	6305.023333	1795.496094	153.238174
401.757979	6305.023333	1794.493164	379.446259
401.757979	6305.023333	1793.491211	114.432076
401.757979	6305.023333	1792.488281	28.241871
401.757979	6305.023333	1791.485352	-98.470329
401.757979	6305.023333	1790.482422	134.596863
401.757979	6305.023333	1789.478516	126.938873
401.757979	6305.023333	1788.475586	2.535406
401.757979	6305.023333	1787.471680	56.730164
401.757979	6305.023333	1786.467773	51.342445
401.757979	6305.023333	1785.463867	38.771320
401.757979	6305.023333	1784.459961	107.076996
401.757979	6305.023333	1783.455078	-15.042222
401.757979	6305.023333	1782.450195	-3.935784
401.757979	6305.023333	1781.445313	-40.450695
401.757979	6305.023333	1780.440430	56.176395
401.757979	6305.023333	1779.435547	224.049667
401.757979	6305.023333	1778.429688	168.358444
401.757979	6305.023333	1777.424805	-6.196819
401.757979	6305.023333	1776.418945	159.077271
401.757979	6305.023333	1775.413086	243.462463
401.757979	6305.023333	1774.406250	-118.802277
401.757979	6305.023333	1773.400391	-146.112778
401.757979	6305.023333	1772.393555	-33.366810
401.757979	6305.023333	1771.386719	98.280067
401.757979	6305.023333	1770.379883	-223.525909
401.757979	6305.023333	1769.373047	102.605629
401.757979	6305.023333	1768.365234	165.196594
401.757979	6305.023333	1767.358398	313.114471
401.757979	6305.023333	1766.350586	3.172866
401.757979	6305.023333	1765.342773	172.307358
401.757979	6305.023333	1764.334961	260.716949
401.757979	6305.023333	1763.326172	225.779831
401.757979	6305.023333	1762.318359	41.496761
401.757979	6305.023333	1761.309570	279.008057
401.757979	6305.023333	1760.300781	37.824776
401.757979	6305.023333	1759.291016	45.386444
401.757979	6305.023333	1758.282227	95.519470
401.757979	6305.023333	1757.272461	-117.233871
401.757979	6305.023333	1756.262695	-57.724590
401.757979	6305.023333	1755.252930	1.710231
401.757979	6305.023333	1754.243164	94.198372
401.757979	6305.023333	1753.233398	188.965271
401.757979	6305.023333	1752.222656	-99.563538
401.757979	6305.023333	1751.211914	-118.424316
401.757979	6305.023333	1750.201172	-108.957039
401.757979	6305.023333	1749.190430	75.397743
401.757979	6305.023333	1748.179688	-9.828833
401.757979	6305.023333	1747.167969	-0.549338
401.757979	6305.023333	1746.156250	-10.229441
401.757979	6305.023333	1745.144531	-22.322357
401.757979	6305.023333	1744.132813	19.857376
401.757979	6305.023333	1743.121094	64.328232
401.757979	6305.023333	1742.108398	-11.681953
401.757979	6305.023333	1741.095703	-16.903206
401.757979	6305.023333	1740.083008	41.544300
401.757979	6305.023333	1739.070313	102.274780
401.757979	6305.023333	1738.057617	-176.792877
401.757979	6305.023333	1737.043945	6.497667
401.757979	6305.023333	1736.030273	-100.402664
401.757979	6305.023333	1735.016602	-68.207756
401.757979	6305.023333	1734.002930	-113.871719
401.757979	6305.023333	1732.989258	-150.147491
401.757979	6305.023333	1731.974609	72.745033
401.757979	6305.023333	1730.959961	45.760040
401.757979	6305.023333	1729.945313	287.263733
401.757979	6305.023333	1728.930664	274.267883
401.757979	6305.023333	1727.916016	37.529339
401.757979	6305.023333	1726.900391	64.494980
401.757979	6305.023333	1725.885742	60.797478
401.757979	6305.023333	1724.870117	-11.200720
401.757979	6305.023333	1723.853516	-29.112997
401.757979	6305.023333	1722.837891	122.300095
401.757979	6305.023333	1721.822266	-58.025368
401.757979	6305.023333	1720.805664	-54.921093
401.757979	6305.023333	1719.789063	51.572617
401.757979	6305.023333	1718.772461	66.297661
401.757979	6305.023333	1717.754883	55.106762
401.757979	6305.023333	1716.738281	-104.163284
401.757979	6305.023333	1715.720703	-200.000504
401.757979	6305.023333	1714.703125	42.372459
401.757979	6305.023333	1713.685547	162.483093
401.757979	6305.023333	1712.667969	-34.474129
401.757979	6305.023333	1711.649414	-60.048107
401.757979	6305.023333	1710.630859	-118.525688
401.757979	6305.023333	1709.612305	38.848167
401.757979	6305.023333	1708.593750	165.607803
401.757979	6305.023333	1707.575195	158.562012
401.757979	6305.023333	1706.555664	191.330582
401.757979	6305.023333	1705.536133	50.521503
401.757979	6305.023333	1704.516602	15.205292
401.757979	6305.023333	1703.497070	7.976866
401.757979	6305.023333	1702.477539	-172.715332
401.757979	6305.023333	1701.457031	-100.355186
401.757979	6305.023333	1700.437500	138.245422
401.757979	6305.023333	1699.416992	95.651627
401.757979	6305.023333	1698.395508	-0.837636
401.757979	6305.023333	1697.375000	169.552002
401.757979	6305.023333	1696.354492	58.938137
401.757979	6305.023333	1695.333008	11.499703
401.757979	6305.023333	1694.311523	207.366776
401.757979	6305.023333	1693.290039	38.167549
401.757979	6305.023333	1692.267578	25.685328
401.757979	6305.023333	1691.246094	34.205841
401.757979	6305.023333	1690.223633	45.007301
401.757979	6305.023333	1689.201172	30.041349
401.757979	6305.023333	1688.178711	237.055344
401.757979	6305.023333	1687.155273	53.714230
401.757979	6305.023333	1686.132813	-150.629364
401.757979	6305.023333	1685.109375	261.693939
401.757979	6305.023333	1684.085938	47.945637
401.757979	6305.023333	1683.062500	182.125046
401.757979	6305.023333	1682.039063	222.827240
401.757979	6305.023333	1681.014648	363.822388
401.757979	6305.023333	1679.990234	133.686615
401.757979	6305.023333	1678.965820	178.892929
401.757979	6305.023333	1677.941406	135.394821
401.757979	6305.023333	1676.916992	38.225842
401.757979	6305.023333	1675.891602	213.855194
401.757979	6305.023333	1674.866211	268.144409
401.757979	6305.023333	1673.840820	261.765778
401.757979	6305.023333	1672.815430	-26.631947
401.757979	6305.023333	1671.790039	57.822762
401.757979	6305.023333	1670.763672	125.890915
401.757979	6305.023333	1669.737305	198.545593
401.757979	6305.023333	1668.710938	103.469841
401.757979	6305.023333	1667.684570	171.356445
401.757979	6305.023333	1666.658203	192.618881
401.757979	6305.023333	1665.630859	60.228962
401.757979	6305.023333	1664.603516	179.139496
401.757979	6305.023333	1663.576172	74.634102
401.757979	6305.023333	1662.548828	118.982750
401.757979	6305.023333	1661.520508	56.298710
401.757979	6305.023333	1660.493164	177.275681
401.757979	6305.023333	1659.464844	165.662186
401.757979	6305.023333	1658.436523	142.392746
401.757979	6305.023333	1657.408203	372.367188
401.757979	6305.023333	1656.378906	184.036560
401.757979	6305.023333	1655.350586	125.817589
401.757979	6305.023333	1654.321289	213.881302
401.757979	6305.023333	1653.291992	225.252258
401.757979	6305.023333	1652.261719	36.937000
401.757979	6305.023333	1651.232422	243.221710
401.757979	6305.023333	1650.202148	254.463684
401.757979	6305.023333	1649.171875	291.184692
401.757979	6305.023333	1648.141602	223.475113
401.757979	6305.023333	1647.111328	243.882278
401.757979	6305.023333	1646.080078	449.737793
401.757979	6305.023333	1645.049805	191.836014
401.757979	6305.023333	1644.018555	494.901093
401.757979	6305.023333	1642.987305	552.175781
401.757979	6305.023333	1641.955078	241.004135
401.757979	6305.023333	1640.923828	407.114471
401.757979	6305.023333	1639.891602	529.118408
401.757979	6305.023333	1638.859375	456.538025
401.757979	6305.023333	1637.827148	481.188324
401.757979	6305.023333	1636.794922	403.953644
401.757979	6305.023333	1635.761719	379.941681
401.757979	6305.023333	1634.729492	385.992310
401.757979	6305.023333	1633.696289	336.487396
401.757979	6305.023333	1632.662109	404.924469
401.757979	6305.023333	1631.628906	482.560608
401.757979	6305.023333	1630.594727	361.306763
401.757979	6305.023333	1629.561523	385.703308
401.757979	6305.023333	1628.527344	384.636780
401.757979	6305.023333	1627.493164	496.764313
401.757979	6305.023333	1626.458008	606.507874
401.757979	6305.023333	1625.423828	506.006683
401.757979	6305.023333	1624.388672	440.152924
401.757979	6305.023333	1623.353516	482.815796
401.757979	6305.023333	1622.318359	700.874756
401.757979	6305.023333	1621.282227	401.847412
401.757979	6305.023333	1620.247070	379.816498
401.757979	6305.023333	1619.210938	450.048035
401.757979	6305.023333	1618.174805	499.471924
401.757979	6305.023333	1617.137695	654.932800
401.757979	6305.023333	1616.101563	579.751831
401.757979	6305.023333	1615.064453	564.511414
401.757979	6305.023333	1614.027344	643.753662
401.757979	6305.023333	1612.990234	681.469482
401.757979	6305.023333	1611.953125	809.005127
401.757979	6305.023333	1610.916016	770.626831
401.757979	6305.023333	1609.877930	817.451660
401.757979	6305.023333	1608.839844	864.242615
401.757979	6305.023333	1607.801758	809.709290
401.757979	6305.023333	1606.763672	640.101257
401.757979	6305.023333	1605.724609	758.187012
401.757979	6305.023333	1604.685547	827.898438
401.757979	6305.023333	1603.646484	1037.888550
401.757979	6305.023333	1602.607422	792.414795
401.757979	6305.023333	1601.568359	749.373230
401.757979	6305.023333	1600.528320	795.989319
401.757979	6305.023333	1599.489258	674.793457
401.757979	6305.023333	1598.449219	822.500610
401.757979	6305.023333	1597.408203	632.387634
401.757979	6305.023333	1596.368164	1030.417725
401.757979	6305.023333	1595.327148	709.410156
401.757979	6305.023333	1594.287109	608.967773
401.757979	6305.023333	1593.246094	701.399170
401.757979	6305.023333	1592.204102	740.988953
401.757979	6305.023333	1591.163086	757.614563
401.757979	6305.023333	1590.121094	898.124451
401.757979	6305.023333	1589.079102	951.401917
401.757979	6305.023333	1588.037109	885.390930
401.757979	6305.023333	1586.995117	525.883118
401.757979	6305.023333	1585.953125	900.166199
401.757979	6305.023333	1584.910156	822.729187
401.757979	6305.023333	1583.867188	1004.290344
401.757979	6305.023333	1582.824219	752.720337
401.757979	6305.023333	1581.781250	766.990479
401.757979	6305.023333	1580.737305	808.734436
401.757979	6305.023333	1579.693359	871.072693
401.757979	6305.023333	1578.649414	622.013672
401.757979	6305.023333	1577.605469	583.648804
401.757979	6305.023333	1576.561523	721.526550
401.757979	6305.023333	1575.516602	653.412354
401.757979	6305.023333	1574.472656	647.103333
401.757979	6305.023333	1573.427734	599.624756
401.757979	6305.023333	1572.381836	405.806519
401.757979	6305.023333	1571.336914	591.616455
401.757979	6305.023333	1570.291016	519.043945
401.757979	6305.023333	1569.246094	535.645691
401.757979	6305.023333	1568.200195	453.987274
401.757979	6305.023333	1567.153320	438.616180
401.757979	6305.023333	1566.107422	336.468964
401.757979	6305.023333	1565.060547	586.054626
401.757979	6305.023333	1564.013672	493.064819
401.757979	6305.023333	1562.966797	525.675964
401.757979	6305.023333	1561.919922	519.486328
401.757979	6305.023333	1560.872070	385.519165
401.757979	6305.023333	1559.825195	523.115356
401.757979	6305.023333	1558.777344	361.853180
401.757979	6305.023333	1557.729492	173.302322
401.757979	6305.023333	1556.680664	445.414856
401.757979	6305.023333	1555.632813	546.467896
401.757979	6305.023333	1554.583984	323.841827
401.757979	6305.023333	1553.535156	393.001556
401.757979	6305.023333	1552.486328	288.997498
401.757979	6305.023333	1551.436523	287.551392
401.757979	6305.023333	1550.387695	333.954834
401.757979	6305.023333	1549.337891	289.273834
401.757979	6305.023333	1548.288086	155.844376
401.757979	6305.023333	1547.238281	220.505890
401.757979	6305.023333	1546.187500	164.548553
401.757979	6305.023333	1545.136719	424.883514
401.757979	6305.023333	1544.086914	134.657150
401.757979	6305.023333	1543.035156	372.190277
401.757979	6305.023333	1541.984375	209.461990
401.757979	6305.023333	1540.933594	330.993988
401.757979	6305.023333	1539.881836	493.409515
401.757979	6305.023333	1538.830078	519.435059
401.757979	6305.023333	1537.778320	384.160004
401.757979	6305.023333	1536.725586	471.573944
401.757979	6305.023333	1535.673828	418.172852
401.757979	6305.023333	1534.621094	405.686432
401.757979	6305.023333	1533.568359	259.287262
401.757979	6305.023333	1532.515625	448.902588
401.757979	6305.023333	1531.461914	418.339539
401.757979	6305.023333	1530.409180	471.770538
401.757979	6305.023333	1529.355469	457.150177
401.757979	6305.023333	1528.301758	308.752441
401.757979	6305.023333	1527.247070	228.465546
401.757979	6305.023333	1526.193359	200.387527
401.757979	6305.023333	1525.138672	258.480957
401.757979	6305.023333	1524.083984	146.616379
401.757979	6305.023333	1523.029297	184.367477
401.757979	6305.023333	1521.974609	52.237667
401.757979	6305.023333	1520.918945	-2.806498
401.757979	6305.023333	1519.863281	155.060425
401.757979	6305.023333	1518.807617	4.997109
401.757979	6305.023333	1517.751953	-149.498932
401.757979	6305.023333	1516.696289	-2.910649
401.757979	6305.023333	1515.639648	68.984535
401.757979	6305.023333	1514.583008	61.710114
401.757979	6305.023333	1513.526367	-155.867264
401.757979	6305.023333	1512.469727	42.754795
401.757979	6305.023333	1511.412109	33.334137
401.757979	6305.023333	1510.355469	-59.675858
401.757979	6305.023333	1509.297852	28.179577
401.757979	6305.023333	1508.240234	16.620962
401.757979	6305.023333	1507.181641	25.433636
401.757979	6305.023333	1506.124023	203.681000
401.757979	6305.023333	1505.065430	45.427494
401.757979	6305.023333	1504.006836	-157.877045
401.757979	6305.023333	1502.948242	-169.194138
401.757979	6305.023333	1501.888672	15.874030
401.757979	6305.023333	1500.830078	-65.338066
401.757979	6305.023333	1499.770508	2.411134
401.757979	6305.023333	1498.710938	-98.985382
401.757979	6305.023333	1497.650391	50.005100
401.757979	6305.023333	1496.590820	-283.496155
401.757979	6305.023333	1495.530273	-123.171150
401.757979	6305.023333	1494.469727	28.119047
401.757979	6305.023333	1493.409180	62.224384
401.757979	6305.023333	1492.348633	181.967468
401.757979	6305.023333	1491.287109	22.413485
401.757979	6305.023333	1490.225586	-134.779343
401.757979	6305.023333	1489.164063	59.360031
401.757979	6305.023333	1488.102539	23.867073
401.757979	6305.023333	1487.041016	199.986252
401.757979	6305.023333	1485.978516	56.564182
401.757979	6305.023333	1484.916016	81.979568
401.757979	6305.023333	1483.853516	134.403610
401.757979	6305.023333	1482.791016	-123.460281
401.757979	6305.023333	1481.727539	-174.330734
401.757979	6305.023333	1480.664063	-101.502113
401.757979	6305.023333	1479.600586	-181.453629
401.757979	6305.023333	1478.537109	68.933159
401.757979	6305.023333	1477.473633	-249.069992
401.757979	6305.023333	1476.409180	26.061655
401.757979	6305.023333	1475.344727	-6.573951
401.757979	6305.023333	1474.280273	-151.253891
401.757979	6305.023333	1473.215820	9.377541
401.757979	6305.023333	1472.151367	15.095992
401.757979	6305.023333	1471.085938	-98.035507
401.757979	6305.023333	1470.020508	40.200848
401.757979	6305.023333	1468.955078	205.285751
401.757979	6305.023333	1467.888672	123.723793
401.757979	6305.023333	1466.823242	232.735046
401.757979	6305.023333	1465.756836	126.802086
401.757979	6305.023333	1464.690430	-10.391709
401.757979	6305.023333	1463.624023	98.486862
401.757979	6305.023333	1462.556641	-58.402134
401.757979	6305.023333	1461.490234	-40.889923
401.757979	6305.023333	1460.422852	70.487030
401.757979	6305.023333	1459.355469	11.980166
401.757979	6305.023333	1458.287109	60.602272
401.757979	6305.023333	1457.219727	277.240448
401.757979	6305.023333	1456.151367	89.758011
401.757979	6305.023333	1455.083008	46.885685
401.757979	6305.023333	1454.014648	-37.227951
401.757979	6305.023333	1452.945313	-115.745659
401.757979	6305.023333	1451.876953	138.485718
401.757979	6305.023333	1450.807617	11.297768
401.757979	6305.023333	1449.738281	-81.249985
401.757979	6305.023333	1448.668945	-66.787292
401.757979	6305.023333	1447.598633	38.369003
401.757979	6305.023333	1446.528320	-21.691467
401.757979	6305.023333	1445.458008	149.761856
401.757979	6305.023333	1444.387695	199.035736
401.757979	6305.023333	1443.317383	204.192749
401.757979	6305.023333	1442.246094	275.839172
401.757979	6305.023333	1441.174805	117.352379
401.757979	6305.023333	1440.103516	112.308655
401.757979	6305.023333	1439.032227	-40.985291
401.757979	6305.023333	1437.960938	14.870010
401.757979	6305.023333	1436.888672	8.435163
401.757979	6305.023333	1435.816406	-34.179314
401.757979	6305.023333	1434.744141	-18.867907
401.757979	6305.023333	1433.670898	44.961380
401.757979	6305.023333	1432.598633	31.887436
401.757979	6305.023333	1431.525391	274.013184
401.757979	6305.023333	1430.452148	249.167603
401.757979	6305.023333	1429.378906	84.141731
401.757979	6305.023333	1428.304688	43.891079
401.757979	6305.023333	1427.231445	126.374825
401.757979	6305.023333	1426.157227	224.958130
401.757979	6305.023333	1425.083008	84.069283
401.757979	6305.023333	1424.007813	41.487232
401.757979	6305.023333	1422.933594	275.768372
401.757979	6305.023333	1421.858398	4.790933
401.757979	6305.023333	1420.783203	-52.435951
401.757979	6305.023333	1419.708008	-29.338097
401.757979	6305.023333	1418.631836	109.986732
401.757979	6305.023333	1417.555664	51.245697
401.757979	6305.023333	1416.479492	139.690720
401.757979	6305.023333	1415.403320	250.885208
401.757979	6305.023333	1414.327148	136.548828
401.757979	6305.023333	1413.250000	50.785259
401.757979	6305.023333	1412.173828	-9.443038
401.757979	6305.023333	1411.096680	-190.553650
401.757979	6305.023333	1410.018555	-60.698856
401.757979	6305.023333	1408.941406	-98.790520
401.757979	6305.023333	1407.863281	137.283371
401.757979	6305.023333	1406.785156	267.150269
401.757979	6305.023333	1405.707031	13.781798
401.757979	6305.023333	1404.628906	331.050873
401.757979	6305.023333	1403.549805	184.125031
401.757979	6305.023333	1402.470703	54.988960
401.757979	6305.023333	1401.391602	-2.136756
401.757979	6305.023333	1400.312500	344.368835
401.757979	6305.023333	1399.233398	196.742950
401.757979	6305.023333	1398.153320	9.924809
401.757979	6305.023333	1397.073242	196.827530
401.757979	6305.023333	1395.993164	-63.310749
401.757979	6305.023333	1394.913086	69.783249
401.757979	6305.023333	1393.832031	121.181801
401.757979	6305.023333	1392.750977	181.355392
401.757979	6305.023333	1391.669922	119.388794
401.757979	6305.023333	1390.588867	52.401981
401.757979	6305.023333	1389.506836	197.601196
401.757979	6305.023333	1388.425781	167.152542
401.757979	6305.023333	1387.343750	119.084961
401.757979	6305.023333	1386.261719	201.734802
401.757979	6305.023333	1385.178711	158.931549
401.757979	6305.023333	1384.096680	-1.966741
401.757979	6305.023333	1383.013672	120.455986
401.757979	6305.023333	1381.930664	366.665741
401.757979	6305.023333	1380.846680	273.614258
401.757979	6305.023333	1379.763672	112.121078
401.757979	6305.023333	1378.679688	279.929779
401.757979	6305.023333	1377.595703	57.009117
401.757979	6305.023333	1376.511719	361.732849
401.757979	6305.023333	1375.427734	468.255981
401.757979	6305.023333	1374.342773	202.343094
401.757979	6305.023333	1373.257813	112.992897
401.757979	6305.023333	1372.172852	102.272552
401.757979	6305.023333	1371.087891	177.707199
401.757979	6305.023333	1370.001953	317.090790
401.757979	6305.023333	1368.916992	74.015312
401.757979	6305.023333	1367.831055	117.833672
401.757979	6305.023333	1366.744141	258.551605
401.757979	6305.023333	1365.658203	170.194351
401.757979	6305.023333	1364.571289	247.217651
401.757979	6305.023333	1363.484375	190.080734
401.757979	6305.023333	1362.397461	212.129013
401.757979	6305.023333	1361.310547	54.684479
401.757979	6305.023333	1360.222656	260.125458
401.757979	6305.023333	1359.135742	310.564514
401.757979	6305.023333	1358.047852	139.876877
401.757979	6305.023333	1356.958984	139.311356
401.757979	6305.023333	1355.871094	167.976379
401.757979	6305.023333	1354.782227	78.368446
401.757979	6305.023333	1353.693359	135.705154
401.757979	6305.023333	1352.604492	58.746941
401.757979	6305.023333	1351.515625	85.858696
401.757979	6305.023333	1350.425781	72.722832
401.757979	6305.023333	1349.335938	-11.752813
401.757979	6305.023333	1348.246094	-22.316633
401.757979	6305.023333	1347.156250	42.115993
401.757979	6305.023333	1346.066406	-162.165237
401.757979	6305.023333	1344.975586	39.173649
401.757979	6305.023333	1343.884766	-173.656036
401.757979	6305.023333	1342.793945	-130.400757
401.757979	6305.023333	1341.702148	88.230629
401.757979	6305.023333	1340.611328	80.457558
401.757979	6305.023333	1339.519531	-113.198845
401.757979	6305.023333	1338.427734	53.862144
401.757979	6305.023333	1337.334961	-34.711761
401.757979	6305.023333	1336.243164	-85.101822
401.757979	6305.023333	1335.150391	-72.813004
401.757979	6305.023333	1334.057617	42.028709
401.757979	6305.023333	1332.964844	-41.843678
401.757979	6305.023333	1331.871094	8.243116
401.757979	6305.023333	1330.778320	38.833015
401.757979	6305.023333	1329.684570	43.168503
401.757979	6305.023333	1328.590820	99.641930
401.757979	6305.023333	1327.496094	-193.492249
401.757979	6305.023333	1326.402344	-156.971634
401.757979	6305.023333	1325.307617	77.897682
401.757979	6305.023333	1324.212891	-20.744051
401.757979	6305.023333	1323.117188	-43.188126
401.757979	6305.023333	1322.022461	121.470100
401.757979	6305.023333	1320.926758	90.131866
401.757979	6305.023333	1319.831055	46.387470
401.757979	6305.023333	1318.735352	-22.894379
401.757979	6305.023333	1317.638672	67.692459
401.757979	6305.023333	1316.542969	159.557159
401.757979	6305.023333	1315.446289	228.857147
401.757979	6305.023333	1314.349609	123.778221
401.757979	6305.023333	1313.251953	95.758881
401.757979	6305.023333	1312.155273	146.757828
401.757979	6305.023333	1311.057617	8.997189
401.757979	6305.023333	1309.959961	207.924362
401.757979	6305.023333	1308.862305	86.649261
401.757979	6305.023333	1307.763672	113.746246
401.757979	6305.023333	1306.665039	178.433121
401.757979	6305.023333	1305.566406	15.708460
401.757979	6305.023333	1304.467773	111.190002
401.757979	6305.023333	1303.369141	70.374367
401.757979	6305.023333	1302.269531	170.291138
401.757979	6305.023333	1301.169922	118.579834
401.757979	6305.023333	1300.070313	39.615982
401.757979	6305.023333	1298.970703	178.551483
401.757979	6305.023333	1297.870117	194.730469
401.757979	6305.023333	1296.769531	229.044296
401.757979	6305.023333	1295.668945	118.824539
401.757979	6305.023333	1294.568359	108.187950
401.757979	6305.023333	1293.466797	192.298080
401.757979	6305.023333	1292.366211	140.573547
401.757979	6305.023333	1291.264648	165.366364
401.757979	6305.023333	1290.162109	235.254288
401.757979	6305.023333	1289.060547	37.308121
401.757979	6305.023333	1287.958008	135.182739
401.757979	6305.023333	1286.855469	78.564217
401.757979	6305.023333	1285.752930	41.116131
401.757979	6305.023333	1284.650391	52.482567
401.757979	6305.023333	1283.546875	109.496239
401.757979	6305.023333	1282.444336	144.193497
401.757979	6305.023333	1281.339844	4.494342
401.757979	6305.023333	1280.236328	-4.094402
401.757979	6305.023333	1279.132813	22.357647
401.757979	6305.023333	1278.028320	114.876656
401.757979	6305.023333	1276.923828	71.191437
401.757979	6305.023333	1275.819336	-39.747299
401.757979	6305.023333	1274.713867	-124.681877
401.757979	6305.023333	1273.608398	37.860592
401.757979	6305.023333	1272.503906	42.903725
401.757979	6305.023333	1271.397461	50.353363
401.757979	6305.023333	1270.291992	-93.812485
401.757979	6305.023333	1269.185547	-118.090614
401.757979	6305.023333	1268.080078	29.101730
401.757979	6305.023333	1266.972656	-65.429016
401.757979	6305.023333	1265.866211	-170.290009
401.757979	6305.023333	1264.759766	-134.477386
401.757979	6305.023333	1263.652344	-83.449135
401.757979	6305.023333	1262.544922	-84.221794
401.757979	6305.023333	1261.436523	-79.910553
401.757979	6305.023333	1260.329102	-85.846916
401.757979	6305.023333	1259.220703	-132.028381
401.757979	6305.023333	1258.112305	-216.179535
401.757979	6305.023333	1257.003906	-44.041061
401.757979	6305.023333	1255.895508	32.649284
401.757979	6305.023333	1254.786133	-30.235338
401.757979	6305.023333	1253.676758	-51.620724
401.757979	6305.023333	1252.567383	24.290529
401.757979	6305.023333	1251.458008	-39.461990
401.757979	6305.023333	1250.347656	-149.467957
401.757979	6305.023333	1249.237305	-127.660065
401.757979	6305.023333	1248.126953	-153.807297
401.757979	6305.023333	1247.016602	-167.661072
401.757979	6305.023333	1245.905273	-112.783691
401.757979	6305.023333	1244.793945	-78.571732
401.757979	6305.023333	1243.682617	-132.403564
401.757979	6305.023333	1242.571289	35.704750
401.757979	6305.023333	1241.459961	20.077976
401.757979	6305.023333	1240.347656	-67.703575
401.757979	6305.023333	1239.235352	-13.115605
401.757979	6305.023333	1238.123047	-120.676125
401.757979	6305.023333	1237.009766	-96.700302
401.757979	6305.023333	1235.897461	-93.887192
401.757979	6305.023333	1234.784180	51.476055
401.757979	6305.023333	1233.670898	-159.437836
401.757979	6305.023333	1232.556641	-189.574875
401.757979	6305.023333	1231.443359	-236.566757
401.757979	6305.023333	1230.329102	-171.932037
401.757979	6305.023333	1229.214844	-47.124954
401.757979	6305.023333	1228.099609	39.174122
401.757979	6305.023333	1226.985352	20.299305
401.757979	6305.023333	1225.870117	88.865852
401.757979	6305.023333	1224.754883	174.725204
401.757979	6305.023333	1223.639648	-51.843765
401.757979	6305.023333	1222.523438	-23.242109
401.757979	6305.023333	1221.408203	22.212923
401.757979	6305.023333	1220.291992	-91.260849
401.757979	6305.023333	1219.174805	68.421127
401.757979	6305.023333	1218.058594	109.917213
401.757979	6305.023333	1216.941406	169.302643
401.757979	6305.023333	1215.824219	267.110474
401.757979	6305.023333	1214.707031	-37.083447
401.757979	6305.023333	1213.589844	133.744858
401.757979	6305.023333	1212.471680	115.667015
401.757979	6305.023333	1211.353516	49.655571
401.757979	6305.023333	1210.235352	89.539253
401.757979	6305.023333	1209.117188	95.527657
401.757979	6305.023333	1207.998047	-13.183614
401.757979	6305.023333	1206.878906	58.705185
401.757979	6305.023333	1205.759766	108.549156
401.757979	6305.023333	1204.640625	192.616486
401.757979	6305.023333	1203.520508	234.239517
401.757979	6305.023333	1202.401367	172.785706
401.757979	6305.023333	1201.281250	160.302872
401.757979	6305.023333	1200.160156	-44.085304
401.757979	6305.023333	1199.040039	-30.558197
401.757979	6305.023333	1197.918945	-66.908829
401.757979	6305.023333	1196.797852	25.836441
401.757979	6305.023333	1195.676758	36.878441
401.757979	6305.023333	1194.555664	39.944382
401.757979	6305.023333	1193.433594	-96.591454
401.757979	6305.023333	1192.311523	-198.812042
401.757979	6305.023333	1191.189453	-22.024323
401.757979	6305.023333	1190.066406	-96.512253
401.757979	6305.023333	1188.944336	3.106521
401.757979	6305.023333	1187.821289	3.320094
401.757979	6305.023333	1186.698242	10.858068
401.757979	6305.023333	1185.574219	-97.141647
401.757979	6305.023333	1184.451172	-120.951889
401.757979	6305.023333	1183.327148	-35.265285
401.757979	6305.023333	1182.203125	11.520860
401.757979	6305.023333	1181.078125	65.065910
401.757979	6305.023333	1179.954102	-24.982937
401.757979	6305.023333	1178.829102	-25.400427
401.757979	6305.023333	1177.704102	26.608582
401.757979	6305.023333	1176.579102	14.390495
401.757979	6305.023333	1175.453125	79.108536
401.757979	6305.023333	1174.327148	9.124308
401.757979	6305.023333	1173.201172	8.084021
401.757979	6305.023333	1172.075195	79.871201
401.757979	6305.023333	1170.949219	-49.031979
401.757979	6305.023333	1169.822266	-41.571720
401.757979	6305.023333	1168.695313	-146.994751
401.757979	6305.023333	1167.568359	28.235809
401.757979	6305.023333	1166.440430	20.496964
401.757979	6305.023333	1165.313477	-34.252190
401.757979	6305.023333	1164.185547	-80.051331
401.757979	6305.023333	1163.057617	-37.766224
401.757979	6305.023333	1161.928711	31.267204
401.757979	6305.023333	1160.800781	-27.552355
401.757979	6305.023333	1159.671875	27.080036
401.757979	6305.023333	1158.541992	126.600639
401.757979	6305.023333	1157.413086	-25.587847
401.757979	6305.023333	1156.283203	10.592874
401.757979	6305.023333	1155.154297	-98.546227
401.757979	6305.023333	1154.023438	-46.775406
401.757979	6305.023333	1152.893555	-150.191010
401.757979	6305.023333	1151.763672	59.703011
401.757979	6305.023333	1150.632813	-99.670601
401.757979	6305.023333	1149.501953	-10.372681
401.757979	6305.023333	1148.370117	-145.710983
401.757979	6305.023333	1147.239258	51.027088
401.757979	6305.023333	1146.107422	5.792623
401.757979	6305.023333	1144.975586	-41.904835
401.757979	6305.023333	1143.843750	-162.270523
401.757979	6305.023333	1142.710938	94.762741
401.757979	6305.023333	1141.578125	67.390121
401.757979	6305.023333	1140.445313	84.202286
401.757979	6305.023333	1139.312500	-18.726692
401.757979	6305.023333	1138.178711	28.242575
401.757979	6305.023333	1137.045898	93.156067
401.757979	6305.023333	1135.912109	102.391319
401.757979	6305.023333	1134.777344	248.008713
401.757979	6305.023333	1133.643555	20.984003
401.757979	6305.023333	1132.508789	65.977859
401.757979	6305.023333	1131.374023	141.677841
401.757979	6305.023333	1130.239258	139.456863
401.757979	6305.023333	1129.104492	48.485718
401.757979	6305.023333	1127.968750	143.087265
401.757979	6305.023333	1126.833008	118.052666
401.757979	6305.023333	1125.697266	36.064434
401.757979	6305.023333	1124.560547	156.367249
401.757979	6305.023333	1123.424805	151.690216
401.757979	6305.023333	1122.288086	150.793289
401.757979	6305.023333	1121.151367	83.094673
401.757979	6305.023333	1120.013672	222.239395
401.757979	6305.023333	1118.876953	166.054398
401.757979	6305.023333	1117.739258	-30.466175
401.757979	6305.023333	1116.601563	61.905602
401.757979	6305.023333	1115.462891	188.324417
401.757979	6305.023333	1114.324219	193.928406
401.757979	6305.023333	1113.186523	220.153580
401.757979	6305.023333	1112.046875	109.065643
401.757979	6305.023333	1110.908203	0.558775
401.757979	6305.023333	1109.769531	99.519104
401.757979	6305.023333	1108.629883	133.715485
401.757979	6305.023333	1107.490234	53.990292
401.757979	6305.023333	1106.349609	119.037140
401.757979	6305.023333	1105.209961	183.837814
401.757979	6305.023333	1104.069336	178.959274
401.757979	6305.023333	1102.928711	112.630699
401.757979	6305.023333	1101.787109	132.803467
401.757979	6305.023333	1100.646484	-81.152786
401.757979	6305.023333	1099.504883	55.725266
401.757979	6305.023333	1098.363281	-14.060662
401.757979	6305.023333	1097.221680	117.889832
401.757979	6305.023333	1096.079102	232.903030
401.757979	6305.023333	1094.936523	93.929970
401.757979	6305.023333	1093.793945	131.132767
401.757979	6305.023333	1092.651367	252.724319
401.757979	6305.023333	1091.507813	254.398071
401.757979	6305.023333	1090.364258	202.339478
401.757979	6305.023333	1089.220703	10.880633
401.757979	6305.023333	1088.077148	16.044012
401.757979	6305.023333	1086.933594	287.724182
401.757979	6305.023333	1085.789063	80.170143
401.757979	6305.023333	1084.644531	105.081169
401.757979	6305.023333	1083.499023	101.291191
401.757979	6305.023333	1082.354492	161.137375
401.757979	6305.023333	1081.208984	246.139053
401.757979	6305.023333	1080.063477	96.078621
401.757979	6305.023333	1078.917969	140.961029
401.757979	6305.023333	1077.771484	168.526337
401.757979	6305.023333	1076.625977	24.039698
401.757979	6305.023333	1075.479492	43.076881
401.757979	6305.023333	1074.332031	159.838104
401.757979	6305.023333	1073.185547	216.950912
401.757979	6305.023333	1072.038086	268.858185
401.757979	6305.023333	1070.890625	108.729218
401.757979	6305.023333	1069.743164	68.175430
401.757979	6305.023333	1068.594727	170.528549
401.757979	6305.023333	1067.447266	26.961292
401.757979	6305.023333	1066.298828	34.061832
401.757979	6305.023333	1065.149414	86.852676
401.757979	6305.023333	1064.000977	-31.398634
401.757979	6305.023333	1062.851563	94.571770
401.757979	6305.023333	1061.702148	261.498810
401.757979	6305.023333	1060.552734	56.944080
401.757979	6305.023333	1059.402344	165.912079
401.757979	6305.023333	1058.252930	229.423492
401.757979	6305.023333	1057.102539	85.492950
401.757979	6305.023333	1055.951172	188.333435
401.757979	6305.023333	1054.800781	190.267487
401.757979	6305.023333	1053.649414	-30.892467
401.757979	6305.023333	1052.498047	65.918724
401.757979	6305.023333	1051.346680	83.542015
401.757979	6305.023333	1050.194336	90.167274
401.757979	6305.023333	1049.042969	16.722752
401.757979	6305.023333	1047.890625	181.802887
401.757979	6305.023333	1046.738281	-15.627622
401.757979	6305.023333	1045.584961	36.781185
401.757979	6305.023333	1044.431641	-40.927837
401.757979	6305.023333	1043.278320	-79.782867
401.757979	6305.023333	1042.125000	183.169373
401.757979	6305.023333	1040.971680	-74.783882
401.757979	6305.023333	1039.817383	157.982666
401.757979	6305.023333	1038.663086	85.559814
401.757979	6305.023333	1037.508789	81.060028
401.757979	6305.023333	1036.353516	204.288223
401.757979	6305.023333	1035.198242	226.064743
401.757979	6305.023333	1034.042969	20.315533
401.757979	6305.023333	1032.887695	-120.934830
401.757979	6305.023333	1031.732422	245.993500
401.757979	6305.023333	1030.576172	247.089935
401.757979	6305.023333	1029.419922	48.435661
401.757979	6305.023333	1028.263672	0.216397
401.757979	6305.023333	1027.106445	70.312134
401.757979	6305.023333	1025.949219	78.983803
401.757979	6305.023333	1024.792969	190.419144
401.757979	6305.023333	1023.634766	139.839783
401.757979	6305.023333	1022.477539	-54.315411
401.757979	6305.023333	1021.319336	165.110764
401.757979	6305.023333	1020.161133	17.587309
401.757979	6305.023333	1019.002930	8.556796
401.757979	6305.023333	1017.843750	70.634460
401.757979	6305.023333	1016.684570	5.752251
401.757979	6305.023333	1015.525391	105.936714
401.757979	6305.023333	1014.366211	66.530800
401.757979	6305.023333	1013.207031	6.170432
401.757979	6305.023333	1012.046875	117.342842
401.757979	6305.023333	1010.886719	65.332596
401.757979	6305.023333	1009.726563	88.668205
401.757979	6305.023333	1008.565430	27.199167
401.757979	6305.023333	1007.404297	116.368301
401.757979	6305.023333	1006.243164	233.389648
401.757979	6305.023333	1005.082031	15.698936
401.757979	6305.023333	1003.920898	12.221154
401.757979	6305.023333	1002.758789	124.284248
401.757979	6305.023333	1001.596680	11.457092
401.757979	6305.023333	1000.433594	-119.189232
401.757979	6305.023333	999.271484	-87.412590
401.757979	6305.023333	998.108398	53.168266
401.757979	6305.023333	996.945313	163.463074
401.757979	6305.023333	995.782227	38.639973
401.757979	6305.023333	994.618164	111.907692
401.757979	6305.023333	993.454102	-149.288834
401.757979	6305.023333	992.290039	-107.625214
401.757979	6305.023333	991.125977	128.000275
401.757979	6305.023333	989.960938	-3.241745
401.757979	6305.023333	988.796875	0.698661
401.757979	6305.023333	987.630859	-8.400512
401.757979	6305.023333	986.465820	-183.377457
401.757979	6305.023333	985.300781	79.841743
401.757979	6305.023333	984.134766	49.780132
401.757979	6305.023333	982.968750	-208.075256
401.757979	6305.023333	981.801758	-82.740440
401.757979	6305.023333	980.635742	62.022186
401.757979	6305.023333	979.468750	-55.637951
401.757979	6305.023333	978.301758	-121.905670
401.757979	6305.023333	977.133789	-45.069489
401.757979	6305.023333	975.966797	36.019398
401.757979	6305.023333	974.798828	-1.179110
401.757979	6305.023333	973.630859	-16.000193
401.757979	6305.023333	972.461914	144.687515
401.757979	6305.023333	971.293945	79.794594
401.757979	6305.023333	970.125000	60.926384
401.757979	6305.023333	968.956055	13.605157
401.757979	6305.023333	967.786133	-20.016291
401.757979	6305.023333	966.617188	-211.230423
401.757979	6305.023333	965.447266	73.101227
401.757979	6305.023333	964.276367	-209.841553
401.757979	6305.023333	963.106445	6.277730
401.757979	6305.023333	961.935547	6.799622
401.757979	6305.023333	960.764648	-44.198872
401.757979	6305.023333	959.593750	8.322431
401.757979	6305.023333	958.422852	42.843155
401.757979	6305.023333	957.250977	-69.146103
401.757979	6305.023333	956.079102	-83.754822
401.757979	6305.023333	954.907227	-77.671356
401.757979	6305.023333	953.734375	0.623183
401.757979	6305.023333	952.562500	283.781830
401.757979	6305.023333	951.389648	56.945705
401.757979	6305.023333	950.215820	71.797562
401.757979	6305.023333	949.042969	69.661339
401.757979	6305.023333	947.869141	-127.256424
401.757979	6305.023333	946.695313	106.998299
401.757979	6305.023333	945.521484	-83.243340
401.757979	6305.023333	944.346680	-20.230089
401.757979	6305.023333	943.172852	-92.300064
401.757979	6305.023333	941.998047	7.000272
401.757979	6305.023333	940.822266	134.728607
401.757979	6305.023333	939.647461	-45.637703
401.757979	6305.023333	938.471680	-226.127594
401.757979	6305.023333	937.295898	104.185631
401.757979	6305.023333	936.119141	-28.113844
401.757979	6305.023333	934.943359	-47.207802
401.757979	6305.023333	933.766602	8.592527
401.757979	6305.023333	932.589844	66.489250
401.757979	6305.023333	931.413086	42.625992
401.757979	6305.023333	930.235352	-67.864281
401.757979	6305.023333	929.057617	40.705891
401.757979	6305.023333	927.879883	69.795563
401.757979	6305.023333	926.702148	-124.982910
401.757979	6305.023333	925.523438	82.235817
401.757979	6305.023333	924.344727	29.491772
401.757979	6305.023333	923.166016	-196.506027
401.757979	6305.023333	921.987305	-75.993866
401.757979	6305.023333	920.807617	63.714863
401.757979	6305.023333	919.627930	66.115250
401.757979	6305.023333	919.497070	136.298218
401.757979	6305.023333	918.331055	18.614798
401.757979	6305.023333	917.165039	78.852745
401.757979	6305.023333	915.999023	-267.096313
401.757979	6305.023333	914.833008	-242.878860
401.757979	6305.023333	913.666016	-96.157959
401.757979	6305.023333	912.499023	-52.781261
401.757979	6305.023333	911.332031	-143.904037
401.757979	6305.023333	910.165039	-38.125904
401.757979	6305.023333	908.997070	-215.637299
401.757979	6305.023333	907.830078	-59.502666
401.757979	6305.023333	906.661133	-21.003319
401.757979	6305.023333	905.493164	-104.871635
401.757979	6305.023333	904.325195	51.128677
401.757979	6305.023333	903.156250	34.410633
401.757979	6305.023333	901.987305	-73.409546
401.757979	6305.023333	900.818359	173.555801
401.757979	6305.023333	899.648438	-1.360402
401.757979	6305.023333	898.478516	101.720749
401.757979	6305.023333	897.308594	92.165428
401.757979	6305.023333	896.138672	132.902298
401.757979	6305.023333	894.968750	68.257469
401.757979	6305.023333	893.797852	63.484718
401.757979	6305.023333	892.626953	-32.246021
401.757979	6305.023333	891.456055	-92.049072
401.757979	6305.023333	890.284180	-99.197067
401.757979	6305.023333	889.113281	99.365791
401.757979	6305.023333	887.941406	-15.453570
401.757979	6305.023333	886.768555	96.921906
401.757979	6305.023333	885.596680	29.948421
401.757979	6305.023333	884.423828	-89.586273
401.757979	6305.023333	883.250977	-146.949738
401.757979	6305.023333	882.078125	-5.999474
401.757979	6305.023333	880.905273	-99.200447
401.757979	6305.023333	879.731445	-13.257991
401.757979	6305.023333	878.557617	118.006638
401.757979	6305.023333	877.383789	-125.577583
401.757979	6305.023333	876.209961	-113.693375
401.757979	6305.023333	875.035156	-66.028564
401.757979	6305.023333	873.860352	-135.291107
401.757979	6305.023333	872.685547	-30.412767
401.757979	6305.023333	871.510742	52.952003
401.757979	6305.023333	870.334961	-121.223511
401.757979	6305.023333	869.159180	83.680862
401.757979	6305.023333	867.983398	-59.465885
401.757979	6305.023333	866.807617	73.839996
401.757979	6305.023333	865.630859	168.967239
401.757979	6305.023333	864.454102	-9.862398
401.757979	6305.023333	863.277344	104.273758
401.757979	6305.023333	862.100586	-19.728945
401.757979	6305.023333	860.922852	137.189575
401.757979	6305.023333	859.745117	-58.184460
401.757979	6305.023333	858.567383	82.002281
401.757979	6305.023333	857.389648	179.300400
401.757979	6305.023333	856.210938	-54.046494
401.757979	6305.023333	855.032227	119.311340
401.757979	6305.023333	853.853516	76.242821
401.757979	6305.023333	852.674805	71.211632
401.757979	6305.023333	851.495117	165.981842
401.757979	6305.023333	850.315430	-5.404419
401.757979	6305.023333	849.135742	8.552626
401.757979	6305.023333	847.956055	-146.130646
401.757979	6305.023333	846.775391	-87.058350
401.757979	6305.023333	845.595703	2.837437
401.757979	6305.023333	844.415039	-7.002909
401.757979	6305.023333	843.233398	163.498474
401.757979	6305.023333	842.052734	77.681053
401.757979	6305.023333	840.871094	96.255646
401.757979	6305.023333	839.689453	114.809341
401.757979	6305.023333	838.506836	-16.034561
401.757979	6305.023333	837.325195	-35.423805
401.757979	6305.023333	836.142578	-52.448483
401.757979	6305.023333	834.959961	-71.851532
401.757979	6305.023333	833.777344	-133.904709
401.757979	6305.023333	832.593750	0.648029
401.757979	6305.023333	831.410156	-6.958704
401.757979	6305.023333	830.226563	37.510174
401.757979	6305.023333	829.042969	-10.376275
401.757979	6305.023333	827.858398	3.275612
401.757979	6305.023333	826.673828	59.496391
401.757979	6305.023333	825.489258	84.922501
401.757979	6305.023333	824.304688	-182.966843
401.757979	6305.023333	823.120117	225.547775
401.757979	6305.023333	821.934570	-18.652748
401.757979	6305.023333	820.749023	231.253220
401.757979	6305.023333	819.562500	20.201204
401.757979	6305.023333	818.376953	121.102440
401.757979	6305.023333	817.190430	136.901520
401.757979	6305.023333	816.003906	46.392765
401.757979	6305.023333	814.817383	29.101273
401.757979	6305.023333	813.629883	-9.449630
401.757979	6305.023333	812.442383	1.561781
401.757979	6305.023333	811.254883	132.899841
401.757979	6305.023333	810.067383	75.412880
401.757979	6305.023333	808.878906	164.178818
401.757979	6305.023333	807.690430	-34.836975
401.757979	6305.023333	806.501953	84.523361
401.757979	6305.023333	805.313477	-86.150642
401.757979	6305.023333	804.124023	167.469864
401.757979	6305.023333	802.934570	-151.651688
401.757979	6305.023333	801.745117	179.576187
401.757979	6305.023333	800.555664	-113.553856
401.757979	6305.023333	799.365234	102.087708
401.757979	6305.023333	798.175781	86.874603
401.757979	6305.023333	796.985352	349.414825
401.757979	6305.023333	795.793945	209.371109
401.757979	6305.023333	794.603516	179.951233
401.757979	6305.023333	793.412109	56.416447
401.757979	6305.023333	792.220703	85.788933
401.757979	6305.023333	791.028320	-94.166161
401.757979	6305.023333	789.836914	151.470093
401.757979	6305.023333	788.644531	107.855202
401.757979	6305.023333	787.452148	228.737061
401.757979	6305.023333	786.258789	65.238136
401.757979	6305.023333	785.066406	171.925964
401.757979	6305.023333	783.873047	24.889545
401.757979	6305.023333	782.679688	56.342659
401.757979	6305.023333	781.485352	-118.839394
401.757979	6305.023333	780.291992	255.258789
401.757979	6305.023333	779.097656	237.274826
401.757979	6305.023333	777.903320	12.801531
401.757979	6305.023333	776.708008	114.444557
401.757979	6305.023333	775.512695	171.454971
401.757979	6305.023333	774.318359	68.966766
401.757979	6305.023333	773.122070	193.882385
401.757979	6305.023333	771.926758	142.930588
401.757979	6305.023333	770.730469	166.952728
401.757979	6305.023333	769.534180	165.160965
401.757979	6305.023333	768.337891	-2.967480
401.757979	6305.023333	767.141602	46.728218
401.757979	6305.023333	765.944336	26.129879
401.757979	6305.023333	764.747070	204.477097
401.757979	6305.023333	763.549805	-10.464789
401.757979	6305.023333	762.351563	184.125412
401.757979	6305.023333	761.154297	93.194237
401.757979	6305.023333	759.956055	35.009361
401.757979	6305.023333	758.757813	63.332993
401.757979	6305.023333	757.558594	-6.583110
401.757979	6305.023333	756.359375	131.523331
401.757979	6305.023333	755.160156	84.917671
401.757979	6305.023333	753.960938	28.947292
401.757979	6305.023333	752.761719	145.824829
401.757979	6305.023333	751.561523	8.047024
401.757979	6305.023333	750.361328	87.443703
401.757979	6305.023333	749.160156	26.698092
401.757979	6305.023333	747.959961	157.328720
401.757979	6305.023333	746.758789	54.512791
401.757979	6305.023333	745.557617	24.023640
401.757979	6305.023333	744.356445	145.124710
401.757979	6305.023333	743.154297	18.935616
401.757979	6305.023333	741.952148	132.911438
401.757979	6305.023333	740.750000	43.994331
401.757979	6305.023333	739.547852	146.184113
401.757979	6305.023333	738.344727	92.170578
401.757979	6305.023333	737.142578	47.458256
401.757979	6305.023333	735.939453	95.888863
401.757979	6305.023333	734.735352	83.712120
401.757979	6305.023333	733.532227	166.954239
401.757979	6305.023333	732.328125	45.281971
401.757979	6305.023333	731.124023	60.924179
401.757979	6305.023333	729.918945	62.555843
401.757979	6305.023333	728.714844	71.124374
401.757979	6305.023333	727.509766	0.569721
401.757979	6305.023333	726.303711	-39.770462
401.757979	6305.023333	725.098633	59.351261
401.757979	6305.023333	723.892578	-99.608742
401.757979	6305.023333	722.686523	20.310139
401.757979	6305.023333	721.480469	-20.172468
401.757979	6305.023333	720.274414	-51.390633
401.757979	6305.023333	719.067383	-29.226242
401.757979	6305.023333	717.860352	62.540268
401.757979	6305.023333	716.653320	84.583649
401.757979	6305.023333	715.445313	-83.739784
401.757979	6305.023333	714.238281	28.733137
401.757979	6305.023333	713.030273	250.149658
401.757979	6305.023333	711.821289	230.207886
401.757979	6305.023333	710.613281	277.480408
401.757979	6305.023333	709.404297	160.077209
401.757979	6305.023333	708.195313	246.660553
401.757979	6305.023333	706.986328	-39.951157
401.757979	6305.023333	705.776367	21.061087
401.757979	6305.023333	704.566406	72.736679
401.757979	6305.023333	703.356445	17.810041
401.757979	6305.023333	702.146484	-199.225586
401.757979	6305.023333	700.935547	-18.025892
401.757979	6305.023333	699.724609	-75.347206
401.757979	6305.023333	698.513672	24.668982
401.757979	6305.023333	697.302734	11.232738
401.757979	6305.023333	696.090820	-60.070503
401.757979	6305.023333	694.878906	-133.700974
401.757979	6305.023333	693.666992	70.112946
401.757979	6305.023333	692.455078	14.892918
401.757979	6305.023333	691.242188	-107.372398
401.757979	6305.023333	690.029297	-74.814926
401.757979	6305.023333	688.816406	-95.448135
401.757979	6305.023333	687.602539	-30.657450
401.757979	6305.023333	686.389648	-51.377464
401.757979	6305.023333	685.175781	-106.763023
401.757979	6305.023333	683.960938	20.182133
401.757979	6305.023333	682.747070	260.113464
401.757979	6305.023333	681.532227	40.751980
401.757979	6305.023333	680.317383	-12.469448
401.757979	6305.023333	679.102539	56.524696
401.757979	6305.023333	677.886719	134.670135
401.757979	6305.023333	676.670898	44.452648
401.757979	6305.023333	675.455078	152.449722
401.757979	6305.023333	674.239258	115.186157
401.757979	6305.023333	673.022461	179.267517
401.757979	6305.023333	671.805664	77.437576
401.757979	6305.023333	670.588867	118.393028
401.757979	6305.023333	669.372070	28.054230
401.757979	6305.023333	668.154297	-96.817047
401.757979	6305.023333	666.936523	-53.666313
401.757979	6305.023333	665.718750	33.147530
401.757979	6305.023333	664.500977	170.498016
401.757979	6305.023333	663.282227	132.952530
401.757979	6305.023333	662.063477	106.885078
401.757979	6305.023333	660.844727	158.959274
401.757979	6305.023333	659.625000	160.406555
401.757979	6305.023333	658.405273	203.184036
401.757979	6305.023333	657.185547	85.080383
401.757979	6305.023333	655.965820	127.788589
401.757979	6305.023333	654.745117	200.299805
401.757979	6305.023333	653.525391	77.580803
401.757979	6305.023333	652.303711	168.371353
401.757979	6305.023333	651.083008	-4.846294
401.757979	6305.023333	649.861328	173.058899
401.757979	6305.023333	648.640625	29.677992
401.757979	6305.023333	647.417969	113.398994
401.757979	6305.023333	646.196289	-96.471321
401.757979	6305.023333	644.973633	-3.643802
401.757979	6305.023333	643.750977	125.794243
401.757979	6305.023333	642.528320	163.481277
401.757979	6305.023333	641.305664	244.661255
401.757979	6305.023333	640.082031	135.645554
401.757979	6305.023333	638.858398	143.456421
401.757979	6305.023333	637.634766	146.663025
401.757979	6305.023333	636.410156	245.994736
401.757979	6305.023333	635.185547	198.776596
401.757979	6305.023333	633.960938	-132.196548
401.757979	6305.023333	632.736328	-96.989273
401.757979	6305.023333	631.510742	54.837791
401.757979	6305.023333	630.285156	188.287537
401.757979	6305.023333	629.059570	40.436089
401.757979	6305.023333	627.833984	9.213120
401.757979	6305.023333	626.607422	46.550179
401.757979	6305.023333	625.380859	74.716866
401.757979	6305.023333	624.154297	-57.053398
401.757979	6305.023333	622.927734	69.311691
401.757979	6305.023333	621.700195	-0.772893
401.757979	6305.023333	620.472656	82.125633
401.757979	6305.023333	619.245117	-3.927223
401.757979	6305.023333	618.016602	-69.416847
401.757979	6305.023333	616.788086	-29.931877
401.757979	6305.023333	615.559570	68.839325
401.757979	6305.023333	614.331055	-119.791580
401.757979	6305.023333	613.101563	-176.100952
401.757979	6305.023333	611.872070	50.285526
401.757979	6305.023333	610.642578	-72.134903
401.757979	6305.023333	609.413086	-98.799561
401.757979	6305.023333	608.182617	43.131470
401.757979	6305.023333	606.952148	-74.652023
401.757979	6305.023333	605.721680	14.844320
401.757979	6305.023333	604.491211	65.604118
401.757979	6305.023333	603.259766	-70.307045
401.757979	6305.023333	602.028320	10.043794
401.757979	6305.023333	600.796875	44.864910
401.757979	6305.023333	599.564453	141.096924
401.757979	6305.023333	598.332031	144.052719
401.757979	6305.023333	597.099609	-18.969589
401.757979	6305.023333	595.867188	-156.901337
401.757979	6305.023333	594.633789	-69.749069
401.757979	6305.023333	593.400391	-34.882553
401.757979	6305.023333	592.166992	-63.625690
401.757979	6305.023333	590.933594	-53.723282
401.757979	6305.023333	589.699219	33.403183
401.757979	6305.023333	588.464844	-120.152229
401.757979	6305.023333	587.230469	39.635235
401.757979	6305.023333	585.995117	-281.751556
401.757979	6305.023333	584.760742	55.033268
401.757979	6305.023333	583.525391	139.894577
401.757979	6305.023333	582.289063	111.344528
401.757979	6305.023333	581.053711	8.011048
401.757979	6305.023333	579.817383	-258.478149
401.757979	6305.023333	578.581055	-64.706879
401.757979	6305.023333	577.343750	142.608719
401.757979	6305.023333	576.107422	-123.637039
401.757979	6305.023333	574.870117	17.986513
401.757979	6305.023333	573.631836	-53.290688
401.757979	6305.023333	572.394531	-65.627243
401.757979	6305.023333	571.156250	-43.965351
401.757979	6305.023333	569.917969	-26.797249
401.757979	6305.023333	568.679688	46.975052
401.757979	6305.023333	567.440430	5.384675
401.757979	6305.023333	566.202148	-18.045717
401.757979	6305.023333	564.961914	227.665497
401.757979	6305.023333	563.722656	131.947464
401.757979	6305.023333	562.482422	110.907295
401.757979	6305.023333	561.243164	78.629776
401.757979	6305.023333	560.001953	28.341139
401.757979	6305.023333	558.761719	32.342056
401.757979	6305.023333	557.520508	176.411804
401.757979	6305.023333	556.279297	72.110321
401.757979	6305.023333	555.038086	146.245468
401.757979	6305.023333	553.795898	107.560646
401.757979	6305.023333	552.554688	-43.866882
401.757979	6305.023333	551.311523	177.058105
401.757979	6305.023333	550.069336	-8.028850
401.757979	6305.023333	548.826172	-125.326469
401.757979	6305.023333	547.583984	113.702934
401.757979	6305.023333	546.339844	-113.886864
401.757979	6305.023333	545.096680	-115.959091
401.757979	6305.023333	543.852539	-88.673080
401.757979	6305.023333	542.608398	33.277416
401.757979	6305.023333	541.364258	17.868927
401.757979	6305.023333	540.119141	115.116676
401.757979	6305.023333	538.875000	-129.774628
401.757979	6305.023333	537.628906	75.637421
401.757979	6305.023333	536.383789	-22.734436
401.757979	6305.023333	535.137695	-120.990372
401.757979	6305.023333	533.892578	-66.184128
401.757979	6305.023333	532.645508	-18.072899
401.757979	6305.023333	531.399414	-23.861052
401.757979	6305.023333	530.152344	-18.332029
401.757979	6305.023333	528.905273	-37.447231
401.757979	6305.023333	527.658203	60.356346
401.757979	6305.023333	526.410156	61.605877
401.757979	6305.023333	525.163086	103.360695
401.757979	6305.023333	523.914063	-38.941078
401.757979	6305.023333	522.666016	-41.920506
401.757979	6305.023333	521.416992	-6.663246
401.757979	6305.023333	520.167969	33.146816
401.757979	6305.023333	518.918945	-12.228482
401.757979	6305.023333	517.669922	95.016579
401.757979	6305.023333	516.419922	114.840866
401.757979	6305.023333	515.169922	94.383217
401.757979	6305.023333	513.919922	114.362244
401.757979	6305.023333	512.668945	257.668427
401.757979	6305.023333	511.417969	161.259537
401.757979	6305.023333	510.166992	38.091251
401.757979	6305.023333	508.916016	-53.588806
401.757979	6305.023333	507.664063	172.797287
401.757979	6305.023333	506.412109	190.977219
401.757979	6305.023333	505.160156	52.560673
401.757979	6305.023333	503.907227	189.509277
401.757979	6305.023333	502.655273	181.062393
401.757979	6305.023333	501.402344	221.901810
401.757979	6305.023333	500.148438	106.266846
401.757979	6305.023333	498.895508	332.817139
401.757979	6305.023333	497.641602	405.113403
401.757979	6305.023333	496.387695	104.249290
401.757979	6305.023333	495.132813	170.003525
401.757979	6305.023333	493.878906	267.070984
401.757979	6305.023333	492.624023	214.532913
401.757979	6305.023333	491.368164	416.624939
401.757979	6305.023333	490.113281	277.144806
401.757979	6305.023333	488.857422	204.743011
401.757979	6305.023333	487.601563	373.420197
401.757979	6305.023333	486.344727	472.925354
401.757979	6305.023333	485.088867	329.325775
401.757979	6305.023333	483.832031	578.308899
401.757979	6305.023333	482.575195	350.132568
401.757979	6305.023333	481.317383	293.732758
401.757979	6305.023333	480.059570	391.166595
401.757979	6305.023333	478.801758	664.611633
401.757979	6305.023333	477.543945	770.911255
401.757979	6305.023333	476.285156	621.089783
401.757979	6305.023333	475.027344	602.728516
401.757979	6305.023333	473.767578	542.109497
401.757979	6305.023333	472.508789	421.445862
401.757979	6305.023333	471.249023	632.396667
401.757979	6305.023333	469.989258	551.842834
401.757979	6305.023333	468.729492	633.697754
401.757979	6305.023333	467.469727	877.850281
401.757979	6305.023333	466.208984	992.953491
401.757979	6305.023333	464.948242	583.438049
401.757979	6305.023333	463.686523	776.318970
401.757979	6305.023333	462.425781	751.365845
401.757979	6305.023333	461.164063	817.476501
401.757979	6305.023333	459.901367	859.104065
401.757979	6305.023333	458.639648	820.746033
401.757979	6305.023333	457.376953	946.634521
401.757979	6305.023333	456.114258	821.632568
401.757979	6305.023333	454.851563	958.460876
401.757979	6305.023333	453.587891	884.422302
401.757979	6305.023333	452.324219	887.973999
401.757979	6305.023333	451.060547	975.711975
401.757979	6305.023333	449.796875	1047.810059
401.757979	6305.023333	448.532227	1026.693970
401.757979	6305.023333	447.267578	1089.695923
401.757979	6305.023333	446.002930	1055.077881
401.757979	6305.023333	444.737305	1060.230347
401.757979	6305.023333	443.471680	1138.333496
401.757979	6305.023333	442.206055	1101.133911
401.757979	6305.023333	440.940430	1092.581665
401.757979	6305.023333	439.673828	1243.223145
401.757979	6305.023333	438.407227	1017.481628
401.757979	6305.023333	437.140625	1063.757935
401.757979	6305.023333	435.873047	893.079041
401.757979	6305.023333	434.605469	958.874878
401.757979	6305.023333	433.337891	1026.641724
401.757979	6305.023333	432.070313	983.642151
401.757979	6305.023333	430.801758	1066.382568
401.757979	6305.023333	429.533203	983.139954
401.757979	6305.023333	428.264648	1067.541992
401.757979	6305.023333	426.996094	1103.048828
401.757979	6305.023333	425.726563	992.530151
401.757979	6305.023333	424.457031	1042.894897
401.757979	6305.023333	423.186523	1015.675476
401.757979	6305.023333	421.916992	897.673279
401.757979	6305.023333	420.646484	918.345398
401.757979	6305.023333	419.375977	1181.245605
401.757979	6305.023333	418.104492	1020.288208
401.757979	6305.023333	416.833008	1191.885254
401.757979	6305.023333	415.561523	1250.585205
401.757979	6305.023333	414.290039	951.850342
401.757979	6305.023333	413.017578	1141.875122
401.757979	6305.023333	411.746094	1298.312012
401.757979	6305.023333	410.472656	978.523499
401.757979	6305.023333	409.200195	1173.555664
401.757979	6305.023333	407.926758	1240.301758
401.757979	6305.023333	406.653320	1165.625977
401.757979	6305.023333	405.379883	1279.630737
401.757979	6305.023333	404.105469	1131.217285
401.757979	6305.023333	402.831055	1177.989624
401.757979	6305.023333	401.556641	1072.389404
401.757979	6305.023333	400.282227	1267.343140
401.757979	6305.023333	399.006836	1090.086060
401.757979	6305.023333	397.731445	934.172058
401.757979	6305.023333	396.456055	1120.306152
401.757979	6305.023333	395.179688	1140.860840
401.757979	6305.023333	393.903320	1226.499146
401.757979	6305.023333	392.626953	1043.445068
401.757979	6305.023333	391.350586	1127.418945
401.757979	6305.023333	390.073242	1072.223999
401.757979	6305.023333	388.795898	1174.126587
401.757979	6305.023333	387.518555	1024.997681
401.757979	6305.023333	386.240234	1157.869751
401.757979	6305.023333	384.961914	1206.379517
401.757979	6305.023333	383.683594	1131.095215
401.757979	6305.023333	382.405273	1368.198486
401.757979	6305.023333	381.125977	1058.503174
401.757979	6305.023333	379.846680	1236.348389
401.757979	6305.023333	378.567383	1185.188354
401.757979	6305.023333	377.287109	1012.410828
401.757979	6305.023333	376.006836	974.222656
401.757979	6305.023333	374.726563	1138.352173
401.757979	6305.023333	373.446289	926.918579
401.757979	6305.023333	372.165039	1134.284180
401.757979	6305.023333	370.883789	1062.396729
401.757979	6305.023333	369.602539	958.516724
401.757979	6305.023333	368.320313	934.100464
401.757979	6305.023333	367.039063	982.553894
401.757979	6305.023333	365.755859	924.492615
401.757979	6305.023333	364.473633	834.320923
401.757979	6305.023333	363.190430	840.839111
401.757979	6305.023333	361.907227	880.632446
401.757979	6305.023333	360.624023	894.678955
401.757979	6305.023333	359.340820	935.342590
401.757979	6305.023333	358.056641	1113.831421
401.757979	6305.023333	356.772461	810.325867
401.757979	6305.023333	355.487305	747.168884
401.757979	6305.023333	354.202148	860.937988
401.757979	6305.023333	352.916992	745.860535
401.757979	6305.023333	351.631836	633.135620
401.757979	6305.023333	350.346680	721.062866
401.757979	6305.023333	349.060547	826.351440
401.757979	6305.023333	347.774414	617.806030
401.757979	6305.023333	346.487305	439.692810
401.757979	6305.023333	345.200195	640.438599
401.757979	6305.023333	343.913086	579.593567
401.757979	6305.023333	342.625977	605.570129
401.757979	6305.023333	341.338867	311.262146
401.757979	6305.023333	340.050781	238.561584
401.757979	6305.023333	338.762695	252.440659
401.757979	6305.023333	337.473633	433.186371
401.757979	6305.023333	336.184570	482.778198
401.757979	6305.023333	334.895508	120.784737
401.757979	6305.023333	333.606445	103.805534
401.757979	6305.023333	332.317383	99.062050
401.757979	6305.023333	331.027344	102.054726
401.757979	6305.023333	329.736328	43.190826
401.757979	6305.023333	328.446289	-27.458021
401.757979	6305.023333	327.155273	54.888435
401.757979	6305.023333	325.864258	114.307899
401.757979	6305.023333	324.573242	-114.032883
401.757979	6305.023333	323.281250	-24.752146
401.757979	6305.023333	321.989258	82.585609
401.757979	6305.023333	320.697266	-369.016235
401.757979	6305.023333	319.405273	-45.747093
401.757979	6305.023333	318.112305	-129.788879
401.757979	6305.023333	316.819336	-98.523384
401.757979	6305.023333	315.526367	52.220802
401.757979	6305.023333	314.232422	-87.295761
401.757979	6305.023333	312.938477	-157.315979
401.757979	6305.023333	311.644531	-17.219915
401.757979	6305.023333	310.349609	-245.424484
401.757979	6305.023333	309.054688	-107.885834
401.757979	6305.023333	307.759766	20.673237
401.757979	6305.023333	306.464844	120.686554
401.757979	6305.023333	305.168945	163.815430
401.757979	6305.023333	303.873047	-42.355343
401.757979	6305.023333	302.577148	137.917404
401.757979	6305.023333	301.281250	55.758987
401.757979	6305.023333	299.984375	461.032349
