#X		#Y		#Wave		#Intensity
30694.910691	-3115.463333	1999.980469	355.537506
30694.910691	-3115.463333	1999.016602	214.429199
30694.910691	-3115.463333	1998.052734	-135.199036
30694.910691	-3115.463333	1997.087891	-21.111378
30694.910691	-3115.463333	1996.123047	-162.092255
30694.910691	-3115.463333	1995.158203	9.274945
30694.910691	-3115.463333	1994.193359	307.055328
30694.910691	-3115.463333	1993.228516	84.863007
30694.910691	-3115.463333	1992.262695	56.020065
30694.910691	-3115.463333	1991.297852	71.893021
30694.910691	-3115.463333	1990.332031	-169.487717
30694.910691	-3115.463333	1989.366211	-17.201963
30694.910691	-3115.463333	1988.399414	75.786255
30694.910691	-3115.463333	1987.433594	42.719604
30694.910691	-3115.463333	1986.466797	51.833122
30694.910691	-3115.463333	1985.500977	182.223633
30694.910691	-3115.463333	1984.534180	23.440351
30694.910691	-3115.463333	1983.567383	-31.358547
30694.910691	-3115.463333	1982.599609	-224.417084
30694.910691	-3115.463333	1981.632813	146.039688
30694.910691	-3115.463333	1980.665039	24.866913
30694.910691	-3115.463333	1979.697266	-56.644550
30694.910691	-3115.463333	1978.729492	118.786751
30694.910691	-3115.463333	1977.761719	-53.877968
30694.910691	-3115.463333	1976.792969	148.820480
30694.910691	-3115.463333	1975.825195	-176.632706
30694.910691	-3115.463333	1974.856445	216.181702
30694.910691	-3115.463333	1973.887695	80.963646
30694.910691	-3115.463333	1972.918945	-59.061596
30694.910691	-3115.463333	1971.949219	-23.863775
30694.910691	-3115.463333	1970.980469	-257.377075
30694.910691	-3115.463333	1970.010742	-51.917439
30694.910691	-3115.463333	1969.041016	8.103683
30694.910691	-3115.463333	1968.071289	36.124802
30694.910691	-3115.463333	1967.101563	118.398933
30694.910691	-3115.463333	1966.130859	-259.968658
30694.910691	-3115.463333	1965.161133	-118.454506
30694.910691	-3115.463333	1964.190430	-16.342232
30694.910691	-3115.463333	1963.219727	-64.410408
30694.910691	-3115.463333	1962.249023	131.284729
30694.910691	-3115.463333	1961.277344	90.677078
30694.910691	-3115.463333	1960.306641	-65.531319
30694.910691	-3115.463333	1959.334961	309.770203
30694.910691	-3115.463333	1958.363281	-70.189095
30694.910691	-3115.463333	1957.391602	64.024139
30694.910691	-3115.463333	1956.419922	6.425281
30694.910691	-3115.463333	1955.447266	197.178238
30694.910691	-3115.463333	1954.474609	75.724327
30694.910691	-3115.463333	1953.501953	150.939423
30694.910691	-3115.463333	1952.529297	120.494385
30694.910691	-3115.463333	1951.556641	-86.794334
30694.910691	-3115.463333	1950.583984	-97.496986
30694.910691	-3115.463333	1949.610352	-71.341827
30694.910691	-3115.463333	1948.636719	-82.012398
30694.910691	-3115.463333	1947.663086	309.916321
30694.910691	-3115.463333	1946.689453	4.685753
30694.910691	-3115.463333	1945.715820	57.840176
30694.910691	-3115.463333	1944.741211	-80.380623
30694.910691	-3115.463333	1943.767578	7.123930
30694.910691	-3115.463333	1942.792969	124.032402
30694.910691	-3115.463333	1941.818359	-210.272141
30694.910691	-3115.463333	1940.842773	-110.521408
30694.910691	-3115.463333	1939.868164	104.392136
30694.910691	-3115.463333	1938.892578	88.864037
30694.910691	-3115.463333	1937.916992	-66.321136
30694.910691	-3115.463333	1936.941406	-47.521130
30694.910691	-3115.463333	1935.965820	30.048925
30694.910691	-3115.463333	1934.990234	173.702255
30694.910691	-3115.463333	1934.013672	84.700523
30694.910691	-3115.463333	1933.037109	365.358795
30694.910691	-3115.463333	1932.060547	-80.993019
30694.910691	-3115.463333	1931.083984	-20.660702
30694.910691	-3115.463333	1930.107422	193.770691
30694.910691	-3115.463333	1929.129883	187.961380
30694.910691	-3115.463333	1928.153320	-91.772522
30694.910691	-3115.463333	1927.175781	247.213760
30694.910691	-3115.463333	1926.198242	57.998230
30694.910691	-3115.463333	1925.219727	-50.501987
30694.910691	-3115.463333	1924.242188	232.029449
30694.910691	-3115.463333	1923.263672	274.988281
30694.910691	-3115.463333	1922.285156	95.606949
30694.910691	-3115.463333	1921.306641	126.323166
30694.910691	-3115.463333	1920.328125	120.376350
30694.910691	-3115.463333	1919.349609	48.487423
30694.910691	-3115.463333	1918.370117	66.924103
30694.910691	-3115.463333	1917.391602	-127.005577
30694.910691	-3115.463333	1916.412109	-154.954865
30694.910691	-3115.463333	1915.431641	14.700488
30694.910691	-3115.463333	1914.452148	118.404465
30694.910691	-3115.463333	1913.472656	26.939499
30694.910691	-3115.463333	1912.492188	252.467819
30694.910691	-3115.463333	1911.511719	53.690201
30694.910691	-3115.463333	1910.531250	-8.544332
30694.910691	-3115.463333	1909.550781	199.720703
30694.910691	-3115.463333	1908.569336	117.932655
30694.910691	-3115.463333	1907.588867	118.970589
30694.910691	-3115.463333	1906.607422	-35.901100
30694.910691	-3115.463333	1905.625977	91.733459
30694.910691	-3115.463333	1904.644531	246.070099
30694.910691	-3115.463333	1903.662109	356.502380
30694.910691	-3115.463333	1902.680664	50.679317
30694.910691	-3115.463333	1901.698242	17.473434
30694.910691	-3115.463333	1900.715820	81.562576
30694.910691	-3115.463333	1899.733398	325.593811
30694.910691	-3115.463333	1898.750000	233.887390
30694.910691	-3115.463333	1897.767578	110.570229
30694.910691	-3115.463333	1896.784180	-5.441437
30694.910691	-3115.463333	1895.800781	-16.929495
30694.910691	-3115.463333	1894.817383	-23.587629
30694.910691	-3115.463333	1893.833984	200.541855
30694.910691	-3115.463333	1892.850586	-80.732750
30694.910691	-3115.463333	1891.866211	-58.338436
30694.910691	-3115.463333	1890.881836	172.848419
30694.910691	-3115.463333	1889.897461	83.430069
30694.910691	-3115.463333	1888.913086	76.540062
30694.910691	-3115.463333	1887.927734	183.683914
30694.910691	-3115.463333	1886.943359	-172.717560
30694.910691	-3115.463333	1885.958008	157.553925
30694.910691	-3115.463333	1884.972656	114.119339
30694.910691	-3115.463333	1883.987305	194.344681
30694.910691	-3115.463333	1883.001953	104.771751
30694.910691	-3115.463333	1882.015625	-69.655640
30694.910691	-3115.463333	1881.029297	-11.371999
30694.910691	-3115.463333	1880.042969	-45.236885
30694.910691	-3115.463333	1879.056641	197.079620
30694.910691	-3115.463333	1878.070313	20.184752
30694.910691	-3115.463333	1877.083984	-282.628662
30694.910691	-3115.463333	1876.096680	121.718758
30694.910691	-3115.463333	1875.109375	-96.342987
30694.910691	-3115.463333	1874.122070	118.928162
30694.910691	-3115.463333	1873.134766	113.841644
30694.910691	-3115.463333	1872.146484	-164.711792
30694.910691	-3115.463333	1871.159180	195.483017
30694.910691	-3115.463333	1870.170898	45.133430
30694.910691	-3115.463333	1869.182617	-201.936676
30694.910691	-3115.463333	1868.194336	46.714954
30694.910691	-3115.463333	1867.205078	82.495522
30694.910691	-3115.463333	1866.216797	-63.054226
30694.910691	-3115.463333	1865.227539	-116.762428
30694.910691	-3115.463333	1864.238281	-49.688797
30694.910691	-3115.463333	1863.249023	26.979076
30694.910691	-3115.463333	1862.259766	163.955948
30694.910691	-3115.463333	1861.269531	136.637085
30694.910691	-3115.463333	1860.279297	92.385765
30694.910691	-3115.463333	1859.290039	156.730515
30694.910691	-3115.463333	1858.298828	-174.784607
30694.910691	-3115.463333	1857.308594	198.352859
30694.910691	-3115.463333	1856.318359	-205.504898
30694.910691	-3115.463333	1855.327148	-49.669891
30694.910691	-3115.463333	1854.335938	106.064232
30694.910691	-3115.463333	1853.344727	37.463043
30694.910691	-3115.463333	1852.353516	-170.972549
30694.910691	-3115.463333	1851.362305	-78.100006
30694.910691	-3115.463333	1850.370117	164.098526
30694.910691	-3115.463333	1849.377930	153.186066
30694.910691	-3115.463333	1848.385742	-110.693893
30694.910691	-3115.463333	1847.393555	-116.821663
30694.910691	-3115.463333	1846.401367	72.051735
30694.910691	-3115.463333	1845.408203	-64.200569
30694.910691	-3115.463333	1844.415039	-75.279999
30694.910691	-3115.463333	1843.421875	-45.488346
30694.910691	-3115.463333	1842.428711	-95.153786
30694.910691	-3115.463333	1841.435547	206.381851
30694.910691	-3115.463333	1840.441406	50.768822
30694.910691	-3115.463333	1839.448242	58.693756
30694.910691	-3115.463333	1838.454102	193.999176
30694.910691	-3115.463333	1837.459961	134.495667
30694.910691	-3115.463333	1836.464844	-88.462570
30694.910691	-3115.463333	1835.470703	212.463776
30694.910691	-3115.463333	1834.475586	145.647171
30694.910691	-3115.463333	1833.480469	-46.094799
30694.910691	-3115.463333	1832.485352	4.751513
30694.910691	-3115.463333	1831.490234	36.323769
30694.910691	-3115.463333	1830.495117	58.237167
30694.910691	-3115.463333	1829.499023	58.493076
30694.910691	-3115.463333	1828.502930	-154.877792
30694.910691	-3115.463333	1827.506836	176.435059
30694.910691	-3115.463333	1826.510742	212.515610
30694.910691	-3115.463333	1825.513672	-32.080288
30694.910691	-3115.463333	1824.517578	66.282555
30694.910691	-3115.463333	1823.520508	-32.037056
30694.910691	-3115.463333	1822.523438	61.402016
30694.910691	-3115.463333	1821.526367	-36.970585
30694.910691	-3115.463333	1820.529297	-49.089458
30694.910691	-3115.463333	1819.531250	44.159611
30694.910691	-3115.463333	1818.533203	22.355610
30694.910691	-3115.463333	1817.535156	115.464325
30694.910691	-3115.463333	1816.537109	98.350967
30694.910691	-3115.463333	1815.539063	234.409042
30694.910691	-3115.463333	1814.540039	135.807236
30694.910691	-3115.463333	1813.541992	-84.843712
30694.910691	-3115.463333	1812.542969	182.620682
30694.910691	-3115.463333	1811.543945	165.277786
30694.910691	-3115.463333	1810.543945	-91.272270
30694.910691	-3115.463333	1809.544922	178.292526
30694.910691	-3115.463333	1808.544922	-32.832417
30694.910691	-3115.463333	1807.544922	33.350342
30694.910691	-3115.463333	1806.544922	73.171814
30694.910691	-3115.463333	1805.544922	292.135864
30694.910691	-3115.463333	1804.544922	4.515909
30694.910691	-3115.463333	1803.543945	-266.325531
30694.910691	-3115.463333	1802.542969	-80.997246
30694.910691	-3115.463333	1801.541992	-113.056885
30694.910691	-3115.463333	1800.541016	-52.053318
30694.910691	-3115.463333	1799.539063	94.797691
30694.910691	-3115.463333	1798.538086	95.989029
30694.910691	-3115.463333	1797.536133	140.073547
30694.910691	-3115.463333	1796.534180	36.203449
30694.910691	-3115.463333	1795.532227	-129.681839
30694.910691	-3115.463333	1794.529297	-169.180161
30694.910691	-3115.463333	1793.527344	55.911793
30694.910691	-3115.463333	1792.524414	-50.440491
30694.910691	-3115.463333	1791.521484	10.013069
30694.910691	-3115.463333	1790.518555	108.518532
30694.910691	-3115.463333	1789.514648	-26.517262
30694.910691	-3115.463333	1788.511719	-102.003853
30694.910691	-3115.463333	1787.507813	39.181995
30694.910691	-3115.463333	1786.503906	118.363846
30694.910691	-3115.463333	1785.500000	-4.861666
30694.910691	-3115.463333	1784.496094	48.023006
30694.910691	-3115.463333	1783.491211	276.915649
30694.910691	-3115.463333	1782.486328	-29.603195
30694.910691	-3115.463333	1781.481445	-155.284500
30694.910691	-3115.463333	1780.476563	75.749603
30694.910691	-3115.463333	1779.471680	190.141678
30694.910691	-3115.463333	1778.465820	-18.862101
30694.910691	-3115.463333	1777.460938	-6.793314
30694.910691	-3115.463333	1776.455078	145.419510
30694.910691	-3115.463333	1775.449219	19.550611
30694.910691	-3115.463333	1774.442383	-27.934258
30694.910691	-3115.463333	1773.436523	-108.696205
30694.910691	-3115.463333	1772.429688	81.211845
30694.910691	-3115.463333	1771.422852	-94.604599
30694.910691	-3115.463333	1770.416016	-175.460022
30694.910691	-3115.463333	1769.409180	-16.646452
30694.910691	-3115.463333	1768.402344	-2.677577
30694.910691	-3115.463333	1767.394531	23.093668
30694.910691	-3115.463333	1766.386719	67.779846
30694.910691	-3115.463333	1765.378906	8.060614
30694.910691	-3115.463333	1764.371094	100.051193
30694.910691	-3115.463333	1763.362305	132.691437
30694.910691	-3115.463333	1762.354492	6.485331
30694.910691	-3115.463333	1761.345703	24.813528
30694.910691	-3115.463333	1760.336914	147.325012
30694.910691	-3115.463333	1759.328125	108.673080
30694.910691	-3115.463333	1758.318359	-183.415512
30694.910691	-3115.463333	1757.308594	54.930038
30694.910691	-3115.463333	1756.299805	51.675426
30694.910691	-3115.463333	1755.290039	214.046494
30694.910691	-3115.463333	1754.279297	54.472782
30694.910691	-3115.463333	1753.269531	185.922974
30694.910691	-3115.463333	1752.258789	92.547432
30694.910691	-3115.463333	1751.249023	60.652912
30694.910691	-3115.463333	1750.238281	-42.221714
30694.910691	-3115.463333	1749.226563	22.739817
30694.910691	-3115.463333	1748.215820	-61.280453
30694.910691	-3115.463333	1747.204102	265.877167
30694.910691	-3115.463333	1746.193359	-215.203751
30694.910691	-3115.463333	1745.181641	-51.243549
30694.910691	-3115.463333	1744.168945	22.848452
30694.910691	-3115.463333	1743.157227	205.492065
30694.910691	-3115.463333	1742.144531	-34.605610
30694.910691	-3115.463333	1741.132813	-17.359539
30694.910691	-3115.463333	1740.120117	-163.019836
30694.910691	-3115.463333	1739.106445	111.331360
30694.910691	-3115.463333	1738.093750	-83.943283
30694.910691	-3115.463333	1737.080078	-64.555084
30694.910691	-3115.463333	1736.067383	-80.593346
30694.910691	-3115.463333	1735.053711	-228.719757
30694.910691	-3115.463333	1734.040039	198.358505
30694.910691	-3115.463333	1733.025391	177.401260
30694.910691	-3115.463333	1732.011719	184.685806
30694.910691	-3115.463333	1730.997070	163.637985
30694.910691	-3115.463333	1729.982422	81.303741
30694.910691	-3115.463333	1728.967773	111.995628
30694.910691	-3115.463333	1727.952148	55.496716
30694.910691	-3115.463333	1726.937500	-158.758011
30694.910691	-3115.463333	1725.921875	88.352180
30694.910691	-3115.463333	1724.906250	45.858810
30694.910691	-3115.463333	1723.890625	-43.726330
30694.910691	-3115.463333	1722.875000	92.504074
30694.910691	-3115.463333	1721.858398	-135.927902
30694.910691	-3115.463333	1720.841797	148.308304
30694.910691	-3115.463333	1719.825195	35.053577
30694.910691	-3115.463333	1718.808594	55.777760
30694.910691	-3115.463333	1717.791992	-104.519051
30694.910691	-3115.463333	1716.774414	-384.647003
30694.910691	-3115.463333	1715.756836	40.064526
30694.910691	-3115.463333	1714.739258	-164.921463
30694.910691	-3115.463333	1713.721680	92.751617
30694.910691	-3115.463333	1712.704102	-53.567513
30694.910691	-3115.463333	1711.685547	124.064720
30694.910691	-3115.463333	1710.667969	261.686340
30694.910691	-3115.463333	1709.649414	37.827869
30694.910691	-3115.463333	1708.630859	-75.726471
30694.910691	-3115.463333	1707.611328	125.026306
30694.910691	-3115.463333	1706.592773	203.707596
30694.910691	-3115.463333	1705.573242	305.752838
30694.910691	-3115.463333	1704.553711	367.854706
30694.910691	-3115.463333	1703.534180	36.112957
30694.910691	-3115.463333	1702.513672	250.461990
30694.910691	-3115.463333	1701.494141	136.670166
30694.910691	-3115.463333	1700.473633	224.322906
30694.910691	-3115.463333	1699.453125	307.210754
30694.910691	-3115.463333	1698.432617	141.806534
30694.910691	-3115.463333	1697.412109	173.075302
30694.910691	-3115.463333	1696.390625	194.916077
30694.910691	-3115.463333	1695.369141	389.879364
30694.910691	-3115.463333	1694.347656	315.641144
30694.910691	-3115.463333	1693.326172	391.103943
30694.910691	-3115.463333	1692.304688	499.236755
30694.910691	-3115.463333	1691.282227	623.641541
30694.910691	-3115.463333	1690.260742	514.157959
30694.910691	-3115.463333	1689.238281	198.954529
30694.910691	-3115.463333	1688.214844	346.570435
30694.910691	-3115.463333	1687.192383	622.607300
30694.910691	-3115.463333	1686.168945	629.817383
30694.910691	-3115.463333	1685.146484	800.493896
30694.910691	-3115.463333	1684.123047	669.791382
30694.910691	-3115.463333	1683.099609	476.053833
30694.910691	-3115.463333	1682.075195	653.511780
30694.910691	-3115.463333	1681.051758	760.845459
30694.910691	-3115.463333	1680.027344	548.390808
30694.910691	-3115.463333	1679.002930	795.591553
30694.910691	-3115.463333	1677.978516	846.711670
30694.910691	-3115.463333	1676.953125	956.063599
30694.910691	-3115.463333	1675.928711	993.054504
30694.910691	-3115.463333	1674.903320	792.189880
30694.910691	-3115.463333	1673.877930	959.630493
30694.910691	-3115.463333	1672.852539	1094.339600
30694.910691	-3115.463333	1671.826172	1149.727051
30694.910691	-3115.463333	1670.800781	993.075562
30694.910691	-3115.463333	1669.774414	1036.733887
30694.910691	-3115.463333	1668.748047	1015.130554
30694.910691	-3115.463333	1667.721680	1396.264160
30694.910691	-3115.463333	1666.694336	1160.362671
30694.910691	-3115.463333	1665.667969	1094.408325
30694.910691	-3115.463333	1664.640625	1316.952759
30694.910691	-3115.463333	1663.613281	1332.327271
30694.910691	-3115.463333	1662.585938	1194.147217
30694.910691	-3115.463333	1661.557617	1539.664185
30694.910691	-3115.463333	1660.530273	1673.444824
30694.910691	-3115.463333	1659.501953	1714.141724
30694.910691	-3115.463333	1658.473633	1754.785767
30694.910691	-3115.463333	1657.444336	1551.385864
30694.910691	-3115.463333	1656.416016	1891.663330
30694.910691	-3115.463333	1655.386719	1874.057861
30694.910691	-3115.463333	1654.358398	2044.540649
30694.910691	-3115.463333	1653.328125	2180.073730
30694.910691	-3115.463333	1652.298828	2373.561279
30694.910691	-3115.463333	1651.269531	2460.176270
30694.910691	-3115.463333	1650.239258	2869.263672
30694.910691	-3115.463333	1649.208984	2890.708008
30694.910691	-3115.463333	1648.178711	3322.679688
30694.910691	-3115.463333	1647.148438	3527.173096
30694.910691	-3115.463333	1646.117188	4007.468750
30694.910691	-3115.463333	1645.086914	3780.487549
30694.910691	-3115.463333	1644.055664	4091.284180
30694.910691	-3115.463333	1643.024414	4170.191895
30694.910691	-3115.463333	1641.992188	4116.962891
30694.910691	-3115.463333	1640.960938	4545.558105
30694.910691	-3115.463333	1639.928711	4371.782227
30694.910691	-3115.463333	1638.896484	4952.916992
30694.910691	-3115.463333	1637.864258	4769.808105
30694.910691	-3115.463333	1636.832031	5281.140137
30694.910691	-3115.463333	1635.798828	5213.682617
30694.910691	-3115.463333	1634.766602	5178.623535
30694.910691	-3115.463333	1633.733398	5088.020508
30694.910691	-3115.463333	1632.699219	4789.258789
30694.910691	-3115.463333	1631.666016	5075.635254
30694.910691	-3115.463333	1630.632813	5028.951172
30694.910691	-3115.463333	1629.598633	4910.592773
30694.910691	-3115.463333	1628.564453	4882.387695
30694.910691	-3115.463333	1627.530273	4616.172852
30694.910691	-3115.463333	1626.495117	4292.272949
30694.910691	-3115.463333	1625.460938	4423.499023
30694.910691	-3115.463333	1624.425781	4390.684082
30694.910691	-3115.463333	1623.390625	4496.388672
30694.910691	-3115.463333	1622.355469	4488.920410
30694.910691	-3115.463333	1621.319336	4469.882813
30694.910691	-3115.463333	1620.284180	4656.206543
30694.910691	-3115.463333	1619.248047	4514.829590
30694.910691	-3115.463333	1618.211914	4253.543945
30694.910691	-3115.463333	1617.174805	4642.662109
30694.910691	-3115.463333	1616.138672	4579.704590
30694.910691	-3115.463333	1615.101563	4438.365234
30694.910691	-3115.463333	1614.065430	4725.765625
30694.910691	-3115.463333	1613.027344	4801.015625
30694.910691	-3115.463333	1611.990234	4576.725586
30694.910691	-3115.463333	1610.953125	4716.451172
30694.910691	-3115.463333	1609.915039	4985.062988
30694.910691	-3115.463333	1608.876953	5145.337891
30694.910691	-3115.463333	1607.838867	5393.014160
30694.910691	-3115.463333	1606.800781	5474.862793
30694.910691	-3115.463333	1605.761719	5685.524902
30694.910691	-3115.463333	1604.723633	5716.643066
30694.910691	-3115.463333	1603.684570	5754.628418
30694.910691	-3115.463333	1602.644531	5452.200684
30694.910691	-3115.463333	1601.605469	5593.674316
30694.910691	-3115.463333	1600.566406	5040.800781
30694.910691	-3115.463333	1599.526367	5464.988281
30694.910691	-3115.463333	1598.486328	5417.899902
30694.910691	-3115.463333	1597.446289	5504.085449
30694.910691	-3115.463333	1596.405273	5502.925781
30694.910691	-3115.463333	1595.365234	5543.113281
30694.910691	-3115.463333	1594.324219	5716.451660
30694.910691	-3115.463333	1593.283203	5623.404297
30694.910691	-3115.463333	1592.242188	5858.626465
30694.910691	-3115.463333	1591.200195	6190.129883
30694.910691	-3115.463333	1590.159180	6136.040527
30694.910691	-3115.463333	1589.117188	6079.666504
30694.910691	-3115.463333	1588.075195	5869.642090
30694.910691	-3115.463333	1587.032227	5992.193848
30694.910691	-3115.463333	1585.990234	6100.950195
30694.910691	-3115.463333	1584.947266	6042.324707
30694.910691	-3115.463333	1583.904297	5869.132813
30694.910691	-3115.463333	1582.861328	5549.366699
30694.910691	-3115.463333	1581.818359	5474.853516
30694.910691	-3115.463333	1580.775391	5226.299316
30694.910691	-3115.463333	1579.731445	4986.997559
30694.910691	-3115.463333	1578.687500	5242.335938
30694.910691	-3115.463333	1577.643555	5094.699707
30694.910691	-3115.463333	1576.598633	4670.193848
30694.910691	-3115.463333	1575.554688	4623.423340
30694.910691	-3115.463333	1574.509766	4267.823730
30694.910691	-3115.463333	1573.464844	4376.693848
30694.910691	-3115.463333	1572.419922	4412.353027
30694.910691	-3115.463333	1571.374023	4420.562012
30694.910691	-3115.463333	1570.329102	4012.745117
30694.910691	-3115.463333	1569.283203	4139.899414
30694.910691	-3115.463333	1568.237305	3899.123535
30694.910691	-3115.463333	1567.191406	3925.753418
30694.910691	-3115.463333	1566.144531	3936.390381
30694.910691	-3115.463333	1565.098633	4145.729980
30694.910691	-3115.463333	1564.051758	4361.845215
30694.910691	-3115.463333	1563.004883	4240.036133
30694.910691	-3115.463333	1561.957031	4109.152832
30694.910691	-3115.463333	1560.910156	4131.236816
30694.910691	-3115.463333	1559.862305	4456.758789
30694.910691	-3115.463333	1558.814453	4508.450684
30694.910691	-3115.463333	1557.766602	4281.913086
30694.910691	-3115.463333	1556.718750	4003.041992
30694.910691	-3115.463333	1555.669922	4086.763672
30694.910691	-3115.463333	1554.621094	4181.872070
30694.910691	-3115.463333	1553.573242	4096.952637
30694.910691	-3115.463333	1552.523438	4337.875977
30694.910691	-3115.463333	1551.474609	4118.605469
30694.910691	-3115.463333	1550.424805	4334.429688
30694.910691	-3115.463333	1549.375000	4087.967285
30694.910691	-3115.463333	1548.325195	4146.687012
30694.910691	-3115.463333	1547.275391	4314.665527
30694.910691	-3115.463333	1546.225586	4532.672363
30694.910691	-3115.463333	1545.174805	4459.389648
30694.910691	-3115.463333	1544.124023	4834.290039
30694.910691	-3115.463333	1543.073242	4981.648926
30694.910691	-3115.463333	1542.022461	4903.870605
30694.910691	-3115.463333	1540.970703	5135.329590
30694.910691	-3115.463333	1539.919922	4780.320313
30694.910691	-3115.463333	1538.868164	4839.073730
30694.910691	-3115.463333	1537.815430	4986.440430
30694.910691	-3115.463333	1536.763672	4895.276855
30694.910691	-3115.463333	1535.710938	4979.060059
30694.910691	-3115.463333	1534.659180	4801.724609
30694.910691	-3115.463333	1533.606445	4399.732422
30694.910691	-3115.463333	1532.552734	4297.548828
30694.910691	-3115.463333	1531.500000	3993.481445
30694.910691	-3115.463333	1530.446289	3875.618896
30694.910691	-3115.463333	1529.393555	3349.530273
30694.910691	-3115.463333	1528.338867	3152.540527
30694.910691	-3115.463333	1527.285156	3447.744141
30694.910691	-3115.463333	1526.231445	3078.609619
30694.910691	-3115.463333	1525.176758	3219.663330
30694.910691	-3115.463333	1524.122070	2857.603516
30694.910691	-3115.463333	1523.067383	3243.444580
30694.910691	-3115.463333	1522.012695	2544.085938
30694.910691	-3115.463333	1520.957031	2938.985107
30694.910691	-3115.463333	1519.901367	2923.918701
30694.910691	-3115.463333	1518.845703	3047.010254
30694.910691	-3115.463333	1517.790039	3027.502930
30694.910691	-3115.463333	1516.734375	3128.000977
30694.910691	-3115.463333	1515.677734	3264.708252
30694.910691	-3115.463333	1514.621094	3317.715820
30694.910691	-3115.463333	1513.564453	3479.320801
30694.910691	-3115.463333	1512.507813	3548.204102
30694.910691	-3115.463333	1511.450195	3768.587402
30694.910691	-3115.463333	1510.393555	3796.816406
30694.910691	-3115.463333	1509.335938	3651.066406
30694.910691	-3115.463333	1508.278320	3570.958984
30694.910691	-3115.463333	1507.219727	3542.897949
30694.910691	-3115.463333	1506.162109	3354.552979
30694.910691	-3115.463333	1505.103516	3590.873047
30694.910691	-3115.463333	1504.044922	3504.309326
30694.910691	-3115.463333	1502.986328	3639.054443
30694.910691	-3115.463333	1501.926758	3196.057129
30694.910691	-3115.463333	1500.868164	3188.789063
30694.910691	-3115.463333	1499.808594	3614.723389
30694.910691	-3115.463333	1498.749023	3406.762451
30694.910691	-3115.463333	1497.688477	3645.443359
30694.910691	-3115.463333	1496.628906	3627.082764
30694.910691	-3115.463333	1495.568359	3550.181885
30694.910691	-3115.463333	1494.507813	3599.589844
30694.910691	-3115.463333	1493.447266	3513.854492
30694.910691	-3115.463333	1492.386719	3281.792725
30694.910691	-3115.463333	1491.325195	3353.955566
30694.910691	-3115.463333	1490.263672	3140.170654
30694.910691	-3115.463333	1489.202148	3176.458008
30694.910691	-3115.463333	1488.140625	2976.449463
30694.910691	-3115.463333	1487.079102	2864.366211
30694.910691	-3115.463333	1486.016602	2840.154297
30694.910691	-3115.463333	1484.954102	2600.060547
30694.910691	-3115.463333	1483.891602	2200.445313
30694.910691	-3115.463333	1482.829102	2635.359619
30694.910691	-3115.463333	1481.765625	2229.310791
30694.910691	-3115.463333	1480.702148	2583.283447
30694.910691	-3115.463333	1479.638672	2164.094482
30694.910691	-3115.463333	1478.575195	2374.311523
30694.910691	-3115.463333	1477.511719	2490.188477
30694.910691	-3115.463333	1476.447266	2448.859863
30694.910691	-3115.463333	1475.382813	2677.093506
30694.910691	-3115.463333	1474.318359	2674.116211
30694.910691	-3115.463333	1473.253906	2720.704346
30694.910691	-3115.463333	1472.189453	3036.466064
30694.910691	-3115.463333	1471.124023	2883.435791
30694.910691	-3115.463333	1470.058594	2966.175781
30694.910691	-3115.463333	1468.993164	3145.087646
30694.910691	-3115.463333	1467.927734	2990.376465
30694.910691	-3115.463333	1466.861328	3144.493652
30694.910691	-3115.463333	1465.794922	3406.290283
30694.910691	-3115.463333	1464.728516	3247.059570
30694.910691	-3115.463333	1463.662109	3314.372803
30694.910691	-3115.463333	1462.594727	3171.646240
30694.910691	-3115.463333	1461.528320	3354.826172
30694.910691	-3115.463333	1460.460938	3287.785889
30694.910691	-3115.463333	1459.393555	3397.491211
30694.910691	-3115.463333	1458.326172	3467.836914
30694.910691	-3115.463333	1457.257813	3563.416016
30694.910691	-3115.463333	1456.189453	3509.203125
30694.910691	-3115.463333	1455.121094	3406.698975
30694.910691	-3115.463333	1454.052734	3061.775391
30694.910691	-3115.463333	1452.984375	3266.127686
30694.910691	-3115.463333	1451.915039	3294.523438
30694.910691	-3115.463333	1450.845703	3073.817383
30694.910691	-3115.463333	1449.776367	3645.364014
30694.910691	-3115.463333	1448.707031	3499.997803
30694.910691	-3115.463333	1447.636719	3243.620361
30694.910691	-3115.463333	1446.567383	3535.250000
30694.910691	-3115.463333	1445.497070	3370.432373
30694.910691	-3115.463333	1444.425781	3303.503906
30694.910691	-3115.463333	1443.355469	3534.947021
30694.910691	-3115.463333	1442.285156	3461.318115
30694.910691	-3115.463333	1441.213867	3653.955322
30694.910691	-3115.463333	1440.142578	4080.890381
30694.910691	-3115.463333	1439.070313	3840.997314
30694.910691	-3115.463333	1437.999023	3678.249023
30694.910691	-3115.463333	1436.926758	4018.628418
30694.910691	-3115.463333	1435.854492	4163.303711
30694.910691	-3115.463333	1434.782227	3935.344238
30694.910691	-3115.463333	1433.709961	4336.755859
30694.910691	-3115.463333	1432.636719	3852.631348
30694.910691	-3115.463333	1431.563477	4287.035156
30694.910691	-3115.463333	1430.490234	4234.758789
30694.910691	-3115.463333	1429.416992	3949.566406
30694.910691	-3115.463333	1428.343750	3721.881836
30694.910691	-3115.463333	1427.269531	3513.531006
30694.910691	-3115.463333	1426.195313	3184.927246
30694.910691	-3115.463333	1425.121094	3237.273926
30694.910691	-3115.463333	1424.046875	2995.265137
30694.910691	-3115.463333	1422.971680	3261.361328
30694.910691	-3115.463333	1421.896484	3305.903564
30694.910691	-3115.463333	1420.821289	3724.071533
30694.910691	-3115.463333	1419.746094	4086.504395
30694.910691	-3115.463333	1418.669922	4055.606689
30694.910691	-3115.463333	1417.594727	4310.613281
30694.910691	-3115.463333	1416.518555	4382.057617
30694.910691	-3115.463333	1415.442383	4800.863770
30694.910691	-3115.463333	1414.365234	5504.791992
30694.910691	-3115.463333	1413.289063	5494.204102
30694.910691	-3115.463333	1412.211914	5202.023438
30694.910691	-3115.463333	1411.134766	5228.163086
30694.910691	-3115.463333	1410.057617	5161.416504
30694.910691	-3115.463333	1408.979492	4879.594238
30694.910691	-3115.463333	1407.902344	4833.349609
30694.910691	-3115.463333	1406.824219	4903.310059
30694.910691	-3115.463333	1405.746094	5004.736328
30694.910691	-3115.463333	1404.666992	4850.325195
30694.910691	-3115.463333	1403.588867	4828.376953
30694.910691	-3115.463333	1402.509766	5109.775391
30694.910691	-3115.463333	1401.430664	4888.542480
30694.910691	-3115.463333	1400.351563	5076.122559
30694.910691	-3115.463333	1399.271484	5255.649902
30694.910691	-3115.463333	1398.192383	4714.099609
30694.910691	-3115.463333	1397.112305	4778.398926
30694.910691	-3115.463333	1396.031250	4618.546875
30694.910691	-3115.463333	1394.951172	4418.182129
30694.910691	-3115.463333	1393.871094	4200.638184
30694.910691	-3115.463333	1392.790039	3880.156494
30694.910691	-3115.463333	1391.708984	3420.963135
30694.910691	-3115.463333	1390.626953	3193.689453
30694.910691	-3115.463333	1389.545898	3002.465332
30694.910691	-3115.463333	1388.463867	2871.677246
30694.910691	-3115.463333	1387.381836	3072.416016
30694.910691	-3115.463333	1386.299805	2740.710938
30694.910691	-3115.463333	1385.217773	2368.132813
30694.910691	-3115.463333	1384.134766	2405.006592
30694.910691	-3115.463333	1383.051758	2282.729736
30694.910691	-3115.463333	1381.968750	2538.243896
30694.910691	-3115.463333	1380.885742	2337.396484
30694.910691	-3115.463333	1379.802734	2007.687622
30694.910691	-3115.463333	1378.718750	2322.693115
30694.910691	-3115.463333	1377.634766	2417.552246
30694.910691	-3115.463333	1376.550781	2266.399170
30694.910691	-3115.463333	1375.465820	2364.045166
30694.910691	-3115.463333	1374.381836	2428.131836
30694.910691	-3115.463333	1373.296875	2245.744141
30694.910691	-3115.463333	1372.211914	2172.084473
30694.910691	-3115.463333	1371.126953	2274.530029
30694.910691	-3115.463333	1370.041016	2371.489258
30694.910691	-3115.463333	1368.955078	2513.010742
30694.910691	-3115.463333	1367.869141	2388.896484
30694.910691	-3115.463333	1366.783203	2869.709473
30694.910691	-3115.463333	1365.697266	2545.087891
30694.910691	-3115.463333	1364.610352	2908.913818
30694.910691	-3115.463333	1363.523438	2949.219238
30694.910691	-3115.463333	1362.436523	2522.345459
30694.910691	-3115.463333	1361.349609	2835.888428
30694.910691	-3115.463333	1360.261719	2869.771240
30694.910691	-3115.463333	1359.174805	2828.281250
30694.910691	-3115.463333	1358.086914	3145.429932
30694.910691	-3115.463333	1356.998047	3400.092285
30694.910691	-3115.463333	1355.910156	3462.840088
30694.910691	-3115.463333	1354.821289	3689.825928
30694.910691	-3115.463333	1353.732422	3832.756348
30694.910691	-3115.463333	1352.643555	3502.558594
30694.910691	-3115.463333	1351.554688	3478.770020
30694.910691	-3115.463333	1350.464844	3529.419922
30694.910691	-3115.463333	1349.375000	3779.197021
30694.910691	-3115.463333	1348.285156	3554.774902
30694.910691	-3115.463333	1347.195313	3489.403320
30694.910691	-3115.463333	1346.105469	3532.855225
30694.910691	-3115.463333	1345.014648	3609.225586
30694.910691	-3115.463333	1343.923828	3392.868164
30694.910691	-3115.463333	1342.833008	3565.098877
30694.910691	-3115.463333	1341.741211	3446.700684
30694.910691	-3115.463333	1340.650391	3703.314209
30694.910691	-3115.463333	1339.558594	3704.346924
30694.910691	-3115.463333	1338.466797	3371.857178
30694.910691	-3115.463333	1337.374023	3488.425049
30694.910691	-3115.463333	1336.282227	3018.490967
30694.910691	-3115.463333	1335.189453	3188.606201
30694.910691	-3115.463333	1334.096680	2795.685791
30694.910691	-3115.463333	1333.003906	2915.774170
30694.910691	-3115.463333	1331.910156	2553.100342
30694.910691	-3115.463333	1330.817383	2270.404785
30694.910691	-3115.463333	1329.723633	2189.338867
30694.910691	-3115.463333	1328.629883	2228.112061
30694.910691	-3115.463333	1327.535156	1839.074829
30694.910691	-3115.463333	1326.441406	2033.043091
30694.910691	-3115.463333	1325.346680	1892.053589
30694.910691	-3115.463333	1324.251953	1933.751221
30694.910691	-3115.463333	1323.156250	2080.595703
30694.910691	-3115.463333	1322.061523	2142.482910
30694.910691	-3115.463333	1320.965820	2123.299072
30694.910691	-3115.463333	1319.870117	2222.156250
30694.910691	-3115.463333	1318.774414	2151.719482
30694.910691	-3115.463333	1317.678711	2328.019775
30694.910691	-3115.463333	1316.582031	2143.938965
30694.910691	-3115.463333	1315.485352	2119.783691
30694.910691	-3115.463333	1314.388672	2271.346191
30694.910691	-3115.463333	1313.291016	1989.137817
30694.910691	-3115.463333	1312.194336	1972.294434
30694.910691	-3115.463333	1311.096680	1808.618530
30694.910691	-3115.463333	1309.999023	1685.613403
30694.910691	-3115.463333	1308.901367	1552.778198
30694.910691	-3115.463333	1307.802734	1583.314331
30694.910691	-3115.463333	1306.705078	1226.784180
30694.910691	-3115.463333	1305.606445	1401.307739
30694.910691	-3115.463333	1304.506836	1552.013672
30694.910691	-3115.463333	1303.408203	1372.541870
30694.910691	-3115.463333	1302.308594	1405.401611
30694.910691	-3115.463333	1301.208984	1284.399902
30694.910691	-3115.463333	1300.109375	1442.264404
30694.910691	-3115.463333	1299.009766	1369.810913
30694.910691	-3115.463333	1297.909180	1419.354614
30694.910691	-3115.463333	1296.808594	1468.190552
30694.910691	-3115.463333	1295.708008	1588.979858
30694.910691	-3115.463333	1294.607422	1532.223999
30694.910691	-3115.463333	1293.506836	1283.121338
30694.910691	-3115.463333	1292.405273	1399.382080
30694.910691	-3115.463333	1291.303711	1336.417725
30694.910691	-3115.463333	1290.202148	1270.967896
30694.910691	-3115.463333	1289.099609	1118.553345
30694.910691	-3115.463333	1287.998047	1185.637939
30694.910691	-3115.463333	1286.895508	1183.594482
30694.910691	-3115.463333	1285.792969	1212.845825
30694.910691	-3115.463333	1284.689453	697.245056
30694.910691	-3115.463333	1283.586914	1102.413696
30694.910691	-3115.463333	1282.483398	1131.974854
30694.910691	-3115.463333	1281.379883	690.017334
30694.910691	-3115.463333	1280.276367	758.878113
30694.910691	-3115.463333	1279.171875	774.113831
30694.910691	-3115.463333	1278.067383	449.160461
30694.910691	-3115.463333	1276.962891	492.825836
30694.910691	-3115.463333	1275.858398	479.288788
30694.910691	-3115.463333	1274.753906	383.923462
30694.910691	-3115.463333	1273.648438	357.740051
30694.910691	-3115.463333	1272.542969	390.642822
30694.910691	-3115.463333	1271.437500	348.962982
30694.910691	-3115.463333	1270.331055	207.392471
30694.910691	-3115.463333	1269.225586	664.728516
30694.910691	-3115.463333	1268.119141	449.486694
30694.910691	-3115.463333	1267.012695	618.252747
30694.910691	-3115.463333	1265.906250	398.824524
30694.910691	-3115.463333	1264.798828	334.552521
30694.910691	-3115.463333	1263.691406	691.463562
30694.910691	-3115.463333	1262.583984	390.892639
30694.910691	-3115.463333	1261.476563	327.161163
30694.910691	-3115.463333	1260.368164	521.817078
30694.910691	-3115.463333	1259.260742	529.646545
30694.910691	-3115.463333	1258.152344	491.810944
30694.910691	-3115.463333	1257.043945	549.412842
30694.910691	-3115.463333	1255.934570	591.299194
30694.910691	-3115.463333	1254.825195	674.347839
30694.910691	-3115.463333	1253.716797	617.448120
30694.910691	-3115.463333	1252.606445	665.834595
30694.910691	-3115.463333	1251.497070	393.421204
30694.910691	-3115.463333	1250.387695	555.238647
30694.910691	-3115.463333	1249.277344	290.810059
30694.910691	-3115.463333	1248.166992	240.317505
30694.910691	-3115.463333	1247.055664	298.022491
30694.910691	-3115.463333	1245.945313	133.112198
30694.910691	-3115.463333	1244.833984	-61.008636
30694.910691	-3115.463333	1243.722656	7.752100
30694.910691	-3115.463333	1242.611328	51.389534
30694.910691	-3115.463333	1241.499023	209.050125
30694.910691	-3115.463333	1240.387695	146.697861
30694.910691	-3115.463333	1239.275391	74.958687
30694.910691	-3115.463333	1238.162109	65.991936
30694.910691	-3115.463333	1237.049805	153.390213
30694.910691	-3115.463333	1235.936523	-52.534725
30694.910691	-3115.463333	1234.823242	-12.700947
30694.910691	-3115.463333	1233.709961	-142.437576
30694.910691	-3115.463333	1232.596680	17.969263
30694.910691	-3115.463333	1231.482422	-136.821915
30694.910691	-3115.463333	1230.369141	-4.533451
30694.910691	-3115.463333	1229.253906	-168.314606
30694.910691	-3115.463333	1228.139648	-173.811081
30694.910691	-3115.463333	1227.025391	-107.473671
30694.910691	-3115.463333	1225.910156	-73.690567
30694.910691	-3115.463333	1224.794922	-2.600912
30694.910691	-3115.463333	1223.679688	42.073586
30694.910691	-3115.463333	1222.563477	139.794464
30694.910691	-3115.463333	1221.447266	-32.839264
30694.910691	-3115.463333	1220.331055	-122.049301
30694.910691	-3115.463333	1219.214844	-129.670654
30694.910691	-3115.463333	1218.098633	-200.702347
30694.910691	-3115.463333	1216.981445	-53.358528
30694.910691	-3115.463333	1215.864258	-89.727806
30694.910691	-3115.463333	1214.747070	-163.434250
30694.910691	-3115.463333	1213.629883	-44.371445
30694.910691	-3115.463333	1212.511719	-190.989731
30694.910691	-3115.463333	1211.393555	44.364334
30694.910691	-3115.463333	1210.275391	103.513954
30694.910691	-3115.463333	1209.157227	178.712021
30694.910691	-3115.463333	1208.038086	70.283691
30694.910691	-3115.463333	1206.918945	188.483856
30694.910691	-3115.463333	1205.799805	108.581039
30694.910691	-3115.463333	1204.680664	262.044922
30694.910691	-3115.463333	1203.560547	35.394104
30694.910691	-3115.463333	1202.441406	150.938004
30694.910691	-3115.463333	1201.321289	180.347641
30694.910691	-3115.463333	1200.200195	357.582947
30694.910691	-3115.463333	1199.080078	467.054901
30694.910691	-3115.463333	1197.958984	316.352478
30694.910691	-3115.463333	1196.837891	505.115265
30694.910691	-3115.463333	1195.716797	379.945709
30694.910691	-3115.463333	1194.594727	316.630127
30694.910691	-3115.463333	1193.473633	242.651566
30694.910691	-3115.463333	1192.351563	209.442932
30694.910691	-3115.463333	1191.229492	104.534348
30694.910691	-3115.463333	1190.106445	-29.835762
30694.910691	-3115.463333	1188.984375	99.595894
30694.910691	-3115.463333	1187.861328	-15.215238
30694.910691	-3115.463333	1186.738281	89.600754
30694.910691	-3115.463333	1185.614258	-0.961794
30694.910691	-3115.463333	1184.491211	169.500992
30694.910691	-3115.463333	1183.367188	188.614517
30694.910691	-3115.463333	1182.243164	83.223312
30694.910691	-3115.463333	1181.119141	90.548058
30694.910691	-3115.463333	1179.994141	228.760849
30694.910691	-3115.463333	1178.869141	77.189598
30694.910691	-3115.463333	1177.744141	147.821625
30694.910691	-3115.463333	1176.619141	103.269218
30694.910691	-3115.463333	1175.493164	131.007233
30694.910691	-3115.463333	1174.368164	-7.749902
30694.910691	-3115.463333	1173.242188	-95.712700
30694.910691	-3115.463333	1172.115234	60.581734
30694.910691	-3115.463333	1170.989258	32.773678
30694.910691	-3115.463333	1169.862305	271.432861
30694.910691	-3115.463333	1168.735352	204.788589
30694.910691	-3115.463333	1167.608398	208.279419
30694.910691	-3115.463333	1166.481445	278.157349
30694.910691	-3115.463333	1165.353516	439.157837
30694.910691	-3115.463333	1164.225586	550.450806
30694.910691	-3115.463333	1163.097656	358.253967
30694.910691	-3115.463333	1161.968750	388.589996
30694.910691	-3115.463333	1160.840820	526.781067
30694.910691	-3115.463333	1159.711914	507.902496
30694.910691	-3115.463333	1158.583008	575.186768
30694.910691	-3115.463333	1157.453125	570.618286
30694.910691	-3115.463333	1156.324219	559.870056
30694.910691	-3115.463333	1155.194336	703.418579
30694.910691	-3115.463333	1154.064453	704.495544
30694.910691	-3115.463333	1152.933594	579.945557
30694.910691	-3115.463333	1151.803711	571.807983
30694.910691	-3115.463333	1150.672852	423.044617
30694.910691	-3115.463333	1149.541992	429.231873
30694.910691	-3115.463333	1148.411133	152.055405
30694.910691	-3115.463333	1147.279297	207.009277
30694.910691	-3115.463333	1146.147461	145.760757
30694.910691	-3115.463333	1145.015625	19.569721
30694.910691	-3115.463333	1143.883789	138.658005
30694.910691	-3115.463333	1142.750977	-62.489174
30694.910691	-3115.463333	1141.619141	-70.513718
30694.910691	-3115.463333	1140.486328	-147.651398
30694.910691	-3115.463333	1139.352539	-113.956825
30694.910691	-3115.463333	1138.219727	-190.058044
30694.910691	-3115.463333	1137.085938	-303.430237
30694.910691	-3115.463333	1135.952148	-80.794540
30694.910691	-3115.463333	1134.818359	-354.137085
30694.910691	-3115.463333	1133.683594	-45.407448
30694.910691	-3115.463333	1132.549805	89.485466
30694.910691	-3115.463333	1131.415039	271.397217
30694.910691	-3115.463333	1130.279297	358.604309
30694.910691	-3115.463333	1129.144531	555.655029
30694.910691	-3115.463333	1128.008789	233.283661
30694.910691	-3115.463333	1126.873047	280.539917
30694.910691	-3115.463333	1125.737305	449.389893
30694.910691	-3115.463333	1124.601563	337.464630
30694.910691	-3115.463333	1123.464844	194.320236
30694.910691	-3115.463333	1122.328125	274.508514
30694.910691	-3115.463333	1121.191406	180.209396
30694.910691	-3115.463333	1120.054688	96.968132
30694.910691	-3115.463333	1118.916992	26.008585
30694.910691	-3115.463333	1117.779297	159.485306
30694.910691	-3115.463333	1116.641602	5.567547
30694.910691	-3115.463333	1115.503906	185.769287
30694.910691	-3115.463333	1114.365234	80.765450
30694.910691	-3115.463333	1113.226563	103.358246
30694.910691	-3115.463333	1112.087891	149.262833
30694.910691	-3115.463333	1110.949219	5.725676
30694.910691	-3115.463333	1109.809570	28.686182
30694.910691	-3115.463333	1108.669922	269.806152
30694.910691	-3115.463333	1107.530273	-7.400414
30694.910691	-3115.463333	1106.390625	216.124512
30694.910691	-3115.463333	1105.250000	108.389542
30694.910691	-3115.463333	1104.109375	116.561539
30694.910691	-3115.463333	1102.968750	106.739548
30694.910691	-3115.463333	1101.828125	179.893707
30694.910691	-3115.463333	1100.686523	267.701385
30694.910691	-3115.463333	1099.544922	347.162720
30694.910691	-3115.463333	1098.403320	378.186371
30694.910691	-3115.463333	1097.261719	491.807892
30694.910691	-3115.463333	1096.120117	403.374451
30694.910691	-3115.463333	1094.977539	359.597382
30694.910691	-3115.463333	1093.834961	411.721252
30694.910691	-3115.463333	1092.691406	749.422180
30694.910691	-3115.463333	1091.548828	351.755585
30694.910691	-3115.463333	1090.405273	656.897400
30694.910691	-3115.463333	1089.261719	373.765228
30694.910691	-3115.463333	1088.118164	491.906525
30694.910691	-3115.463333	1086.973633	454.477600
30694.910691	-3115.463333	1085.829102	208.538910
30694.910691	-3115.463333	1084.684570	297.215973
30694.910691	-3115.463333	1083.540039	349.421448
30694.910691	-3115.463333	1082.395508	225.494781
30694.910691	-3115.463333	1081.250000	203.737595
30694.910691	-3115.463333	1080.104492	91.798523
30694.910691	-3115.463333	1078.958984	48.693771
30694.910691	-3115.463333	1077.812500	-227.103287
30694.910691	-3115.463333	1076.666016	81.890160
30694.910691	-3115.463333	1075.519531	-114.157318
30694.910691	-3115.463333	1074.373047	169.932663
30694.910691	-3115.463333	1073.226563	162.370682
30694.910691	-3115.463333	1072.079102	-78.081062
30694.910691	-3115.463333	1070.931641	204.350601
30694.910691	-3115.463333	1069.784180	188.722992
30694.910691	-3115.463333	1068.635742	186.441696
30694.910691	-3115.463333	1067.487305	358.539856
30694.910691	-3115.463333	1066.338867	270.204681
30694.910691	-3115.463333	1065.190430	120.590248
30694.910691	-3115.463333	1064.041992	137.177689
30694.910691	-3115.463333	1062.892578	273.367462
30694.910691	-3115.463333	1061.743164	295.191132
30694.910691	-3115.463333	1060.593750	132.634796
30694.910691	-3115.463333	1059.443359	246.778427
30694.910691	-3115.463333	1058.292969	367.019989
30694.910691	-3115.463333	1057.142578	269.044830
30694.910691	-3115.463333	1055.992188	204.304932
30694.910691	-3115.463333	1054.841797	115.823502
30694.910691	-3115.463333	1053.690430	200.655869
30694.910691	-3115.463333	1052.539063	260.758972
30694.910691	-3115.463333	1051.387695	-57.436714
30694.910691	-3115.463333	1050.235352	-135.546921
30694.910691	-3115.463333	1049.083984	193.049988
30694.910691	-3115.463333	1047.931641	-109.041451
30694.910691	-3115.463333	1046.778320	-174.381134
30694.910691	-3115.463333	1045.625977	276.556335
30694.910691	-3115.463333	1044.472656	-63.543823
30694.910691	-3115.463333	1043.319336	100.751480
30694.910691	-3115.463333	1042.166016	5.978311
30694.910691	-3115.463333	1041.012695	-135.068481
30694.910691	-3115.463333	1039.858398	114.603241
30694.910691	-3115.463333	1038.704102	121.025528
30694.910691	-3115.463333	1037.549805	190.873123
30694.910691	-3115.463333	1036.394531	-49.921547
30694.910691	-3115.463333	1035.239258	266.288025
30694.910691	-3115.463333	1034.083984	89.459808
30694.910691	-3115.463333	1032.928711	258.158295
30694.910691	-3115.463333	1031.773438	178.827789
30694.910691	-3115.463333	1030.617188	99.531311
30694.910691	-3115.463333	1029.460938	186.714554
30694.910691	-3115.463333	1028.304688	119.045532
30694.910691	-3115.463333	1027.147461	269.126129
30694.910691	-3115.463333	1025.991211	70.539749
30694.910691	-3115.463333	1024.833984	158.235199
30694.910691	-3115.463333	1023.675781	282.135223
30694.910691	-3115.463333	1022.518555	215.367554
30694.910691	-3115.463333	1021.360352	201.961731
30694.910691	-3115.463333	1020.202148	-81.043198
30694.910691	-3115.463333	1019.043945	-129.295563
30694.910691	-3115.463333	1017.884766	-32.855038
30694.910691	-3115.463333	1016.726563	-47.054134
30694.910691	-3115.463333	1015.567383	-154.368805
30694.910691	-3115.463333	1014.407227	-172.559814
30694.910691	-3115.463333	1013.248047	134.176422
30694.910691	-3115.463333	1012.087891	93.158569
30694.910691	-3115.463333	1010.927734	114.979958
30694.910691	-3115.463333	1009.767578	-46.994011
30694.910691	-3115.463333	1008.606445	42.192196
30694.910691	-3115.463333	1007.446289	-40.388569
30694.910691	-3115.463333	1006.285156	-2.668270
30694.910691	-3115.463333	1005.123047	-217.975983
30694.910691	-3115.463333	1003.961914	138.030106
30694.910691	-3115.463333	1002.799805	222.498734
30694.910691	-3115.463333	1001.637695	-31.697874
30694.910691	-3115.463333	1000.475586	172.533310
30694.910691	-3115.463333	999.312500	102.173752
30694.910691	-3115.463333	998.149414	53.797047
30694.910691	-3115.463333	996.986328	-34.348484
30694.910691	-3115.463333	995.823242	-16.228392
30694.910691	-3115.463333	994.659180	-65.820404
30694.910691	-3115.463333	993.496094	150.463562
30694.910691	-3115.463333	992.332031	-94.276611
30694.910691	-3115.463333	991.166992	-155.433395
30694.910691	-3115.463333	990.002930	-63.783527
30694.910691	-3115.463333	988.837891	38.855515
30694.910691	-3115.463333	987.672852	-97.788719
30694.910691	-3115.463333	986.506836	45.591805
30694.910691	-3115.463333	985.341797	-202.126831
30694.910691	-3115.463333	984.175781	30.707205
30694.910691	-3115.463333	983.009766	-144.028870
30694.910691	-3115.463333	981.843750	-169.559311
30694.910691	-3115.463333	980.676758	43.069164
30694.910691	-3115.463333	979.509766	-67.629295
30694.910691	-3115.463333	978.342773	-273.122101
30694.910691	-3115.463333	977.175781	77.747398
30694.910691	-3115.463333	976.007813	-270.093109
30694.910691	-3115.463333	974.839844	140.273087
30694.910691	-3115.463333	973.671875	-98.507103
30694.910691	-3115.463333	972.503906	-12.483084
30694.910691	-3115.463333	971.334961	-263.907043
30694.910691	-3115.463333	970.166016	86.741516
30694.910691	-3115.463333	968.997070	-0.646367
30694.910691	-3115.463333	967.828125	-2.838809
30694.910691	-3115.463333	966.658203	13.732120
30694.910691	-3115.463333	965.488281	6.762930
30694.910691	-3115.463333	964.318359	228.359543
30694.910691	-3115.463333	963.148438	97.507744
30694.910691	-3115.463333	961.977539	51.971584
30694.910691	-3115.463333	960.806641	39.633347
30694.910691	-3115.463333	959.635742	62.880215
30694.910691	-3115.463333	958.463867	52.563969
30694.910691	-3115.463333	957.292969	-93.009773
30694.910691	-3115.463333	956.121094	75.154030
30694.910691	-3115.463333	954.948242	2.843803
30694.910691	-3115.463333	953.776367	-50.948986
30694.910691	-3115.463333	952.603516	24.781164
30694.910691	-3115.463333	951.430664	56.218746
30694.910691	-3115.463333	950.257813	-57.419926
30694.910691	-3115.463333	949.084961	-92.237854
30694.910691	-3115.463333	947.911133	75.766716
30694.910691	-3115.463333	946.737305	-80.217598
30694.910691	-3115.463333	945.563477	106.837051
30694.910691	-3115.463333	944.388672	126.911804
30694.910691	-3115.463333	943.213867	76.458099
30694.910691	-3115.463333	942.039063	133.721588
30694.910691	-3115.463333	940.864258	188.027008
30694.910691	-3115.463333	939.688477	13.137560
30694.910691	-3115.463333	938.513672	344.550842
30694.910691	-3115.463333	937.337891	290.816132
30694.910691	-3115.463333	936.161133	15.440639
30694.910691	-3115.463333	934.985352	404.555084
30694.910691	-3115.463333	933.808594	224.040497
30694.910691	-3115.463333	932.631836	315.090942
30694.910691	-3115.463333	931.454102	398.107971
30694.910691	-3115.463333	930.277344	536.470703
30694.910691	-3115.463333	929.099609	258.246368
30694.910691	-3115.463333	927.921875	480.809845
30694.910691	-3115.463333	926.743164	463.486389
30694.910691	-3115.463333	925.565430	398.639801
30694.910691	-3115.463333	924.386719	349.591858
30694.910691	-3115.463333	923.208008	326.870972
30694.910691	-3115.463333	922.028320	48.639149
30694.910691	-3115.463333	920.849609	257.620819
30694.910691	-3115.463333	919.669922	263.863098
30694.910691	-3115.463333	919.474609	283.218201
30694.910691	-3115.463333	918.309570	149.715607
30694.910691	-3115.463333	917.143555	10.967901
30694.910691	-3115.463333	915.977539	-22.517813
30694.910691	-3115.463333	914.810547	28.155602
30694.910691	-3115.463333	913.644531	-52.740120
30694.910691	-3115.463333	912.477539	-62.638809
30694.910691	-3115.463333	911.310547	124.603493
30694.910691	-3115.463333	910.143555	-77.282204
30694.910691	-3115.463333	908.975586	199.166473
30694.910691	-3115.463333	907.807617	-76.288231
30694.910691	-3115.463333	906.639648	-117.876274
30694.910691	-3115.463333	905.471680	-148.977982
30694.910691	-3115.463333	904.303711	16.832949
30694.910691	-3115.463333	903.134766	130.040222
30694.910691	-3115.463333	901.965820	-19.305683
30694.910691	-3115.463333	900.796875	-68.904457
30694.910691	-3115.463333	899.626953	183.208984
30694.910691	-3115.463333	898.457031	81.064651
30694.910691	-3115.463333	897.287109	18.267580
30694.910691	-3115.463333	896.117188	34.126854
30694.910691	-3115.463333	894.947266	123.350990
30694.910691	-3115.463333	893.776367	204.649048
30694.910691	-3115.463333	892.605469	73.626389
30694.910691	-3115.463333	891.434570	-39.033871
30694.910691	-3115.463333	890.262695	26.445606
30694.910691	-3115.463333	889.091797	207.094604
30694.910691	-3115.463333	887.919922	206.980942
30694.910691	-3115.463333	886.748047	86.422020
30694.910691	-3115.463333	885.575195	10.381577
30694.910691	-3115.463333	884.403320	146.294861
30694.910691	-3115.463333	883.230469	-13.498066
30694.910691	-3115.463333	882.057617	1.995086
30694.910691	-3115.463333	880.883789	132.526047
30694.910691	-3115.463333	879.710938	98.255798
30694.910691	-3115.463333	878.537109	58.749813
30694.910691	-3115.463333	877.362305	21.854177
30694.910691	-3115.463333	876.188477	-4.603973
30694.910691	-3115.463333	875.013672	76.039307
30694.910691	-3115.463333	873.839844	31.250875
30694.910691	-3115.463333	872.664063	17.803127
30694.910691	-3115.463333	871.489258	-131.429962
30694.910691	-3115.463333	870.313477	-16.978973
30694.910691	-3115.463333	869.138672	-33.089790
30694.910691	-3115.463333	867.962891	65.595596
30694.910691	-3115.463333	866.786133	-177.515228
30694.910691	-3115.463333	865.610352	189.757706
30694.910691	-3115.463333	864.433594	298.708832
30694.910691	-3115.463333	863.256836	79.103104
30694.910691	-3115.463333	862.079102	47.243645
30694.910691	-3115.463333	860.902344	153.493164
30694.910691	-3115.463333	859.724609	69.483795
30694.910691	-3115.463333	858.546875	227.751083
30694.910691	-3115.463333	857.368164	250.509186
30694.910691	-3115.463333	856.190430	213.347458
30694.910691	-3115.463333	855.011719	264.701599
30694.910691	-3115.463333	853.833008	-43.172077
30694.910691	-3115.463333	852.654297	-75.093582
30694.910691	-3115.463333	851.474609	90.718521
30694.910691	-3115.463333	850.294922	6.730481
30694.910691	-3115.463333	849.115234	-199.471436
30694.910691	-3115.463333	847.935547	91.023209
30694.910691	-3115.463333	846.754883	-60.546223
30694.910691	-3115.463333	845.575195	110.212555
30694.910691	-3115.463333	844.393555	-62.112949
30694.910691	-3115.463333	843.212891	121.541687
30694.910691	-3115.463333	842.032227	157.049545
30694.910691	-3115.463333	840.850586	176.951630
30694.910691	-3115.463333	839.668945	20.276749
30694.910691	-3115.463333	838.486328	219.290482
30694.910691	-3115.463333	837.304688	73.024910
30694.910691	-3115.463333	836.122070	175.912247
30694.910691	-3115.463333	834.939453	242.424698
30694.910691	-3115.463333	833.756836	358.177704
30694.910691	-3115.463333	832.573242	110.825432
30694.910691	-3115.463333	831.389648	280.982635
30694.910691	-3115.463333	830.206055	64.830170
30694.910691	-3115.463333	829.022461	255.635803
30694.910691	-3115.463333	827.838867	49.918240
30694.910691	-3115.463333	826.654297	201.770996
30694.910691	-3115.463333	825.469727	262.898682
30694.910691	-3115.463333	824.284180	-35.941120
30694.910691	-3115.463333	823.099609	27.777912
30694.910691	-3115.463333	821.914063	127.699585
30694.910691	-3115.463333	820.728516	54.183807
30694.910691	-3115.463333	819.542969	154.037338
30694.910691	-3115.463333	818.356445	-17.770485
30694.910691	-3115.463333	817.169922	38.072411
30694.910691	-3115.463333	815.983398	-76.776665
30694.910691	-3115.463333	814.796875	15.227267
30694.910691	-3115.463333	813.609375	-104.756081
30694.910691	-3115.463333	812.422852	-173.020554
30694.910691	-3115.463333	811.235352	-117.252716
30694.910691	-3115.463333	810.046875	-159.670303
30694.910691	-3115.463333	808.859375	-111.696083
30694.910691	-3115.463333	807.670898	-125.715874
30694.910691	-3115.463333	806.482422	-191.369766
30694.910691	-3115.463333	805.293945	-215.712433
30694.910691	-3115.463333	804.104492	-286.499390
30694.910691	-3115.463333	802.915039	50.350994
30694.910691	-3115.463333	801.725586	142.014450
30694.910691	-3115.463333	800.536133	86.639374
30694.910691	-3115.463333	799.345703	139.566895
30694.910691	-3115.463333	798.155273	-191.619446
30694.910691	-3115.463333	796.964844	-94.865997
30694.910691	-3115.463333	795.774414	-111.536133
30694.910691	-3115.463333	794.583008	-233.827850
30694.910691	-3115.463333	793.392578	86.918243
30694.910691	-3115.463333	792.200195	-81.734520
30694.910691	-3115.463333	791.008789	-49.518635
30694.910691	-3115.463333	789.816406	-91.969772
30694.910691	-3115.463333	788.625000	-34.053490
30694.910691	-3115.463333	787.432617	-17.336752
30694.910691	-3115.463333	786.239258	71.391182
30694.910691	-3115.463333	785.046875	54.620857
30694.910691	-3115.463333	783.853516	-52.146439
30694.910691	-3115.463333	782.660156	-97.184578
30694.910691	-3115.463333	781.465820	456.655853
30694.910691	-3115.463333	780.272461	223.916260
30694.910691	-3115.463333	779.078125	263.597778
30694.910691	-3115.463333	777.883789	254.444138
30694.910691	-3115.463333	776.688477	150.263870
30694.910691	-3115.463333	775.494141	69.218483
30694.910691	-3115.463333	774.298828	-142.724167
30694.910691	-3115.463333	773.103516	143.311493
30694.910691	-3115.463333	771.907227	-107.074120
30694.910691	-3115.463333	770.711914	-267.582703
30694.910691	-3115.463333	769.515625	220.888260
30694.910691	-3115.463333	768.318359	-49.915497
30694.910691	-3115.463333	767.122070	-12.962210
30694.910691	-3115.463333	765.924805	-19.614349
30694.910691	-3115.463333	764.727539	-64.721916
30694.910691	-3115.463333	763.530273	-32.960037
30694.910691	-3115.463333	762.333008	362.536194
30694.910691	-3115.463333	761.134766	253.299622
30694.910691	-3115.463333	759.936523	397.595520
30694.910691	-3115.463333	758.738281	526.451843
30694.910691	-3115.463333	757.540039	519.577148
30694.910691	-3115.463333	756.340820	369.383240
30694.910691	-3115.463333	755.141602	423.913635
30694.910691	-3115.463333	753.942383	115.167938
30694.910691	-3115.463333	752.742188	215.725739
30694.910691	-3115.463333	751.541992	-8.508000
30694.910691	-3115.463333	750.341797	94.548332
30694.910691	-3115.463333	749.141602	205.207809
30694.910691	-3115.463333	747.941406	21.937773
30694.910691	-3115.463333	746.740234	-66.748741
30694.910691	-3115.463333	745.539063	117.884331
30694.910691	-3115.463333	744.337891	133.871704
30694.910691	-3115.463333	743.135742	34.937286
30694.910691	-3115.463333	741.933594	25.363056
30694.910691	-3115.463333	740.731445	214.835083
30694.910691	-3115.463333	739.529297	210.280655
30694.910691	-3115.463333	738.326172	402.137390
30694.910691	-3115.463333	737.124023	-20.792707
30694.910691	-3115.463333	735.919922	107.231888
30694.910691	-3115.463333	734.716797	-182.939545
30694.910691	-3115.463333	733.513672	103.041748
30694.910691	-3115.463333	732.309570	246.167953
30694.910691	-3115.463333	731.105469	57.981968
30694.910691	-3115.463333	729.900391	60.898773
30694.910691	-3115.463333	728.696289	234.416916
30694.910691	-3115.463333	727.491211	209.226242
30694.910691	-3115.463333	726.286133	130.555252
30694.910691	-3115.463333	725.080078	11.164522
30694.910691	-3115.463333	723.874023	192.061905
30694.910691	-3115.463333	722.668945	-26.579596
30694.910691	-3115.463333	721.461914	-67.106285
30694.910691	-3115.463333	720.255859	-115.281334
30694.910691	-3115.463333	719.048828	-260.084259
30694.910691	-3115.463333	717.841797	128.959747
30694.910691	-3115.463333	716.634766	45.091301
30694.910691	-3115.463333	715.427734	-112.465508
30694.910691	-3115.463333	714.219727	39.940250
30694.910691	-3115.463333	713.011719	-102.381607
30694.910691	-3115.463333	711.803711	-94.860329
30694.910691	-3115.463333	710.594727	-61.989628
30694.910691	-3115.463333	709.385742	-1.250597
30694.910691	-3115.463333	708.176758	117.791756
30694.910691	-3115.463333	706.967773	3.320460
30694.910691	-3115.463333	705.758789	160.281265
30694.910691	-3115.463333	704.548828	121.853142
30694.910691	-3115.463333	703.338867	85.936012
30694.910691	-3115.463333	702.127930	115.904114
30694.910691	-3115.463333	700.917969	270.009247
30694.910691	-3115.463333	699.707031	145.264999
30694.910691	-3115.463333	698.496094	-25.074028
30694.910691	-3115.463333	697.285156	-372.692993
30694.910691	-3115.463333	696.073242	-155.478561
30694.910691	-3115.463333	694.861328	-75.124321
30694.910691	-3115.463333	693.649414	-75.852501
30694.910691	-3115.463333	692.436523	141.024323
30694.910691	-3115.463333	691.224609	-11.662357
30694.910691	-3115.463333	690.011719	63.347595
30694.910691	-3115.463333	688.798828	-36.239799
30694.910691	-3115.463333	687.584961	23.474661
30694.910691	-3115.463333	686.372070	-131.782684
30694.910691	-3115.463333	685.158203	-120.198280
30694.910691	-3115.463333	683.943359	111.189140
30694.910691	-3115.463333	682.729492	39.237034
30694.910691	-3115.463333	681.514648	131.457932
30694.910691	-3115.463333	680.299805	36.698792
30694.910691	-3115.463333	679.084961	108.575333
30694.910691	-3115.463333	677.869141	104.634888
30694.910691	-3115.463333	676.653320	-28.078171
30694.910691	-3115.463333	675.437500	43.604622
30694.910691	-3115.463333	674.221680	-43.738106
30694.910691	-3115.463333	673.004883	-12.549399
30694.910691	-3115.463333	671.789063	-19.258085
30694.910691	-3115.463333	670.571289	1.713767
30694.910691	-3115.463333	669.354492	178.904510
30694.910691	-3115.463333	668.136719	267.756470
30694.910691	-3115.463333	666.919922	54.151741
30694.910691	-3115.463333	665.701172	-0.714092
30694.910691	-3115.463333	664.483398	150.907867
30694.910691	-3115.463333	663.264648	231.901016
30694.910691	-3115.463333	662.045898	310.282013
30694.910691	-3115.463333	660.827148	89.045570
30694.910691	-3115.463333	659.608398	182.401306
30694.910691	-3115.463333	658.388672	124.699669
30694.910691	-3115.463333	657.168945	220.400909
30694.910691	-3115.463333	655.949219	180.195099
30694.910691	-3115.463333	654.728516	439.152313
30694.910691	-3115.463333	653.507813	119.757408
30694.910691	-3115.463333	652.287109	290.526672
30694.910691	-3115.463333	651.066406	56.605309
30694.910691	-3115.463333	649.844727	134.235092
30694.910691	-3115.463333	648.623047	194.186295
30694.910691	-3115.463333	647.401367	50.642239
30694.910691	-3115.463333	646.179688	346.456177
30694.910691	-3115.463333	644.957031	240.461563
30694.910691	-3115.463333	643.734375	365.328308
30694.910691	-3115.463333	642.511719	-39.333477
30694.910691	-3115.463333	641.289063	72.864723
30694.910691	-3115.463333	640.065430	237.616516
30694.910691	-3115.463333	638.841797	394.709259
30694.910691	-3115.463333	637.618164	198.192627
30694.910691	-3115.463333	636.393555	127.011078
30694.910691	-3115.463333	635.168945	306.378967
30694.910691	-3115.463333	633.944336	59.697533
30694.910691	-3115.463333	632.719727	359.098511
30694.910691	-3115.463333	631.494141	237.587799
30694.910691	-3115.463333	630.269531	196.181686
30694.910691	-3115.463333	629.042969	102.155602
30694.910691	-3115.463333	627.817383	173.279953
30694.910691	-3115.463333	626.590820	119.197189
30694.910691	-3115.463333	625.365234	172.639954
30694.910691	-3115.463333	624.137695	83.428009
30694.910691	-3115.463333	622.911133	89.208443
30694.910691	-3115.463333	621.683594	24.915337
30694.910691	-3115.463333	620.456055	223.029465
30694.910691	-3115.463333	619.228516	86.130028
30694.910691	-3115.463333	618.000977	174.079422
30694.910691	-3115.463333	616.772461	47.102795
30694.910691	-3115.463333	615.543945	-22.448679
30694.910691	-3115.463333	614.314453	-69.567696
30694.910691	-3115.463333	613.085938	142.883926
30694.910691	-3115.463333	611.856445	30.723324
30694.910691	-3115.463333	610.626953	35.820538
30694.910691	-3115.463333	609.397461	215.479492
30694.910691	-3115.463333	608.166992	33.335247
30694.910691	-3115.463333	606.936523	58.175022
30694.910691	-3115.463333	605.706055	85.431717
30694.910691	-3115.463333	604.474609	-96.771446
30694.910691	-3115.463333	603.244141	25.072865
30694.910691	-3115.463333	602.012695	-35.085098
30694.910691	-3115.463333	600.780273	-122.686539
30694.910691	-3115.463333	599.548828	-210.313629
30694.910691	-3115.463333	598.316406	65.561768
30694.910691	-3115.463333	597.083984	77.377815
30694.910691	-3115.463333	595.851563	-147.321121
30694.910691	-3115.463333	594.618164	-175.409119
30694.910691	-3115.463333	593.384766	-69.205635
30694.910691	-3115.463333	592.151367	143.844482
30694.910691	-3115.463333	590.917969	-8.815874
30694.910691	-3115.463333	589.683594	79.691025
30694.910691	-3115.463333	588.449219	-184.872940
30694.910691	-3115.463333	587.214844	104.811111
30694.910691	-3115.463333	585.979492	-8.206288
30694.910691	-3115.463333	584.745117	-76.517685
30694.910691	-3115.463333	583.509766	-72.838066
30694.910691	-3115.463333	582.273438	-151.164032
30694.910691	-3115.463333	581.038086	-33.390518
30694.910691	-3115.463333	579.801758	-37.346027
30694.910691	-3115.463333	578.565430	-26.468384
30694.910691	-3115.463333	577.329102	-335.695404
30694.910691	-3115.463333	576.091797	-44.586170
30694.910691	-3115.463333	574.854492	-19.005112
30694.910691	-3115.463333	573.617188	-288.534515
30694.910691	-3115.463333	572.378906	-10.182797
30694.910691	-3115.463333	571.141602	144.084610
30694.910691	-3115.463333	569.903320	18.241396
30694.910691	-3115.463333	568.664063	-87.785049
30694.910691	-3115.463333	567.425781	-0.629820
30694.910691	-3115.463333	566.186523	-0.231540
30694.910691	-3115.463333	564.947266	106.570206
30694.910691	-3115.463333	563.708008	-34.236485
30694.910691	-3115.463333	562.467773	99.647408
30694.910691	-3115.463333	561.227539	92.403915
30694.910691	-3115.463333	559.987305	33.173515
30694.910691	-3115.463333	558.747070	-26.078129
30694.910691	-3115.463333	557.505859	-58.155617
30694.910691	-3115.463333	556.264648	-139.701950
30694.910691	-3115.463333	555.023438	-171.828583
30694.910691	-3115.463333	553.781250	-129.860718
30694.910691	-3115.463333	552.539063	28.155447
30694.910691	-3115.463333	551.296875	-110.318306
30694.910691	-3115.463333	550.054688	22.852682
30694.910691	-3115.463333	548.811523	-202.051437
30694.910691	-3115.463333	547.569336	-46.780827
30694.910691	-3115.463333	546.325195	-227.234100
30694.910691	-3115.463333	545.082031	-227.537323
30694.910691	-3115.463333	543.837891	-163.746368
30694.910691	-3115.463333	542.593750	-188.798859
30694.910691	-3115.463333	541.349609	94.327545
30694.910691	-3115.463333	540.105469	81.488152
30694.910691	-3115.463333	538.860352	-27.499998
30694.910691	-3115.463333	537.615234	68.041786
30694.910691	-3115.463333	536.369141	202.922653
30694.910691	-3115.463333	535.124023	123.440712
30694.910691	-3115.463333	533.877930	253.267151
30694.910691	-3115.463333	532.631836	210.675415
30694.910691	-3115.463333	531.384766	180.375885
30694.910691	-3115.463333	530.138672	113.153107
30694.910691	-3115.463333	528.891602	156.643845
30694.910691	-3115.463333	527.643555	205.003983
30694.910691	-3115.463333	526.396484	332.021057
30694.910691	-3115.463333	525.148438	58.175377
30694.910691	-3115.463333	523.900391	-33.666828
30694.910691	-3115.463333	522.652344	181.718643
30694.910691	-3115.463333	521.403320	249.554535
30694.910691	-3115.463333	520.154297	196.961914
30694.910691	-3115.463333	518.905273	112.441231
30694.910691	-3115.463333	517.656250	140.891373
30694.910691	-3115.463333	516.406250	90.741920
30694.910691	-3115.463333	515.156250	104.409737
30694.910691	-3115.463333	513.906250	334.005493
30694.910691	-3115.463333	512.655273	372.105042
30694.910691	-3115.463333	511.404297	110.907440
30694.910691	-3115.463333	510.153320	-155.103775
30694.910691	-3115.463333	508.902344	-58.138439
30694.910691	-3115.463333	507.650391	70.629089
30694.910691	-3115.463333	506.398438	74.327324
30694.910691	-3115.463333	505.146484	104.957199
30694.910691	-3115.463333	503.893555	86.554092
30694.910691	-3115.463333	502.641602	166.113235
30694.910691	-3115.463333	501.388672	150.112595
30694.910691	-3115.463333	500.134766	258.952179
30694.910691	-3115.463333	498.881836	416.680817
30694.910691	-3115.463333	497.627930	285.551575
30694.910691	-3115.463333	496.374023	372.206146
30694.910691	-3115.463333	495.119141	392.750610
30694.910691	-3115.463333	493.865234	305.661285
30694.910691	-3115.463333	492.610352	421.519867
30694.910691	-3115.463333	491.355469	341.741272
30694.910691	-3115.463333	490.099609	545.470154
30694.910691	-3115.463333	488.843750	639.126038
30694.910691	-3115.463333	487.587891	708.284058
30694.910691	-3115.463333	486.332031	875.079529
30694.910691	-3115.463333	485.075195	900.135132
30694.910691	-3115.463333	483.818359	842.141663
30694.910691	-3115.463333	482.561523	640.127747
30694.910691	-3115.463333	481.304688	606.545654
30694.910691	-3115.463333	480.046875	697.365173
30694.910691	-3115.463333	478.789063	1071.058838
30694.910691	-3115.463333	477.531250	847.057190
30694.910691	-3115.463333	476.272461	930.316772
30694.910691	-3115.463333	475.013672	1008.618286
30694.910691	-3115.463333	473.754883	938.168274
30694.910691	-3115.463333	472.496094	806.779358
30694.910691	-3115.463333	471.236328	570.633850
30694.910691	-3115.463333	469.976563	1079.819824
30694.910691	-3115.463333	468.716797	919.081970
30694.910691	-3115.463333	467.456055	1006.664673
30694.910691	-3115.463333	466.196289	860.480957
30694.910691	-3115.463333	464.935547	1050.102539
30694.910691	-3115.463333	463.673828	1013.293762
30694.910691	-3115.463333	462.413086	976.425598
30694.910691	-3115.463333	461.151367	978.391907
30694.910691	-3115.463333	459.889648	1094.541382
30694.910691	-3115.463333	458.626953	1249.433594
30694.910691	-3115.463333	457.364258	1175.707153
30694.910691	-3115.463333	456.101563	1446.939575
30694.910691	-3115.463333	454.838867	1268.526001
30694.910691	-3115.463333	453.575195	1177.502686
30694.910691	-3115.463333	452.312500	1275.803223
30694.910691	-3115.463333	451.047852	1390.912964
30694.910691	-3115.463333	449.784180	1352.931763
30694.910691	-3115.463333	448.519531	1358.497681
30694.910691	-3115.463333	447.254883	1388.172363
30694.910691	-3115.463333	445.990234	1611.727173
30694.910691	-3115.463333	444.725586	1713.765869
30694.910691	-3115.463333	443.459961	1774.363525
30694.910691	-3115.463333	442.194336	1878.386963
30694.910691	-3115.463333	440.927734	1987.015869
30694.910691	-3115.463333	439.662109	2255.324219
30694.910691	-3115.463333	438.395508	2486.964600
30694.910691	-3115.463333	437.127930	2512.415771
30694.910691	-3115.463333	435.861328	2682.922119
30694.910691	-3115.463333	434.593750	2337.460693
30694.910691	-3115.463333	433.326172	2149.225586
30694.910691	-3115.463333	432.058594	2004.370605
30694.910691	-3115.463333	430.790039	1953.653564
30694.910691	-3115.463333	429.521484	1900.257935
30694.910691	-3115.463333	428.252930	1798.227295
30694.910691	-3115.463333	426.984375	1570.212769
30694.910691	-3115.463333	425.714844	1559.519165
30694.910691	-3115.463333	424.445313	1502.580933
30694.910691	-3115.463333	423.174805	1749.748779
30694.910691	-3115.463333	421.905273	1660.684692
30694.910691	-3115.463333	420.634766	1781.390259
30694.910691	-3115.463333	419.364258	1681.926025
30694.910691	-3115.463333	418.092773	1553.119141
30694.910691	-3115.463333	416.822266	1648.418335
30694.910691	-3115.463333	415.550781	1617.749512
30694.910691	-3115.463333	414.278320	1753.089966
30694.910691	-3115.463333	413.006836	1395.866699
30694.910691	-3115.463333	411.734375	1867.836914
30694.910691	-3115.463333	410.461914	1635.100098
30694.910691	-3115.463333	409.188477	1828.565918
30694.910691	-3115.463333	407.916016	1831.031494
30694.910691	-3115.463333	406.642578	1483.554321
30694.910691	-3115.463333	405.368164	1708.928833
30694.910691	-3115.463333	404.094727	1868.584839
30694.910691	-3115.463333	402.820313	1793.966187
30694.910691	-3115.463333	401.545898	1610.395508
30694.910691	-3115.463333	400.270508	1630.782227
30694.910691	-3115.463333	398.996094	1590.318115
30694.910691	-3115.463333	397.720703	1520.256714
30694.910691	-3115.463333	396.444336	1370.082397
30694.910691	-3115.463333	395.168945	1452.463623
30694.910691	-3115.463333	393.892578	1697.465088
30694.910691	-3115.463333	392.616211	1261.300415
30694.910691	-3115.463333	391.339844	1295.470093
30694.910691	-3115.463333	390.062500	1371.958130
30694.910691	-3115.463333	388.785156	1365.820435
30694.910691	-3115.463333	387.507813	1322.709717
30694.910691	-3115.463333	386.229492	1336.233398
30694.910691	-3115.463333	384.951172	1255.115967
30694.910691	-3115.463333	383.672852	1230.583984
30694.910691	-3115.463333	382.394531	1360.942383
30694.910691	-3115.463333	381.115234	1415.732178
30694.910691	-3115.463333	379.835938	1327.838989
30694.910691	-3115.463333	378.556641	1291.546509
30694.910691	-3115.463333	377.277344	1148.557373
30694.910691	-3115.463333	375.997070	1076.239624
30694.910691	-3115.463333	374.716797	1215.917969
30694.910691	-3115.463333	373.435547	1234.366821
30694.910691	-3115.463333	372.155273	1124.503540
30694.910691	-3115.463333	370.874023	1113.801758
30694.910691	-3115.463333	369.591797	1094.412964
30694.910691	-3115.463333	368.310547	903.595215
30694.910691	-3115.463333	367.028320	1120.494873
30694.910691	-3115.463333	365.746094	928.934814
30694.910691	-3115.463333	364.463867	853.015198
30694.910691	-3115.463333	363.180664	1138.904785
30694.910691	-3115.463333	361.897461	932.736389
30694.910691	-3115.463333	360.614258	1104.950562
30694.910691	-3115.463333	359.330078	835.410400
30694.910691	-3115.463333	358.045898	834.089294
30694.910691	-3115.463333	356.761719	837.964050
30694.910691	-3115.463333	355.477539	784.875610
30694.910691	-3115.463333	354.192383	851.461609
30694.910691	-3115.463333	352.907227	658.029053
30694.910691	-3115.463333	351.622070	691.623047
30694.910691	-3115.463333	350.336914	973.511108
30694.910691	-3115.463333	349.050781	446.459503
30694.910691	-3115.463333	347.764648	702.032227
30694.910691	-3115.463333	346.477539	616.322998
30694.910691	-3115.463333	345.191406	501.961670
30694.910691	-3115.463333	343.904297	575.696533
30694.910691	-3115.463333	342.616211	732.464478
30694.910691	-3115.463333	341.329102	691.107605
30694.910691	-3115.463333	340.041016	613.536560
30694.910691	-3115.463333	338.752930	730.798706
30694.910691	-3115.463333	337.463867	664.000000
30694.910691	-3115.463333	336.175781	384.764923
30694.910691	-3115.463333	334.886719	419.018463
30694.910691	-3115.463333	333.596680	380.959686
30694.910691	-3115.463333	332.307617	342.097198
30694.910691	-3115.463333	331.017578	33.387352
30694.910691	-3115.463333	329.727539	225.514511
30694.910691	-3115.463333	328.436523	47.768417
30694.910691	-3115.463333	327.146484	61.479664
30694.910691	-3115.463333	325.855469	76.111809
30694.910691	-3115.463333	324.563477	234.123734
30694.910691	-3115.463333	323.272461	58.054436
30694.910691	-3115.463333	321.980469	72.686501
30694.910691	-3115.463333	320.688477	258.903503
30694.910691	-3115.463333	319.395508	-43.581623
30694.910691	-3115.463333	318.103516	-93.815041
30694.910691	-3115.463333	316.810547	8.037099
30694.910691	-3115.463333	315.516602	-1.581689
30694.910691	-3115.463333	314.223633	-134.317276
30694.910691	-3115.463333	312.929688	-124.864395
30694.910691	-3115.463333	311.635742	-129.780899
30694.910691	-3115.463333	310.340820	-85.318909
30694.910691	-3115.463333	309.045898	-79.174385
30694.910691	-3115.463333	307.750977	-71.170685
30694.910691	-3115.463333	306.456055	-59.061138
30694.910691	-3115.463333	305.160156	174.746201
30694.910691	-3115.463333	303.865234	83.340996
30694.910691	-3115.463333	302.568359	0.098150
30694.910691	-3115.463333	301.272461	386.869293
30694.910691	-3115.463333	299.975586	660.791016
30694.910691	-3115.463333	298.678711	346.469086
