#X		#Y		#Wave		#Intensity
29681.948883	-1285.900167	1999.980469	67.977814
29681.948883	-1285.900167	1999.016602	-65.274834
29681.948883	-1285.900167	1998.052734	-103.703995
29681.948883	-1285.900167	1997.087891	-18.398794
29681.948883	-1285.900167	1996.123047	86.512619
29681.948883	-1285.900167	1995.158203	-195.236603
29681.948883	-1285.900167	1994.193359	-41.142948
29681.948883	-1285.900167	1993.228516	48.345772
29681.948883	-1285.900167	1992.262695	192.113480
29681.948883	-1285.900167	1991.297852	41.103859
29681.948883	-1285.900167	1990.332031	-45.646423
29681.948883	-1285.900167	1989.366211	154.531631
29681.948883	-1285.900167	1988.399414	57.621449
29681.948883	-1285.900167	1987.433594	89.240181
29681.948883	-1285.900167	1986.466797	-101.853493
29681.948883	-1285.900167	1985.500977	40.807457
29681.948883	-1285.900167	1984.534180	-39.192863
29681.948883	-1285.900167	1983.567383	-12.990087
29681.948883	-1285.900167	1982.599609	10.628231
29681.948883	-1285.900167	1981.632813	73.669579
29681.948883	-1285.900167	1980.665039	178.587830
29681.948883	-1285.900167	1979.697266	-89.573990
29681.948883	-1285.900167	1978.729492	0.340906
29681.948883	-1285.900167	1977.761719	11.134661
29681.948883	-1285.900167	1976.792969	73.683540
29681.948883	-1285.900167	1975.825195	-68.711586
29681.948883	-1285.900167	1974.856445	183.687576
29681.948883	-1285.900167	1973.887695	6.648547
29681.948883	-1285.900167	1972.918945	209.477844
29681.948883	-1285.900167	1971.949219	91.565536
29681.948883	-1285.900167	1970.980469	59.943092
29681.948883	-1285.900167	1970.010742	35.675800
29681.948883	-1285.900167	1969.041016	6.439221
29681.948883	-1285.900167	1968.071289	-27.761425
29681.948883	-1285.900167	1967.101563	51.347549
29681.948883	-1285.900167	1966.130859	248.632889
29681.948883	-1285.900167	1965.161133	199.509857
29681.948883	-1285.900167	1964.190430	128.207687
29681.948883	-1285.900167	1963.219727	-34.195019
29681.948883	-1285.900167	1962.249023	133.290787
29681.948883	-1285.900167	1961.277344	199.780273
29681.948883	-1285.900167	1960.306641	42.298943
29681.948883	-1285.900167	1959.334961	76.754021
29681.948883	-1285.900167	1958.363281	61.982620
29681.948883	-1285.900167	1957.391602	64.415756
29681.948883	-1285.900167	1956.419922	-36.438484
29681.948883	-1285.900167	1955.447266	74.156578
29681.948883	-1285.900167	1954.474609	20.017303
29681.948883	-1285.900167	1953.501953	-29.194155
29681.948883	-1285.900167	1952.529297	-66.107704
29681.948883	-1285.900167	1951.556641	71.406433
29681.948883	-1285.900167	1950.583984	93.430122
29681.948883	-1285.900167	1949.610352	-31.897099
29681.948883	-1285.900167	1948.636719	110.442879
29681.948883	-1285.900167	1947.663086	-54.111843
29681.948883	-1285.900167	1946.689453	218.264465
29681.948883	-1285.900167	1945.715820	14.499014
29681.948883	-1285.900167	1944.741211	112.583595
29681.948883	-1285.900167	1943.767578	24.218412
29681.948883	-1285.900167	1942.792969	56.065220
29681.948883	-1285.900167	1941.818359	-51.852497
29681.948883	-1285.900167	1940.842773	70.727356
29681.948883	-1285.900167	1939.868164	-39.578354
29681.948883	-1285.900167	1938.892578	-127.774994
29681.948883	-1285.900167	1937.916992	100.152817
29681.948883	-1285.900167	1936.941406	-12.502002
29681.948883	-1285.900167	1935.965820	168.816086
29681.948883	-1285.900167	1934.990234	12.145946
29681.948883	-1285.900167	1934.013672	41.629303
29681.948883	-1285.900167	1933.037109	137.213821
29681.948883	-1285.900167	1932.060547	-43.779541
29681.948883	-1285.900167	1931.083984	64.061920
29681.948883	-1285.900167	1930.107422	61.789547
29681.948883	-1285.900167	1929.129883	211.196259
29681.948883	-1285.900167	1928.153320	-42.959534
29681.948883	-1285.900167	1927.175781	-40.253681
29681.948883	-1285.900167	1926.198242	43.148712
29681.948883	-1285.900167	1925.219727	-115.438995
29681.948883	-1285.900167	1924.242188	41.308609
29681.948883	-1285.900167	1923.263672	2.552039
29681.948883	-1285.900167	1922.285156	-33.721729
29681.948883	-1285.900167	1921.306641	137.648590
29681.948883	-1285.900167	1920.328125	181.997131
29681.948883	-1285.900167	1919.349609	-73.955338
29681.948883	-1285.900167	1918.370117	107.164993
29681.948883	-1285.900167	1917.391602	56.384094
29681.948883	-1285.900167	1916.412109	83.730728
29681.948883	-1285.900167	1915.431641	-76.764801
29681.948883	-1285.900167	1914.452148	-54.232063
29681.948883	-1285.900167	1913.472656	-197.521973
29681.948883	-1285.900167	1912.492188	49.401321
29681.948883	-1285.900167	1911.511719	-62.113548
29681.948883	-1285.900167	1910.531250	-56.565819
29681.948883	-1285.900167	1909.550781	17.239574
29681.948883	-1285.900167	1908.569336	73.984962
29681.948883	-1285.900167	1907.588867	-142.107224
29681.948883	-1285.900167	1906.607422	-58.515854
29681.948883	-1285.900167	1905.625977	56.724571
29681.948883	-1285.900167	1904.644531	-5.789643
29681.948883	-1285.900167	1903.662109	-31.744352
29681.948883	-1285.900167	1902.680664	64.021965
29681.948883	-1285.900167	1901.698242	72.172157
29681.948883	-1285.900167	1900.715820	24.384375
29681.948883	-1285.900167	1899.733398	59.336834
29681.948883	-1285.900167	1898.750000	-161.061600
29681.948883	-1285.900167	1897.767578	78.199883
29681.948883	-1285.900167	1896.784180	-52.132763
29681.948883	-1285.900167	1895.800781	-53.575928
29681.948883	-1285.900167	1894.817383	59.216476
29681.948883	-1285.900167	1893.833984	62.647160
29681.948883	-1285.900167	1892.850586	109.819016
29681.948883	-1285.900167	1891.866211	-153.897186
29681.948883	-1285.900167	1890.881836	24.458555
29681.948883	-1285.900167	1889.897461	-23.031437
29681.948883	-1285.900167	1888.913086	-65.635422
29681.948883	-1285.900167	1887.927734	-185.874237
29681.948883	-1285.900167	1886.943359	179.249680
29681.948883	-1285.900167	1885.958008	59.034241
29681.948883	-1285.900167	1884.972656	-44.145721
29681.948883	-1285.900167	1883.987305	-106.049736
29681.948883	-1285.900167	1883.001953	-0.616069
29681.948883	-1285.900167	1882.015625	49.027988
29681.948883	-1285.900167	1881.029297	171.376343
29681.948883	-1285.900167	1880.042969	-55.276867
29681.948883	-1285.900167	1879.056641	50.097820
29681.948883	-1285.900167	1878.070313	24.626547
29681.948883	-1285.900167	1877.083984	-121.930771
29681.948883	-1285.900167	1876.096680	-91.656509
29681.948883	-1285.900167	1875.109375	11.240986
29681.948883	-1285.900167	1874.122070	-31.134626
29681.948883	-1285.900167	1873.134766	35.413071
29681.948883	-1285.900167	1872.146484	162.430573
29681.948883	-1285.900167	1871.159180	112.792038
29681.948883	-1285.900167	1870.170898	172.019043
29681.948883	-1285.900167	1869.182617	47.425671
29681.948883	-1285.900167	1868.194336	138.068665
29681.948883	-1285.900167	1867.205078	90.880226
29681.948883	-1285.900167	1866.216797	-26.389498
29681.948883	-1285.900167	1865.227539	-121.871338
29681.948883	-1285.900167	1864.238281	0.123801
29681.948883	-1285.900167	1863.249023	-49.445019
29681.948883	-1285.900167	1862.259766	86.965263
29681.948883	-1285.900167	1861.269531	32.552410
29681.948883	-1285.900167	1860.279297	-58.064777
29681.948883	-1285.900167	1859.290039	68.584084
29681.948883	-1285.900167	1858.298828	45.545193
29681.948883	-1285.900167	1857.308594	34.566471
29681.948883	-1285.900167	1856.318359	-0.546917
29681.948883	-1285.900167	1855.327148	116.294334
29681.948883	-1285.900167	1854.335938	-65.955971
29681.948883	-1285.900167	1853.344727	50.821415
29681.948883	-1285.900167	1852.353516	78.344345
29681.948883	-1285.900167	1851.362305	-29.133171
29681.948883	-1285.900167	1850.370117	169.447815
29681.948883	-1285.900167	1849.377930	76.410332
29681.948883	-1285.900167	1848.385742	12.292592
29681.948883	-1285.900167	1847.393555	-37.373081
29681.948883	-1285.900167	1846.401367	324.713226
29681.948883	-1285.900167	1845.408203	193.107437
29681.948883	-1285.900167	1844.415039	-63.639721
29681.948883	-1285.900167	1843.421875	139.340012
29681.948883	-1285.900167	1842.428711	221.911041
29681.948883	-1285.900167	1841.435547	15.743419
29681.948883	-1285.900167	1840.441406	62.173233
29681.948883	-1285.900167	1839.448242	358.651733
29681.948883	-1285.900167	1838.454102	58.720131
29681.948883	-1285.900167	1837.459961	201.180283
29681.948883	-1285.900167	1836.464844	242.612350
29681.948883	-1285.900167	1835.470703	185.475647
29681.948883	-1285.900167	1834.475586	53.849216
29681.948883	-1285.900167	1833.480469	37.537071
29681.948883	-1285.900167	1832.485352	-24.434237
29681.948883	-1285.900167	1831.490234	45.645451
29681.948883	-1285.900167	1830.495117	221.291977
29681.948883	-1285.900167	1829.499023	94.405586
29681.948883	-1285.900167	1828.502930	262.702606
29681.948883	-1285.900167	1827.506836	20.611992
29681.948883	-1285.900167	1826.510742	25.656424
29681.948883	-1285.900167	1825.513672	18.667700
29681.948883	-1285.900167	1824.517578	129.141159
29681.948883	-1285.900167	1823.520508	119.654175
29681.948883	-1285.900167	1822.523438	134.099121
29681.948883	-1285.900167	1821.526367	170.066116
29681.948883	-1285.900167	1820.529297	124.504684
29681.948883	-1285.900167	1819.531250	28.605793
29681.948883	-1285.900167	1818.533203	124.318657
29681.948883	-1285.900167	1817.535156	57.102581
29681.948883	-1285.900167	1816.537109	159.864151
29681.948883	-1285.900167	1815.539063	123.693565
29681.948883	-1285.900167	1814.540039	135.355835
29681.948883	-1285.900167	1813.541992	257.045593
29681.948883	-1285.900167	1812.542969	91.531731
29681.948883	-1285.900167	1811.543945	138.927933
29681.948883	-1285.900167	1810.543945	145.596710
29681.948883	-1285.900167	1809.544922	23.088600
29681.948883	-1285.900167	1808.544922	-166.367874
29681.948883	-1285.900167	1807.544922	150.937851
29681.948883	-1285.900167	1806.544922	209.967148
29681.948883	-1285.900167	1805.544922	127.948044
29681.948883	-1285.900167	1804.544922	222.686646
29681.948883	-1285.900167	1803.543945	145.361618
29681.948883	-1285.900167	1802.542969	130.100830
29681.948883	-1285.900167	1801.541992	160.153809
29681.948883	-1285.900167	1800.541016	89.880447
29681.948883	-1285.900167	1799.539063	-32.932377
29681.948883	-1285.900167	1798.538086	-0.647913
29681.948883	-1285.900167	1797.536133	231.969162
29681.948883	-1285.900167	1796.534180	116.182861
29681.948883	-1285.900167	1795.532227	176.862900
29681.948883	-1285.900167	1794.529297	254.150421
29681.948883	-1285.900167	1793.527344	21.434765
29681.948883	-1285.900167	1792.524414	39.015198
29681.948883	-1285.900167	1791.521484	266.239075
29681.948883	-1285.900167	1790.518555	188.340439
29681.948883	-1285.900167	1789.514648	74.677002
29681.948883	-1285.900167	1788.511719	30.067446
29681.948883	-1285.900167	1787.507813	73.516586
29681.948883	-1285.900167	1786.503906	174.027390
29681.948883	-1285.900167	1785.500000	231.591782
29681.948883	-1285.900167	1784.496094	-34.596176
29681.948883	-1285.900167	1783.491211	141.830734
29681.948883	-1285.900167	1782.486328	151.596481
29681.948883	-1285.900167	1781.481445	97.074852
29681.948883	-1285.900167	1780.476563	201.842789
29681.948883	-1285.900167	1779.471680	116.295593
29681.948883	-1285.900167	1778.465820	199.494583
29681.948883	-1285.900167	1777.460938	4.520611
29681.948883	-1285.900167	1776.455078	-24.105103
29681.948883	-1285.900167	1775.449219	-5.268435
29681.948883	-1285.900167	1774.442383	37.247013
29681.948883	-1285.900167	1773.436523	84.433762
29681.948883	-1285.900167	1772.429688	74.546974
29681.948883	-1285.900167	1771.422852	119.201065
29681.948883	-1285.900167	1770.416016	239.727005
29681.948883	-1285.900167	1769.409180	125.201851
29681.948883	-1285.900167	1768.402344	-138.826584
29681.948883	-1285.900167	1767.394531	-11.403994
29681.948883	-1285.900167	1766.386719	187.058060
29681.948883	-1285.900167	1765.378906	5.964827
29681.948883	-1285.900167	1764.371094	159.168823
29681.948883	-1285.900167	1763.362305	141.572433
29681.948883	-1285.900167	1762.354492	121.551498
29681.948883	-1285.900167	1761.345703	-133.116592
29681.948883	-1285.900167	1760.336914	-44.236526
29681.948883	-1285.900167	1759.328125	4.276700
29681.948883	-1285.900167	1758.318359	74.014671
29681.948883	-1285.900167	1757.308594	162.601624
29681.948883	-1285.900167	1756.299805	-25.879906
29681.948883	-1285.900167	1755.290039	62.559658
29681.948883	-1285.900167	1754.279297	89.369469
29681.948883	-1285.900167	1753.269531	-47.141766
29681.948883	-1285.900167	1752.258789	-20.453522
29681.948883	-1285.900167	1751.249023	-135.738266
29681.948883	-1285.900167	1750.238281	-125.727646
29681.948883	-1285.900167	1749.226563	-7.040836
29681.948883	-1285.900167	1748.215820	16.993870
29681.948883	-1285.900167	1747.204102	81.122993
29681.948883	-1285.900167	1746.193359	102.637634
29681.948883	-1285.900167	1745.181641	-10.579190
29681.948883	-1285.900167	1744.168945	76.937416
29681.948883	-1285.900167	1743.157227	60.458439
29681.948883	-1285.900167	1742.144531	39.193722
29681.948883	-1285.900167	1741.132813	-26.971220
29681.948883	-1285.900167	1740.120117	-12.938093
29681.948883	-1285.900167	1739.106445	-22.575935
29681.948883	-1285.900167	1738.093750	-32.268375
29681.948883	-1285.900167	1737.080078	99.497604
29681.948883	-1285.900167	1736.067383	77.867920
29681.948883	-1285.900167	1735.053711	79.756744
29681.948883	-1285.900167	1734.040039	-33.928768
29681.948883	-1285.900167	1733.025391	-124.069931
29681.948883	-1285.900167	1732.011719	-94.052544
29681.948883	-1285.900167	1730.997070	-38.198200
29681.948883	-1285.900167	1729.982422	-210.916870
29681.948883	-1285.900167	1728.967773	-105.725731
29681.948883	-1285.900167	1727.952148	-106.601059
29681.948883	-1285.900167	1726.937500	29.014341
29681.948883	-1285.900167	1725.921875	51.530788
29681.948883	-1285.900167	1724.906250	-88.399818
29681.948883	-1285.900167	1723.890625	-105.987007
29681.948883	-1285.900167	1722.875000	57.509895
29681.948883	-1285.900167	1721.858398	-155.434464
29681.948883	-1285.900167	1720.841797	14.942424
29681.948883	-1285.900167	1719.825195	25.323639
29681.948883	-1285.900167	1718.808594	-32.523727
29681.948883	-1285.900167	1717.791992	-29.301332
29681.948883	-1285.900167	1716.774414	32.600018
29681.948883	-1285.900167	1715.756836	26.293720
29681.948883	-1285.900167	1714.739258	170.258804
29681.948883	-1285.900167	1713.721680	72.233116
29681.948883	-1285.900167	1712.704102	30.539446
29681.948883	-1285.900167	1711.685547	47.488937
29681.948883	-1285.900167	1710.667969	-22.454136
29681.948883	-1285.900167	1709.649414	252.516495
29681.948883	-1285.900167	1708.630859	65.143562
29681.948883	-1285.900167	1707.611328	-35.426037
29681.948883	-1285.900167	1706.592773	51.616142
29681.948883	-1285.900167	1705.573242	124.498886
29681.948883	-1285.900167	1704.553711	37.889927
29681.948883	-1285.900167	1703.534180	-81.548996
29681.948883	-1285.900167	1702.513672	-15.867421
29681.948883	-1285.900167	1701.494141	246.558014
29681.948883	-1285.900167	1700.473633	23.925407
29681.948883	-1285.900167	1699.453125	73.011169
29681.948883	-1285.900167	1698.432617	-77.005356
29681.948883	-1285.900167	1697.412109	-77.175270
29681.948883	-1285.900167	1696.390625	34.957539
29681.948883	-1285.900167	1695.369141	-75.323524
29681.948883	-1285.900167	1694.347656	60.075974
29681.948883	-1285.900167	1693.326172	-52.593292
29681.948883	-1285.900167	1692.304688	-62.350170
29681.948883	-1285.900167	1691.282227	-109.566833
29681.948883	-1285.900167	1690.260742	69.988457
29681.948883	-1285.900167	1689.238281	88.134125
29681.948883	-1285.900167	1688.214844	141.282867
29681.948883	-1285.900167	1687.192383	56.515308
29681.948883	-1285.900167	1686.168945	-30.602299
29681.948883	-1285.900167	1685.146484	38.781303
29681.948883	-1285.900167	1684.123047	201.505707
29681.948883	-1285.900167	1683.099609	137.648804
29681.948883	-1285.900167	1682.075195	148.473877
29681.948883	-1285.900167	1681.051758	240.957489
29681.948883	-1285.900167	1680.027344	153.681168
29681.948883	-1285.900167	1679.002930	260.051086
29681.948883	-1285.900167	1677.978516	252.048431
29681.948883	-1285.900167	1676.953125	181.039948
29681.948883	-1285.900167	1675.928711	119.362831
29681.948883	-1285.900167	1674.903320	262.822968
29681.948883	-1285.900167	1673.877930	252.363785
29681.948883	-1285.900167	1672.852539	83.412819
29681.948883	-1285.900167	1671.826172	303.590607
29681.948883	-1285.900167	1670.800781	397.872253
29681.948883	-1285.900167	1669.774414	366.313507
29681.948883	-1285.900167	1668.748047	211.326645
29681.948883	-1285.900167	1667.721680	342.735687
29681.948883	-1285.900167	1666.694336	332.072235
29681.948883	-1285.900167	1665.667969	221.325333
29681.948883	-1285.900167	1664.640625	306.041687
29681.948883	-1285.900167	1663.613281	502.367126
29681.948883	-1285.900167	1662.585938	426.466522
29681.948883	-1285.900167	1661.557617	318.011017
29681.948883	-1285.900167	1660.530273	325.834595
29681.948883	-1285.900167	1659.501953	475.426178
29681.948883	-1285.900167	1658.473633	583.107483
29681.948883	-1285.900167	1657.444336	593.129700
29681.948883	-1285.900167	1656.416016	689.097351
29681.948883	-1285.900167	1655.386719	629.380249
29681.948883	-1285.900167	1654.358398	523.234314
29681.948883	-1285.900167	1653.328125	349.763977
29681.948883	-1285.900167	1652.298828	584.924133
29681.948883	-1285.900167	1651.269531	680.723755
29681.948883	-1285.900167	1650.239258	634.914917
29681.948883	-1285.900167	1649.208984	893.041199
29681.948883	-1285.900167	1648.178711	833.271362
29681.948883	-1285.900167	1647.148438	574.069153
29681.948883	-1285.900167	1646.117188	871.439575
29681.948883	-1285.900167	1645.086914	820.958191
29681.948883	-1285.900167	1644.055664	1016.168274
29681.948883	-1285.900167	1643.024414	1141.777466
29681.948883	-1285.900167	1641.992188	1179.282104
29681.948883	-1285.900167	1640.960938	971.231201
29681.948883	-1285.900167	1639.928711	1008.747253
29681.948883	-1285.900167	1638.896484	976.780090
29681.948883	-1285.900167	1637.864258	1268.938965
29681.948883	-1285.900167	1636.832031	959.171936
29681.948883	-1285.900167	1635.798828	1098.475342
29681.948883	-1285.900167	1634.766602	1203.027100
29681.948883	-1285.900167	1633.733398	1159.479126
29681.948883	-1285.900167	1632.699219	1458.248169
29681.948883	-1285.900167	1631.666016	1474.798462
29681.948883	-1285.900167	1630.632813	1294.828369
29681.948883	-1285.900167	1629.598633	1297.535278
29681.948883	-1285.900167	1628.564453	1660.776367
29681.948883	-1285.900167	1627.530273	1499.370605
29681.948883	-1285.900167	1626.495117	1437.365234
29681.948883	-1285.900167	1625.460938	1664.116699
29681.948883	-1285.900167	1624.425781	1846.905029
29681.948883	-1285.900167	1623.390625	1934.970947
29681.948883	-1285.900167	1622.355469	1794.484131
29681.948883	-1285.900167	1621.319336	2150.261230
29681.948883	-1285.900167	1620.284180	2012.119873
29681.948883	-1285.900167	1619.248047	2019.381836
29681.948883	-1285.900167	1618.211914	2349.576904
29681.948883	-1285.900167	1617.174805	2342.954346
29681.948883	-1285.900167	1616.138672	2271.800293
29681.948883	-1285.900167	1615.101563	2412.764893
29681.948883	-1285.900167	1614.065430	2217.201416
29681.948883	-1285.900167	1613.027344	2206.063721
29681.948883	-1285.900167	1611.990234	2397.701416
29681.948883	-1285.900167	1610.953125	2354.332764
29681.948883	-1285.900167	1609.915039	2626.505615
29681.948883	-1285.900167	1608.876953	2468.017822
29681.948883	-1285.900167	1607.838867	2380.979004
29681.948883	-1285.900167	1606.800781	2390.668213
29681.948883	-1285.900167	1605.761719	2354.346436
29681.948883	-1285.900167	1604.723633	2370.988770
29681.948883	-1285.900167	1603.684570	2408.345947
29681.948883	-1285.900167	1602.644531	2468.706299
29681.948883	-1285.900167	1601.605469	2423.305664
29681.948883	-1285.900167	1600.566406	2421.632080
29681.948883	-1285.900167	1599.526367	2541.801758
29681.948883	-1285.900167	1598.486328	2489.599609
29681.948883	-1285.900167	1597.446289	2524.759033
29681.948883	-1285.900167	1596.405273	2426.692627
29681.948883	-1285.900167	1595.365234	2567.564209
29681.948883	-1285.900167	1594.324219	2795.664063
29681.948883	-1285.900167	1593.283203	2557.657471
29681.948883	-1285.900167	1592.242188	2480.454590
29681.948883	-1285.900167	1591.200195	2522.646484
29681.948883	-1285.900167	1590.159180	2711.711426
29681.948883	-1285.900167	1589.117188	2478.632813
29681.948883	-1285.900167	1588.075195	2665.407471
29681.948883	-1285.900167	1587.032227	2421.032227
29681.948883	-1285.900167	1585.990234	2341.871826
29681.948883	-1285.900167	1584.947266	2407.186768
29681.948883	-1285.900167	1583.904297	2497.726563
29681.948883	-1285.900167	1582.861328	2773.869873
29681.948883	-1285.900167	1581.818359	2518.463623
29681.948883	-1285.900167	1580.775391	2801.452393
29681.948883	-1285.900167	1579.731445	2763.768799
29681.948883	-1285.900167	1578.687500	2694.091064
29681.948883	-1285.900167	1577.643555	2748.096191
29681.948883	-1285.900167	1576.598633	2994.366211
29681.948883	-1285.900167	1575.554688	2863.041504
29681.948883	-1285.900167	1574.509766	2713.506104
29681.948883	-1285.900167	1573.464844	2930.045410
29681.948883	-1285.900167	1572.419922	3004.764404
29681.948883	-1285.900167	1571.374023	3196.103271
29681.948883	-1285.900167	1570.329102	3113.109131
29681.948883	-1285.900167	1569.283203	2899.919189
29681.948883	-1285.900167	1568.237305	2823.967041
29681.948883	-1285.900167	1567.191406	2608.735840
29681.948883	-1285.900167	1566.144531	2656.313477
29681.948883	-1285.900167	1565.098633	2340.823242
29681.948883	-1285.900167	1564.051758	2539.237793
29681.948883	-1285.900167	1563.004883	2397.491211
29681.948883	-1285.900167	1561.957031	2296.931396
29681.948883	-1285.900167	1560.910156	2317.415039
29681.948883	-1285.900167	1559.862305	2456.577881
29681.948883	-1285.900167	1558.814453	2096.200195
29681.948883	-1285.900167	1557.766602	2244.588867
29681.948883	-1285.900167	1556.718750	2121.643311
29681.948883	-1285.900167	1555.669922	2110.504639
29681.948883	-1285.900167	1554.621094	2083.474854
29681.948883	-1285.900167	1553.573242	2042.848999
29681.948883	-1285.900167	1552.523438	2104.813965
29681.948883	-1285.900167	1551.474609	1939.033203
29681.948883	-1285.900167	1550.424805	1837.142334
29681.948883	-1285.900167	1549.375000	2065.517822
29681.948883	-1285.900167	1548.325195	1861.324219
29681.948883	-1285.900167	1547.275391	2066.970947
29681.948883	-1285.900167	1546.225586	1853.882690
29681.948883	-1285.900167	1545.174805	1770.624878
29681.948883	-1285.900167	1544.124023	1792.102539
29681.948883	-1285.900167	1543.073242	1893.239380
29681.948883	-1285.900167	1542.022461	1671.515015
29681.948883	-1285.900167	1540.970703	1736.389038
29681.948883	-1285.900167	1539.919922	1703.572998
29681.948883	-1285.900167	1538.868164	1516.303589
29681.948883	-1285.900167	1537.815430	1545.015991
29681.948883	-1285.900167	1536.763672	1480.655762
29681.948883	-1285.900167	1535.710938	1364.148315
29681.948883	-1285.900167	1534.659180	1461.208862
29681.948883	-1285.900167	1533.606445	1126.946411
29681.948883	-1285.900167	1532.552734	1326.289307
29681.948883	-1285.900167	1531.500000	1015.021545
29681.948883	-1285.900167	1530.446289	1327.898193
29681.948883	-1285.900167	1529.393555	1343.556274
29681.948883	-1285.900167	1528.338867	1164.223755
29681.948883	-1285.900167	1527.285156	1136.966309
29681.948883	-1285.900167	1526.231445	1121.128906
29681.948883	-1285.900167	1525.176758	992.032898
29681.948883	-1285.900167	1524.122070	1001.303894
29681.948883	-1285.900167	1523.067383	822.584900
29681.948883	-1285.900167	1522.012695	943.036316
29681.948883	-1285.900167	1520.957031	957.062012
29681.948883	-1285.900167	1519.901367	651.872192
29681.948883	-1285.900167	1518.845703	806.470093
29681.948883	-1285.900167	1517.790039	675.876526
29681.948883	-1285.900167	1516.734375	672.145447
29681.948883	-1285.900167	1515.677734	688.853027
29681.948883	-1285.900167	1514.621094	468.100586
29681.948883	-1285.900167	1513.564453	636.535828
29681.948883	-1285.900167	1512.507813	404.731323
29681.948883	-1285.900167	1511.450195	218.311264
29681.948883	-1285.900167	1510.393555	380.150146
29681.948883	-1285.900167	1509.335938	424.483429
29681.948883	-1285.900167	1508.278320	441.764618
29681.948883	-1285.900167	1507.219727	267.094696
29681.948883	-1285.900167	1506.162109	268.749878
29681.948883	-1285.900167	1505.103516	204.994568
29681.948883	-1285.900167	1504.044922	355.829712
29681.948883	-1285.900167	1502.986328	247.098297
29681.948883	-1285.900167	1501.926758	102.380173
29681.948883	-1285.900167	1500.868164	235.337509
29681.948883	-1285.900167	1499.808594	-21.954054
29681.948883	-1285.900167	1498.749023	131.436691
29681.948883	-1285.900167	1497.688477	219.449265
29681.948883	-1285.900167	1496.628906	147.436600
29681.948883	-1285.900167	1495.568359	192.747375
29681.948883	-1285.900167	1494.507813	78.111282
29681.948883	-1285.900167	1493.447266	166.395645
29681.948883	-1285.900167	1492.386719	205.166962
29681.948883	-1285.900167	1491.325195	-64.568382
29681.948883	-1285.900167	1490.263672	114.016602
29681.948883	-1285.900167	1489.202148	31.444464
29681.948883	-1285.900167	1488.140625	131.320770
29681.948883	-1285.900167	1487.079102	60.198307
29681.948883	-1285.900167	1486.016602	193.947083
29681.948883	-1285.900167	1484.954102	6.025517
29681.948883	-1285.900167	1483.891602	-42.286076
29681.948883	-1285.900167	1482.829102	195.100250
29681.948883	-1285.900167	1481.765625	74.995186
29681.948883	-1285.900167	1480.702148	-0.022087
29681.948883	-1285.900167	1479.638672	-122.106827
29681.948883	-1285.900167	1478.575195	-8.139885
29681.948883	-1285.900167	1477.511719	83.425629
29681.948883	-1285.900167	1476.447266	-69.812119
29681.948883	-1285.900167	1475.382813	69.038116
29681.948883	-1285.900167	1474.318359	-27.730724
29681.948883	-1285.900167	1473.253906	-144.570801
29681.948883	-1285.900167	1472.189453	10.155535
29681.948883	-1285.900167	1471.124023	-104.381882
29681.948883	-1285.900167	1470.058594	225.388412
29681.948883	-1285.900167	1468.993164	5.880415
29681.948883	-1285.900167	1467.927734	263.792328
29681.948883	-1285.900167	1466.861328	64.685844
29681.948883	-1285.900167	1465.794922	56.011974
29681.948883	-1285.900167	1464.728516	363.565552
29681.948883	-1285.900167	1463.662109	368.317200
29681.948883	-1285.900167	1462.594727	337.609192
29681.948883	-1285.900167	1461.528320	414.340759
29681.948883	-1285.900167	1460.460938	359.780548
29681.948883	-1285.900167	1459.393555	248.439636
29681.948883	-1285.900167	1458.326172	314.371582
29681.948883	-1285.900167	1457.257813	393.304779
29681.948883	-1285.900167	1456.189453	205.119141
29681.948883	-1285.900167	1455.121094	476.234406
29681.948883	-1285.900167	1454.052734	511.453217
29681.948883	-1285.900167	1452.984375	535.289063
29681.948883	-1285.900167	1451.915039	496.586823
29681.948883	-1285.900167	1450.845703	656.266113
29681.948883	-1285.900167	1449.776367	585.073792
29681.948883	-1285.900167	1448.707031	534.315308
29681.948883	-1285.900167	1447.636719	500.920868
29681.948883	-1285.900167	1446.567383	528.087280
29681.948883	-1285.900167	1445.497070	478.382080
29681.948883	-1285.900167	1444.425781	584.037781
29681.948883	-1285.900167	1443.355469	877.662720
29681.948883	-1285.900167	1442.285156	686.954834
29681.948883	-1285.900167	1441.213867	642.188354
29681.948883	-1285.900167	1440.142578	706.953064
29681.948883	-1285.900167	1439.070313	811.604309
29681.948883	-1285.900167	1437.999023	719.503723
29681.948883	-1285.900167	1436.926758	812.115540
29681.948883	-1285.900167	1435.854492	627.336731
29681.948883	-1285.900167	1434.782227	758.058533
29681.948883	-1285.900167	1433.709961	787.185974
29681.948883	-1285.900167	1432.636719	750.846497
29681.948883	-1285.900167	1431.563477	761.943542
29681.948883	-1285.900167	1430.490234	521.511841
29681.948883	-1285.900167	1429.416992	554.984863
29681.948883	-1285.900167	1428.343750	556.293823
29681.948883	-1285.900167	1427.269531	275.491333
29681.948883	-1285.900167	1426.195313	319.981354
29681.948883	-1285.900167	1425.121094	211.599518
29681.948883	-1285.900167	1424.046875	146.972458
29681.948883	-1285.900167	1422.971680	321.946930
29681.948883	-1285.900167	1421.896484	310.759613
29681.948883	-1285.900167	1420.821289	117.980469
29681.948883	-1285.900167	1419.746094	240.592575
29681.948883	-1285.900167	1418.669922	331.531799
29681.948883	-1285.900167	1417.594727	288.049408
29681.948883	-1285.900167	1416.518555	452.033173
29681.948883	-1285.900167	1415.442383	262.161774
29681.948883	-1285.900167	1414.365234	306.687714
29681.948883	-1285.900167	1413.289063	317.040375
29681.948883	-1285.900167	1412.211914	337.403076
29681.948883	-1285.900167	1411.134766	216.991180
29681.948883	-1285.900167	1410.057617	316.939087
29681.948883	-1285.900167	1408.979492	336.321960
29681.948883	-1285.900167	1407.902344	439.119171
29681.948883	-1285.900167	1406.824219	341.236420
29681.948883	-1285.900167	1405.746094	468.193390
29681.948883	-1285.900167	1404.666992	481.470764
29681.948883	-1285.900167	1403.588867	526.047424
29681.948883	-1285.900167	1402.509766	547.516968
29681.948883	-1285.900167	1401.430664	869.436035
29681.948883	-1285.900167	1400.351563	694.394958
29681.948883	-1285.900167	1399.271484	699.382568
29681.948883	-1285.900167	1398.192383	795.253906
29681.948883	-1285.900167	1397.112305	857.022339
29681.948883	-1285.900167	1396.031250	717.161072
29681.948883	-1285.900167	1394.951172	685.687073
29681.948883	-1285.900167	1393.871094	572.797241
29681.948883	-1285.900167	1392.790039	568.439636
29681.948883	-1285.900167	1391.708984	575.174194
29681.948883	-1285.900167	1390.626953	534.590637
29681.948883	-1285.900167	1389.545898	591.257996
29681.948883	-1285.900167	1388.463867	620.798828
29681.948883	-1285.900167	1387.381836	550.387939
29681.948883	-1285.900167	1386.299805	713.683105
29681.948883	-1285.900167	1385.217773	787.135925
29681.948883	-1285.900167	1384.134766	708.216492
29681.948883	-1285.900167	1383.051758	642.575867
29681.948883	-1285.900167	1381.968750	884.728210
29681.948883	-1285.900167	1380.885742	808.331299
29681.948883	-1285.900167	1379.802734	748.851318
29681.948883	-1285.900167	1378.718750	646.926636
29681.948883	-1285.900167	1377.634766	897.954102
29681.948883	-1285.900167	1376.550781	1005.564026
29681.948883	-1285.900167	1375.465820	703.777771
29681.948883	-1285.900167	1374.381836	798.104004
29681.948883	-1285.900167	1373.296875	941.057434
29681.948883	-1285.900167	1372.211914	1214.850098
29681.948883	-1285.900167	1371.126953	955.592896
29681.948883	-1285.900167	1370.041016	1070.258423
29681.948883	-1285.900167	1368.955078	1125.804688
29681.948883	-1285.900167	1367.869141	1420.672607
29681.948883	-1285.900167	1366.783203	1004.888855
29681.948883	-1285.900167	1365.697266	1213.119995
29681.948883	-1285.900167	1364.610352	796.466736
29681.948883	-1285.900167	1363.523438	868.828308
29681.948883	-1285.900167	1362.436523	1083.635742
29681.948883	-1285.900167	1361.349609	930.405212
29681.948883	-1285.900167	1360.261719	1063.671143
29681.948883	-1285.900167	1359.174805	789.762146
29681.948883	-1285.900167	1358.086914	781.069336
29681.948883	-1285.900167	1356.998047	657.455627
29681.948883	-1285.900167	1355.910156	772.932800
29681.948883	-1285.900167	1354.821289	521.561218
29681.948883	-1285.900167	1353.732422	529.588257
29681.948883	-1285.900167	1352.643555	642.445862
29681.948883	-1285.900167	1351.554688	495.125641
29681.948883	-1285.900167	1350.464844	466.956604
29681.948883	-1285.900167	1349.375000	743.154602
29681.948883	-1285.900167	1348.285156	753.815735
29681.948883	-1285.900167	1347.195313	572.481445
29681.948883	-1285.900167	1346.105469	778.063171
29681.948883	-1285.900167	1345.014648	775.816895
29681.948883	-1285.900167	1343.923828	892.599792
29681.948883	-1285.900167	1342.833008	820.671143
29681.948883	-1285.900167	1341.741211	717.575012
29681.948883	-1285.900167	1340.650391	672.665771
29681.948883	-1285.900167	1339.558594	771.224670
29681.948883	-1285.900167	1338.466797	642.479858
29681.948883	-1285.900167	1337.374023	548.766541
29681.948883	-1285.900167	1336.282227	564.679138
29681.948883	-1285.900167	1335.189453	505.977600
29681.948883	-1285.900167	1334.096680	625.732727
29681.948883	-1285.900167	1333.003906	805.123596
29681.948883	-1285.900167	1331.910156	754.201538
29681.948883	-1285.900167	1330.817383	604.931458
29681.948883	-1285.900167	1329.723633	809.947937
29681.948883	-1285.900167	1328.629883	688.846802
29681.948883	-1285.900167	1327.535156	774.543823
29681.948883	-1285.900167	1326.441406	579.562317
29681.948883	-1285.900167	1325.346680	567.579895
29681.948883	-1285.900167	1324.251953	505.695404
29681.948883	-1285.900167	1323.156250	542.577515
29681.948883	-1285.900167	1322.061523	678.636047
29681.948883	-1285.900167	1320.965820	558.173889
29681.948883	-1285.900167	1319.870117	602.006531
29681.948883	-1285.900167	1318.774414	741.270081
29681.948883	-1285.900167	1317.678711	600.095764
29681.948883	-1285.900167	1316.582031	492.316498
29681.948883	-1285.900167	1315.485352	593.313049
29681.948883	-1285.900167	1314.388672	497.711853
29681.948883	-1285.900167	1313.291016	690.121216
29681.948883	-1285.900167	1312.194336	529.984680
29681.948883	-1285.900167	1311.096680	454.173065
29681.948883	-1285.900167	1309.999023	488.938049
29681.948883	-1285.900167	1308.901367	434.360138
29681.948883	-1285.900167	1307.802734	465.997986
29681.948883	-1285.900167	1306.705078	604.008789
29681.948883	-1285.900167	1305.606445	428.686432
29681.948883	-1285.900167	1304.506836	482.085022
29681.948883	-1285.900167	1303.408203	407.904602
29681.948883	-1285.900167	1302.308594	334.472321
29681.948883	-1285.900167	1301.208984	513.708679
29681.948883	-1285.900167	1300.109375	681.531067
29681.948883	-1285.900167	1299.009766	627.238708
29681.948883	-1285.900167	1297.909180	509.884674
29681.948883	-1285.900167	1296.808594	504.081757
29681.948883	-1285.900167	1295.708008	685.917236
29681.948883	-1285.900167	1294.607422	566.807556
29681.948883	-1285.900167	1293.506836	561.365417
29681.948883	-1285.900167	1292.405273	380.932037
29681.948883	-1285.900167	1291.303711	475.495148
29681.948883	-1285.900167	1290.202148	392.710449
29681.948883	-1285.900167	1289.099609	340.650635
29681.948883	-1285.900167	1287.998047	240.574829
29681.948883	-1285.900167	1286.895508	286.411255
29681.948883	-1285.900167	1285.792969	164.202316
29681.948883	-1285.900167	1284.689453	170.357666
29681.948883	-1285.900167	1283.586914	300.326782
29681.948883	-1285.900167	1282.483398	187.402237
29681.948883	-1285.900167	1281.379883	186.721100
29681.948883	-1285.900167	1280.276367	259.009369
29681.948883	-1285.900167	1279.171875	227.974670
29681.948883	-1285.900167	1278.067383	173.213943
29681.948883	-1285.900167	1276.962891	179.971756
29681.948883	-1285.900167	1275.858398	-7.271936
29681.948883	-1285.900167	1274.753906	89.437370
29681.948883	-1285.900167	1273.648438	198.312225
29681.948883	-1285.900167	1272.542969	35.240574
29681.948883	-1285.900167	1271.437500	131.511932
29681.948883	-1285.900167	1270.331055	92.870087
29681.948883	-1285.900167	1269.225586	119.239914
29681.948883	-1285.900167	1268.119141	45.544125
29681.948883	-1285.900167	1267.012695	128.672623
29681.948883	-1285.900167	1265.906250	14.228398
29681.948883	-1285.900167	1264.798828	39.627163
29681.948883	-1285.900167	1263.691406	-4.743142
29681.948883	-1285.900167	1262.583984	-49.683815
29681.948883	-1285.900167	1261.476563	55.558533
29681.948883	-1285.900167	1260.368164	145.170151
29681.948883	-1285.900167	1259.260742	85.216461
29681.948883	-1285.900167	1258.152344	73.398613
29681.948883	-1285.900167	1257.043945	130.954147
29681.948883	-1285.900167	1255.934570	128.513657
29681.948883	-1285.900167	1254.825195	112.336174
29681.948883	-1285.900167	1253.716797	129.674896
29681.948883	-1285.900167	1252.606445	-14.402623
29681.948883	-1285.900167	1251.497070	27.579031
29681.948883	-1285.900167	1250.387695	82.062950
29681.948883	-1285.900167	1249.277344	53.088924
29681.948883	-1285.900167	1248.166992	74.169914
29681.948883	-1285.900167	1247.055664	14.404298
29681.948883	-1285.900167	1245.945313	140.310699
29681.948883	-1285.900167	1244.833984	89.858810
29681.948883	-1285.900167	1243.722656	190.116302
29681.948883	-1285.900167	1242.611328	92.026085
29681.948883	-1285.900167	1241.499023	22.924797
29681.948883	-1285.900167	1240.387695	27.686607
29681.948883	-1285.900167	1239.275391	49.225498
29681.948883	-1285.900167	1238.162109	-7.798844
29681.948883	-1285.900167	1237.049805	-54.022942
29681.948883	-1285.900167	1235.936523	230.062866
29681.948883	-1285.900167	1234.823242	84.678658
29681.948883	-1285.900167	1233.709961	-76.191597
29681.948883	-1285.900167	1232.596680	98.421387
29681.948883	-1285.900167	1231.482422	197.895233
29681.948883	-1285.900167	1230.369141	87.862091
29681.948883	-1285.900167	1229.253906	30.591402
29681.948883	-1285.900167	1228.139648	84.323639
29681.948883	-1285.900167	1227.025391	-90.524506
29681.948883	-1285.900167	1225.910156	-61.330326
29681.948883	-1285.900167	1224.794922	-26.200752
29681.948883	-1285.900167	1223.679688	-125.944778
29681.948883	-1285.900167	1222.563477	-50.825462
29681.948883	-1285.900167	1221.447266	-84.718246
29681.948883	-1285.900167	1220.331055	-235.063950
29681.948883	-1285.900167	1219.214844	-121.571930
29681.948883	-1285.900167	1218.098633	-113.642967
29681.948883	-1285.900167	1216.981445	-108.656364
29681.948883	-1285.900167	1215.864258	-124.921082
29681.948883	-1285.900167	1214.747070	9.917004
29681.948883	-1285.900167	1213.629883	-60.150276
29681.948883	-1285.900167	1212.511719	-84.513023
29681.948883	-1285.900167	1211.393555	-39.422501
29681.948883	-1285.900167	1210.275391	-122.583160
29681.948883	-1285.900167	1209.157227	-83.352776
29681.948883	-1285.900167	1208.038086	32.816994
29681.948883	-1285.900167	1206.918945	174.984528
29681.948883	-1285.900167	1205.799805	17.121164
29681.948883	-1285.900167	1204.680664	-5.001931
29681.948883	-1285.900167	1203.560547	49.858829
29681.948883	-1285.900167	1202.441406	26.253363
29681.948883	-1285.900167	1201.321289	-97.456810
29681.948883	-1285.900167	1200.200195	106.569748
29681.948883	-1285.900167	1199.080078	-101.548576
29681.948883	-1285.900167	1197.958984	65.660973
29681.948883	-1285.900167	1196.837891	77.827286
29681.948883	-1285.900167	1195.716797	14.554559
29681.948883	-1285.900167	1194.594727	-48.832680
29681.948883	-1285.900167	1193.473633	-28.945318
29681.948883	-1285.900167	1192.351563	-51.437721
29681.948883	-1285.900167	1191.229492	-42.249252
29681.948883	-1285.900167	1190.106445	-26.445087
29681.948883	-1285.900167	1188.984375	-53.258984
29681.948883	-1285.900167	1187.861328	-192.890381
29681.948883	-1285.900167	1186.738281	13.151156
29681.948883	-1285.900167	1185.614258	33.294510
29681.948883	-1285.900167	1184.491211	-12.237829
29681.948883	-1285.900167	1183.367188	10.474663
29681.948883	-1285.900167	1182.243164	-58.176117
29681.948883	-1285.900167	1181.119141	123.212914
29681.948883	-1285.900167	1179.994141	67.455315
29681.948883	-1285.900167	1178.869141	-39.154579
29681.948883	-1285.900167	1177.744141	111.953308
29681.948883	-1285.900167	1176.619141	45.266052
29681.948883	-1285.900167	1175.493164	-41.856945
29681.948883	-1285.900167	1174.368164	109.935173
29681.948883	-1285.900167	1173.242188	124.092827
29681.948883	-1285.900167	1172.115234	181.095230
29681.948883	-1285.900167	1170.989258	33.705528
29681.948883	-1285.900167	1169.862305	34.347626
29681.948883	-1285.900167	1168.735352	64.403015
29681.948883	-1285.900167	1167.608398	26.887131
29681.948883	-1285.900167	1166.481445	105.876938
29681.948883	-1285.900167	1165.353516	60.197460
29681.948883	-1285.900167	1164.225586	29.538891
29681.948883	-1285.900167	1163.097656	-59.546207
29681.948883	-1285.900167	1161.968750	83.299362
29681.948883	-1285.900167	1160.840820	25.233723
29681.948883	-1285.900167	1159.711914	14.222399
29681.948883	-1285.900167	1158.583008	-46.324554
29681.948883	-1285.900167	1157.453125	-5.363501
29681.948883	-1285.900167	1156.324219	-29.119879
29681.948883	-1285.900167	1155.194336	-110.884216
29681.948883	-1285.900167	1154.064453	-74.183846
29681.948883	-1285.900167	1152.933594	29.562868
29681.948883	-1285.900167	1151.803711	54.827011
29681.948883	-1285.900167	1150.672852	98.071754
29681.948883	-1285.900167	1149.541992	-7.706667
29681.948883	-1285.900167	1148.411133	-95.387268
29681.948883	-1285.900167	1147.279297	30.067505
29681.948883	-1285.900167	1146.147461	142.638367
29681.948883	-1285.900167	1145.015625	132.203140
29681.948883	-1285.900167	1143.883789	-3.760735
29681.948883	-1285.900167	1142.750977	12.939477
29681.948883	-1285.900167	1141.619141	28.729486
29681.948883	-1285.900167	1140.486328	141.072998
29681.948883	-1285.900167	1139.352539	-14.558492
29681.948883	-1285.900167	1138.219727	37.906418
29681.948883	-1285.900167	1137.085938	188.590454
29681.948883	-1285.900167	1135.952148	158.417938
29681.948883	-1285.900167	1134.818359	192.218918
29681.948883	-1285.900167	1133.683594	154.170288
29681.948883	-1285.900167	1132.549805	354.325195
29681.948883	-1285.900167	1131.415039	480.000427
29681.948883	-1285.900167	1130.279297	421.739807
29681.948883	-1285.900167	1129.144531	553.198181
29681.948883	-1285.900167	1128.008789	531.043762
29681.948883	-1285.900167	1126.873047	654.067444
29681.948883	-1285.900167	1125.737305	445.156708
29681.948883	-1285.900167	1124.601563	683.817505
29681.948883	-1285.900167	1123.464844	486.722595
29681.948883	-1285.900167	1122.328125	462.951996
29681.948883	-1285.900167	1121.191406	436.659943
29681.948883	-1285.900167	1120.054688	389.233124
29681.948883	-1285.900167	1118.916992	367.299347
29681.948883	-1285.900167	1117.779297	375.028595
29681.948883	-1285.900167	1116.641602	326.268463
29681.948883	-1285.900167	1115.503906	400.112701
29681.948883	-1285.900167	1114.365234	377.668488
29681.948883	-1285.900167	1113.226563	276.850067
29681.948883	-1285.900167	1112.087891	208.276535
29681.948883	-1285.900167	1110.949219	255.886429
29681.948883	-1285.900167	1109.809570	107.321922
29681.948883	-1285.900167	1108.669922	303.903656
29681.948883	-1285.900167	1107.530273	296.971466
29681.948883	-1285.900167	1106.390625	199.234375
29681.948883	-1285.900167	1105.250000	319.534668
29681.948883	-1285.900167	1104.109375	291.479218
29681.948883	-1285.900167	1102.968750	221.097366
29681.948883	-1285.900167	1101.828125	260.520966
29681.948883	-1285.900167	1100.686523	161.109787
29681.948883	-1285.900167	1099.544922	249.842911
29681.948883	-1285.900167	1098.403320	388.687164
29681.948883	-1285.900167	1097.261719	140.417999
29681.948883	-1285.900167	1096.120117	123.103760
29681.948883	-1285.900167	1094.977539	141.144180
29681.948883	-1285.900167	1093.834961	380.538025
29681.948883	-1285.900167	1092.691406	294.049164
29681.948883	-1285.900167	1091.548828	245.280792
29681.948883	-1285.900167	1090.405273	155.491104
29681.948883	-1285.900167	1089.261719	271.871338
29681.948883	-1285.900167	1088.118164	69.159889
29681.948883	-1285.900167	1086.973633	148.026733
29681.948883	-1285.900167	1085.829102	27.516766
29681.948883	-1285.900167	1084.684570	141.262848
29681.948883	-1285.900167	1083.540039	37.392014
29681.948883	-1285.900167	1082.395508	68.561531
29681.948883	-1285.900167	1081.250000	-0.950282
29681.948883	-1285.900167	1080.104492	52.913303
29681.948883	-1285.900167	1078.958984	-12.820292
29681.948883	-1285.900167	1077.812500	33.517776
29681.948883	-1285.900167	1076.666016	149.506805
29681.948883	-1285.900167	1075.519531	114.760139
29681.948883	-1285.900167	1074.373047	86.546425
29681.948883	-1285.900167	1073.226563	264.126495
29681.948883	-1285.900167	1072.079102	139.314545
29681.948883	-1285.900167	1070.931641	44.580658
29681.948883	-1285.900167	1069.784180	77.314575
29681.948883	-1285.900167	1068.635742	86.648788
29681.948883	-1285.900167	1067.487305	137.476318
29681.948883	-1285.900167	1066.338867	38.509163
29681.948883	-1285.900167	1065.190430	135.198578
29681.948883	-1285.900167	1064.041992	343.290771
29681.948883	-1285.900167	1062.892578	157.567520
29681.948883	-1285.900167	1061.743164	333.381958
29681.948883	-1285.900167	1060.593750	167.862061
29681.948883	-1285.900167	1059.443359	200.058151
29681.948883	-1285.900167	1058.292969	165.134933
29681.948883	-1285.900167	1057.142578	24.379133
29681.948883	-1285.900167	1055.992188	92.300125
29681.948883	-1285.900167	1054.841797	-12.411556
29681.948883	-1285.900167	1053.690430	-43.832226
29681.948883	-1285.900167	1052.539063	101.549652
29681.948883	-1285.900167	1051.387695	8.684377
29681.948883	-1285.900167	1050.235352	-47.587448
29681.948883	-1285.900167	1049.083984	51.205627
29681.948883	-1285.900167	1047.931641	175.325714
29681.948883	-1285.900167	1046.778320	-21.748623
29681.948883	-1285.900167	1045.625977	63.658798
29681.948883	-1285.900167	1044.472656	-92.451767
29681.948883	-1285.900167	1043.319336	-5.635470
29681.948883	-1285.900167	1042.166016	-102.877052
29681.948883	-1285.900167	1041.012695	78.112671
29681.948883	-1285.900167	1039.858398	52.503654
29681.948883	-1285.900167	1038.704102	31.455708
29681.948883	-1285.900167	1037.549805	101.447464
29681.948883	-1285.900167	1036.394531	-102.673935
29681.948883	-1285.900167	1035.239258	-13.651442
29681.948883	-1285.900167	1034.083984	-5.996656
29681.948883	-1285.900167	1032.928711	83.982437
29681.948883	-1285.900167	1031.773438	125.758614
29681.948883	-1285.900167	1030.617188	146.901062
29681.948883	-1285.900167	1029.460938	99.117622
29681.948883	-1285.900167	1028.304688	13.969967
29681.948883	-1285.900167	1027.147461	-9.922516
29681.948883	-1285.900167	1025.991211	24.452682
29681.948883	-1285.900167	1024.833984	-27.910404
29681.948883	-1285.900167	1023.675781	110.019035
29681.948883	-1285.900167	1022.518555	-18.969009
29681.948883	-1285.900167	1021.360352	22.784885
29681.948883	-1285.900167	1020.202148	128.419922
29681.948883	-1285.900167	1019.043945	80.376663
29681.948883	-1285.900167	1017.884766	-103.680771
29681.948883	-1285.900167	1016.726563	-9.843000
29681.948883	-1285.900167	1015.567383	87.805008
29681.948883	-1285.900167	1014.407227	160.612427
29681.948883	-1285.900167	1013.248047	56.197273
29681.948883	-1285.900167	1012.087891	6.899237
29681.948883	-1285.900167	1010.927734	-84.952339
29681.948883	-1285.900167	1009.767578	-124.690842
29681.948883	-1285.900167	1008.606445	6.712927
29681.948883	-1285.900167	1007.446289	-60.495373
29681.948883	-1285.900167	1006.285156	96.032036
29681.948883	-1285.900167	1005.123047	-36.136429
29681.948883	-1285.900167	1003.961914	4.772369
29681.948883	-1285.900167	1002.799805	30.367308
29681.948883	-1285.900167	1001.637695	113.356804
29681.948883	-1285.900167	1000.475586	30.485596
29681.948883	-1285.900167	999.312500	117.752899
29681.948883	-1285.900167	998.149414	-74.001938
29681.948883	-1285.900167	996.986328	9.041506
29681.948883	-1285.900167	995.823242	-171.667450
29681.948883	-1285.900167	994.659180	-170.596954
29681.948883	-1285.900167	993.496094	-105.348000
29681.948883	-1285.900167	992.332031	45.225502
29681.948883	-1285.900167	991.166992	-25.288044
29681.948883	-1285.900167	990.002930	7.969011
29681.948883	-1285.900167	988.837891	22.444853
29681.948883	-1285.900167	987.672852	140.407715
29681.948883	-1285.900167	986.506836	184.289185
29681.948883	-1285.900167	985.341797	-126.784363
29681.948883	-1285.900167	984.175781	-22.082710
29681.948883	-1285.900167	983.009766	-51.993778
29681.948883	-1285.900167	981.843750	19.199814
29681.948883	-1285.900167	980.676758	89.392433
29681.948883	-1285.900167	979.509766	8.352448
29681.948883	-1285.900167	978.342773	27.764038
29681.948883	-1285.900167	977.175781	-17.777491
29681.948883	-1285.900167	976.007813	4.415106
29681.948883	-1285.900167	974.839844	83.366142
29681.948883	-1285.900167	973.671875	-49.926739
29681.948883	-1285.900167	972.503906	106.484787
29681.948883	-1285.900167	971.334961	69.860641
29681.948883	-1285.900167	970.166016	103.859489
29681.948883	-1285.900167	968.997070	-10.837940
29681.948883	-1285.900167	967.828125	190.876358
29681.948883	-1285.900167	966.658203	75.687981
29681.948883	-1285.900167	965.488281	33.186825
29681.948883	-1285.900167	964.318359	-57.293053
29681.948883	-1285.900167	963.148438	3.898808
29681.948883	-1285.900167	961.977539	9.583676
29681.948883	-1285.900167	960.806641	50.207958
29681.948883	-1285.900167	959.635742	-202.670181
29681.948883	-1285.900167	958.463867	-12.504426
29681.948883	-1285.900167	957.292969	-25.814955
29681.948883	-1285.900167	956.121094	-155.769989
29681.948883	-1285.900167	954.948242	77.789154
29681.948883	-1285.900167	953.776367	38.660294
29681.948883	-1285.900167	952.603516	17.041786
29681.948883	-1285.900167	951.430664	20.592579
29681.948883	-1285.900167	950.257813	-19.592552
29681.948883	-1285.900167	949.084961	-100.835335
29681.948883	-1285.900167	947.911133	128.586609
29681.948883	-1285.900167	946.737305	120.417267
29681.948883	-1285.900167	945.563477	28.601496
29681.948883	-1285.900167	944.388672	66.970505
29681.948883	-1285.900167	943.213867	116.221451
29681.948883	-1285.900167	942.039063	91.912971
29681.948883	-1285.900167	940.864258	151.307297
29681.948883	-1285.900167	939.688477	250.162308
29681.948883	-1285.900167	938.513672	270.235779
29681.948883	-1285.900167	937.337891	42.691315
29681.948883	-1285.900167	936.161133	78.397583
29681.948883	-1285.900167	934.985352	127.335579
29681.948883	-1285.900167	933.808594	220.401245
29681.948883	-1285.900167	932.631836	245.916428
29681.948883	-1285.900167	931.454102	380.687164
29681.948883	-1285.900167	930.277344	411.181458
29681.948883	-1285.900167	929.099609	172.946426
29681.948883	-1285.900167	927.921875	440.718048
29681.948883	-1285.900167	926.743164	192.072830
29681.948883	-1285.900167	925.565430	326.760590
29681.948883	-1285.900167	924.386719	226.755112
29681.948883	-1285.900167	923.208008	262.297760
29681.948883	-1285.900167	922.028320	224.856094
29681.948883	-1285.900167	920.849609	455.757233
29681.948883	-1285.900167	919.669922	458.961578
29681.948883	-1285.900167	919.474609	309.374176
29681.948883	-1285.900167	918.309570	248.399460
29681.948883	-1285.900167	917.143555	190.034592
29681.948883	-1285.900167	915.977539	201.959518
29681.948883	-1285.900167	914.810547	34.273010
29681.948883	-1285.900167	913.644531	90.418625
29681.948883	-1285.900167	912.477539	-48.601959
29681.948883	-1285.900167	911.310547	4.895689
29681.948883	-1285.900167	910.143555	-113.289627
29681.948883	-1285.900167	908.975586	-78.042168
29681.948883	-1285.900167	907.807617	-45.429897
29681.948883	-1285.900167	906.639648	-135.006561
29681.948883	-1285.900167	905.471680	-6.296094
29681.948883	-1285.900167	904.303711	21.020306
29681.948883	-1285.900167	903.134766	4.149095
29681.948883	-1285.900167	901.965820	169.045837
29681.948883	-1285.900167	900.796875	-37.426727
29681.948883	-1285.900167	899.626953	-56.935242
29681.948883	-1285.900167	898.457031	211.621399
29681.948883	-1285.900167	897.287109	-67.451645
29681.948883	-1285.900167	896.117188	175.010590
29681.948883	-1285.900167	894.947266	4.949984
29681.948883	-1285.900167	893.776367	153.901413
29681.948883	-1285.900167	892.605469	53.873806
29681.948883	-1285.900167	891.434570	197.524826
29681.948883	-1285.900167	890.262695	297.039703
29681.948883	-1285.900167	889.091797	168.474548
29681.948883	-1285.900167	887.919922	109.885895
29681.948883	-1285.900167	886.748047	-127.413048
29681.948883	-1285.900167	885.575195	150.672516
29681.948883	-1285.900167	884.403320	48.042625
29681.948883	-1285.900167	883.230469	12.732634
29681.948883	-1285.900167	882.057617	29.171539
29681.948883	-1285.900167	880.883789	-107.071815
29681.948883	-1285.900167	879.710938	134.393967
29681.948883	-1285.900167	878.537109	-1.862222
29681.948883	-1285.900167	877.362305	156.695602
29681.948883	-1285.900167	876.188477	160.047348
29681.948883	-1285.900167	875.013672	44.478569
29681.948883	-1285.900167	873.839844	233.866684
29681.948883	-1285.900167	872.664063	113.117203
29681.948883	-1285.900167	871.489258	98.299568
29681.948883	-1285.900167	870.313477	264.248993
29681.948883	-1285.900167	869.138672	11.806881
29681.948883	-1285.900167	867.962891	61.488071
29681.948883	-1285.900167	866.786133	247.920349
29681.948883	-1285.900167	865.610352	173.619583
29681.948883	-1285.900167	864.433594	207.685425
29681.948883	-1285.900167	863.256836	146.273712
29681.948883	-1285.900167	862.079102	102.915863
29681.948883	-1285.900167	860.902344	111.117165
29681.948883	-1285.900167	859.724609	170.849152
29681.948883	-1285.900167	858.546875	369.706726
29681.948883	-1285.900167	857.368164	189.670425
29681.948883	-1285.900167	856.190430	81.816025
29681.948883	-1285.900167	855.011719	156.860001
29681.948883	-1285.900167	853.833008	77.334824
29681.948883	-1285.900167	852.654297	33.862495
29681.948883	-1285.900167	851.474609	-128.027267
29681.948883	-1285.900167	850.294922	-153.474274
29681.948883	-1285.900167	849.115234	-94.025009
29681.948883	-1285.900167	847.935547	29.688604
29681.948883	-1285.900167	846.754883	119.889557
29681.948883	-1285.900167	845.575195	1.734102
29681.948883	-1285.900167	844.393555	-49.551529
29681.948883	-1285.900167	843.212891	55.954189
29681.948883	-1285.900167	842.032227	68.872177
29681.948883	-1285.900167	840.850586	115.161652
29681.948883	-1285.900167	839.668945	238.471558
29681.948883	-1285.900167	838.486328	22.683933
29681.948883	-1285.900167	837.304688	32.924061
29681.948883	-1285.900167	836.122070	79.076180
29681.948883	-1285.900167	834.939453	-46.790752
29681.948883	-1285.900167	833.756836	199.469666
29681.948883	-1285.900167	832.573242	-29.052187
29681.948883	-1285.900167	831.389648	1.574560
29681.948883	-1285.900167	830.206055	19.338085
29681.948883	-1285.900167	829.022461	83.220230
29681.948883	-1285.900167	827.838867	85.522171
29681.948883	-1285.900167	826.654297	118.552460
29681.948883	-1285.900167	825.469727	43.914906
29681.948883	-1285.900167	824.284180	-12.785589
29681.948883	-1285.900167	823.099609	20.159344
29681.948883	-1285.900167	821.914063	45.380459
29681.948883	-1285.900167	820.728516	134.572983
29681.948883	-1285.900167	819.542969	210.899887
29681.948883	-1285.900167	818.356445	-181.194656
29681.948883	-1285.900167	817.169922	-125.361580
29681.948883	-1285.900167	815.983398	81.359009
29681.948883	-1285.900167	814.796875	80.785866
29681.948883	-1285.900167	813.609375	23.924559
29681.948883	-1285.900167	812.422852	28.417490
29681.948883	-1285.900167	811.235352	-59.142605
29681.948883	-1285.900167	810.046875	47.534164
29681.948883	-1285.900167	808.859375	-226.578110
29681.948883	-1285.900167	807.670898	46.079472
29681.948883	-1285.900167	806.482422	-15.989952
29681.948883	-1285.900167	805.293945	47.059734
29681.948883	-1285.900167	804.104492	145.796417
29681.948883	-1285.900167	802.915039	-64.389977
29681.948883	-1285.900167	801.725586	-4.011229
29681.948883	-1285.900167	800.536133	117.546844
29681.948883	-1285.900167	799.345703	-192.079605
29681.948883	-1285.900167	798.155273	102.831978
29681.948883	-1285.900167	796.964844	-23.135464
29681.948883	-1285.900167	795.774414	16.624952
29681.948883	-1285.900167	794.583008	28.301523
29681.948883	-1285.900167	793.392578	182.645370
29681.948883	-1285.900167	792.200195	237.532501
29681.948883	-1285.900167	791.008789	172.646378
29681.948883	-1285.900167	789.816406	61.915798
29681.948883	-1285.900167	788.625000	121.792290
29681.948883	-1285.900167	787.432617	74.696739
29681.948883	-1285.900167	786.239258	187.930298
29681.948883	-1285.900167	785.046875	-60.243809
29681.948883	-1285.900167	783.853516	197.918396
29681.948883	-1285.900167	782.660156	5.739425
29681.948883	-1285.900167	781.465820	60.278439
29681.948883	-1285.900167	780.272461	-142.025360
29681.948883	-1285.900167	779.078125	-87.541939
29681.948883	-1285.900167	777.883789	-94.106384
29681.948883	-1285.900167	776.688477	-49.882298
29681.948883	-1285.900167	775.494141	136.551193
29681.948883	-1285.900167	774.298828	71.432327
29681.948883	-1285.900167	773.103516	-209.531387
29681.948883	-1285.900167	771.907227	4.649687
29681.948883	-1285.900167	770.711914	18.188623
29681.948883	-1285.900167	769.515625	8.849833
29681.948883	-1285.900167	768.318359	29.929628
29681.948883	-1285.900167	767.122070	-22.595072
29681.948883	-1285.900167	765.924805	77.038040
29681.948883	-1285.900167	764.727539	21.925850
29681.948883	-1285.900167	763.530273	-5.310046
29681.948883	-1285.900167	762.333008	-103.533875
29681.948883	-1285.900167	761.134766	-57.310413
29681.948883	-1285.900167	759.936523	-28.872244
29681.948883	-1285.900167	758.738281	47.647858
29681.948883	-1285.900167	757.540039	63.325611
29681.948883	-1285.900167	756.340820	154.921844
29681.948883	-1285.900167	755.141602	117.347160
29681.948883	-1285.900167	753.942383	46.854542
29681.948883	-1285.900167	752.742188	-74.247398
29681.948883	-1285.900167	751.541992	166.431030
29681.948883	-1285.900167	750.341797	78.171150
29681.948883	-1285.900167	749.141602	156.813354
29681.948883	-1285.900167	747.941406	76.113091
29681.948883	-1285.900167	746.740234	10.580534
29681.948883	-1285.900167	745.539063	212.922913
29681.948883	-1285.900167	744.337891	3.307297
29681.948883	-1285.900167	743.135742	117.089027
29681.948883	-1285.900167	741.933594	0.963200
29681.948883	-1285.900167	740.731445	149.985580
29681.948883	-1285.900167	739.529297	89.378464
29681.948883	-1285.900167	738.326172	258.449219
29681.948883	-1285.900167	737.124023	18.615129
29681.948883	-1285.900167	735.919922	94.217529
29681.948883	-1285.900167	734.716797	-49.693081
29681.948883	-1285.900167	733.513672	192.276154
29681.948883	-1285.900167	732.309570	171.890060
29681.948883	-1285.900167	731.105469	-55.227291
29681.948883	-1285.900167	729.900391	-52.932690
29681.948883	-1285.900167	728.696289	186.191986
29681.948883	-1285.900167	727.491211	102.719604
29681.948883	-1285.900167	726.286133	21.770945
29681.948883	-1285.900167	725.080078	13.853397
29681.948883	-1285.900167	723.874023	-1.644131
29681.948883	-1285.900167	722.668945	103.659554
29681.948883	-1285.900167	721.461914	17.624043
29681.948883	-1285.900167	720.255859	22.175768
29681.948883	-1285.900167	719.048828	87.068954
29681.948883	-1285.900167	717.841797	33.698994
29681.948883	-1285.900167	716.634766	-137.860168
29681.948883	-1285.900167	715.427734	-30.322683
29681.948883	-1285.900167	714.219727	145.003754
29681.948883	-1285.900167	713.011719	66.421394
29681.948883	-1285.900167	711.803711	93.365532
29681.948883	-1285.900167	710.594727	140.364334
29681.948883	-1285.900167	709.385742	-43.729061
29681.948883	-1285.900167	708.176758	93.613899
29681.948883	-1285.900167	706.967773	-25.179281
29681.948883	-1285.900167	705.758789	-25.989681
29681.948883	-1285.900167	704.548828	13.320182
29681.948883	-1285.900167	703.338867	-100.445274
29681.948883	-1285.900167	702.127930	-31.091942
29681.948883	-1285.900167	700.917969	-107.236694
29681.948883	-1285.900167	699.707031	89.901932
29681.948883	-1285.900167	698.496094	71.363327
29681.948883	-1285.900167	697.285156	160.569672
29681.948883	-1285.900167	696.073242	-166.212250
29681.948883	-1285.900167	694.861328	85.783585
29681.948883	-1285.900167	693.649414	-15.487414
29681.948883	-1285.900167	692.436523	78.570107
29681.948883	-1285.900167	691.224609	19.854771
29681.948883	-1285.900167	690.011719	106.309410
29681.948883	-1285.900167	688.798828	-87.564957
29681.948883	-1285.900167	687.584961	-11.178393
29681.948883	-1285.900167	686.372070	-62.413849
29681.948883	-1285.900167	685.158203	66.408699
29681.948883	-1285.900167	683.943359	-54.876926
29681.948883	-1285.900167	682.729492	-148.633560
29681.948883	-1285.900167	681.514648	40.042881
29681.948883	-1285.900167	680.299805	-11.258552
29681.948883	-1285.900167	679.084961	-2.601920
29681.948883	-1285.900167	677.869141	113.430283
29681.948883	-1285.900167	676.653320	24.627857
29681.948883	-1285.900167	675.437500	-29.203609
29681.948883	-1285.900167	674.221680	1.836685
29681.948883	-1285.900167	673.004883	-96.926071
29681.948883	-1285.900167	671.789063	3.941018
29681.948883	-1285.900167	670.571289	154.634827
29681.948883	-1285.900167	669.354492	168.080444
29681.948883	-1285.900167	668.136719	36.880894
29681.948883	-1285.900167	666.919922	120.115700
29681.948883	-1285.900167	665.701172	233.205246
29681.948883	-1285.900167	664.483398	62.157764
29681.948883	-1285.900167	663.264648	-4.196213
29681.948883	-1285.900167	662.045898	173.565659
29681.948883	-1285.900167	660.827148	104.697250
29681.948883	-1285.900167	659.608398	267.395325
29681.948883	-1285.900167	658.388672	76.534355
29681.948883	-1285.900167	657.168945	293.894623
29681.948883	-1285.900167	655.949219	182.707550
29681.948883	-1285.900167	654.728516	136.233353
29681.948883	-1285.900167	653.507813	156.921783
29681.948883	-1285.900167	652.287109	145.264069
29681.948883	-1285.900167	651.066406	88.852036
29681.948883	-1285.900167	649.844727	231.298859
29681.948883	-1285.900167	648.623047	28.253099
29681.948883	-1285.900167	647.401367	58.831482
29681.948883	-1285.900167	646.179688	109.260605
29681.948883	-1285.900167	644.957031	52.869457
29681.948883	-1285.900167	643.734375	68.500984
29681.948883	-1285.900167	642.511719	111.426216
29681.948883	-1285.900167	641.289063	216.375168
29681.948883	-1285.900167	640.065430	169.907806
29681.948883	-1285.900167	638.841797	135.860260
29681.948883	-1285.900167	637.618164	12.530414
29681.948883	-1285.900167	636.393555	164.505585
29681.948883	-1285.900167	635.168945	98.236649
29681.948883	-1285.900167	633.944336	-32.454544
29681.948883	-1285.900167	632.719727	119.426193
29681.948883	-1285.900167	631.494141	102.754745
29681.948883	-1285.900167	630.269531	150.497787
29681.948883	-1285.900167	629.042969	24.850731
29681.948883	-1285.900167	627.817383	231.060181
29681.948883	-1285.900167	626.590820	184.669373
29681.948883	-1285.900167	625.365234	36.823196
29681.948883	-1285.900167	624.137695	-46.624233
29681.948883	-1285.900167	622.911133	105.000931
29681.948883	-1285.900167	621.683594	-20.469988
29681.948883	-1285.900167	620.456055	74.211761
29681.948883	-1285.900167	619.228516	-1.742819
29681.948883	-1285.900167	618.000977	154.701492
29681.948883	-1285.900167	616.772461	115.841026
29681.948883	-1285.900167	615.543945	133.832718
29681.948883	-1285.900167	614.314453	-11.221926
29681.948883	-1285.900167	613.085938	135.234024
29681.948883	-1285.900167	611.856445	51.987053
29681.948883	-1285.900167	610.626953	89.754105
29681.948883	-1285.900167	609.397461	36.188068
29681.948883	-1285.900167	608.166992	27.070673
29681.948883	-1285.900167	606.936523	20.434275
29681.948883	-1285.900167	605.706055	-84.856827
29681.948883	-1285.900167	604.474609	-143.237183
29681.948883	-1285.900167	603.244141	-41.313137
29681.948883	-1285.900167	602.012695	-136.632065
29681.948883	-1285.900167	600.780273	17.023867
29681.948883	-1285.900167	599.548828	-53.601162
29681.948883	-1285.900167	598.316406	-15.788374
29681.948883	-1285.900167	597.083984	147.635590
29681.948883	-1285.900167	595.851563	118.930023
29681.948883	-1285.900167	594.618164	-74.702385
29681.948883	-1285.900167	593.384766	68.981010
29681.948883	-1285.900167	592.151367	13.284398
29681.948883	-1285.900167	590.917969	-7.926513
29681.948883	-1285.900167	589.683594	-24.193624
29681.948883	-1285.900167	588.449219	13.668980
29681.948883	-1285.900167	587.214844	-76.325554
29681.948883	-1285.900167	585.979492	0.899057
29681.948883	-1285.900167	584.745117	-10.368976
29681.948883	-1285.900167	583.509766	5.415543
29681.948883	-1285.900167	582.273438	119.479637
29681.948883	-1285.900167	581.038086	71.407776
29681.948883	-1285.900167	579.801758	92.133408
29681.948883	-1285.900167	578.565430	-51.624546
29681.948883	-1285.900167	577.329102	86.983406
29681.948883	-1285.900167	576.091797	39.039455
29681.948883	-1285.900167	574.854492	-163.438232
29681.948883	-1285.900167	573.617188	-54.268196
29681.948883	-1285.900167	572.378906	20.540985
29681.948883	-1285.900167	571.141602	-157.215683
29681.948883	-1285.900167	569.903320	-97.079636
29681.948883	-1285.900167	568.664063	-56.554955
29681.948883	-1285.900167	567.425781	30.536533
29681.948883	-1285.900167	566.186523	-48.981808
29681.948883	-1285.900167	564.947266	160.587585
29681.948883	-1285.900167	563.708008	-16.830750
29681.948883	-1285.900167	562.467773	-152.528091
29681.948883	-1285.900167	561.227539	34.971329
29681.948883	-1285.900167	559.987305	166.128128
29681.948883	-1285.900167	558.747070	-23.275320
29681.948883	-1285.900167	557.505859	41.837875
29681.948883	-1285.900167	556.264648	14.010713
29681.948883	-1285.900167	555.023438	-16.224493
29681.948883	-1285.900167	553.781250	-29.308910
29681.948883	-1285.900167	552.539063	-13.032185
29681.948883	-1285.900167	551.296875	13.038321
29681.948883	-1285.900167	550.054688	219.915298
29681.948883	-1285.900167	548.811523	50.566757
29681.948883	-1285.900167	547.569336	171.925735
29681.948883	-1285.900167	546.325195	61.307941
29681.948883	-1285.900167	545.082031	-5.296843
29681.948883	-1285.900167	543.837891	-3.514093
29681.948883	-1285.900167	542.593750	-74.906281
29681.948883	-1285.900167	541.349609	-41.345654
29681.948883	-1285.900167	540.105469	-7.773828
29681.948883	-1285.900167	538.860352	-1.015318
29681.948883	-1285.900167	537.615234	137.411652
29681.948883	-1285.900167	536.369141	110.060455
29681.948883	-1285.900167	535.124023	53.504581
29681.948883	-1285.900167	533.877930	48.158192
29681.948883	-1285.900167	532.631836	93.990158
29681.948883	-1285.900167	531.384766	164.176865
29681.948883	-1285.900167	530.138672	-26.162592
29681.948883	-1285.900167	528.891602	-87.384537
29681.948883	-1285.900167	527.643555	19.367491
29681.948883	-1285.900167	526.396484	87.164505
29681.948883	-1285.900167	525.148438	16.289358
29681.948883	-1285.900167	523.900391	64.640221
29681.948883	-1285.900167	522.652344	151.895630
29681.948883	-1285.900167	521.403320	10.606823
29681.948883	-1285.900167	520.154297	37.106869
29681.948883	-1285.900167	518.905273	221.567825
29681.948883	-1285.900167	517.656250	158.151474
29681.948883	-1285.900167	516.406250	-38.819595
29681.948883	-1285.900167	515.156250	240.295105
29681.948883	-1285.900167	513.906250	140.538544
29681.948883	-1285.900167	512.655273	50.546234
29681.948883	-1285.900167	511.404297	128.062958
29681.948883	-1285.900167	510.153320	207.983124
29681.948883	-1285.900167	508.902344	309.711334
29681.948883	-1285.900167	507.650391	411.403473
29681.948883	-1285.900167	506.398438	377.266479
29681.948883	-1285.900167	505.146484	219.508545
29681.948883	-1285.900167	503.893555	258.151093
29681.948883	-1285.900167	502.641602	388.865448
29681.948883	-1285.900167	501.388672	284.515533
29681.948883	-1285.900167	500.134766	572.613525
29681.948883	-1285.900167	498.881836	540.918945
29681.948883	-1285.900167	497.627930	211.426453
29681.948883	-1285.900167	496.374023	191.917694
29681.948883	-1285.900167	495.119141	218.392761
29681.948883	-1285.900167	493.865234	201.295486
29681.948883	-1285.900167	492.610352	307.569519
29681.948883	-1285.900167	491.355469	471.831726
29681.948883	-1285.900167	490.099609	302.313354
29681.948883	-1285.900167	488.843750	369.772797
29681.948883	-1285.900167	487.587891	209.982864
29681.948883	-1285.900167	486.332031	509.379395
29681.948883	-1285.900167	485.075195	530.783630
29681.948883	-1285.900167	483.818359	368.577698
29681.948883	-1285.900167	482.561523	467.229095
29681.948883	-1285.900167	481.304688	507.861237
29681.948883	-1285.900167	480.046875	500.165222
29681.948883	-1285.900167	478.789063	625.172363
29681.948883	-1285.900167	477.531250	554.646667
29681.948883	-1285.900167	476.272461	525.118713
29681.948883	-1285.900167	475.013672	825.981934
29681.948883	-1285.900167	473.754883	711.922058
29681.948883	-1285.900167	472.496094	547.236877
29681.948883	-1285.900167	471.236328	683.851929
29681.948883	-1285.900167	469.976563	485.397919
29681.948883	-1285.900167	468.716797	564.031799
29681.948883	-1285.900167	467.456055	722.056763
29681.948883	-1285.900167	466.196289	737.864319
29681.948883	-1285.900167	464.935547	674.142944
29681.948883	-1285.900167	463.673828	468.351776
29681.948883	-1285.900167	462.413086	736.682312
29681.948883	-1285.900167	461.151367	732.923889
29681.948883	-1285.900167	459.889648	654.510620
29681.948883	-1285.900167	458.626953	794.901794
29681.948883	-1285.900167	457.364258	834.150635
29681.948883	-1285.900167	456.101563	796.355591
29681.948883	-1285.900167	454.838867	705.600281
29681.948883	-1285.900167	453.575195	737.329773
29681.948883	-1285.900167	452.312500	716.083496
29681.948883	-1285.900167	451.047852	848.453430
29681.948883	-1285.900167	449.784180	735.703796
29681.948883	-1285.900167	448.519531	618.075562
29681.948883	-1285.900167	447.254883	709.203735
29681.948883	-1285.900167	445.990234	824.158630
29681.948883	-1285.900167	444.725586	859.746765
29681.948883	-1285.900167	443.459961	710.462341
29681.948883	-1285.900167	442.194336	870.477417
29681.948883	-1285.900167	440.927734	864.817810
29681.948883	-1285.900167	439.662109	914.140198
29681.948883	-1285.900167	438.395508	1044.763062
29681.948883	-1285.900167	437.127930	770.189148
29681.948883	-1285.900167	435.861328	790.234619
29681.948883	-1285.900167	434.593750	692.718811
29681.948883	-1285.900167	433.326172	880.023682
29681.948883	-1285.900167	432.058594	712.714539
29681.948883	-1285.900167	430.790039	808.572876
29681.948883	-1285.900167	429.521484	880.250488
29681.948883	-1285.900167	428.252930	925.361816
29681.948883	-1285.900167	426.984375	850.625854
29681.948883	-1285.900167	425.714844	818.737122
29681.948883	-1285.900167	424.445313	944.435303
29681.948883	-1285.900167	423.174805	924.007019
29681.948883	-1285.900167	421.905273	786.229553
29681.948883	-1285.900167	420.634766	877.641846
29681.948883	-1285.900167	419.364258	1040.416260
29681.948883	-1285.900167	418.092773	918.612549
29681.948883	-1285.900167	416.822266	997.174133
29681.948883	-1285.900167	415.550781	941.707886
29681.948883	-1285.900167	414.278320	1112.716919
29681.948883	-1285.900167	413.006836	882.437378
29681.948883	-1285.900167	411.734375	809.402283
29681.948883	-1285.900167	410.461914	867.269836
29681.948883	-1285.900167	409.188477	755.446655
29681.948883	-1285.900167	407.916016	846.006348
29681.948883	-1285.900167	406.642578	1043.438110
29681.948883	-1285.900167	405.368164	923.436218
29681.948883	-1285.900167	404.094727	810.272522
29681.948883	-1285.900167	402.820313	823.028870
29681.948883	-1285.900167	401.545898	949.713013
29681.948883	-1285.900167	400.270508	854.478333
29681.948883	-1285.900167	398.996094	858.872864
29681.948883	-1285.900167	397.720703	1086.573120
29681.948883	-1285.900167	396.444336	949.642090
29681.948883	-1285.900167	395.168945	736.204407
29681.948883	-1285.900167	393.892578	603.269958
29681.948883	-1285.900167	392.616211	845.671570
29681.948883	-1285.900167	391.339844	816.445190
29681.948883	-1285.900167	390.062500	831.895386
29681.948883	-1285.900167	388.785156	796.932617
29681.948883	-1285.900167	387.507813	927.797424
29681.948883	-1285.900167	386.229492	927.413757
29681.948883	-1285.900167	384.951172	826.742371
29681.948883	-1285.900167	383.672852	815.798645
29681.948883	-1285.900167	382.394531	711.712830
29681.948883	-1285.900167	381.115234	713.889954
29681.948883	-1285.900167	379.835938	815.143127
29681.948883	-1285.900167	378.556641	768.659851
29681.948883	-1285.900167	377.277344	818.833191
29681.948883	-1285.900167	375.997070	782.968933
29681.948883	-1285.900167	374.716797	699.059875
29681.948883	-1285.900167	373.435547	718.810669
29681.948883	-1285.900167	372.155273	595.708862
29681.948883	-1285.900167	370.874023	561.992920
29681.948883	-1285.900167	369.591797	638.906738
29681.948883	-1285.900167	368.310547	542.203918
29681.948883	-1285.900167	367.028320	461.368164
29681.948883	-1285.900167	365.746094	356.148193
29681.948883	-1285.900167	364.463867	583.927368
29681.948883	-1285.900167	363.180664	503.194275
29681.948883	-1285.900167	361.897461	644.081482
29681.948883	-1285.900167	360.614258	580.688354
29681.948883	-1285.900167	359.330078	372.223785
29681.948883	-1285.900167	358.045898	415.974579
29681.948883	-1285.900167	356.761719	487.207520
29681.948883	-1285.900167	355.477539	288.131409
29681.948883	-1285.900167	354.192383	633.990540
29681.948883	-1285.900167	352.907227	442.579254
29681.948883	-1285.900167	351.622070	335.336182
29681.948883	-1285.900167	350.336914	475.104980
29681.948883	-1285.900167	349.050781	299.855560
29681.948883	-1285.900167	347.764648	295.978821
29681.948883	-1285.900167	346.477539	345.333344
29681.948883	-1285.900167	345.191406	327.616302
29681.948883	-1285.900167	343.904297	-16.649860
29681.948883	-1285.900167	342.616211	213.488815
29681.948883	-1285.900167	341.329102	284.518616
29681.948883	-1285.900167	340.041016	203.526703
29681.948883	-1285.900167	338.752930	140.292236
29681.948883	-1285.900167	337.463867	66.472870
29681.948883	-1285.900167	336.175781	76.344704
29681.948883	-1285.900167	334.886719	183.888382
29681.948883	-1285.900167	333.596680	212.432678
29681.948883	-1285.900167	332.307617	162.086334
29681.948883	-1285.900167	331.017578	192.827606
29681.948883	-1285.900167	329.727539	123.448654
29681.948883	-1285.900167	328.436523	78.626038
29681.948883	-1285.900167	327.146484	23.126314
29681.948883	-1285.900167	325.855469	27.386724
29681.948883	-1285.900167	324.563477	-66.165688
29681.948883	-1285.900167	323.272461	85.746658
29681.948883	-1285.900167	321.980469	287.812775
29681.948883	-1285.900167	320.688477	103.052292
29681.948883	-1285.900167	319.395508	-24.437904
29681.948883	-1285.900167	318.103516	-132.192184
29681.948883	-1285.900167	316.810547	-168.703308
29681.948883	-1285.900167	315.516602	56.078312
29681.948883	-1285.900167	314.223633	-79.816223
29681.948883	-1285.900167	312.929688	-85.931458
29681.948883	-1285.900167	311.635742	-103.066360
29681.948883	-1285.900167	310.340820	-16.386412
29681.948883	-1285.900167	309.045898	21.665653
29681.948883	-1285.900167	307.750977	20.470070
29681.948883	-1285.900167	306.456055	-10.601037
29681.948883	-1285.900167	305.160156	-106.767448
29681.948883	-1285.900167	303.865234	-47.683796
29681.948883	-1285.900167	302.568359	37.506870
29681.948883	-1285.900167	301.272461	57.631966
29681.948883	-1285.900167	299.975586	230.290894
29681.948883	-1285.900167	298.678711	211.353394
