#X		#Y		#Wave		#Intensity
196.898936	5763.941667	1999.946289	61.097176
196.898936	5763.941667	1998.981445	-12.117190
196.898936	5763.941667	1998.017578	-59.101208
196.898936	5763.941667	1997.052734	-24.378319
196.898936	5763.941667	1996.088867	-71.518127
196.898936	5763.941667	1995.124023	-56.794060
196.898936	5763.941667	1994.159180	-27.296759
196.898936	5763.941667	1993.193359	-10.270655
196.898936	5763.941667	1992.228516	98.277122
196.898936	5763.941667	1991.262695	-50.726509
196.898936	5763.941667	1990.296875	87.341309
196.898936	5763.941667	1989.331055	-76.593269
196.898936	5763.941667	1988.365234	11.810906
196.898936	5763.941667	1987.398438	-11.191297
196.898936	5763.941667	1986.432617	143.812027
196.898936	5763.941667	1985.465820	110.778900
196.898936	5763.941667	1984.499023	67.810364
196.898936	5763.941667	1983.532227	49.517849
196.898936	5763.941667	1982.565430	83.072304
196.898936	5763.941667	1981.597656	12.789028
196.898936	5763.941667	1980.629883	112.931717
196.898936	5763.941667	1979.662109	87.025208
196.898936	5763.941667	1978.694336	-5.592716
196.898936	5763.941667	1977.726563	44.975750
196.898936	5763.941667	1976.758789	-27.942444
196.898936	5763.941667	1975.790039	215.029495
196.898936	5763.941667	1974.821289	-72.654274
196.898936	5763.941667	1973.852539	-106.159073
196.898936	5763.941667	1972.883789	25.575781
196.898936	5763.941667	1971.915039	70.909286
196.898936	5763.941667	1970.945313	84.135803
196.898936	5763.941667	1969.975586	112.116768
196.898936	5763.941667	1969.005859	61.181274
196.898936	5763.941667	1968.036133	-7.016418
196.898936	5763.941667	1967.066406	-35.794743
196.898936	5763.941667	1966.096680	46.264648
196.898936	5763.941667	1965.125977	-9.660468
196.898936	5763.941667	1964.155273	8.285940
196.898936	5763.941667	1963.184570	1.581204
196.898936	5763.941667	1962.213867	149.937485
196.898936	5763.941667	1961.242188	-117.717667
196.898936	5763.941667	1960.271484	5.957038
196.898936	5763.941667	1959.299805	112.344727
196.898936	5763.941667	1958.328125	196.536255
196.898936	5763.941667	1957.356445	110.986771
196.898936	5763.941667	1956.384766	59.877022
196.898936	5763.941667	1955.412109	72.688957
196.898936	5763.941667	1954.439453	-32.499321
196.898936	5763.941667	1953.467773	-61.478340
196.898936	5763.941667	1952.495117	133.130219
196.898936	5763.941667	1951.521484	150.780350
196.898936	5763.941667	1950.548828	141.397797
196.898936	5763.941667	1949.575195	195.854889
196.898936	5763.941667	1948.601563	73.508438
196.898936	5763.941667	1947.627930	-21.798487
196.898936	5763.941667	1946.654297	128.351868
196.898936	5763.941667	1945.680664	25.695116
196.898936	5763.941667	1944.706055	163.500900
196.898936	5763.941667	1943.732422	51.053288
196.898936	5763.941667	1942.757813	154.458725
196.898936	5763.941667	1941.783203	-58.487156
196.898936	5763.941667	1940.807617	196.888046
196.898936	5763.941667	1939.833008	-25.796707
196.898936	5763.941667	1938.857422	-13.140185
196.898936	5763.941667	1937.881836	-96.047005
196.898936	5763.941667	1936.906250	80.747040
196.898936	5763.941667	1935.930664	71.329842
196.898936	5763.941667	1934.955078	3.144762
196.898936	5763.941667	1933.978516	-113.982162
196.898936	5763.941667	1933.001953	16.172764
196.898936	5763.941667	1932.025391	70.410263
196.898936	5763.941667	1931.048828	-0.167223
196.898936	5763.941667	1930.072266	10.018824
196.898936	5763.941667	1929.094727	10.418860
196.898936	5763.941667	1928.118164	-13.634048
196.898936	5763.941667	1927.140625	-42.566036
196.898936	5763.941667	1926.163086	80.088150
196.898936	5763.941667	1925.184570	24.268654
196.898936	5763.941667	1924.207031	124.878265
196.898936	5763.941667	1923.228516	-23.766991
196.898936	5763.941667	1922.250000	-8.679008
196.898936	5763.941667	1921.271484	-57.095352
196.898936	5763.941667	1920.292969	67.891899
196.898936	5763.941667	1919.314453	19.489489
196.898936	5763.941667	1918.334961	-14.243865
196.898936	5763.941667	1917.355469	-57.721512
196.898936	5763.941667	1916.375977	-64.575150
196.898936	5763.941667	1915.396484	6.649961
196.898936	5763.941667	1914.416992	48.583809
196.898936	5763.941667	1913.436523	139.282639
196.898936	5763.941667	1912.457031	61.709476
196.898936	5763.941667	1911.476563	154.822372
196.898936	5763.941667	1910.496094	74.849457
196.898936	5763.941667	1909.515625	138.694077
196.898936	5763.941667	1908.534180	-48.440079
196.898936	5763.941667	1907.552734	-164.852798
196.898936	5763.941667	1906.572266	54.898277
196.898936	5763.941667	1905.590820	26.188225
196.898936	5763.941667	1904.608398	92.447235
196.898936	5763.941667	1903.626953	27.240128
196.898936	5763.941667	1902.644531	-42.804592
196.898936	5763.941667	1901.663086	-95.782303
196.898936	5763.941667	1900.680664	4.535597
196.898936	5763.941667	1899.698242	-48.419376
196.898936	5763.941667	1898.714844	85.911392
196.898936	5763.941667	1897.732422	88.897766
196.898936	5763.941667	1896.749023	43.266895
196.898936	5763.941667	1895.765625	31.688023
196.898936	5763.941667	1894.782227	112.464264
196.898936	5763.941667	1893.798828	49.864552
196.898936	5763.941667	1892.814453	-134.168732
196.898936	5763.941667	1891.831055	-43.674538
196.898936	5763.941667	1890.846680	192.489838
196.898936	5763.941667	1889.862305	-57.003048
196.898936	5763.941667	1888.877930	-102.494644
196.898936	5763.941667	1887.892578	-4.774500
196.898936	5763.941667	1886.908203	46.811184
196.898936	5763.941667	1885.922852	-136.945923
196.898936	5763.941667	1884.937500	-31.983194
196.898936	5763.941667	1883.952148	63.243626
196.898936	5763.941667	1882.965820	42.052887
196.898936	5763.941667	1881.980469	6.329270
196.898936	5763.941667	1880.994141	33.640331
196.898936	5763.941667	1880.007813	34.287910
196.898936	5763.941667	1879.021484	-71.668144
196.898936	5763.941667	1878.035156	21.057098
196.898936	5763.941667	1877.047852	-21.880623
196.898936	5763.941667	1876.061523	-38.162617
196.898936	5763.941667	1875.074219	122.300652
196.898936	5763.941667	1874.086914	-0.504937
196.898936	5763.941667	1873.098633	150.213562
196.898936	5763.941667	1872.111328	-59.657352
196.898936	5763.941667	1871.123047	25.698936
196.898936	5763.941667	1870.135742	123.119118
196.898936	5763.941667	1869.147461	72.984238
196.898936	5763.941667	1868.158203	80.897064
196.898936	5763.941667	1867.169922	50.128838
196.898936	5763.941667	1866.180664	147.471252
196.898936	5763.941667	1865.192383	128.784424
196.898936	5763.941667	1864.203125	-17.948563
196.898936	5763.941667	1863.213867	-55.924511
196.898936	5763.941667	1862.223633	-86.642494
196.898936	5763.941667	1861.234375	39.606701
196.898936	5763.941667	1860.244141	-68.377434
196.898936	5763.941667	1859.253906	-55.632526
196.898936	5763.941667	1858.263672	-6.694511
196.898936	5763.941667	1857.273438	-27.751184
196.898936	5763.941667	1856.282227	1.857535
196.898936	5763.941667	1855.291992	60.396542
196.898936	5763.941667	1854.300781	63.443607
196.898936	5763.941667	1853.309570	-75.767899
196.898936	5763.941667	1852.317383	62.290733
196.898936	5763.941667	1851.326172	17.120266
196.898936	5763.941667	1850.333984	-177.441803
196.898936	5763.941667	1849.342773	-61.138832
196.898936	5763.941667	1848.350586	-53.282764
196.898936	5763.941667	1847.357422	87.024529
196.898936	5763.941667	1846.365234	176.707672
196.898936	5763.941667	1845.372070	124.309685
196.898936	5763.941667	1844.379883	28.599457
196.898936	5763.941667	1843.386719	-93.554337
196.898936	5763.941667	1842.393555	73.063179
196.898936	5763.941667	1841.399414	-171.757156
196.898936	5763.941667	1840.406250	141.514343
196.898936	5763.941667	1839.412109	36.233139
196.898936	5763.941667	1838.417969	53.601894
196.898936	5763.941667	1837.423828	80.571007
196.898936	5763.941667	1836.429688	-0.631808
196.898936	5763.941667	1835.434570	170.494232
196.898936	5763.941667	1834.440430	139.738678
196.898936	5763.941667	1833.445313	82.561378
196.898936	5763.941667	1832.450195	22.993668
196.898936	5763.941667	1831.454102	6.657883
196.898936	5763.941667	1830.458984	172.768936
196.898936	5763.941667	1829.462891	108.384262
196.898936	5763.941667	1828.466797	17.615328
196.898936	5763.941667	1827.470703	46.834412
196.898936	5763.941667	1826.474609	85.626190
196.898936	5763.941667	1825.478516	57.235500
196.898936	5763.941667	1824.481445	74.402763
196.898936	5763.941667	1823.484375	-229.715073
196.898936	5763.941667	1822.487305	-99.863899
196.898936	5763.941667	1821.490234	-41.973663
196.898936	5763.941667	1820.493164	-72.776085
196.898936	5763.941667	1819.495117	1.828577
196.898936	5763.941667	1818.498047	-26.603634
196.898936	5763.941667	1817.500000	45.540611
196.898936	5763.941667	1816.500977	-57.145725
196.898936	5763.941667	1815.502930	-35.324295
196.898936	5763.941667	1814.504883	187.522110
196.898936	5763.941667	1813.505859	32.175804
196.898936	5763.941667	1812.506836	-8.285704
196.898936	5763.941667	1811.507813	15.838028
196.898936	5763.941667	1810.508789	63.852421
196.898936	5763.941667	1809.508789	9.009934
196.898936	5763.941667	1808.508789	90.443344
196.898936	5763.941667	1807.508789	73.827217
196.898936	5763.941667	1806.508789	-57.511532
196.898936	5763.941667	1805.508789	-102.801155
196.898936	5763.941667	1804.508789	-9.533576
196.898936	5763.941667	1803.507813	121.894669
196.898936	5763.941667	1802.506836	131.466064
196.898936	5763.941667	1801.505859	262.781464
196.898936	5763.941667	1800.504883	176.800659
196.898936	5763.941667	1799.502930	152.885315
196.898936	5763.941667	1798.501953	45.443714
196.898936	5763.941667	1797.500000	174.212173
196.898936	5763.941667	1796.498047	-9.563028
196.898936	5763.941667	1795.496094	-33.503170
196.898936	5763.941667	1794.493164	95.146439
196.898936	5763.941667	1793.491211	109.298691
196.898936	5763.941667	1792.488281	68.602783
196.898936	5763.941667	1791.485352	104.159630
196.898936	5763.941667	1790.482422	108.708305
196.898936	5763.941667	1789.478516	75.118675
196.898936	5763.941667	1788.475586	98.682716
196.898936	5763.941667	1787.471680	165.076843
196.898936	5763.941667	1786.467773	7.630070
196.898936	5763.941667	1785.463867	116.819794
196.898936	5763.941667	1784.459961	87.911987
196.898936	5763.941667	1783.455078	82.786163
196.898936	5763.941667	1782.450195	149.010239
196.898936	5763.941667	1781.445313	84.366768
196.898936	5763.941667	1780.440430	69.665215
196.898936	5763.941667	1779.435547	9.771651
196.898936	5763.941667	1778.429688	109.147552
196.898936	5763.941667	1777.424805	137.162552
196.898936	5763.941667	1776.418945	77.219696
196.898936	5763.941667	1775.413086	107.557953
196.898936	5763.941667	1774.406250	9.589413
196.898936	5763.941667	1773.400391	87.380676
196.898936	5763.941667	1772.393555	-98.449547
196.898936	5763.941667	1771.386719	67.122971
196.898936	5763.941667	1770.379883	147.160156
196.898936	5763.941667	1769.373047	-60.005070
196.898936	5763.941667	1768.365234	65.056854
196.898936	5763.941667	1767.358398	178.188217
196.898936	5763.941667	1766.350586	23.239902
196.898936	5763.941667	1765.342773	55.661106
196.898936	5763.941667	1764.334961	52.482529
196.898936	5763.941667	1763.326172	99.057472
196.898936	5763.941667	1762.318359	62.643501
196.898936	5763.941667	1761.309570	66.498528
196.898936	5763.941667	1760.300781	30.053331
196.898936	5763.941667	1759.291016	130.975098
196.898936	5763.941667	1758.282227	203.418091
196.898936	5763.941667	1757.272461	-67.512794
196.898936	5763.941667	1756.262695	-137.147400
196.898936	5763.941667	1755.252930	6.233013
196.898936	5763.941667	1754.243164	104.573235
196.898936	5763.941667	1753.233398	-45.570110
196.898936	5763.941667	1752.222656	50.325031
196.898936	5763.941667	1751.211914	11.352768
196.898936	5763.941667	1750.201172	-44.181728
196.898936	5763.941667	1749.190430	-21.703741
196.898936	5763.941667	1748.179688	-6.350961
196.898936	5763.941667	1747.167969	115.313606
196.898936	5763.941667	1746.156250	36.072186
196.898936	5763.941667	1745.144531	86.762703
196.898936	5763.941667	1744.132813	149.218185
196.898936	5763.941667	1743.121094	-85.912415
196.898936	5763.941667	1742.108398	-16.417286
196.898936	5763.941667	1741.095703	-55.556545
196.898936	5763.941667	1740.083008	-19.184643
196.898936	5763.941667	1739.070313	-20.604748
196.898936	5763.941667	1738.057617	-0.816811
196.898936	5763.941667	1737.043945	30.729744
196.898936	5763.941667	1736.030273	102.330116
196.898936	5763.941667	1735.016602	4.116215
196.898936	5763.941667	1734.002930	47.356167
196.898936	5763.941667	1732.989258	-100.354248
196.898936	5763.941667	1731.974609	-85.439636
196.898936	5763.941667	1730.959961	-122.387878
196.898936	5763.941667	1729.945313	55.009617
196.898936	5763.941667	1728.930664	152.241211
196.898936	5763.941667	1727.916016	82.230850
196.898936	5763.941667	1726.900391	9.866307
196.898936	5763.941667	1725.885742	-22.478310
196.898936	5763.941667	1724.870117	79.301094
196.898936	5763.941667	1723.853516	-2.508324
196.898936	5763.941667	1722.837891	0.379781
196.898936	5763.941667	1721.822266	-102.595055
196.898936	5763.941667	1720.805664	46.053493
196.898936	5763.941667	1719.789063	62.963329
196.898936	5763.941667	1718.772461	30.480288
196.898936	5763.941667	1717.754883	7.383613
196.898936	5763.941667	1716.738281	68.865692
196.898936	5763.941667	1715.720703	184.330566
196.898936	5763.941667	1714.703125	88.336189
196.898936	5763.941667	1713.685547	8.793845
196.898936	5763.941667	1712.667969	124.135811
196.898936	5763.941667	1711.649414	-14.117060
196.898936	5763.941667	1710.630859	-39.683582
196.898936	5763.941667	1709.612305	0.441290
196.898936	5763.941667	1708.593750	-81.468346
196.898936	5763.941667	1707.575195	-43.740440
196.898936	5763.941667	1706.555664	99.482193
196.898936	5763.941667	1705.536133	137.114655
196.898936	5763.941667	1704.516602	120.791885
196.898936	5763.941667	1703.497070	102.110764
196.898936	5763.941667	1702.477539	24.830259
196.898936	5763.941667	1701.457031	6.129269
196.898936	5763.941667	1700.437500	-36.007149
196.898936	5763.941667	1699.416992	-64.098846
196.898936	5763.941667	1698.395508	116.199532
196.898936	5763.941667	1697.375000	57.613892
196.898936	5763.941667	1696.354492	111.384636
196.898936	5763.941667	1695.333008	62.140270
196.898936	5763.941667	1694.311523	3.536368
196.898936	5763.941667	1693.290039	31.491608
196.898936	5763.941667	1692.267578	-52.854305
196.898936	5763.941667	1691.246094	-134.844589
196.898936	5763.941667	1690.223633	42.693989
196.898936	5763.941667	1689.201172	-34.648830
196.898936	5763.941667	1688.178711	-144.699951
196.898936	5763.941667	1687.155273	39.689533
196.898936	5763.941667	1686.132813	86.157059
196.898936	5763.941667	1685.109375	-5.224384
196.898936	5763.941667	1684.085938	13.171659
196.898936	5763.941667	1683.062500	10.530010
196.898936	5763.941667	1682.039063	-64.494781
196.898936	5763.941667	1681.014648	63.544468
196.898936	5763.941667	1679.990234	4.836311
196.898936	5763.941667	1678.965820	186.440567
196.898936	5763.941667	1677.941406	97.375099
196.898936	5763.941667	1676.916992	54.972172
196.898936	5763.941667	1675.891602	-222.937759
196.898936	5763.941667	1674.866211	-118.426819
196.898936	5763.941667	1673.840820	-128.181732
196.898936	5763.941667	1672.815430	-14.437597
196.898936	5763.941667	1671.790039	71.288788
196.898936	5763.941667	1670.763672	28.843912
196.898936	5763.941667	1669.737305	-55.521015
196.898936	5763.941667	1668.710938	-88.638718
196.898936	5763.941667	1667.684570	15.602900
196.898936	5763.941667	1666.658203	-59.439915
196.898936	5763.941667	1665.630859	0.508983
196.898936	5763.941667	1664.603516	58.095394
196.898936	5763.941667	1663.576172	8.636016
196.898936	5763.941667	1662.548828	45.241985
196.898936	5763.941667	1661.520508	132.977509
196.898936	5763.941667	1660.493164	136.972382
196.898936	5763.941667	1659.464844	96.784874
196.898936	5763.941667	1658.436523	5.472497
196.898936	5763.941667	1657.408203	18.747946
196.898936	5763.941667	1656.378906	117.962502
196.898936	5763.941667	1655.350586	-33.722691
196.898936	5763.941667	1654.321289	190.847748
196.898936	5763.941667	1653.291992	241.183975
196.898936	5763.941667	1652.261719	126.669998
196.898936	5763.941667	1651.232422	125.921089
196.898936	5763.941667	1650.202148	-60.478195
196.898936	5763.941667	1649.171875	17.670813
196.898936	5763.941667	1648.141602	139.853790
196.898936	5763.941667	1647.111328	248.067627
196.898936	5763.941667	1646.080078	122.040535
196.898936	5763.941667	1645.049805	-31.759098
196.898936	5763.941667	1644.018555	87.989540
196.898936	5763.941667	1642.987305	191.464661
196.898936	5763.941667	1641.955078	257.819733
196.898936	5763.941667	1640.923828	365.843506
196.898936	5763.941667	1639.891602	70.832870
196.898936	5763.941667	1638.859375	183.467972
196.898936	5763.941667	1637.827148	268.274078
196.898936	5763.941667	1636.794922	234.995621
196.898936	5763.941667	1635.761719	254.949173
196.898936	5763.941667	1634.729492	291.091980
196.898936	5763.941667	1633.696289	320.273590
196.898936	5763.941667	1632.662109	275.425049
196.898936	5763.941667	1631.628906	281.468872
196.898936	5763.941667	1630.594727	232.017395
196.898936	5763.941667	1629.561523	376.753876
196.898936	5763.941667	1628.527344	239.479126
196.898936	5763.941667	1627.493164	164.643311
196.898936	5763.941667	1626.458008	198.409225
196.898936	5763.941667	1625.423828	167.493378
196.898936	5763.941667	1624.388672	367.511963
196.898936	5763.941667	1623.353516	375.821442
196.898936	5763.941667	1622.318359	349.502716
196.898936	5763.941667	1621.282227	258.569153
196.898936	5763.941667	1620.247070	326.891571
196.898936	5763.941667	1619.210938	450.553436
196.898936	5763.941667	1618.174805	366.577728
196.898936	5763.941667	1617.137695	344.898224
196.898936	5763.941667	1616.101563	244.841248
196.898936	5763.941667	1615.064453	458.332153
196.898936	5763.941667	1614.027344	282.236176
196.898936	5763.941667	1612.990234	389.644958
196.898936	5763.941667	1611.953125	326.528534
196.898936	5763.941667	1610.916016	300.295502
196.898936	5763.941667	1609.877930	356.981232
196.898936	5763.941667	1608.839844	316.943085
196.898936	5763.941667	1607.801758	375.915802
196.898936	5763.941667	1606.763672	287.566681
196.898936	5763.941667	1605.724609	360.336456
196.898936	5763.941667	1604.685547	502.106903
196.898936	5763.941667	1603.646484	351.691803
196.898936	5763.941667	1602.607422	387.629608
196.898936	5763.941667	1601.568359	446.554413
196.898936	5763.941667	1600.528320	553.738037
196.898936	5763.941667	1599.489258	518.385010
196.898936	5763.941667	1598.449219	425.599518
196.898936	5763.941667	1597.408203	429.353699
196.898936	5763.941667	1596.368164	568.651306
196.898936	5763.941667	1595.327148	528.757263
196.898936	5763.941667	1594.287109	509.558655
196.898936	5763.941667	1593.246094	451.345428
196.898936	5763.941667	1592.204102	498.747772
196.898936	5763.941667	1591.163086	582.864563
196.898936	5763.941667	1590.121094	327.376495
196.898936	5763.941667	1589.079102	773.965881
196.898936	5763.941667	1588.037109	525.443665
196.898936	5763.941667	1586.995117	540.738831
196.898936	5763.941667	1585.953125	503.309235
196.898936	5763.941667	1584.910156	514.040100
196.898936	5763.941667	1583.867188	362.063995
196.898936	5763.941667	1582.824219	420.962280
196.898936	5763.941667	1581.781250	374.471130
196.898936	5763.941667	1580.737305	479.176453
196.898936	5763.941667	1579.693359	368.597504
196.898936	5763.941667	1578.649414	436.659882
196.898936	5763.941667	1577.605469	543.625122
196.898936	5763.941667	1576.561523	469.762054
196.898936	5763.941667	1575.516602	453.144562
196.898936	5763.941667	1574.472656	466.293915
196.898936	5763.941667	1573.427734	317.053711
196.898936	5763.941667	1572.381836	391.994659
196.898936	5763.941667	1571.336914	437.204346
196.898936	5763.941667	1570.291016	432.119232
196.898936	5763.941667	1569.246094	333.352203
196.898936	5763.941667	1568.200195	385.451233
196.898936	5763.941667	1567.153320	423.836548
196.898936	5763.941667	1566.107422	430.251801
196.898936	5763.941667	1565.060547	292.806549
196.898936	5763.941667	1564.013672	82.370743
196.898936	5763.941667	1562.966797	330.879761
196.898936	5763.941667	1561.919922	179.899826
196.898936	5763.941667	1560.872070	298.260376
196.898936	5763.941667	1559.825195	268.303375
196.898936	5763.941667	1558.777344	279.434082
196.898936	5763.941667	1557.729492	110.417328
196.898936	5763.941667	1556.680664	73.731575
196.898936	5763.941667	1555.632813	169.305573
196.898936	5763.941667	1554.583984	175.971420
196.898936	5763.941667	1553.535156	178.099396
196.898936	5763.941667	1552.486328	166.578918
196.898936	5763.941667	1551.436523	227.974960
196.898936	5763.941667	1550.387695	170.947006
196.898936	5763.941667	1549.337891	230.087616
196.898936	5763.941667	1548.288086	286.951996
196.898936	5763.941667	1547.238281	43.375866
196.898936	5763.941667	1546.187500	170.844223
196.898936	5763.941667	1545.136719	139.024475
196.898936	5763.941667	1544.086914	129.992172
196.898936	5763.941667	1543.035156	198.308380
196.898936	5763.941667	1541.984375	189.315842
196.898936	5763.941667	1540.933594	89.417084
196.898936	5763.941667	1539.881836	246.422455
196.898936	5763.941667	1538.830078	351.125183
196.898936	5763.941667	1537.778320	180.895615
196.898936	5763.941667	1536.725586	185.669678
196.898936	5763.941667	1535.673828	210.912720
196.898936	5763.941667	1534.621094	68.137947
196.898936	5763.941667	1533.568359	297.768311
196.898936	5763.941667	1532.515625	293.546234
196.898936	5763.941667	1531.461914	271.196350
196.898936	5763.941667	1530.409180	-30.189362
196.898936	5763.941667	1529.355469	70.086670
196.898936	5763.941667	1528.301758	159.012192
196.898936	5763.941667	1527.247070	272.871979
196.898936	5763.941667	1526.193359	51.185562
196.898936	5763.941667	1525.138672	38.147266
196.898936	5763.941667	1524.083984	77.266708
196.898936	5763.941667	1523.029297	84.679840
196.898936	5763.941667	1521.974609	6.037746
196.898936	5763.941667	1520.918945	122.234230
196.898936	5763.941667	1519.863281	52.732388
196.898936	5763.941667	1518.807617	-16.711224
196.898936	5763.941667	1517.751953	58.769798
196.898936	5763.941667	1516.696289	39.202984
196.898936	5763.941667	1515.639648	6.097025
196.898936	5763.941667	1514.583008	29.590643
196.898936	5763.941667	1513.526367	37.274353
196.898936	5763.941667	1512.469727	-25.112404
196.898936	5763.941667	1511.412109	34.641315
196.898936	5763.941667	1510.355469	114.749435
196.898936	5763.941667	1509.297852	11.800691
196.898936	5763.941667	1508.240234	-11.992179
196.898936	5763.941667	1507.181641	74.949562
196.898936	5763.941667	1506.124023	48.961647
196.898936	5763.941667	1505.065430	115.599846
196.898936	5763.941667	1504.006836	-25.463280
196.898936	5763.941667	1502.948242	68.317841
196.898936	5763.941667	1501.888672	98.903435
196.898936	5763.941667	1500.830078	174.640610
196.898936	5763.941667	1499.770508	-2.282705
196.898936	5763.941667	1498.710938	87.044151
196.898936	5763.941667	1497.650391	-10.798352
196.898936	5763.941667	1496.590820	-95.038086
196.898936	5763.941667	1495.530273	-30.438047
196.898936	5763.941667	1494.469727	-78.513008
196.898936	5763.941667	1493.409180	-70.202301
196.898936	5763.941667	1492.348633	-52.848072
196.898936	5763.941667	1491.287109	95.168411
196.898936	5763.941667	1490.225586	-65.346481
196.898936	5763.941667	1489.164063	-104.183640
196.898936	5763.941667	1488.102539	25.854799
196.898936	5763.941667	1487.041016	-116.437599
196.898936	5763.941667	1485.978516	-197.886276
196.898936	5763.941667	1484.916016	-117.284653
196.898936	5763.941667	1483.853516	6.044131
196.898936	5763.941667	1482.791016	-142.731857
196.898936	5763.941667	1481.727539	-156.507751
196.898936	5763.941667	1480.664063	-132.030746
196.898936	5763.941667	1479.600586	-10.911108
196.898936	5763.941667	1478.537109	-29.085258
196.898936	5763.941667	1477.473633	-112.348534
196.898936	5763.941667	1476.409180	-69.791229
196.898936	5763.941667	1475.344727	-117.024483
196.898936	5763.941667	1474.280273	-186.557983
196.898936	5763.941667	1473.215820	-177.666580
196.898936	5763.941667	1472.151367	35.559967
196.898936	5763.941667	1471.085938	-22.617891
196.898936	5763.941667	1470.020508	-103.245575
196.898936	5763.941667	1468.955078	125.376678
196.898936	5763.941667	1467.888672	47.183746
196.898936	5763.941667	1466.823242	60.708424
196.898936	5763.941667	1465.756836	-55.363171
196.898936	5763.941667	1464.690430	45.670425
196.898936	5763.941667	1463.624023	23.540207
196.898936	5763.941667	1462.556641	28.475159
196.898936	5763.941667	1461.490234	-6.827260
196.898936	5763.941667	1460.422852	78.505943
196.898936	5763.941667	1459.355469	56.263432
196.898936	5763.941667	1458.287109	15.181151
196.898936	5763.941667	1457.219727	97.969452
196.898936	5763.941667	1456.151367	179.076782
196.898936	5763.941667	1455.083008	161.731613
196.898936	5763.941667	1454.014648	37.600452
196.898936	5763.941667	1452.945313	17.880835
196.898936	5763.941667	1451.876953	107.791519
196.898936	5763.941667	1450.807617	131.187073
196.898936	5763.941667	1449.738281	185.487656
196.898936	5763.941667	1448.668945	226.035538
196.898936	5763.941667	1447.598633	84.451271
196.898936	5763.941667	1446.528320	209.931274
196.898936	5763.941667	1445.458008	122.428154
196.898936	5763.941667	1444.387695	131.880875
196.898936	5763.941667	1443.317383	230.403656
196.898936	5763.941667	1442.246094	78.522522
196.898936	5763.941667	1441.174805	240.102112
196.898936	5763.941667	1440.103516	182.854309
196.898936	5763.941667	1439.032227	203.496384
196.898936	5763.941667	1437.960938	268.385712
196.898936	5763.941667	1436.888672	153.538696
196.898936	5763.941667	1435.816406	331.253418
196.898936	5763.941667	1434.744141	328.566406
196.898936	5763.941667	1433.670898	258.328644
196.898936	5763.941667	1432.598633	327.737061
196.898936	5763.941667	1431.525391	123.789993
196.898936	5763.941667	1430.452148	56.628605
196.898936	5763.941667	1429.378906	161.154190
196.898936	5763.941667	1428.304688	282.181763
196.898936	5763.941667	1427.231445	53.202740
196.898936	5763.941667	1426.157227	124.873100
196.898936	5763.941667	1425.083008	-6.611537
196.898936	5763.941667	1424.007813	20.574209
196.898936	5763.941667	1422.933594	126.160240
196.898936	5763.941667	1421.858398	-38.334885
196.898936	5763.941667	1420.783203	107.691025
196.898936	5763.941667	1419.708008	51.864838
196.898936	5763.941667	1418.631836	-11.279392
196.898936	5763.941667	1417.555664	38.254452
196.898936	5763.941667	1416.479492	28.151344
196.898936	5763.941667	1415.403320	118.211967
196.898936	5763.941667	1414.327148	27.918156
196.898936	5763.941667	1413.250000	52.706467
196.898936	5763.941667	1412.173828	-2.941977
196.898936	5763.941667	1411.096680	60.056992
196.898936	5763.941667	1410.018555	-75.535400
196.898936	5763.941667	1408.941406	108.080116
196.898936	5763.941667	1407.863281	-109.336800
196.898936	5763.941667	1406.785156	62.305786
196.898936	5763.941667	1405.707031	1.486279
196.898936	5763.941667	1404.628906	53.452110
196.898936	5763.941667	1403.549805	35.675278
196.898936	5763.941667	1402.470703	139.939957
196.898936	5763.941667	1401.391602	39.413971
196.898936	5763.941667	1400.312500	44.106480
196.898936	5763.941667	1399.233398	7.204360
196.898936	5763.941667	1398.153320	236.406815
196.898936	5763.941667	1397.073242	16.537861
196.898936	5763.941667	1395.993164	120.182816
196.898936	5763.941667	1394.913086	90.101303
196.898936	5763.941667	1393.832031	43.290977
196.898936	5763.941667	1392.750977	183.525436
196.898936	5763.941667	1391.669922	42.977863
196.898936	5763.941667	1390.588867	11.791173
196.898936	5763.941667	1389.506836	-41.947495
196.898936	5763.941667	1388.425781	-18.226332
196.898936	5763.941667	1387.343750	-43.282986
196.898936	5763.941667	1386.261719	89.073891
196.898936	5763.941667	1385.178711	-40.215908
196.898936	5763.941667	1384.096680	21.036407
196.898936	5763.941667	1383.013672	-86.871895
196.898936	5763.941667	1381.930664	193.419830
196.898936	5763.941667	1380.846680	89.862732
196.898936	5763.941667	1379.763672	-56.593449
196.898936	5763.941667	1378.679688	-127.079414
196.898936	5763.941667	1377.595703	130.603241
196.898936	5763.941667	1376.511719	100.524628
196.898936	5763.941667	1375.427734	57.505867
196.898936	5763.941667	1374.342773	123.082253
196.898936	5763.941667	1373.257813	165.130768
196.898936	5763.941667	1372.172852	-40.914707
196.898936	5763.941667	1371.087891	-74.649574
196.898936	5763.941667	1370.001953	75.216957
196.898936	5763.941667	1368.916992	-138.809860
196.898936	5763.941667	1367.831055	102.503159
196.898936	5763.941667	1366.744141	-5.755256
196.898936	5763.941667	1365.658203	38.790112
196.898936	5763.941667	1364.571289	79.018097
196.898936	5763.941667	1363.484375	58.828335
196.898936	5763.941667	1362.397461	110.979416
196.898936	5763.941667	1361.310547	54.369553
196.898936	5763.941667	1360.222656	65.205795
196.898936	5763.941667	1359.135742	99.841019
196.898936	5763.941667	1358.047852	-100.776268
196.898936	5763.941667	1356.958984	106.782013
196.898936	5763.941667	1355.871094	89.946213
196.898936	5763.941667	1354.782227	-14.968799
196.898936	5763.941667	1353.693359	88.343575
196.898936	5763.941667	1352.604492	126.654099
196.898936	5763.941667	1351.515625	159.990875
196.898936	5763.941667	1350.425781	162.725235
196.898936	5763.941667	1349.335938	39.233482
196.898936	5763.941667	1348.246094	115.963631
196.898936	5763.941667	1347.156250	152.674225
196.898936	5763.941667	1346.066406	89.071098
196.898936	5763.941667	1344.975586	130.146301
196.898936	5763.941667	1343.884766	33.145630
196.898936	5763.941667	1342.793945	180.467285
196.898936	5763.941667	1341.702148	129.686890
196.898936	5763.941667	1340.611328	28.446455
196.898936	5763.941667	1339.519531	87.405281
196.898936	5763.941667	1338.427734	46.828094
196.898936	5763.941667	1337.334961	-15.383224
196.898936	5763.941667	1336.243164	87.389191
196.898936	5763.941667	1335.150391	-18.448555
196.898936	5763.941667	1334.057617	0.957980
196.898936	5763.941667	1332.964844	4.581203
196.898936	5763.941667	1331.871094	76.219597
196.898936	5763.941667	1330.778320	121.776924
196.898936	5763.941667	1329.684570	169.253250
196.898936	5763.941667	1328.590820	89.933578
196.898936	5763.941667	1327.496094	93.574966
196.898936	5763.941667	1326.402344	136.665955
196.898936	5763.941667	1325.307617	118.545639
196.898936	5763.941667	1324.212891	176.767014
196.898936	5763.941667	1323.117188	78.480263
196.898936	5763.941667	1322.022461	72.309998
196.898936	5763.941667	1320.926758	113.775658
196.898936	5763.941667	1319.831055	47.376911
196.898936	5763.941667	1318.735352	212.728714
196.898936	5763.941667	1317.638672	179.764099
196.898936	5763.941667	1316.542969	68.030792
196.898936	5763.941667	1315.446289	147.131927
196.898936	5763.941667	1314.349609	236.246262
196.898936	5763.941667	1313.251953	190.807373
196.898936	5763.941667	1312.155273	223.600143
196.898936	5763.941667	1311.057617	165.529129
196.898936	5763.941667	1309.959961	191.072327
196.898936	5763.941667	1308.862305	218.806595
196.898936	5763.941667	1307.763672	121.860931
196.898936	5763.941667	1306.665039	111.181519
196.898936	5763.941667	1305.566406	169.686050
196.898936	5763.941667	1304.467773	223.425049
196.898936	5763.941667	1303.369141	74.104759
196.898936	5763.941667	1302.269531	40.839611
196.898936	5763.941667	1301.169922	158.938980
196.898936	5763.941667	1300.070313	86.605728
196.898936	5763.941667	1298.970703	83.992882
196.898936	5763.941667	1297.870117	158.592865
196.898936	5763.941667	1296.769531	174.271133
196.898936	5763.941667	1295.668945	116.700752
196.898936	5763.941667	1294.568359	128.169525
196.898936	5763.941667	1293.466797	7.657726
196.898936	5763.941667	1292.366211	103.346092
196.898936	5763.941667	1291.264648	11.762821
196.898936	5763.941667	1290.162109	137.939896
196.898936	5763.941667	1289.060547	267.522858
196.898936	5763.941667	1287.958008	240.716675
196.898936	5763.941667	1286.855469	141.670929
196.898936	5763.941667	1285.752930	137.542526
196.898936	5763.941667	1284.650391	110.603653
196.898936	5763.941667	1283.546875	280.206757
196.898936	5763.941667	1282.444336	168.234039
196.898936	5763.941667	1281.339844	63.521721
196.898936	5763.941667	1280.236328	58.247646
196.898936	5763.941667	1279.132813	71.298454
196.898936	5763.941667	1278.028320	27.083773
196.898936	5763.941667	1276.923828	8.200275
196.898936	5763.941667	1275.819336	-0.971948
196.898936	5763.941667	1274.713867	-53.094521
196.898936	5763.941667	1273.608398	-40.105965
196.898936	5763.941667	1272.503906	-52.682640
196.898936	5763.941667	1271.397461	-88.803909
196.898936	5763.941667	1270.291992	-33.093994
196.898936	5763.941667	1269.185547	63.450871
196.898936	5763.941667	1268.080078	11.246760
196.898936	5763.941667	1266.972656	14.339806
196.898936	5763.941667	1265.866211	-3.283962
196.898936	5763.941667	1264.759766	27.068872
196.898936	5763.941667	1263.652344	75.569786
196.898936	5763.941667	1262.544922	-78.616318
196.898936	5763.941667	1261.436523	42.694748
196.898936	5763.941667	1260.329102	-49.256836
196.898936	5763.941667	1259.220703	100.345345
196.898936	5763.941667	1258.112305	-75.944679
196.898936	5763.941667	1257.003906	42.327904
196.898936	5763.941667	1255.895508	-21.559351
196.898936	5763.941667	1254.786133	30.381987
196.898936	5763.941667	1253.676758	179.728378
196.898936	5763.941667	1252.567383	85.548424
196.898936	5763.941667	1251.458008	63.618198
196.898936	5763.941667	1250.347656	108.592186
196.898936	5763.941667	1249.237305	101.509224
196.898936	5763.941667	1248.126953	111.269936
196.898936	5763.941667	1247.016602	-22.970192
196.898936	5763.941667	1245.905273	27.698708
196.898936	5763.941667	1244.793945	9.330606
196.898936	5763.941667	1243.682617	-83.147026
196.898936	5763.941667	1242.571289	-8.386803
196.898936	5763.941667	1241.459961	34.396179
196.898936	5763.941667	1240.347656	-30.944845
196.898936	5763.941667	1239.235352	-59.468708
196.898936	5763.941667	1238.123047	10.472767
196.898936	5763.941667	1237.009766	23.745039
196.898936	5763.941667	1235.897461	-44.212681
196.898936	5763.941667	1234.784180	-96.938263
196.898936	5763.941667	1233.670898	-15.590638
196.898936	5763.941667	1232.556641	-38.481102
196.898936	5763.941667	1231.443359	-67.512253
196.898936	5763.941667	1230.329102	-4.544202
196.898936	5763.941667	1229.214844	-131.466843
196.898936	5763.941667	1228.099609	-104.514816
196.898936	5763.941667	1226.985352	-47.120975
196.898936	5763.941667	1225.870117	-25.346115
196.898936	5763.941667	1224.754883	-80.425346
196.898936	5763.941667	1223.639648	-99.350128
196.898936	5763.941667	1222.523438	-139.148056
196.898936	5763.941667	1221.408203	43.479965
196.898936	5763.941667	1220.291992	32.101551
196.898936	5763.941667	1219.174805	-36.181492
196.898936	5763.941667	1218.058594	-17.911392
196.898936	5763.941667	1216.941406	-38.539558
196.898936	5763.941667	1215.824219	-31.147776
196.898936	5763.941667	1214.707031	11.866265
196.898936	5763.941667	1213.589844	-92.897087
196.898936	5763.941667	1212.471680	-30.733480
196.898936	5763.941667	1211.353516	-171.977127
196.898936	5763.941667	1210.235352	-11.603844
196.898936	5763.941667	1209.117188	-62.563072
196.898936	5763.941667	1207.998047	-105.954185
196.898936	5763.941667	1206.878906	-11.703667
196.898936	5763.941667	1205.759766	-28.214073
196.898936	5763.941667	1204.640625	-82.007118
196.898936	5763.941667	1203.520508	9.230911
196.898936	5763.941667	1202.401367	7.449084
196.898936	5763.941667	1201.281250	-69.297722
196.898936	5763.941667	1200.160156	-33.843719
196.898936	5763.941667	1199.040039	-49.937069
196.898936	5763.941667	1197.918945	-126.424774
196.898936	5763.941667	1196.797852	-48.438339
196.898936	5763.941667	1195.676758	-138.071228
196.898936	5763.941667	1194.555664	-70.213310
196.898936	5763.941667	1193.433594	63.960327
196.898936	5763.941667	1192.311523	-71.018707
196.898936	5763.941667	1191.189453	-2.622782
196.898936	5763.941667	1190.066406	-51.258453
196.898936	5763.941667	1188.944336	-9.387636
196.898936	5763.941667	1187.821289	-75.669426
196.898936	5763.941667	1186.698242	-51.112225
196.898936	5763.941667	1185.574219	-44.294956
196.898936	5763.941667	1184.451172	-79.213173
196.898936	5763.941667	1183.327148	-36.455711
196.898936	5763.941667	1182.203125	-6.460126
196.898936	5763.941667	1181.078125	-78.729691
196.898936	5763.941667	1179.954102	12.298213
196.898936	5763.941667	1178.829102	-75.733360
196.898936	5763.941667	1177.704102	15.324490
196.898936	5763.941667	1176.579102	-13.967868
196.898936	5763.941667	1175.453125	-99.793427
196.898936	5763.941667	1174.327148	-47.471024
196.898936	5763.941667	1173.201172	-10.639999
196.898936	5763.941667	1172.075195	-15.833723
196.898936	5763.941667	1170.949219	109.298218
196.898936	5763.941667	1169.822266	-56.736279
196.898936	5763.941667	1168.695313	22.283546
196.898936	5763.941667	1167.568359	-28.488178
196.898936	5763.941667	1166.440430	147.420776
196.898936	5763.941667	1165.313477	66.014687
196.898936	5763.941667	1164.185547	52.998413
196.898936	5763.941667	1163.057617	13.243650
196.898936	5763.941667	1161.928711	-6.166081
196.898936	5763.941667	1160.800781	-62.886086
196.898936	5763.941667	1159.671875	77.832863
196.898936	5763.941667	1158.541992	69.355324
196.898936	5763.941667	1157.413086	-6.626279
196.898936	5763.941667	1156.283203	58.103039
196.898936	5763.941667	1155.154297	25.167873
196.898936	5763.941667	1154.023438	29.630440
196.898936	5763.941667	1152.893555	41.500023
196.898936	5763.941667	1151.763672	21.696526
196.898936	5763.941667	1150.632813	3.297029
196.898936	5763.941667	1149.501953	-18.432573
196.898936	5763.941667	1148.370117	-105.694519
196.898936	5763.941667	1147.239258	-62.710709
196.898936	5763.941667	1146.107422	100.227791
196.898936	5763.941667	1144.975586	10.995317
196.898936	5763.941667	1143.843750	101.056114
196.898936	5763.941667	1142.710938	3.430061
196.898936	5763.941667	1141.578125	-56.214996
196.898936	5763.941667	1140.445313	56.979225
196.898936	5763.941667	1139.312500	16.399328
196.898936	5763.941667	1138.178711	39.912819
196.898936	5763.941667	1137.045898	17.299973
196.898936	5763.941667	1135.912109	49.603024
196.898936	5763.941667	1134.777344	110.813049
196.898936	5763.941667	1133.643555	45.501411
196.898936	5763.941667	1132.508789	129.845047
196.898936	5763.941667	1131.374023	196.573456
196.898936	5763.941667	1130.239258	140.612808
196.898936	5763.941667	1129.104492	95.425415
196.898936	5763.941667	1127.968750	47.515877
196.898936	5763.941667	1126.833008	180.223618
196.898936	5763.941667	1125.697266	137.429413
196.898936	5763.941667	1124.560547	107.073883
196.898936	5763.941667	1123.424805	82.275520
196.898936	5763.941667	1122.288086	113.372658
196.898936	5763.941667	1121.151367	24.831259
196.898936	5763.941667	1120.013672	187.749603
196.898936	5763.941667	1118.876953	172.593002
196.898936	5763.941667	1117.739258	62.470676
196.898936	5763.941667	1116.601563	61.794449
196.898936	5763.941667	1115.462891	29.686481
196.898936	5763.941667	1114.324219	76.285194
196.898936	5763.941667	1113.186523	56.851620
196.898936	5763.941667	1112.046875	119.030617
196.898936	5763.941667	1110.908203	129.278763
196.898936	5763.941667	1109.769531	44.290474
196.898936	5763.941667	1108.629883	89.441734
196.898936	5763.941667	1107.490234	24.953579
196.898936	5763.941667	1106.349609	41.286453
196.898936	5763.941667	1105.209961	107.415298
196.898936	5763.941667	1104.069336	11.579403
196.898936	5763.941667	1102.928711	133.138535
196.898936	5763.941667	1101.787109	45.402199
196.898936	5763.941667	1100.646484	143.241959
196.898936	5763.941667	1099.504883	113.831551
196.898936	5763.941667	1098.363281	119.865784
196.898936	5763.941667	1097.221680	127.603889
196.898936	5763.941667	1096.079102	78.389008
196.898936	5763.941667	1094.936523	92.676735
196.898936	5763.941667	1093.793945	184.214111
196.898936	5763.941667	1092.651367	200.905396
196.898936	5763.941667	1091.507813	59.568787
196.898936	5763.941667	1090.364258	116.830833
196.898936	5763.941667	1089.220703	194.476669
196.898936	5763.941667	1088.077148	-9.186598
196.898936	5763.941667	1086.933594	74.033394
196.898936	5763.941667	1085.789063	95.066101
196.898936	5763.941667	1084.644531	23.062080
196.898936	5763.941667	1083.499023	78.258865
196.898936	5763.941667	1082.354492	121.296577
196.898936	5763.941667	1081.208984	23.824102
196.898936	5763.941667	1080.063477	63.614635
196.898936	5763.941667	1078.917969	69.464073
196.898936	5763.941667	1077.771484	27.443848
196.898936	5763.941667	1076.625977	94.247971
196.898936	5763.941667	1075.479492	99.571075
196.898936	5763.941667	1074.332031	179.547394
196.898936	5763.941667	1073.185547	-6.390211
196.898936	5763.941667	1072.038086	67.026550
196.898936	5763.941667	1070.890625	31.992393
196.898936	5763.941667	1069.743164	172.653320
196.898936	5763.941667	1068.594727	110.724220
196.898936	5763.941667	1067.447266	-117.439514
196.898936	5763.941667	1066.298828	-88.087318
196.898936	5763.941667	1065.149414	5.712899
196.898936	5763.941667	1064.000977	167.175034
196.898936	5763.941667	1062.851563	85.652565
196.898936	5763.941667	1061.702148	-14.821742
196.898936	5763.941667	1060.552734	133.711105
196.898936	5763.941667	1059.402344	107.149498
196.898936	5763.941667	1058.252930	-86.817917
196.898936	5763.941667	1057.102539	125.542580
196.898936	5763.941667	1055.951172	50.226101
196.898936	5763.941667	1054.800781	50.363773
196.898936	5763.941667	1053.649414	20.346958
196.898936	5763.941667	1052.498047	23.951204
196.898936	5763.941667	1051.346680	22.877230
196.898936	5763.941667	1050.194336	42.545277
196.898936	5763.941667	1049.042969	-10.120883
196.898936	5763.941667	1047.890625	-29.004938
196.898936	5763.941667	1046.738281	205.059372
196.898936	5763.941667	1045.584961	-19.193802
196.898936	5763.941667	1044.431641	-2.720237
196.898936	5763.941667	1043.278320	-9.611197
196.898936	5763.941667	1042.125000	75.599670
196.898936	5763.941667	1040.971680	138.825500
196.898936	5763.941667	1039.817383	58.876541
196.898936	5763.941667	1038.663086	65.738998
196.898936	5763.941667	1037.508789	112.163902
196.898936	5763.941667	1036.353516	18.392612
196.898936	5763.941667	1035.198242	21.280031
196.898936	5763.941667	1034.042969	35.853069
196.898936	5763.941667	1032.887695	76.932091
196.898936	5763.941667	1031.732422	152.456116
196.898936	5763.941667	1030.576172	116.604446
196.898936	5763.941667	1029.419922	172.501083
196.898936	5763.941667	1028.263672	73.372673
196.898936	5763.941667	1027.106445	108.354996
196.898936	5763.941667	1025.949219	-63.235989
196.898936	5763.941667	1024.792969	22.143270
196.898936	5763.941667	1023.634766	132.755447
196.898936	5763.941667	1022.477539	188.572845
196.898936	5763.941667	1021.319336	64.991455
196.898936	5763.941667	1020.161133	108.487442
196.898936	5763.941667	1019.002930	-31.856115
196.898936	5763.941667	1017.843750	40.476368
196.898936	5763.941667	1016.684570	30.956238
196.898936	5763.941667	1015.525391	-97.038506
196.898936	5763.941667	1014.366211	16.606470
196.898936	5763.941667	1013.207031	45.046997
196.898936	5763.941667	1012.046875	99.503181
196.898936	5763.941667	1010.886719	141.100250
196.898936	5763.941667	1009.726563	40.421780
196.898936	5763.941667	1008.565430	70.880219
196.898936	5763.941667	1007.404297	168.459244
196.898936	5763.941667	1006.243164	106.805893
196.898936	5763.941667	1005.082031	83.500328
196.898936	5763.941667	1003.920898	270.823883
196.898936	5763.941667	1002.758789	6.730453
196.898936	5763.941667	1001.596680	-14.018888
196.898936	5763.941667	1000.433594	109.691841
196.898936	5763.941667	999.271484	223.976624
196.898936	5763.941667	998.108398	-36.218330
196.898936	5763.941667	996.945313	66.096153
196.898936	5763.941667	995.782227	-57.056408
196.898936	5763.941667	994.618164	-85.272011
196.898936	5763.941667	993.454102	74.065010
196.898936	5763.941667	992.290039	-8.106775
196.898936	5763.941667	991.125977	32.236637
196.898936	5763.941667	989.960938	166.815125
196.898936	5763.941667	988.796875	60.509499
196.898936	5763.941667	987.630859	44.612957
196.898936	5763.941667	986.465820	-59.222214
196.898936	5763.941667	985.300781	46.769745
196.898936	5763.941667	984.134766	37.767632
196.898936	5763.941667	982.968750	70.713402
196.898936	5763.941667	981.801758	121.433792
196.898936	5763.941667	980.635742	129.400589
196.898936	5763.941667	979.468750	175.583069
196.898936	5763.941667	978.301758	101.177635
196.898936	5763.941667	977.133789	55.446507
196.898936	5763.941667	975.966797	59.659920
196.898936	5763.941667	974.798828	124.705513
196.898936	5763.941667	973.630859	0.676702
196.898936	5763.941667	972.461914	-16.345966
196.898936	5763.941667	971.293945	128.049423
196.898936	5763.941667	970.125000	57.995552
196.898936	5763.941667	968.956055	-4.466379
196.898936	5763.941667	967.786133	-27.226076
196.898936	5763.941667	966.617188	-16.250929
196.898936	5763.941667	965.447266	-109.143219
196.898936	5763.941667	964.276367	-54.557671
196.898936	5763.941667	963.106445	-26.679384
196.898936	5763.941667	961.935547	82.602188
196.898936	5763.941667	960.764648	73.878624
196.898936	5763.941667	959.593750	70.012321
196.898936	5763.941667	958.422852	-58.979538
196.898936	5763.941667	957.250977	-68.485794
196.898936	5763.941667	956.079102	-33.860619
196.898936	5763.941667	954.907227	-18.209887
196.898936	5763.941667	953.734375	-77.383392
196.898936	5763.941667	952.562500	-39.958637
196.898936	5763.941667	951.389648	76.140076
196.898936	5763.941667	950.215820	-64.890411
196.898936	5763.941667	949.042969	85.478897
196.898936	5763.941667	947.869141	-74.962975
196.898936	5763.941667	946.695313	-30.454407
196.898936	5763.941667	945.521484	-24.756063
196.898936	5763.941667	944.346680	185.889603
196.898936	5763.941667	943.172852	23.256323
196.898936	5763.941667	941.998047	17.064650
196.898936	5763.941667	940.822266	92.339546
196.898936	5763.941667	939.647461	-87.347847
196.898936	5763.941667	938.471680	-33.463543
196.898936	5763.941667	937.295898	3.640371
196.898936	5763.941667	936.119141	95.914246
196.898936	5763.941667	934.943359	19.754009
196.898936	5763.941667	933.766602	8.595904
196.898936	5763.941667	932.589844	-7.338382
196.898936	5763.941667	931.413086	56.020565
196.898936	5763.941667	930.235352	141.070313
196.898936	5763.941667	929.057617	129.859711
196.898936	5763.941667	927.879883	145.091965
196.898936	5763.941667	926.702148	100.168518
196.898936	5763.941667	925.523438	62.449295
196.898936	5763.941667	924.344727	-25.765825
196.898936	5763.941667	923.166016	-32.199436
196.898936	5763.941667	921.987305	14.263281
196.898936	5763.941667	920.807617	-49.883991
196.898936	5763.941667	919.627930	-48.168503
196.898936	5763.941667	919.497070	-161.892868
196.898936	5763.941667	918.331055	14.277461
196.898936	5763.941667	917.165039	53.427620
196.898936	5763.941667	915.999023	20.493212
196.898936	5763.941667	914.833008	47.600281
196.898936	5763.941667	913.666016	-38.157452
196.898936	5763.941667	912.499023	-102.285225
196.898936	5763.941667	911.332031	28.005602
196.898936	5763.941667	910.165039	-88.916267
196.898936	5763.941667	908.997070	58.096088
196.898936	5763.941667	907.830078	65.922348
196.898936	5763.941667	906.661133	-125.299149
196.898936	5763.941667	905.493164	-16.756432
196.898936	5763.941667	904.325195	46.189095
196.898936	5763.941667	903.156250	-44.280056
196.898936	5763.941667	901.987305	54.571171
196.898936	5763.941667	900.818359	-107.748383
196.898936	5763.941667	899.648438	-4.149486
196.898936	5763.941667	898.478516	51.505764
196.898936	5763.941667	897.308594	30.517221
196.898936	5763.941667	896.138672	-124.515945
196.898936	5763.941667	894.968750	77.088921
196.898936	5763.941667	893.797852	-101.832397
196.898936	5763.941667	892.626953	25.512314
196.898936	5763.941667	891.456055	128.879944
196.898936	5763.941667	890.284180	69.595497
196.898936	5763.941667	889.113281	-63.786819
196.898936	5763.941667	887.941406	120.781387
196.898936	5763.941667	886.768555	51.952961
196.898936	5763.941667	885.596680	7.036064
196.898936	5763.941667	884.423828	17.073177
196.898936	5763.941667	883.250977	146.512833
196.898936	5763.941667	882.078125	22.784266
196.898936	5763.941667	880.905273	35.175587
196.898936	5763.941667	879.731445	-12.115715
196.898936	5763.941667	878.557617	50.376492
196.898936	5763.941667	877.383789	67.504288
196.898936	5763.941667	876.209961	58.378040
196.898936	5763.941667	875.035156	63.558495
196.898936	5763.941667	873.860352	106.878990
196.898936	5763.941667	872.685547	-35.770321
196.898936	5763.941667	871.510742	2.770744
196.898936	5763.941667	870.334961	72.267479
196.898936	5763.941667	869.159180	-39.337387
196.898936	5763.941667	867.983398	39.651970
196.898936	5763.941667	866.807617	99.550011
196.898936	5763.941667	865.630859	-26.299377
196.898936	5763.941667	864.454102	0.246260
196.898936	5763.941667	863.277344	-4.166581
196.898936	5763.941667	862.100586	-163.253708
196.898936	5763.941667	860.922852	-58.210346
196.898936	5763.941667	859.745117	-79.279747
196.898936	5763.941667	858.567383	28.065928
196.898936	5763.941667	857.389648	152.003433
196.898936	5763.941667	856.210938	31.044556
196.898936	5763.941667	855.032227	-9.068104
196.898936	5763.941667	853.853516	-6.402419
196.898936	5763.941667	852.674805	-132.028214
196.898936	5763.941667	851.495117	-105.601219
196.898936	5763.941667	850.315430	68.034271
196.898936	5763.941667	849.135742	101.515945
196.898936	5763.941667	847.956055	104.119194
196.898936	5763.941667	846.775391	18.906996
196.898936	5763.941667	845.595703	-73.397049
196.898936	5763.941667	844.415039	-94.503876
196.898936	5763.941667	843.233398	21.950254
196.898936	5763.941667	842.052734	-70.319824
196.898936	5763.941667	840.871094	-13.202330
196.898936	5763.941667	839.689453	22.551258
196.898936	5763.941667	838.506836	119.897430
196.898936	5763.941667	837.325195	-5.517282
196.898936	5763.941667	836.142578	-21.922962
196.898936	5763.941667	834.959961	72.979721
196.898936	5763.941667	833.777344	37.606262
196.898936	5763.941667	832.593750	-33.269497
196.898936	5763.941667	831.410156	-11.817944
196.898936	5763.941667	830.226563	68.775345
196.898936	5763.941667	829.042969	-21.014071
196.898936	5763.941667	827.858398	-94.216591
196.898936	5763.941667	826.673828	-37.328266
196.898936	5763.941667	825.489258	-67.954597
196.898936	5763.941667	824.304688	-93.848549
196.898936	5763.941667	823.120117	-25.203514
196.898936	5763.941667	821.934570	-48.748180
196.898936	5763.941667	820.749023	43.467728
196.898936	5763.941667	819.562500	41.159843
196.898936	5763.941667	818.376953	-95.759972
196.898936	5763.941667	817.190430	-88.611389
196.898936	5763.941667	816.003906	-74.392853
196.898936	5763.941667	814.817383	-76.708405
196.898936	5763.941667	813.629883	-10.605639
196.898936	5763.941667	812.442383	3.563025
196.898936	5763.941667	811.254883	-17.661446
196.898936	5763.941667	810.067383	64.868355
196.898936	5763.941667	808.878906	-55.394699
196.898936	5763.941667	807.690430	-24.764441
196.898936	5763.941667	806.501953	-71.923050
196.898936	5763.941667	805.313477	1.090357
196.898936	5763.941667	804.124023	5.751559
196.898936	5763.941667	802.934570	71.635429
196.898936	5763.941667	801.745117	-10.860142
196.898936	5763.941667	800.555664	-27.414413
196.898936	5763.941667	799.365234	-3.957888
196.898936	5763.941667	798.175781	-48.764027
196.898936	5763.941667	796.985352	24.074282
196.898936	5763.941667	795.793945	-27.793150
196.898936	5763.941667	794.603516	75.563881
196.898936	5763.941667	793.412109	-70.362129
196.898936	5763.941667	792.220703	7.083356
196.898936	5763.941667	791.028320	96.239288
196.898936	5763.941667	789.836914	34.961723
196.898936	5763.941667	788.644531	154.595139
196.898936	5763.941667	787.452148	-5.338239
196.898936	5763.941667	786.258789	-40.754848
196.898936	5763.941667	785.066406	-26.863039
196.898936	5763.941667	783.873047	66.822716
196.898936	5763.941667	782.679688	125.256325
196.898936	5763.941667	781.485352	-62.712589
196.898936	5763.941667	780.291992	-11.335278
196.898936	5763.941667	779.097656	-100.712700
196.898936	5763.941667	777.903320	39.736504
196.898936	5763.941667	776.708008	30.074341
196.898936	5763.941667	775.512695	184.480331
196.898936	5763.941667	774.318359	-24.423553
196.898936	5763.941667	773.122070	-5.983477
196.898936	5763.941667	771.926758	61.628487
196.898936	5763.941667	770.730469	105.781944
196.898936	5763.941667	769.534180	-84.243912
196.898936	5763.941667	768.337891	-16.691366
196.898936	5763.941667	767.141602	-70.885681
196.898936	5763.941667	765.944336	-1.046694
196.898936	5763.941667	764.747070	-43.547035
196.898936	5763.941667	763.549805	-11.191968
196.898936	5763.941667	762.351563	124.035957
196.898936	5763.941667	761.154297	196.066437
196.898936	5763.941667	759.956055	-14.794576
196.898936	5763.941667	758.757813	-45.622303
196.898936	5763.941667	757.558594	77.768143
196.898936	5763.941667	756.359375	173.061310
196.898936	5763.941667	755.160156	144.512497
196.898936	5763.941667	753.960938	62.253941
196.898936	5763.941667	752.761719	176.129791
196.898936	5763.941667	751.561523	84.537292
196.898936	5763.941667	750.361328	146.994064
196.898936	5763.941667	749.160156	-0.577312
196.898936	5763.941667	747.959961	-1.138495
196.898936	5763.941667	746.758789	142.887238
196.898936	5763.941667	745.557617	-30.280313
196.898936	5763.941667	744.356445	83.357803
196.898936	5763.941667	743.154297	15.133796
196.898936	5763.941667	741.952148	26.155207
196.898936	5763.941667	740.750000	76.765213
196.898936	5763.941667	739.547852	-14.749158
196.898936	5763.941667	738.344727	-96.923401
196.898936	5763.941667	737.142578	102.653549
196.898936	5763.941667	735.939453	55.379520
196.898936	5763.941667	734.735352	33.711922
196.898936	5763.941667	733.532227	-27.518185
196.898936	5763.941667	732.328125	55.501022
196.898936	5763.941667	731.124023	191.967026
196.898936	5763.941667	729.918945	51.634766
196.898936	5763.941667	728.714844	27.593716
196.898936	5763.941667	727.509766	-1.100747
196.898936	5763.941667	726.303711	-83.249023
196.898936	5763.941667	725.098633	-12.027703
196.898936	5763.941667	723.892578	70.764046
196.898936	5763.941667	722.686523	-39.263134
196.898936	5763.941667	721.480469	3.995185
196.898936	5763.941667	720.274414	44.898304
196.898936	5763.941667	719.067383	102.016502
196.898936	5763.941667	717.860352	38.425819
196.898936	5763.941667	716.653320	-115.637489
196.898936	5763.941667	715.445313	20.298689
196.898936	5763.941667	714.238281	28.610722
196.898936	5763.941667	713.030273	-9.468547
196.898936	5763.941667	711.821289	82.268303
196.898936	5763.941667	710.613281	44.161583
196.898936	5763.941667	709.404297	-58.825943
196.898936	5763.941667	708.195313	113.899925
196.898936	5763.941667	706.986328	15.541280
196.898936	5763.941667	705.776367	-66.582207
196.898936	5763.941667	704.566406	43.477226
196.898936	5763.941667	703.356445	-31.706253
196.898936	5763.941667	702.146484	-44.389050
196.898936	5763.941667	700.935547	118.764091
196.898936	5763.941667	699.724609	96.768372
196.898936	5763.941667	698.513672	-8.494906
196.898936	5763.941667	697.302734	13.446373
196.898936	5763.941667	696.090820	28.426439
196.898936	5763.941667	694.878906	50.317490
196.898936	5763.941667	693.666992	9.789406
196.898936	5763.941667	692.455078	73.228378
196.898936	5763.941667	691.242188	25.748854
196.898936	5763.941667	690.029297	1.366167
196.898936	5763.941667	688.816406	48.553421
196.898936	5763.941667	687.602539	26.450430
196.898936	5763.941667	686.389648	85.118279
196.898936	5763.941667	685.175781	-22.393366
196.898936	5763.941667	683.960938	-35.291607
196.898936	5763.941667	682.747070	67.123894
196.898936	5763.941667	681.532227	86.462296
196.898936	5763.941667	680.317383	27.387484
196.898936	5763.941667	679.102539	28.250999
196.898936	5763.941667	677.886719	24.487976
196.898936	5763.941667	676.670898	-2.331894
196.898936	5763.941667	675.455078	81.413445
196.898936	5763.941667	674.239258	70.680046
196.898936	5763.941667	673.022461	140.524078
196.898936	5763.941667	671.805664	-56.724937
196.898936	5763.941667	670.588867	-30.649513
196.898936	5763.941667	669.372070	89.744972
196.898936	5763.941667	668.154297	120.344246
196.898936	5763.941667	666.936523	81.908066
196.898936	5763.941667	665.718750	144.657150
196.898936	5763.941667	664.500977	83.204781
196.898936	5763.941667	663.282227	-17.318241
196.898936	5763.941667	662.063477	-55.763908
196.898936	5763.941667	660.844727	57.441044
196.898936	5763.941667	659.625000	55.716930
196.898936	5763.941667	658.405273	65.459358
196.898936	5763.941667	657.185547	192.291901
196.898936	5763.941667	655.965820	100.950912
196.898936	5763.941667	654.745117	89.966522
196.898936	5763.941667	653.525391	5.535373
196.898936	5763.941667	652.303711	109.258530
196.898936	5763.941667	651.083008	40.880707
196.898936	5763.941667	649.861328	213.319519
196.898936	5763.941667	648.640625	37.146717
196.898936	5763.941667	647.417969	49.008633
196.898936	5763.941667	646.196289	1.258549
196.898936	5763.941667	644.973633	40.585468
196.898936	5763.941667	643.750977	-39.251034
196.898936	5763.941667	642.528320	-22.871500
196.898936	5763.941667	641.305664	46.154797
196.898936	5763.941667	640.082031	44.158646
196.898936	5763.941667	638.858398	65.036415
196.898936	5763.941667	637.634766	26.386801
196.898936	5763.941667	636.410156	-76.330032
196.898936	5763.941667	635.185547	125.227150
196.898936	5763.941667	633.960938	-11.807290
196.898936	5763.941667	632.736328	13.548656
196.898936	5763.941667	631.510742	-27.421160
196.898936	5763.941667	630.285156	80.176315
196.898936	5763.941667	629.059570	205.993042
196.898936	5763.941667	627.833984	116.981247
196.898936	5763.941667	626.607422	43.979439
196.898936	5763.941667	625.380859	-6.171022
196.898936	5763.941667	624.154297	108.075378
196.898936	5763.941667	622.927734	206.277817
196.898936	5763.941667	621.700195	87.608276
196.898936	5763.941667	620.472656	30.581013
196.898936	5763.941667	619.245117	14.625342
196.898936	5763.941667	618.016602	-10.463263
196.898936	5763.941667	616.788086	57.935471
196.898936	5763.941667	615.559570	-31.017689
196.898936	5763.941667	614.331055	-44.730328
196.898936	5763.941667	613.101563	44.094940
196.898936	5763.941667	611.872070	-35.732101
196.898936	5763.941667	610.642578	78.080681
196.898936	5763.941667	609.413086	80.237518
196.898936	5763.941667	608.182617	-42.853382
196.898936	5763.941667	606.952148	89.054329
196.898936	5763.941667	605.721680	25.160030
196.898936	5763.941667	604.491211	45.470699
196.898936	5763.941667	603.259766	-11.591826
196.898936	5763.941667	602.028320	-64.095093
196.898936	5763.941667	600.796875	-11.985235
196.898936	5763.941667	599.564453	-23.571396
196.898936	5763.941667	598.332031	5.748839
196.898936	5763.941667	597.099609	-44.496532
196.898936	5763.941667	595.867188	-97.006081
196.898936	5763.941667	594.633789	-160.865341
196.898936	5763.941667	593.400391	-27.123209
196.898936	5763.941667	592.166992	-36.500717
196.898936	5763.941667	590.933594	44.919304
196.898936	5763.941667	589.699219	69.548851
196.898936	5763.941667	588.464844	-1.149709
196.898936	5763.941667	587.230469	-67.292404
196.898936	5763.941667	585.995117	-47.228493
196.898936	5763.941667	584.760742	4.564816
196.898936	5763.941667	583.525391	-25.297709
196.898936	5763.941667	582.289063	-12.091781
196.898936	5763.941667	581.053711	-10.232540
196.898936	5763.941667	579.817383	-42.373329
196.898936	5763.941667	578.581055	-36.001404
196.898936	5763.941667	577.343750	17.917723
196.898936	5763.941667	576.107422	49.161362
196.898936	5763.941667	574.870117	10.200137
196.898936	5763.941667	573.631836	-60.443314
196.898936	5763.941667	572.394531	29.600653
196.898936	5763.941667	571.156250	-45.561638
196.898936	5763.941667	569.917969	-25.699606
196.898936	5763.941667	568.679688	14.497498
196.898936	5763.941667	567.440430	0.403952
196.898936	5763.941667	566.202148	2.132147
196.898936	5763.941667	564.961914	28.707821
196.898936	5763.941667	563.722656	-154.869949
196.898936	5763.941667	562.482422	142.795609
196.898936	5763.941667	561.243164	72.183136
196.898936	5763.941667	560.001953	35.460884
196.898936	5763.941667	558.761719	-78.009697
196.898936	5763.941667	557.520508	45.554829
196.898936	5763.941667	556.279297	-56.602680
196.898936	5763.941667	555.038086	-0.794034
196.898936	5763.941667	553.795898	84.306152
196.898936	5763.941667	552.554688	-24.581223
196.898936	5763.941667	551.311523	85.274483
196.898936	5763.941667	550.069336	-5.546918
196.898936	5763.941667	548.826172	-6.187848
196.898936	5763.941667	547.583984	8.939323
196.898936	5763.941667	546.339844	-52.542240
196.898936	5763.941667	545.096680	-62.199669
196.898936	5763.941667	543.852539	-56.097286
196.898936	5763.941667	542.608398	35.547825
196.898936	5763.941667	541.364258	79.880379
196.898936	5763.941667	540.119141	-91.846573
196.898936	5763.941667	538.875000	-36.265583
196.898936	5763.941667	537.628906	-36.951332
196.898936	5763.941667	536.383789	50.067677
196.898936	5763.941667	535.137695	-132.767578
196.898936	5763.941667	533.892578	-12.054509
196.898936	5763.941667	532.645508	-48.722317
196.898936	5763.941667	531.399414	-85.377136
196.898936	5763.941667	530.152344	-18.682518
196.898936	5763.941667	528.905273	-1.432707
196.898936	5763.941667	527.658203	40.507195
196.898936	5763.941667	526.410156	-79.219200
196.898936	5763.941667	525.163086	41.272636
196.898936	5763.941667	523.914063	148.242371
196.898936	5763.941667	522.666016	8.367576
196.898936	5763.941667	521.416992	-73.130127
196.898936	5763.941667	520.167969	20.330479
196.898936	5763.941667	518.918945	-14.054716
196.898936	5763.941667	517.669922	-19.286613
196.898936	5763.941667	516.419922	27.027353
196.898936	5763.941667	515.169922	-224.696655
196.898936	5763.941667	513.919922	-68.591423
196.898936	5763.941667	512.668945	4.571054
196.898936	5763.941667	511.417969	-58.895634
196.898936	5763.941667	510.166992	-158.158463
196.898936	5763.941667	508.916016	51.506210
196.898936	5763.941667	507.664063	50.720867
196.898936	5763.941667	506.412109	20.847399
196.898936	5763.941667	505.160156	-98.490196
196.898936	5763.941667	503.907227	-27.687544
196.898936	5763.941667	502.655273	-106.721565
196.898936	5763.941667	501.402344	-53.836143
196.898936	5763.941667	500.148438	5.726952
196.898936	5763.941667	498.895508	-124.665489
196.898936	5763.941667	497.641602	68.920837
196.898936	5763.941667	496.387695	-10.066343
196.898936	5763.941667	495.132813	-53.295708
196.898936	5763.941667	493.878906	-2.741322
196.898936	5763.941667	492.624023	18.769314
196.898936	5763.941667	491.368164	-127.102844
196.898936	5763.941667	490.113281	-25.262074
196.898936	5763.941667	488.857422	20.763870
196.898936	5763.941667	487.601563	-40.280994
196.898936	5763.941667	486.344727	50.310997
196.898936	5763.941667	485.088867	-68.681389
196.898936	5763.941667	483.832031	-20.476919
196.898936	5763.941667	482.575195	9.875892
196.898936	5763.941667	481.317383	111.495743
196.898936	5763.941667	480.059570	-23.022860
196.898936	5763.941667	478.801758	27.332424
196.898936	5763.941667	477.543945	-42.560364
196.898936	5763.941667	476.285156	-12.270125
196.898936	5763.941667	475.027344	40.254265
196.898936	5763.941667	473.767578	23.774620
196.898936	5763.941667	472.508789	131.860245
196.898936	5763.941667	471.249023	28.618731
196.898936	5763.941667	469.989258	43.253330
196.898936	5763.941667	468.729492	82.324043
196.898936	5763.941667	467.469727	50.248756
196.898936	5763.941667	466.208984	33.728340
196.898936	5763.941667	464.948242	70.519188
196.898936	5763.941667	463.686523	-19.318047
196.898936	5763.941667	462.425781	-2.542421
196.898936	5763.941667	461.164063	-5.769820
196.898936	5763.941667	459.901367	-44.525429
196.898936	5763.941667	458.639648	47.648937
196.898936	5763.941667	457.376953	-44.380333
196.898936	5763.941667	456.114258	-27.697334
196.898936	5763.941667	454.851563	144.196075
196.898936	5763.941667	453.587891	29.978403
196.898936	5763.941667	452.324219	8.892127
196.898936	5763.941667	451.060547	72.010010
196.898936	5763.941667	449.796875	152.805161
196.898936	5763.941667	448.532227	-72.165718
196.898936	5763.941667	447.267578	83.879318
196.898936	5763.941667	446.002930	60.472858
196.898936	5763.941667	444.737305	94.607933
196.898936	5763.941667	443.471680	80.007355
196.898936	5763.941667	442.206055	160.537079
196.898936	5763.941667	440.940430	72.860352
196.898936	5763.941667	439.673828	166.565186
196.898936	5763.941667	438.407227	165.104279
196.898936	5763.941667	437.140625	194.563629
196.898936	5763.941667	435.873047	120.079849
196.898936	5763.941667	434.605469	69.900490
196.898936	5763.941667	433.337891	19.704180
196.898936	5763.941667	432.070313	97.613327
196.898936	5763.941667	430.801758	14.219324
196.898936	5763.941667	429.533203	156.041611
196.898936	5763.941667	428.264648	-11.307796
196.898936	5763.941667	426.996094	22.216164
196.898936	5763.941667	425.726563	-6.112364
196.898936	5763.941667	424.457031	86.858795
196.898936	5763.941667	423.186523	135.619904
196.898936	5763.941667	421.916992	-20.777988
196.898936	5763.941667	420.646484	54.329105
196.898936	5763.941667	419.375977	-0.707992
196.898936	5763.941667	418.104492	-24.933119
196.898936	5763.941667	416.833008	3.667114
196.898936	5763.941667	415.561523	89.461464
196.898936	5763.941667	414.290039	124.494904
196.898936	5763.941667	413.017578	133.016586
196.898936	5763.941667	411.746094	4.976270
196.898936	5763.941667	410.472656	-4.242136
196.898936	5763.941667	409.200195	56.880405
196.898936	5763.941667	407.926758	87.091652
196.898936	5763.941667	406.653320	112.804787
196.898936	5763.941667	405.379883	125.224449
196.898936	5763.941667	404.105469	-14.154066
196.898936	5763.941667	402.831055	88.218124
196.898936	5763.941667	401.556641	-31.506796
196.898936	5763.941667	400.282227	9.107438
196.898936	5763.941667	399.006836	14.450046
196.898936	5763.941667	397.731445	39.447815
196.898936	5763.941667	396.456055	103.845367
196.898936	5763.941667	395.179688	40.775574
196.898936	5763.941667	393.903320	164.164215
196.898936	5763.941667	392.626953	54.788879
196.898936	5763.941667	391.350586	85.734665
196.898936	5763.941667	390.073242	63.893959
196.898936	5763.941667	388.795898	13.422057
196.898936	5763.941667	387.518555	107.526840
196.898936	5763.941667	386.240234	30.479486
196.898936	5763.941667	384.961914	80.418221
196.898936	5763.941667	383.683594	20.639011
196.898936	5763.941667	382.405273	153.486557
196.898936	5763.941667	381.125977	16.747807
196.898936	5763.941667	379.846680	114.175743
196.898936	5763.941667	378.567383	10.003942
196.898936	5763.941667	377.287109	120.170959
196.898936	5763.941667	376.006836	4.742366
196.898936	5763.941667	374.726563	110.121307
196.898936	5763.941667	373.446289	40.297260
196.898936	5763.941667	372.165039	-55.938210
196.898936	5763.941667	370.883789	37.859947
196.898936	5763.941667	369.602539	57.097363
196.898936	5763.941667	368.320313	60.810871
196.898936	5763.941667	367.039063	-40.556633
196.898936	5763.941667	365.755859	-15.432983
196.898936	5763.941667	364.473633	-36.403652
196.898936	5763.941667	363.190430	38.454021
196.898936	5763.941667	361.907227	-2.653914
196.898936	5763.941667	360.624023	43.298397
196.898936	5763.941667	359.340820	-76.847397
196.898936	5763.941667	358.056641	-9.615033
196.898936	5763.941667	356.772461	-58.270439
196.898936	5763.941667	355.487305	17.092615
196.898936	5763.941667	354.202148	-86.619324
196.898936	5763.941667	352.916992	-66.349495
196.898936	5763.941667	351.631836	-55.105213
196.898936	5763.941667	350.346680	-7.139081
196.898936	5763.941667	349.060547	33.946445
196.898936	5763.941667	347.774414	-25.479334
196.898936	5763.941667	346.487305	-59.096832
196.898936	5763.941667	345.200195	0.554226
196.898936	5763.941667	343.913086	-233.950912
196.898936	5763.941667	342.625977	-16.171434
196.898936	5763.941667	341.338867	14.078432
196.898936	5763.941667	340.050781	-86.555756
196.898936	5763.941667	338.762695	60.333549
196.898936	5763.941667	337.473633	71.977394
196.898936	5763.941667	336.184570	28.878744
196.898936	5763.941667	334.895508	-92.837067
196.898936	5763.941667	333.606445	-2.033630
196.898936	5763.941667	332.317383	-81.110374
196.898936	5763.941667	331.027344	-54.211769
196.898936	5763.941667	329.736328	-19.109707
196.898936	5763.941667	328.446289	-95.169167
196.898936	5763.941667	327.155273	-108.757187
196.898936	5763.941667	325.864258	16.021378
196.898936	5763.941667	324.573242	-44.121746
196.898936	5763.941667	323.281250	-80.911018
196.898936	5763.941667	321.989258	3.205904
196.898936	5763.941667	320.697266	-49.808868
196.898936	5763.941667	319.405273	50.520725
196.898936	5763.941667	318.112305	37.562996
196.898936	5763.941667	316.819336	63.030666
196.898936	5763.941667	315.526367	3.438720
196.898936	5763.941667	314.232422	-80.560875
196.898936	5763.941667	312.938477	-11.435936
196.898936	5763.941667	311.644531	46.212601
196.898936	5763.941667	310.349609	16.623978
196.898936	5763.941667	309.054688	-39.564968
196.898936	5763.941667	307.759766	137.195007
196.898936	5763.941667	306.464844	71.006142
196.898936	5763.941667	305.168945	157.626190
196.898936	5763.941667	303.873047	291.048462
196.898936	5763.941667	302.577148	319.957916
196.898936	5763.941667	301.281250	216.321045
196.898936	5763.941667	299.984375	278.271362
