#X		#Y		#Wave		#Intensity
401.757979	6226.676667	1999.946289	-7.943561
401.757979	6226.676667	1998.981445	-39.990353
401.757979	6226.676667	1998.017578	169.437683
401.757979	6226.676667	1997.052734	-32.472191
401.757979	6226.676667	1996.088867	73.030998
401.757979	6226.676667	1995.124023	141.434967
401.757979	6226.676667	1994.159180	1.864105
401.757979	6226.676667	1993.193359	191.779938
401.757979	6226.676667	1992.228516	109.379227
401.757979	6226.676667	1991.262695	-14.990749
401.757979	6226.676667	1990.296875	261.700623
401.757979	6226.676667	1989.331055	55.851913
401.757979	6226.676667	1988.365234	154.453659
401.757979	6226.676667	1987.398438	-68.471100
401.757979	6226.676667	1986.432617	57.460457
401.757979	6226.676667	1985.465820	22.685919
401.757979	6226.676667	1984.499023	-110.899841
401.757979	6226.676667	1983.532227	0.318090
401.757979	6226.676667	1982.565430	57.183235
401.757979	6226.676667	1981.597656	62.189213
401.757979	6226.676667	1980.629883	12.895002
401.757979	6226.676667	1979.662109	-21.515818
401.757979	6226.676667	1978.694336	-38.585175
401.757979	6226.676667	1977.726563	124.624565
401.757979	6226.676667	1976.758789	3.936843
401.757979	6226.676667	1975.790039	125.190697
401.757979	6226.676667	1974.821289	61.365170
401.757979	6226.676667	1973.852539	98.743866
401.757979	6226.676667	1972.883789	-71.060425
401.757979	6226.676667	1971.915039	13.238958
401.757979	6226.676667	1970.945313	11.226641
401.757979	6226.676667	1969.975586	28.957994
401.757979	6226.676667	1969.005859	-22.313324
401.757979	6226.676667	1968.036133	-46.441990
401.757979	6226.676667	1967.066406	-16.341221
401.757979	6226.676667	1966.096680	109.833649
401.757979	6226.676667	1965.125977	-207.366486
401.757979	6226.676667	1964.155273	-29.473915
401.757979	6226.676667	1963.184570	160.668701
401.757979	6226.676667	1962.213867	102.123055
401.757979	6226.676667	1961.242188	43.600433
401.757979	6226.676667	1960.271484	211.485580
401.757979	6226.676667	1959.299805	199.708801
401.757979	6226.676667	1958.328125	-6.387893
401.757979	6226.676667	1957.356445	6.468389
401.757979	6226.676667	1956.384766	70.949989
401.757979	6226.676667	1955.412109	177.191360
401.757979	6226.676667	1954.439453	187.525925
401.757979	6226.676667	1953.467773	190.477615
401.757979	6226.676667	1952.495117	50.906731
401.757979	6226.676667	1951.521484	26.832483
401.757979	6226.676667	1950.548828	115.737854
401.757979	6226.676667	1949.575195	148.114044
401.757979	6226.676667	1948.601563	23.329006
401.757979	6226.676667	1947.627930	-103.880074
401.757979	6226.676667	1946.654297	-17.536673
401.757979	6226.676667	1945.680664	206.171692
401.757979	6226.676667	1944.706055	83.847580
401.757979	6226.676667	1943.732422	-31.089014
401.757979	6226.676667	1942.757813	261.102203
401.757979	6226.676667	1941.783203	111.801285
401.757979	6226.676667	1940.807617	85.106934
401.757979	6226.676667	1939.833008	-12.679676
401.757979	6226.676667	1938.857422	24.328217
401.757979	6226.676667	1937.881836	147.053848
401.757979	6226.676667	1936.906250	154.570770
401.757979	6226.676667	1935.930664	2.855909
401.757979	6226.676667	1934.955078	-38.632336
401.757979	6226.676667	1933.978516	-107.067635
401.757979	6226.676667	1933.001953	-192.641708
401.757979	6226.676667	1932.025391	-131.365784
401.757979	6226.676667	1931.048828	106.041901
401.757979	6226.676667	1930.072266	110.910980
401.757979	6226.676667	1929.094727	-177.783752
401.757979	6226.676667	1928.118164	17.834066
401.757979	6226.676667	1927.140625	73.971283
401.757979	6226.676667	1926.163086	-38.628872
401.757979	6226.676667	1925.184570	78.537682
401.757979	6226.676667	1924.207031	356.923828
401.757979	6226.676667	1923.228516	65.872025
401.757979	6226.676667	1922.250000	-71.202415
401.757979	6226.676667	1921.271484	99.488419
401.757979	6226.676667	1920.292969	77.167007
401.757979	6226.676667	1919.314453	23.081263
401.757979	6226.676667	1918.334961	83.709808
401.757979	6226.676667	1917.355469	222.381348
401.757979	6226.676667	1916.375977	92.551857
401.757979	6226.676667	1915.396484	6.651943
401.757979	6226.676667	1914.416992	11.002852
401.757979	6226.676667	1913.436523	-123.696121
401.757979	6226.676667	1912.457031	-38.923702
401.757979	6226.676667	1911.476563	28.713835
401.757979	6226.676667	1910.496094	8.545544
401.757979	6226.676667	1909.515625	-114.000786
401.757979	6226.676667	1908.534180	58.279938
401.757979	6226.676667	1907.552734	8.781362
401.757979	6226.676667	1906.572266	200.397293
401.757979	6226.676667	1905.590820	70.464523
401.757979	6226.676667	1904.608398	96.363968
401.757979	6226.676667	1903.626953	-36.000526
401.757979	6226.676667	1902.644531	16.615900
401.757979	6226.676667	1901.663086	18.084034
401.757979	6226.676667	1900.680664	97.367401
401.757979	6226.676667	1899.698242	-37.464184
401.757979	6226.676667	1898.714844	-53.114979
401.757979	6226.676667	1897.732422	101.417931
401.757979	6226.676667	1896.749023	165.908447
401.757979	6226.676667	1895.765625	-46.744370
401.757979	6226.676667	1894.782227	-11.473826
401.757979	6226.676667	1893.798828	9.175444
401.757979	6226.676667	1892.814453	-33.378838
401.757979	6226.676667	1891.831055	-83.229050
401.757979	6226.676667	1890.846680	-50.531254
401.757979	6226.676667	1889.862305	-44.582436
401.757979	6226.676667	1888.877930	-48.374439
401.757979	6226.676667	1887.892578	52.160763
401.757979	6226.676667	1886.908203	130.796341
401.757979	6226.676667	1885.922852	44.398483
401.757979	6226.676667	1884.937500	79.283661
401.757979	6226.676667	1883.952148	87.453224
401.757979	6226.676667	1882.965820	-78.990685
401.757979	6226.676667	1881.980469	50.363083
401.757979	6226.676667	1880.994141	-53.045284
401.757979	6226.676667	1880.007813	10.767843
401.757979	6226.676667	1879.021484	-7.845550
401.757979	6226.676667	1878.035156	38.928436
401.757979	6226.676667	1877.047852	42.059010
401.757979	6226.676667	1876.061523	-37.161488
401.757979	6226.676667	1875.074219	33.724464
401.757979	6226.676667	1874.086914	198.964340
401.757979	6226.676667	1873.098633	-6.168993
401.757979	6226.676667	1872.111328	-0.729693
401.757979	6226.676667	1871.123047	94.192734
401.757979	6226.676667	1870.135742	-74.585655
401.757979	6226.676667	1869.147461	5.762554
401.757979	6226.676667	1868.158203	6.264141
401.757979	6226.676667	1867.169922	43.011646
401.757979	6226.676667	1866.180664	123.225945
401.757979	6226.676667	1865.192383	63.237923
401.757979	6226.676667	1864.203125	-64.401520
401.757979	6226.676667	1863.213867	-105.049141
401.757979	6226.676667	1862.223633	168.265991
401.757979	6226.676667	1861.234375	81.674728
401.757979	6226.676667	1860.244141	-55.605171
401.757979	6226.676667	1859.253906	99.219986
401.757979	6226.676667	1858.263672	280.516907
401.757979	6226.676667	1857.273438	85.319305
401.757979	6226.676667	1856.282227	78.345100
401.757979	6226.676667	1855.291992	-63.708286
401.757979	6226.676667	1854.300781	4.076953
401.757979	6226.676667	1853.309570	98.345192
401.757979	6226.676667	1852.317383	-36.451298
401.757979	6226.676667	1851.326172	-180.844498
401.757979	6226.676667	1850.333984	21.799128
401.757979	6226.676667	1849.342773	152.082397
401.757979	6226.676667	1848.350586	31.783352
401.757979	6226.676667	1847.357422	-54.770401
401.757979	6226.676667	1846.365234	275.273041
401.757979	6226.676667	1845.372070	51.461170
401.757979	6226.676667	1844.379883	174.339279
401.757979	6226.676667	1843.386719	145.542755
401.757979	6226.676667	1842.393555	56.596889
401.757979	6226.676667	1841.399414	217.859177
401.757979	6226.676667	1840.406250	-32.230564
401.757979	6226.676667	1839.412109	64.045044
401.757979	6226.676667	1838.417969	-214.791595
401.757979	6226.676667	1837.423828	-327.663818
401.757979	6226.676667	1836.429688	-39.133682
401.757979	6226.676667	1835.434570	321.365265
401.757979	6226.676667	1834.440430	270.905670
401.757979	6226.676667	1833.445313	-48.573444
401.757979	6226.676667	1832.450195	-43.721550
401.757979	6226.676667	1831.454102	-108.513260
401.757979	6226.676667	1830.458984	129.208084
401.757979	6226.676667	1829.462891	172.413696
401.757979	6226.676667	1828.466797	47.617195
401.757979	6226.676667	1827.470703	9.241873
401.757979	6226.676667	1826.474609	83.626076
401.757979	6226.676667	1825.478516	93.225311
401.757979	6226.676667	1824.481445	-43.459442
401.757979	6226.676667	1823.484375	18.899851
401.757979	6226.676667	1822.487305	-132.100662
401.757979	6226.676667	1821.490234	38.101933
401.757979	6226.676667	1820.493164	148.338150
401.757979	6226.676667	1819.495117	193.845291
401.757979	6226.676667	1818.498047	-0.181037
401.757979	6226.676667	1817.500000	191.424744
401.757979	6226.676667	1816.500977	-19.292999
401.757979	6226.676667	1815.502930	7.073243
401.757979	6226.676667	1814.504883	112.417976
401.757979	6226.676667	1813.505859	114.823219
401.757979	6226.676667	1812.506836	138.764404
401.757979	6226.676667	1811.507813	7.217498
401.757979	6226.676667	1810.508789	-11.866915
401.757979	6226.676667	1809.508789	117.309029
401.757979	6226.676667	1808.508789	28.887691
401.757979	6226.676667	1807.508789	126.947571
401.757979	6226.676667	1806.508789	-14.005098
401.757979	6226.676667	1805.508789	31.474375
401.757979	6226.676667	1804.508789	72.167603
401.757979	6226.676667	1803.507813	74.632248
401.757979	6226.676667	1802.506836	17.405115
401.757979	6226.676667	1801.505859	155.988510
401.757979	6226.676667	1800.504883	201.431610
401.757979	6226.676667	1799.502930	-34.764557
401.757979	6226.676667	1798.501953	1.173354
401.757979	6226.676667	1797.500000	18.015659
401.757979	6226.676667	1796.498047	11.010014
401.757979	6226.676667	1795.496094	135.185059
401.757979	6226.676667	1794.493164	152.021362
401.757979	6226.676667	1793.491211	21.062622
401.757979	6226.676667	1792.488281	87.991379
401.757979	6226.676667	1791.485352	7.158700
401.757979	6226.676667	1790.482422	231.341248
401.757979	6226.676667	1789.478516	12.367331
401.757979	6226.676667	1788.475586	-27.877766
401.757979	6226.676667	1787.471680	212.887268
401.757979	6226.676667	1786.467773	-10.678975
401.757979	6226.676667	1785.463867	-12.775442
401.757979	6226.676667	1784.459961	-36.274918
401.757979	6226.676667	1783.455078	168.670486
401.757979	6226.676667	1782.450195	223.676315
401.757979	6226.676667	1781.445313	285.812164
401.757979	6226.676667	1780.440430	34.032349
401.757979	6226.676667	1779.435547	226.982651
401.757979	6226.676667	1778.429688	84.686783
401.757979	6226.676667	1777.424805	134.981781
401.757979	6226.676667	1776.418945	180.516464
401.757979	6226.676667	1775.413086	-9.157259
401.757979	6226.676667	1774.406250	76.797867
401.757979	6226.676667	1773.400391	119.994110
401.757979	6226.676667	1772.393555	251.041336
401.757979	6226.676667	1771.386719	130.409348
401.757979	6226.676667	1770.379883	50.192085
401.757979	6226.676667	1769.373047	-70.320229
401.757979	6226.676667	1768.365234	91.575974
401.757979	6226.676667	1767.358398	99.237808
401.757979	6226.676667	1766.350586	249.217743
401.757979	6226.676667	1765.342773	57.689514
401.757979	6226.676667	1764.334961	98.597633
401.757979	6226.676667	1763.326172	113.429916
401.757979	6226.676667	1762.318359	147.240524
401.757979	6226.676667	1761.309570	19.925850
401.757979	6226.676667	1760.300781	-62.308262
401.757979	6226.676667	1759.291016	16.570028
401.757979	6226.676667	1758.282227	67.024841
401.757979	6226.676667	1757.272461	171.933197
401.757979	6226.676667	1756.262695	163.193207
401.757979	6226.676667	1755.252930	107.140961
401.757979	6226.676667	1754.243164	157.616409
401.757979	6226.676667	1753.233398	144.213425
401.757979	6226.676667	1752.222656	57.503025
401.757979	6226.676667	1751.211914	169.507233
401.757979	6226.676667	1750.201172	-2.257240
401.757979	6226.676667	1749.190430	242.148178
401.757979	6226.676667	1748.179688	-12.251022
401.757979	6226.676667	1747.167969	-60.936462
401.757979	6226.676667	1746.156250	301.538544
401.757979	6226.676667	1745.144531	271.754181
401.757979	6226.676667	1744.132813	-34.336365
401.757979	6226.676667	1743.121094	172.138077
401.757979	6226.676667	1742.108398	-1.562788
401.757979	6226.676667	1741.095703	-222.385971
401.757979	6226.676667	1740.083008	31.269171
401.757979	6226.676667	1739.070313	-135.160767
401.757979	6226.676667	1738.057617	-75.025322
401.757979	6226.676667	1737.043945	112.475311
401.757979	6226.676667	1736.030273	73.533661
401.757979	6226.676667	1735.016602	-3.095357
401.757979	6226.676667	1734.002930	-82.029854
401.757979	6226.676667	1732.989258	-19.498297
401.757979	6226.676667	1731.974609	-8.813077
401.757979	6226.676667	1730.959961	65.502373
401.757979	6226.676667	1729.945313	-88.676926
401.757979	6226.676667	1728.930664	98.716446
401.757979	6226.676667	1727.916016	50.594620
401.757979	6226.676667	1726.900391	99.033012
401.757979	6226.676667	1725.885742	55.682629
401.757979	6226.676667	1724.870117	-72.350616
401.757979	6226.676667	1723.853516	-117.966064
401.757979	6226.676667	1722.837891	-3.573400
401.757979	6226.676667	1721.822266	49.646965
401.757979	6226.676667	1720.805664	145.193420
401.757979	6226.676667	1719.789063	54.992439
401.757979	6226.676667	1718.772461	65.925842
401.757979	6226.676667	1717.754883	114.476463
401.757979	6226.676667	1716.738281	-1.444404
401.757979	6226.676667	1715.720703	129.371124
401.757979	6226.676667	1714.703125	4.139398
401.757979	6226.676667	1713.685547	-36.480408
401.757979	6226.676667	1712.667969	113.118134
401.757979	6226.676667	1711.649414	-30.752916
401.757979	6226.676667	1710.630859	95.360001
401.757979	6226.676667	1709.612305	118.199059
401.757979	6226.676667	1708.593750	-117.018990
401.757979	6226.676667	1707.575195	-58.917213
401.757979	6226.676667	1706.555664	-43.032074
401.757979	6226.676667	1705.536133	66.661148
401.757979	6226.676667	1704.516602	14.577457
401.757979	6226.676667	1703.497070	84.417007
401.757979	6226.676667	1702.477539	76.919991
401.757979	6226.676667	1701.457031	144.420166
401.757979	6226.676667	1700.437500	-69.179779
401.757979	6226.676667	1699.416992	-210.074554
401.757979	6226.676667	1698.395508	-130.784668
401.757979	6226.676667	1697.375000	53.852188
401.757979	6226.676667	1696.354492	51.185440
401.757979	6226.676667	1695.333008	-28.690273
401.757979	6226.676667	1694.311523	193.322723
401.757979	6226.676667	1693.290039	83.084740
401.757979	6226.676667	1692.267578	50.091827
401.757979	6226.676667	1691.246094	-132.524277
401.757979	6226.676667	1690.223633	138.523575
401.757979	6226.676667	1689.201172	40.155186
401.757979	6226.676667	1688.178711	-72.175392
401.757979	6226.676667	1687.155273	11.835642
401.757979	6226.676667	1686.132813	105.184021
401.757979	6226.676667	1685.109375	-49.074322
401.757979	6226.676667	1684.085938	-49.121254
401.757979	6226.676667	1683.062500	156.322449
401.757979	6226.676667	1682.039063	34.891491
401.757979	6226.676667	1681.014648	2.216934
401.757979	6226.676667	1679.990234	97.919563
401.757979	6226.676667	1678.965820	146.946564
401.757979	6226.676667	1677.941406	-16.291971
401.757979	6226.676667	1676.916992	-118.808823
401.757979	6226.676667	1675.891602	35.221527
401.757979	6226.676667	1674.866211	135.594543
401.757979	6226.676667	1673.840820	191.664642
401.757979	6226.676667	1672.815430	191.806747
401.757979	6226.676667	1671.790039	70.813751
401.757979	6226.676667	1670.763672	19.770061
401.757979	6226.676667	1669.737305	-24.244793
401.757979	6226.676667	1668.710938	-49.593193
401.757979	6226.676667	1667.684570	-53.957836
401.757979	6226.676667	1666.658203	-51.315369
401.757979	6226.676667	1665.630859	221.301544
401.757979	6226.676667	1664.603516	40.112942
401.757979	6226.676667	1663.576172	-57.236721
401.757979	6226.676667	1662.548828	26.891142
401.757979	6226.676667	1661.520508	94.726646
401.757979	6226.676667	1660.493164	25.384535
401.757979	6226.676667	1659.464844	-155.489319
401.757979	6226.676667	1658.436523	72.765427
401.757979	6226.676667	1657.408203	36.058857
401.757979	6226.676667	1656.378906	150.390701
401.757979	6226.676667	1655.350586	190.374542
401.757979	6226.676667	1654.321289	100.312691
401.757979	6226.676667	1653.291992	52.098801
401.757979	6226.676667	1652.261719	203.560822
401.757979	6226.676667	1651.232422	276.074860
401.757979	6226.676667	1650.202148	336.976563
401.757979	6226.676667	1649.171875	240.111710
401.757979	6226.676667	1648.141602	375.262390
401.757979	6226.676667	1647.111328	292.382660
401.757979	6226.676667	1646.080078	258.244934
401.757979	6226.676667	1645.049805	217.186951
401.757979	6226.676667	1644.018555	192.387436
401.757979	6226.676667	1642.987305	322.879486
401.757979	6226.676667	1641.955078	254.085007
401.757979	6226.676667	1640.923828	523.539856
401.757979	6226.676667	1639.891602	403.820343
401.757979	6226.676667	1638.859375	321.215393
401.757979	6226.676667	1637.827148	234.031509
401.757979	6226.676667	1636.794922	452.434692
401.757979	6226.676667	1635.761719	453.235596
401.757979	6226.676667	1634.729492	419.350708
401.757979	6226.676667	1633.696289	404.002136
401.757979	6226.676667	1632.662109	532.073608
401.757979	6226.676667	1631.628906	505.185669
401.757979	6226.676667	1630.594727	383.535065
401.757979	6226.676667	1629.561523	504.660156
401.757979	6226.676667	1628.527344	662.731506
401.757979	6226.676667	1627.493164	545.798462
401.757979	6226.676667	1626.458008	833.206177
401.757979	6226.676667	1625.423828	709.393188
401.757979	6226.676667	1624.388672	493.274323
401.757979	6226.676667	1623.353516	321.126465
401.757979	6226.676667	1622.318359	647.670288
401.757979	6226.676667	1621.282227	828.704956
401.757979	6226.676667	1620.247070	564.347717
401.757979	6226.676667	1619.210938	791.505676
401.757979	6226.676667	1618.174805	564.198853
401.757979	6226.676667	1617.137695	696.752930
401.757979	6226.676667	1616.101563	727.824951
401.757979	6226.676667	1615.064453	539.904297
401.757979	6226.676667	1614.027344	600.992249
401.757979	6226.676667	1612.990234	692.029175
401.757979	6226.676667	1611.953125	764.618652
401.757979	6226.676667	1610.916016	687.474365
401.757979	6226.676667	1609.877930	702.496521
401.757979	6226.676667	1608.839844	784.303406
401.757979	6226.676667	1607.801758	748.690918
401.757979	6226.676667	1606.763672	835.095642
401.757979	6226.676667	1605.724609	788.015198
401.757979	6226.676667	1604.685547	715.662781
401.757979	6226.676667	1603.646484	843.481750
401.757979	6226.676667	1602.607422	959.768799
401.757979	6226.676667	1601.568359	944.962524
401.757979	6226.676667	1600.528320	985.353699
401.757979	6226.676667	1599.489258	991.270630
401.757979	6226.676667	1598.449219	758.204407
401.757979	6226.676667	1597.408203	950.301392
401.757979	6226.676667	1596.368164	979.244385
401.757979	6226.676667	1595.327148	959.961975
401.757979	6226.676667	1594.287109	1018.778442
401.757979	6226.676667	1593.246094	985.756165
401.757979	6226.676667	1592.204102	959.649109
401.757979	6226.676667	1591.163086	1002.418091
401.757979	6226.676667	1590.121094	799.679443
401.757979	6226.676667	1589.079102	858.555237
401.757979	6226.676667	1588.037109	942.654724
401.757979	6226.676667	1586.995117	902.910522
401.757979	6226.676667	1585.953125	757.737671
401.757979	6226.676667	1584.910156	702.033813
401.757979	6226.676667	1583.867188	591.366150
401.757979	6226.676667	1582.824219	680.104797
401.757979	6226.676667	1581.781250	764.244812
401.757979	6226.676667	1580.737305	775.074646
401.757979	6226.676667	1579.693359	666.839050
401.757979	6226.676667	1578.649414	961.620178
401.757979	6226.676667	1577.605469	684.034180
401.757979	6226.676667	1576.561523	658.323181
401.757979	6226.676667	1575.516602	680.691711
401.757979	6226.676667	1574.472656	629.861816
401.757979	6226.676667	1573.427734	871.840881
401.757979	6226.676667	1572.381836	740.988403
401.757979	6226.676667	1571.336914	793.115173
401.757979	6226.676667	1570.291016	712.655579
401.757979	6226.676667	1569.246094	927.073608
401.757979	6226.676667	1568.200195	878.644592
401.757979	6226.676667	1567.153320	990.173279
401.757979	6226.676667	1566.107422	829.863831
401.757979	6226.676667	1565.060547	783.818787
401.757979	6226.676667	1564.013672	925.036682
401.757979	6226.676667	1562.966797	965.773438
401.757979	6226.676667	1561.919922	826.205811
401.757979	6226.676667	1560.872070	862.417419
401.757979	6226.676667	1559.825195	738.931580
401.757979	6226.676667	1558.777344	832.207397
401.757979	6226.676667	1557.729492	831.961243
401.757979	6226.676667	1556.680664	761.050171
401.757979	6226.676667	1555.632813	895.353882
401.757979	6226.676667	1554.583984	927.059143
401.757979	6226.676667	1553.535156	915.473022
401.757979	6226.676667	1552.486328	698.862122
401.757979	6226.676667	1551.436523	698.750671
401.757979	6226.676667	1550.387695	878.574768
401.757979	6226.676667	1549.337891	944.497986
401.757979	6226.676667	1548.288086	921.629150
401.757979	6226.676667	1547.238281	1017.142944
401.757979	6226.676667	1546.187500	962.447510
401.757979	6226.676667	1545.136719	1017.000122
401.757979	6226.676667	1544.086914	1205.759033
401.757979	6226.676667	1543.035156	1187.502075
401.757979	6226.676667	1541.984375	1348.904541
401.757979	6226.676667	1540.933594	1251.096313
401.757979	6226.676667	1539.881836	1296.540283
401.757979	6226.676667	1538.830078	1260.175903
401.757979	6226.676667	1537.778320	1110.243652
401.757979	6226.676667	1536.725586	837.721924
401.757979	6226.676667	1535.673828	876.475098
401.757979	6226.676667	1534.621094	640.476929
401.757979	6226.676667	1533.568359	488.591736
401.757979	6226.676667	1532.515625	625.049988
401.757979	6226.676667	1531.461914	711.548157
401.757979	6226.676667	1530.409180	575.678955
401.757979	6226.676667	1529.355469	575.991394
401.757979	6226.676667	1528.301758	623.951294
401.757979	6226.676667	1527.247070	617.490540
401.757979	6226.676667	1526.193359	617.853027
401.757979	6226.676667	1525.138672	466.370270
401.757979	6226.676667	1524.083984	262.843842
401.757979	6226.676667	1523.029297	424.206482
401.757979	6226.676667	1521.974609	184.563705
401.757979	6226.676667	1520.918945	284.768402
401.757979	6226.676667	1519.863281	489.117310
401.757979	6226.676667	1518.807617	573.414185
401.757979	6226.676667	1517.751953	481.143494
401.757979	6226.676667	1516.696289	413.824829
401.757979	6226.676667	1515.639648	581.866821
401.757979	6226.676667	1514.583008	406.011444
401.757979	6226.676667	1513.526367	506.178650
401.757979	6226.676667	1512.469727	273.917419
401.757979	6226.676667	1511.412109	322.113922
401.757979	6226.676667	1510.355469	345.449097
401.757979	6226.676667	1509.297852	278.398468
401.757979	6226.676667	1508.240234	405.712708
401.757979	6226.676667	1507.181641	239.321121
401.757979	6226.676667	1506.124023	414.067444
401.757979	6226.676667	1505.065430	202.620865
401.757979	6226.676667	1504.006836	302.844177
401.757979	6226.676667	1502.948242	172.809723
401.757979	6226.676667	1501.888672	318.180359
401.757979	6226.676667	1500.830078	278.493011
401.757979	6226.676667	1499.770508	182.446289
401.757979	6226.676667	1498.710938	237.576782
401.757979	6226.676667	1497.650391	263.393097
401.757979	6226.676667	1496.590820	144.928085
401.757979	6226.676667	1495.530273	71.616890
401.757979	6226.676667	1494.469727	47.938370
401.757979	6226.676667	1493.409180	73.863312
401.757979	6226.676667	1492.348633	-143.499786
401.757979	6226.676667	1491.287109	-122.004494
401.757979	6226.676667	1490.225586	-17.174953
401.757979	6226.676667	1489.164063	15.589507
401.757979	6226.676667	1488.102539	-32.670010
401.757979	6226.676667	1487.041016	18.136433
401.757979	6226.676667	1485.978516	-32.306522
401.757979	6226.676667	1484.916016	126.550110
401.757979	6226.676667	1483.853516	67.120468
401.757979	6226.676667	1482.791016	207.914413
401.757979	6226.676667	1481.727539	29.435051
401.757979	6226.676667	1480.664063	165.734192
401.757979	6226.676667	1479.600586	171.688873
401.757979	6226.676667	1478.537109	-116.661743
401.757979	6226.676667	1477.473633	154.400208
401.757979	6226.676667	1476.409180	308.656250
401.757979	6226.676667	1475.344727	363.991089
401.757979	6226.676667	1474.280273	208.480011
401.757979	6226.676667	1473.215820	97.885826
401.757979	6226.676667	1472.151367	348.375580
401.757979	6226.676667	1471.085938	278.415527
401.757979	6226.676667	1470.020508	228.342392
401.757979	6226.676667	1468.955078	310.714844
401.757979	6226.676667	1467.888672	335.050934
401.757979	6226.676667	1466.823242	448.456482
401.757979	6226.676667	1465.756836	244.289764
401.757979	6226.676667	1464.690430	300.044647
401.757979	6226.676667	1463.624023	427.138153
401.757979	6226.676667	1462.556641	236.568985
401.757979	6226.676667	1461.490234	385.997345
401.757979	6226.676667	1460.422852	499.818909
401.757979	6226.676667	1459.355469	363.364288
401.757979	6226.676667	1458.287109	432.208374
401.757979	6226.676667	1457.219727	469.792480
401.757979	6226.676667	1456.151367	614.779053
401.757979	6226.676667	1455.083008	471.932190
401.757979	6226.676667	1454.014648	772.534241
401.757979	6226.676667	1452.945313	672.254944
401.757979	6226.676667	1451.876953	859.599792
401.757979	6226.676667	1450.807617	714.928711
401.757979	6226.676667	1449.738281	728.850464
401.757979	6226.676667	1448.668945	888.712769
401.757979	6226.676667	1447.598633	844.935547
401.757979	6226.676667	1446.528320	933.738647
401.757979	6226.676667	1445.458008	1038.372314
401.757979	6226.676667	1444.387695	918.229065
401.757979	6226.676667	1443.317383	708.588318
401.757979	6226.676667	1442.246094	797.817383
401.757979	6226.676667	1441.174805	672.429993
401.757979	6226.676667	1440.103516	796.127380
401.757979	6226.676667	1439.032227	743.549377
401.757979	6226.676667	1437.960938	638.353088
401.757979	6226.676667	1436.888672	686.709778
401.757979	6226.676667	1435.816406	583.901611
401.757979	6226.676667	1434.744141	405.697144
401.757979	6226.676667	1433.670898	608.212891
401.757979	6226.676667	1432.598633	533.041382
401.757979	6226.676667	1431.525391	476.821716
401.757979	6226.676667	1430.452148	365.332062
401.757979	6226.676667	1429.378906	238.524628
401.757979	6226.676667	1428.304688	331.637146
401.757979	6226.676667	1427.231445	229.231506
401.757979	6226.676667	1426.157227	438.586792
401.757979	6226.676667	1425.083008	207.358932
401.757979	6226.676667	1424.007813	188.033829
401.757979	6226.676667	1422.933594	363.820587
401.757979	6226.676667	1421.858398	251.052246
401.757979	6226.676667	1420.783203	217.471542
401.757979	6226.676667	1419.708008	274.349030
401.757979	6226.676667	1418.631836	496.680481
401.757979	6226.676667	1417.555664	252.482925
401.757979	6226.676667	1416.479492	299.016235
401.757979	6226.676667	1415.403320	278.345856
401.757979	6226.676667	1414.327148	506.189606
401.757979	6226.676667	1413.250000	349.022827
401.757979	6226.676667	1412.173828	282.138123
401.757979	6226.676667	1411.096680	372.581879
401.757979	6226.676667	1410.018555	306.560242
401.757979	6226.676667	1408.941406	330.062958
401.757979	6226.676667	1407.863281	479.274231
401.757979	6226.676667	1406.785156	541.469666
401.757979	6226.676667	1405.707031	407.073181
401.757979	6226.676667	1404.628906	377.744873
401.757979	6226.676667	1403.549805	410.985748
401.757979	6226.676667	1402.470703	317.665009
401.757979	6226.676667	1401.391602	500.497589
401.757979	6226.676667	1400.312500	369.057648
401.757979	6226.676667	1399.233398	406.313019
401.757979	6226.676667	1398.153320	458.801910
401.757979	6226.676667	1397.073242	481.030090
401.757979	6226.676667	1395.993164	583.581604
401.757979	6226.676667	1394.913086	479.485687
401.757979	6226.676667	1393.832031	569.144958
401.757979	6226.676667	1392.750977	477.457672
401.757979	6226.676667	1391.669922	520.095703
401.757979	6226.676667	1390.588867	354.894989
401.757979	6226.676667	1389.506836	579.338318
401.757979	6226.676667	1388.425781	405.935699
401.757979	6226.676667	1387.343750	273.199585
401.757979	6226.676667	1386.261719	304.415741
401.757979	6226.676667	1385.178711	489.698883
401.757979	6226.676667	1384.096680	428.076447
401.757979	6226.676667	1383.013672	331.554199
401.757979	6226.676667	1381.930664	381.639496
401.757979	6226.676667	1380.846680	325.580902
401.757979	6226.676667	1379.763672	331.430084
401.757979	6226.676667	1378.679688	289.740814
401.757979	6226.676667	1377.595703	331.011597
401.757979	6226.676667	1376.511719	380.267731
401.757979	6226.676667	1375.427734	274.778778
401.757979	6226.676667	1374.342773	316.107880
401.757979	6226.676667	1373.257813	313.295349
401.757979	6226.676667	1372.172852	401.205414
401.757979	6226.676667	1371.087891	270.378052
401.757979	6226.676667	1370.001953	202.269135
401.757979	6226.676667	1368.916992	314.017609
401.757979	6226.676667	1367.831055	267.683685
401.757979	6226.676667	1366.744141	256.490051
401.757979	6226.676667	1365.658203	275.624329
401.757979	6226.676667	1364.571289	234.511154
401.757979	6226.676667	1363.484375	291.123169
401.757979	6226.676667	1362.397461	283.572632
401.757979	6226.676667	1361.310547	378.718842
401.757979	6226.676667	1360.222656	309.678040
401.757979	6226.676667	1359.135742	328.635529
401.757979	6226.676667	1358.047852	457.711578
401.757979	6226.676667	1356.958984	347.391541
401.757979	6226.676667	1355.871094	241.475800
401.757979	6226.676667	1354.782227	458.373810
401.757979	6226.676667	1353.693359	233.250381
401.757979	6226.676667	1352.604492	360.341736
401.757979	6226.676667	1351.515625	240.820633
401.757979	6226.676667	1350.425781	220.408997
401.757979	6226.676667	1349.335938	299.491241
401.757979	6226.676667	1348.246094	351.257660
401.757979	6226.676667	1347.156250	252.694519
401.757979	6226.676667	1346.066406	385.528259
401.757979	6226.676667	1344.975586	471.133240
401.757979	6226.676667	1343.884766	480.439636
401.757979	6226.676667	1342.793945	555.947388
401.757979	6226.676667	1341.702148	348.830627
401.757979	6226.676667	1340.611328	543.888062
401.757979	6226.676667	1339.519531	339.025970
401.757979	6226.676667	1338.427734	370.272003
401.757979	6226.676667	1337.334961	265.237000
401.757979	6226.676667	1336.243164	400.117859
401.757979	6226.676667	1335.150391	322.031921
401.757979	6226.676667	1334.057617	315.705048
401.757979	6226.676667	1332.964844	216.527664
401.757979	6226.676667	1331.871094	307.278748
401.757979	6226.676667	1330.778320	186.435181
401.757979	6226.676667	1329.684570	116.345032
401.757979	6226.676667	1328.590820	176.477142
401.757979	6226.676667	1327.496094	82.033386
401.757979	6226.676667	1326.402344	127.477753
401.757979	6226.676667	1325.307617	150.100876
401.757979	6226.676667	1324.212891	170.629303
401.757979	6226.676667	1323.117188	86.077484
401.757979	6226.676667	1322.022461	22.166059
401.757979	6226.676667	1320.926758	43.906540
401.757979	6226.676667	1319.831055	-37.456089
401.757979	6226.676667	1318.735352	151.898331
401.757979	6226.676667	1317.638672	-0.565467
401.757979	6226.676667	1316.542969	222.732300
401.757979	6226.676667	1315.446289	228.519196
401.757979	6226.676667	1314.349609	148.660172
401.757979	6226.676667	1313.251953	106.587852
401.757979	6226.676667	1312.155273	63.728493
401.757979	6226.676667	1311.057617	164.455322
401.757979	6226.676667	1309.959961	116.796295
401.757979	6226.676667	1308.862305	19.163342
401.757979	6226.676667	1307.763672	6.230375
401.757979	6226.676667	1306.665039	136.963760
401.757979	6226.676667	1305.566406	207.445343
401.757979	6226.676667	1304.467773	291.919067
401.757979	6226.676667	1303.369141	39.064396
401.757979	6226.676667	1302.269531	-66.545227
401.757979	6226.676667	1301.169922	92.326950
401.757979	6226.676667	1300.070313	178.314514
401.757979	6226.676667	1298.970703	66.793228
401.757979	6226.676667	1297.870117	261.252594
401.757979	6226.676667	1296.769531	180.723251
401.757979	6226.676667	1295.668945	202.613159
401.757979	6226.676667	1294.568359	234.694565
401.757979	6226.676667	1293.466797	94.794930
401.757979	6226.676667	1292.366211	42.881737
401.757979	6226.676667	1291.264648	133.778122
401.757979	6226.676667	1290.162109	71.813972
401.757979	6226.676667	1289.060547	165.870712
401.757979	6226.676667	1287.958008	17.298941
401.757979	6226.676667	1286.855469	210.744293
401.757979	6226.676667	1285.752930	47.192867
401.757979	6226.676667	1284.650391	76.059464
401.757979	6226.676667	1283.546875	210.738098
401.757979	6226.676667	1282.444336	217.909760
401.757979	6226.676667	1281.339844	324.158386
401.757979	6226.676667	1280.236328	71.989403
401.757979	6226.676667	1279.132813	135.080017
401.757979	6226.676667	1278.028320	17.149530
401.757979	6226.676667	1276.923828	13.523100
401.757979	6226.676667	1275.819336	91.874298
401.757979	6226.676667	1274.713867	89.820892
401.757979	6226.676667	1273.608398	26.536629
401.757979	6226.676667	1272.503906	61.713745
401.757979	6226.676667	1271.397461	111.619202
401.757979	6226.676667	1270.291992	-46.929520
401.757979	6226.676667	1269.185547	39.350319
401.757979	6226.676667	1268.080078	84.052361
401.757979	6226.676667	1266.972656	-17.423447
401.757979	6226.676667	1265.866211	-41.810593
401.757979	6226.676667	1264.759766	0.574178
401.757979	6226.676667	1263.652344	-58.929569
401.757979	6226.676667	1262.544922	-98.792778
401.757979	6226.676667	1261.436523	-91.350670
401.757979	6226.676667	1260.329102	-156.455109
401.757979	6226.676667	1259.220703	-184.131729
401.757979	6226.676667	1258.112305	-154.916946
401.757979	6226.676667	1257.003906	-155.563995
401.757979	6226.676667	1255.895508	-130.724503
401.757979	6226.676667	1254.786133	4.693110
401.757979	6226.676667	1253.676758	11.796894
401.757979	6226.676667	1252.567383	-96.550163
401.757979	6226.676667	1251.458008	-112.719437
401.757979	6226.676667	1250.347656	30.832846
401.757979	6226.676667	1249.237305	78.534019
401.757979	6226.676667	1248.126953	14.411131
401.757979	6226.676667	1247.016602	49.164082
401.757979	6226.676667	1245.905273	-5.261948
401.757979	6226.676667	1244.793945	22.035915
401.757979	6226.676667	1243.682617	9.165770
401.757979	6226.676667	1242.571289	104.699577
401.757979	6226.676667	1241.459961	110.156578
401.757979	6226.676667	1240.347656	14.196816
401.757979	6226.676667	1239.235352	-18.487812
401.757979	6226.676667	1238.123047	-19.722807
401.757979	6226.676667	1237.009766	78.932175
401.757979	6226.676667	1235.897461	-4.998218
401.757979	6226.676667	1234.784180	-122.563644
401.757979	6226.676667	1233.670898	-67.407227
401.757979	6226.676667	1232.556641	-36.477253
401.757979	6226.676667	1231.443359	91.173706
401.757979	6226.676667	1230.329102	3.014596
401.757979	6226.676667	1229.214844	55.803642
401.757979	6226.676667	1228.099609	-25.415247
401.757979	6226.676667	1226.985352	47.894180
401.757979	6226.676667	1225.870117	50.704819
401.757979	6226.676667	1224.754883	145.241653
401.757979	6226.676667	1223.639648	299.625488
401.757979	6226.676667	1222.523438	259.009583
401.757979	6226.676667	1221.408203	177.868683
401.757979	6226.676667	1220.291992	154.456909
401.757979	6226.676667	1219.174805	126.072792
401.757979	6226.676667	1218.058594	38.142193
401.757979	6226.676667	1216.941406	-42.014305
401.757979	6226.676667	1215.824219	15.499166
401.757979	6226.676667	1214.707031	-24.300133
401.757979	6226.676667	1213.589844	10.847242
401.757979	6226.676667	1212.471680	46.887569
401.757979	6226.676667	1211.353516	-0.078211
401.757979	6226.676667	1210.235352	37.800163
401.757979	6226.676667	1209.117188	-165.807709
401.757979	6226.676667	1207.998047	-53.928192
401.757979	6226.676667	1206.878906	44.768147
401.757979	6226.676667	1205.759766	65.872795
401.757979	6226.676667	1204.640625	-53.072582
401.757979	6226.676667	1203.520508	141.016968
401.757979	6226.676667	1202.401367	80.791878
401.757979	6226.676667	1201.281250	-8.298349
401.757979	6226.676667	1200.160156	-20.052860
401.757979	6226.676667	1199.040039	-36.718666
401.757979	6226.676667	1197.918945	41.437901
401.757979	6226.676667	1196.797852	110.305878
401.757979	6226.676667	1195.676758	-23.629709
401.757979	6226.676667	1194.555664	32.643524
401.757979	6226.676667	1193.433594	32.601120
401.757979	6226.676667	1192.311523	32.254200
401.757979	6226.676667	1191.189453	-39.361423
401.757979	6226.676667	1190.066406	21.820604
401.757979	6226.676667	1188.944336	-66.460335
401.757979	6226.676667	1187.821289	69.978600
401.757979	6226.676667	1186.698242	51.990326
401.757979	6226.676667	1185.574219	85.611893
401.757979	6226.676667	1184.451172	-13.730743
401.757979	6226.676667	1183.327148	-7.345039
401.757979	6226.676667	1182.203125	72.013573
401.757979	6226.676667	1181.078125	-3.446021
401.757979	6226.676667	1179.954102	-27.377888
401.757979	6226.676667	1178.829102	-125.762375
401.757979	6226.676667	1177.704102	-145.567795
401.757979	6226.676667	1176.579102	-20.334471
401.757979	6226.676667	1175.453125	33.065384
401.757979	6226.676667	1174.327148	-152.513260
401.757979	6226.676667	1173.201172	52.134373
401.757979	6226.676667	1172.075195	-161.359207
401.757979	6226.676667	1170.949219	-50.467926
401.757979	6226.676667	1169.822266	-38.783756
401.757979	6226.676667	1168.695313	92.179184
401.757979	6226.676667	1167.568359	-47.732731
401.757979	6226.676667	1166.440430	43.087734
401.757979	6226.676667	1165.313477	-18.204659
401.757979	6226.676667	1164.185547	-12.602196
401.757979	6226.676667	1163.057617	-33.657028
401.757979	6226.676667	1161.928711	-89.206306
401.757979	6226.676667	1160.800781	-79.816841
401.757979	6226.676667	1159.671875	-69.971252
401.757979	6226.676667	1158.541992	-51.554626
401.757979	6226.676667	1157.413086	-40.888580
401.757979	6226.676667	1156.283203	41.028576
401.757979	6226.676667	1155.154297	-183.099335
401.757979	6226.676667	1154.023438	-62.756046
401.757979	6226.676667	1152.893555	-53.502327
401.757979	6226.676667	1151.763672	-139.765228
401.757979	6226.676667	1150.632813	-80.344902
401.757979	6226.676667	1149.501953	-93.891968
401.757979	6226.676667	1148.370117	22.951609
401.757979	6226.676667	1147.239258	12.911325
401.757979	6226.676667	1146.107422	-132.269150
401.757979	6226.676667	1144.975586	65.085785
401.757979	6226.676667	1143.843750	16.212208
401.757979	6226.676667	1142.710938	113.144836
401.757979	6226.676667	1141.578125	49.424580
401.757979	6226.676667	1140.445313	54.312889
401.757979	6226.676667	1139.312500	172.867142
401.757979	6226.676667	1138.178711	-11.788173
401.757979	6226.676667	1137.045898	141.575684
401.757979	6226.676667	1135.912109	36.937477
401.757979	6226.676667	1134.777344	41.247089
401.757979	6226.676667	1133.643555	160.310501
401.757979	6226.676667	1132.508789	123.830025
401.757979	6226.676667	1131.374023	137.250015
401.757979	6226.676667	1130.239258	211.613235
401.757979	6226.676667	1129.104492	189.846207
401.757979	6226.676667	1127.968750	285.100616
401.757979	6226.676667	1126.833008	236.450851
401.757979	6226.676667	1125.697266	208.940613
401.757979	6226.676667	1124.560547	290.152252
401.757979	6226.676667	1123.424805	164.894028
401.757979	6226.676667	1122.288086	334.805450
401.757979	6226.676667	1121.151367	306.777344
401.757979	6226.676667	1120.013672	262.710358
401.757979	6226.676667	1118.876953	231.639526
401.757979	6226.676667	1117.739258	90.591850
401.757979	6226.676667	1116.601563	201.695587
401.757979	6226.676667	1115.462891	158.078857
401.757979	6226.676667	1114.324219	251.128723
401.757979	6226.676667	1113.186523	291.446228
401.757979	6226.676667	1112.046875	326.762634
401.757979	6226.676667	1110.908203	234.208633
401.757979	6226.676667	1109.769531	132.565582
401.757979	6226.676667	1108.629883	155.870651
401.757979	6226.676667	1107.490234	27.558933
401.757979	6226.676667	1106.349609	41.694897
401.757979	6226.676667	1105.209961	61.007446
401.757979	6226.676667	1104.069336	184.455765
401.757979	6226.676667	1102.928711	319.364685
401.757979	6226.676667	1101.787109	64.518318
401.757979	6226.676667	1100.646484	152.726822
401.757979	6226.676667	1099.504883	99.848625
401.757979	6226.676667	1098.363281	98.822914
401.757979	6226.676667	1097.221680	234.291153
401.757979	6226.676667	1096.079102	197.324448
401.757979	6226.676667	1094.936523	107.781036
401.757979	6226.676667	1093.793945	338.592407
401.757979	6226.676667	1092.651367	64.556259
401.757979	6226.676667	1091.507813	223.718277
401.757979	6226.676667	1090.364258	145.435776
401.757979	6226.676667	1089.220703	125.731110
401.757979	6226.676667	1088.077148	168.282852
401.757979	6226.676667	1086.933594	92.074760
401.757979	6226.676667	1085.789063	96.372620
401.757979	6226.676667	1084.644531	121.696991
401.757979	6226.676667	1083.499023	109.354614
401.757979	6226.676667	1082.354492	-4.218561
401.757979	6226.676667	1081.208984	51.013424
401.757979	6226.676667	1080.063477	106.569778
401.757979	6226.676667	1078.917969	59.416210
401.757979	6226.676667	1077.771484	166.115723
401.757979	6226.676667	1076.625977	105.799339
401.757979	6226.676667	1075.479492	158.398300
401.757979	6226.676667	1074.332031	266.080902
401.757979	6226.676667	1073.185547	126.008606
401.757979	6226.676667	1072.038086	144.692581
401.757979	6226.676667	1070.890625	210.291443
401.757979	6226.676667	1069.743164	188.823151
401.757979	6226.676667	1068.594727	239.757278
401.757979	6226.676667	1067.447266	301.460632
401.757979	6226.676667	1066.298828	273.055511
401.757979	6226.676667	1065.149414	273.309326
401.757979	6226.676667	1064.000977	259.649078
401.757979	6226.676667	1062.851563	413.897644
401.757979	6226.676667	1061.702148	274.608368
401.757979	6226.676667	1060.552734	292.990143
401.757979	6226.676667	1059.402344	395.177887
401.757979	6226.676667	1058.252930	198.594055
401.757979	6226.676667	1057.102539	44.778980
401.757979	6226.676667	1055.951172	165.181763
401.757979	6226.676667	1054.800781	118.945213
401.757979	6226.676667	1053.649414	175.248199
401.757979	6226.676667	1052.498047	128.742950
401.757979	6226.676667	1051.346680	93.380600
401.757979	6226.676667	1050.194336	199.234375
401.757979	6226.676667	1049.042969	23.370201
401.757979	6226.676667	1047.890625	223.635162
401.757979	6226.676667	1046.738281	140.348129
401.757979	6226.676667	1045.584961	312.100769
401.757979	6226.676667	1044.431641	179.197372
401.757979	6226.676667	1043.278320	60.132076
401.757979	6226.676667	1042.125000	140.498154
401.757979	6226.676667	1040.971680	114.944069
401.757979	6226.676667	1039.817383	407.550140
401.757979	6226.676667	1038.663086	284.796570
401.757979	6226.676667	1037.508789	129.223938
401.757979	6226.676667	1036.353516	214.146851
401.757979	6226.676667	1035.198242	74.745323
401.757979	6226.676667	1034.042969	81.733749
401.757979	6226.676667	1032.887695	156.573578
401.757979	6226.676667	1031.732422	161.242889
401.757979	6226.676667	1030.576172	245.192444
401.757979	6226.676667	1029.419922	183.679047
401.757979	6226.676667	1028.263672	308.051880
401.757979	6226.676667	1027.106445	48.532593
401.757979	6226.676667	1025.949219	221.089539
401.757979	6226.676667	1024.792969	163.439682
401.757979	6226.676667	1023.634766	75.519775
401.757979	6226.676667	1022.477539	146.460571
401.757979	6226.676667	1021.319336	136.174469
401.757979	6226.676667	1020.161133	144.636261
401.757979	6226.676667	1019.002930	180.007660
401.757979	6226.676667	1017.843750	85.841721
401.757979	6226.676667	1016.684570	90.024467
401.757979	6226.676667	1015.525391	-17.698412
401.757979	6226.676667	1014.366211	171.464203
401.757979	6226.676667	1013.207031	58.442562
401.757979	6226.676667	1012.046875	9.559649
401.757979	6226.676667	1010.886719	-39.483925
401.757979	6226.676667	1009.726563	10.985776
401.757979	6226.676667	1008.565430	87.535301
401.757979	6226.676667	1007.404297	138.900024
401.757979	6226.676667	1006.243164	154.699188
401.757979	6226.676667	1005.082031	-26.110039
401.757979	6226.676667	1003.920898	78.042755
401.757979	6226.676667	1002.758789	345.890533
401.757979	6226.676667	1001.596680	136.298172
401.757979	6226.676667	1000.433594	78.484932
401.757979	6226.676667	999.271484	307.528809
401.757979	6226.676667	998.108398	135.370560
401.757979	6226.676667	996.945313	-75.238548
401.757979	6226.676667	995.782227	216.885178
401.757979	6226.676667	994.618164	10.343226
401.757979	6226.676667	993.454102	140.851746
401.757979	6226.676667	992.290039	40.653549
401.757979	6226.676667	991.125977	-14.696516
401.757979	6226.676667	989.960938	44.043056
401.757979	6226.676667	988.796875	126.637230
401.757979	6226.676667	987.630859	-10.758660
401.757979	6226.676667	986.465820	127.129555
401.757979	6226.676667	985.300781	65.704033
401.757979	6226.676667	984.134766	-81.671753
401.757979	6226.676667	982.968750	7.631677
401.757979	6226.676667	981.801758	-51.232685
401.757979	6226.676667	980.635742	-8.233924
401.757979	6226.676667	979.468750	45.016777
401.757979	6226.676667	978.301758	239.811584
401.757979	6226.676667	977.133789	-53.740051
401.757979	6226.676667	975.966797	21.235268
401.757979	6226.676667	974.798828	56.256554
401.757979	6226.676667	973.630859	-4.228169
401.757979	6226.676667	972.461914	81.885117
401.757979	6226.676667	971.293945	-45.943615
401.757979	6226.676667	970.125000	-39.147644
401.757979	6226.676667	968.956055	-114.312057
401.757979	6226.676667	967.786133	61.684658
401.757979	6226.676667	966.617188	-47.966873
401.757979	6226.676667	965.447266	-14.469140
401.757979	6226.676667	964.276367	-22.670637
401.757979	6226.676667	963.106445	51.494377
401.757979	6226.676667	961.935547	-46.235283
401.757979	6226.676667	960.764648	24.450459
401.757979	6226.676667	959.593750	34.963913
401.757979	6226.676667	958.422852	127.334579
401.757979	6226.676667	957.250977	121.844460
401.757979	6226.676667	956.079102	-3.208488
401.757979	6226.676667	954.907227	188.320465
401.757979	6226.676667	953.734375	75.465233
401.757979	6226.676667	952.562500	237.057526
401.757979	6226.676667	951.389648	-21.973740
401.757979	6226.676667	950.215820	-182.724106
401.757979	6226.676667	949.042969	-70.318794
401.757979	6226.676667	947.869141	-28.391470
401.757979	6226.676667	946.695313	49.052254
401.757979	6226.676667	945.521484	184.939835
401.757979	6226.676667	944.346680	-56.650520
401.757979	6226.676667	943.172852	-36.855068
401.757979	6226.676667	941.998047	-40.736866
401.757979	6226.676667	940.822266	62.660793
401.757979	6226.676667	939.647461	-31.250395
401.757979	6226.676667	938.471680	203.347763
401.757979	6226.676667	937.295898	311.279877
401.757979	6226.676667	936.119141	51.882374
401.757979	6226.676667	934.943359	-67.857277
401.757979	6226.676667	933.766602	-43.787979
401.757979	6226.676667	932.589844	192.769440
401.757979	6226.676667	931.413086	210.331787
401.757979	6226.676667	930.235352	172.098663
401.757979	6226.676667	929.057617	135.912888
401.757979	6226.676667	927.879883	121.291733
401.757979	6226.676667	926.702148	132.348221
401.757979	6226.676667	925.523438	186.290207
401.757979	6226.676667	924.344727	274.530853
401.757979	6226.676667	923.166016	296.248566
401.757979	6226.676667	921.987305	86.416740
401.757979	6226.676667	920.807617	105.993149
401.757979	6226.676667	919.627930	107.819229
401.757979	6226.676667	919.497070	63.606483
401.757979	6226.676667	918.331055	115.265785
401.757979	6226.676667	917.165039	21.233675
401.757979	6226.676667	915.999023	42.869236
401.757979	6226.676667	914.833008	32.364571
401.757979	6226.676667	913.666016	13.288214
401.757979	6226.676667	912.499023	139.742905
401.757979	6226.676667	911.332031	212.636078
401.757979	6226.676667	910.165039	50.153950
401.757979	6226.676667	908.997070	-80.190155
401.757979	6226.676667	907.830078	-137.786530
401.757979	6226.676667	906.661133	-124.813469
401.757979	6226.676667	905.493164	-163.163574
401.757979	6226.676667	904.325195	-36.946129
401.757979	6226.676667	903.156250	136.217361
401.757979	6226.676667	901.987305	63.619183
401.757979	6226.676667	900.818359	18.804440
401.757979	6226.676667	899.648438	161.918671
401.757979	6226.676667	898.478516	104.269341
401.757979	6226.676667	897.308594	87.189140
401.757979	6226.676667	896.138672	-21.665012
401.757979	6226.676667	894.968750	48.746620
401.757979	6226.676667	893.797852	-6.744447
401.757979	6226.676667	892.626953	140.396820
401.757979	6226.676667	891.456055	63.563652
401.757979	6226.676667	890.284180	204.214005
401.757979	6226.676667	889.113281	-51.672974
401.757979	6226.676667	887.941406	14.333556
401.757979	6226.676667	886.768555	61.127293
401.757979	6226.676667	885.596680	-7.142173
401.757979	6226.676667	884.423828	-69.003029
401.757979	6226.676667	883.250977	-47.803486
401.757979	6226.676667	882.078125	24.472227
401.757979	6226.676667	880.905273	11.568901
401.757979	6226.676667	879.731445	28.455620
401.757979	6226.676667	878.557617	-46.162586
401.757979	6226.676667	877.383789	-35.671314
401.757979	6226.676667	876.209961	-23.066513
401.757979	6226.676667	875.035156	-127.423080
401.757979	6226.676667	873.860352	23.361980
401.757979	6226.676667	872.685547	65.677963
401.757979	6226.676667	871.510742	56.967392
401.757979	6226.676667	870.334961	22.758347
401.757979	6226.676667	869.159180	-104.907677
401.757979	6226.676667	867.983398	-71.127235
401.757979	6226.676667	866.807617	30.575874
401.757979	6226.676667	865.630859	-77.930466
401.757979	6226.676667	864.454102	223.224365
401.757979	6226.676667	863.277344	70.145935
401.757979	6226.676667	862.100586	-0.137811
401.757979	6226.676667	860.922852	-44.946026
401.757979	6226.676667	859.745117	-60.053593
401.757979	6226.676667	858.567383	92.336456
401.757979	6226.676667	857.389648	87.791107
401.757979	6226.676667	856.210938	-54.517124
401.757979	6226.676667	855.032227	-3.951499
401.757979	6226.676667	853.853516	86.838165
401.757979	6226.676667	852.674805	-21.514257
401.757979	6226.676667	851.495117	-131.946167
401.757979	6226.676667	850.315430	-30.619631
401.757979	6226.676667	849.135742	15.622643
401.757979	6226.676667	847.956055	78.769493
401.757979	6226.676667	846.775391	-18.922184
401.757979	6226.676667	845.595703	29.384577
401.757979	6226.676667	844.415039	-68.269638
401.757979	6226.676667	843.233398	191.474579
401.757979	6226.676667	842.052734	-77.432022
401.757979	6226.676667	840.871094	-111.611015
401.757979	6226.676667	839.689453	-35.892422
401.757979	6226.676667	838.506836	-114.447624
401.757979	6226.676667	837.325195	-154.954269
401.757979	6226.676667	836.142578	45.315628
401.757979	6226.676667	834.959961	-166.253601
401.757979	6226.676667	833.777344	99.367844
401.757979	6226.676667	832.593750	-23.489019
401.757979	6226.676667	831.410156	73.163170
401.757979	6226.676667	830.226563	121.244331
401.757979	6226.676667	829.042969	-66.950111
401.757979	6226.676667	827.858398	95.010414
401.757979	6226.676667	826.673828	27.072268
401.757979	6226.676667	825.489258	94.071365
401.757979	6226.676667	824.304688	-28.650017
401.757979	6226.676667	823.120117	-33.323837
401.757979	6226.676667	821.934570	50.482395
401.757979	6226.676667	820.749023	-70.065735
401.757979	6226.676667	819.562500	110.572655
401.757979	6226.676667	818.376953	-165.754608
401.757979	6226.676667	817.190430	-94.644958
401.757979	6226.676667	816.003906	33.252243
401.757979	6226.676667	814.817383	-146.115280
401.757979	6226.676667	813.629883	-7.754100
401.757979	6226.676667	812.442383	176.815369
401.757979	6226.676667	811.254883	37.463650
401.757979	6226.676667	810.067383	-38.764885
401.757979	6226.676667	808.878906	-47.704945
401.757979	6226.676667	807.690430	31.616196
401.757979	6226.676667	806.501953	100.392303
401.757979	6226.676667	805.313477	93.508537
401.757979	6226.676667	804.124023	61.417747
401.757979	6226.676667	802.934570	140.622452
401.757979	6226.676667	801.745117	-21.640141
401.757979	6226.676667	800.555664	95.314911
401.757979	6226.676667	799.365234	52.728016
401.757979	6226.676667	798.175781	163.309433
401.757979	6226.676667	796.985352	-15.635242
401.757979	6226.676667	795.793945	38.275208
401.757979	6226.676667	794.603516	43.929279
401.757979	6226.676667	793.412109	-76.206825
401.757979	6226.676667	792.220703	-76.835655
401.757979	6226.676667	791.028320	-150.813080
401.757979	6226.676667	789.836914	83.199158
401.757979	6226.676667	788.644531	0.822941
401.757979	6226.676667	787.452148	-135.976791
401.757979	6226.676667	786.258789	-80.105751
401.757979	6226.676667	785.066406	88.769455
401.757979	6226.676667	783.873047	-66.826515
401.757979	6226.676667	782.679688	-80.083504
401.757979	6226.676667	781.485352	86.566360
401.757979	6226.676667	780.291992	54.438950
401.757979	6226.676667	779.097656	30.678940
401.757979	6226.676667	777.903320	167.901199
401.757979	6226.676667	776.708008	24.963106
401.757979	6226.676667	775.512695	65.976601
401.757979	6226.676667	774.318359	81.888618
401.757979	6226.676667	773.122070	-67.243057
401.757979	6226.676667	771.926758	7.145930
401.757979	6226.676667	770.730469	-66.761307
401.757979	6226.676667	769.534180	137.007065
401.757979	6226.676667	768.337891	211.271133
401.757979	6226.676667	767.141602	145.677643
401.757979	6226.676667	765.944336	100.962738
401.757979	6226.676667	764.747070	39.565571
401.757979	6226.676667	763.549805	-51.015560
401.757979	6226.676667	762.351563	114.887573
401.757979	6226.676667	761.154297	-84.099342
401.757979	6226.676667	759.956055	12.936066
401.757979	6226.676667	758.757813	36.985710
401.757979	6226.676667	757.558594	-72.320808
401.757979	6226.676667	756.359375	287.049957
401.757979	6226.676667	755.160156	42.348190
401.757979	6226.676667	753.960938	107.952087
401.757979	6226.676667	752.761719	133.962433
401.757979	6226.676667	751.561523	187.001434
401.757979	6226.676667	750.361328	81.868187
401.757979	6226.676667	749.160156	43.331341
401.757979	6226.676667	747.959961	4.793176
401.757979	6226.676667	746.758789	61.906483
401.757979	6226.676667	745.557617	235.400574
401.757979	6226.676667	744.356445	55.453892
401.757979	6226.676667	743.154297	143.639175
401.757979	6226.676667	741.952148	98.798592
401.757979	6226.676667	740.750000	-37.440239
401.757979	6226.676667	739.547852	-119.644508
401.757979	6226.676667	738.344727	32.795586
401.757979	6226.676667	737.142578	68.899750
401.757979	6226.676667	735.939453	115.346367
401.757979	6226.676667	734.735352	68.375801
401.757979	6226.676667	733.532227	-20.088825
401.757979	6226.676667	732.328125	-6.901952
401.757979	6226.676667	731.124023	51.881229
401.757979	6226.676667	729.918945	-28.295139
401.757979	6226.676667	728.714844	-11.033689
401.757979	6226.676667	727.509766	-16.599154
401.757979	6226.676667	726.303711	-57.408897
401.757979	6226.676667	725.098633	148.294891
401.757979	6226.676667	723.892578	167.484192
401.757979	6226.676667	722.686523	196.996017
401.757979	6226.676667	721.480469	222.330536
401.757979	6226.676667	720.274414	75.831146
401.757979	6226.676667	719.067383	113.547798
401.757979	6226.676667	717.860352	14.669624
401.757979	6226.676667	716.653320	50.264164
401.757979	6226.676667	715.445313	-52.746647
401.757979	6226.676667	714.238281	125.466156
401.757979	6226.676667	713.030273	-80.933434
401.757979	6226.676667	711.821289	-76.456535
401.757979	6226.676667	710.613281	99.502296
401.757979	6226.676667	709.404297	-152.294922
401.757979	6226.676667	708.195313	-26.022163
401.757979	6226.676667	706.986328	129.080490
401.757979	6226.676667	705.776367	-110.261482
401.757979	6226.676667	704.566406	150.011902
401.757979	6226.676667	703.356445	90.258202
401.757979	6226.676667	702.146484	59.386795
401.757979	6226.676667	700.935547	22.309582
401.757979	6226.676667	699.724609	-43.657513
401.757979	6226.676667	698.513672	63.586273
401.757979	6226.676667	697.302734	98.596291
401.757979	6226.676667	696.090820	75.846863
401.757979	6226.676667	694.878906	139.627151
401.757979	6226.676667	693.666992	38.522320
401.757979	6226.676667	692.455078	50.721992
401.757979	6226.676667	691.242188	-9.197553
401.757979	6226.676667	690.029297	91.479240
401.757979	6226.676667	688.816406	29.451298
401.757979	6226.676667	687.602539	146.475494
401.757979	6226.676667	686.389648	214.031799
401.757979	6226.676667	685.175781	131.341766
401.757979	6226.676667	683.960938	26.025625
401.757979	6226.676667	682.747070	239.467346
401.757979	6226.676667	681.532227	230.735001
401.757979	6226.676667	680.317383	269.248962
401.757979	6226.676667	679.102539	59.039246
401.757979	6226.676667	677.886719	115.992897
401.757979	6226.676667	676.670898	154.398071
401.757979	6226.676667	675.455078	137.296005
401.757979	6226.676667	674.239258	142.752396
401.757979	6226.676667	673.022461	172.804092
401.757979	6226.676667	671.805664	85.810654
401.757979	6226.676667	670.588867	-38.121685
401.757979	6226.676667	669.372070	-43.042969
401.757979	6226.676667	668.154297	70.971268
401.757979	6226.676667	666.936523	186.949677
401.757979	6226.676667	665.718750	19.888153
401.757979	6226.676667	664.500977	139.850937
401.757979	6226.676667	663.282227	187.989441
401.757979	6226.676667	662.063477	25.013151
401.757979	6226.676667	660.844727	132.487289
401.757979	6226.676667	659.625000	147.705795
401.757979	6226.676667	658.405273	15.436818
401.757979	6226.676667	657.185547	192.334015
401.757979	6226.676667	655.965820	57.984650
401.757979	6226.676667	654.745117	99.647369
401.757979	6226.676667	653.525391	-8.108710
401.757979	6226.676667	652.303711	-99.497597
401.757979	6226.676667	651.083008	244.737427
401.757979	6226.676667	649.861328	6.028769
401.757979	6226.676667	648.640625	112.872086
401.757979	6226.676667	647.417969	92.904099
401.757979	6226.676667	646.196289	132.164658
401.757979	6226.676667	644.973633	108.031738
401.757979	6226.676667	643.750977	169.656326
401.757979	6226.676667	642.528320	24.954350
401.757979	6226.676667	641.305664	241.657700
401.757979	6226.676667	640.082031	137.741577
401.757979	6226.676667	638.858398	31.786785
401.757979	6226.676667	637.634766	119.675636
401.757979	6226.676667	636.410156	54.482845
401.757979	6226.676667	635.185547	-73.950867
401.757979	6226.676667	633.960938	66.793465
401.757979	6226.676667	632.736328	117.732925
401.757979	6226.676667	631.510742	87.074982
401.757979	6226.676667	630.285156	-88.298950
401.757979	6226.676667	629.059570	72.532066
401.757979	6226.676667	627.833984	15.295636
401.757979	6226.676667	626.607422	139.291901
401.757979	6226.676667	625.380859	130.845810
401.757979	6226.676667	624.154297	30.755299
401.757979	6226.676667	622.927734	-112.074730
401.757979	6226.676667	621.700195	52.369156
401.757979	6226.676667	620.472656	-78.285179
401.757979	6226.676667	619.245117	-97.058113
401.757979	6226.676667	618.016602	36.647236
401.757979	6226.676667	616.788086	48.268425
401.757979	6226.676667	615.559570	23.255835
401.757979	6226.676667	614.331055	-97.302460
401.757979	6226.676667	613.101563	166.156647
401.757979	6226.676667	611.872070	11.001559
401.757979	6226.676667	610.642578	111.769127
401.757979	6226.676667	609.413086	-35.267456
401.757979	6226.676667	608.182617	-36.119869
401.757979	6226.676667	606.952148	46.203518
401.757979	6226.676667	605.721680	-11.563131
401.757979	6226.676667	604.491211	-4.423914
401.757979	6226.676667	603.259766	93.945854
401.757979	6226.676667	602.028320	36.084850
401.757979	6226.676667	600.796875	26.869867
401.757979	6226.676667	599.564453	25.725649
401.757979	6226.676667	598.332031	-24.094648
401.757979	6226.676667	597.099609	37.508472
401.757979	6226.676667	595.867188	62.584713
401.757979	6226.676667	594.633789	18.749184
401.757979	6226.676667	593.400391	-102.050446
401.757979	6226.676667	592.166992	-81.122353
401.757979	6226.676667	590.933594	47.035385
401.757979	6226.676667	589.699219	-94.039330
401.757979	6226.676667	588.464844	29.946547
401.757979	6226.676667	587.230469	163.958832
401.757979	6226.676667	585.995117	36.999260
401.757979	6226.676667	584.760742	-83.871178
401.757979	6226.676667	583.525391	21.676199
401.757979	6226.676667	582.289063	-26.454832
401.757979	6226.676667	581.053711	34.518097
401.757979	6226.676667	579.817383	-78.303497
401.757979	6226.676667	578.581055	-75.983192
401.757979	6226.676667	577.343750	118.135475
401.757979	6226.676667	576.107422	-71.439316
401.757979	6226.676667	574.870117	-119.675499
401.757979	6226.676667	573.631836	9.661863
401.757979	6226.676667	572.394531	110.672928
401.757979	6226.676667	571.156250	44.188004
401.757979	6226.676667	569.917969	70.473351
401.757979	6226.676667	568.679688	112.851425
401.757979	6226.676667	567.440430	-32.290894
401.757979	6226.676667	566.202148	-98.791191
401.757979	6226.676667	564.961914	-110.888695
401.757979	6226.676667	563.722656	177.168015
401.757979	6226.676667	562.482422	120.659782
401.757979	6226.676667	561.243164	172.897629
401.757979	6226.676667	560.001953	-34.626846
401.757979	6226.676667	558.761719	108.154900
401.757979	6226.676667	557.520508	85.834679
401.757979	6226.676667	556.279297	-67.272614
401.757979	6226.676667	555.038086	147.780609
401.757979	6226.676667	553.795898	26.865105
401.757979	6226.676667	552.554688	197.537750
401.757979	6226.676667	551.311523	179.151276
401.757979	6226.676667	550.069336	112.525558
401.757979	6226.676667	548.826172	96.145844
401.757979	6226.676667	547.583984	188.248352
401.757979	6226.676667	546.339844	-33.039368
401.757979	6226.676667	545.096680	57.016762
401.757979	6226.676667	543.852539	52.659294
401.757979	6226.676667	542.608398	54.316628
401.757979	6226.676667	541.364258	35.896412
401.757979	6226.676667	540.119141	71.645363
401.757979	6226.676667	538.875000	73.274925
401.757979	6226.676667	537.628906	70.879898
401.757979	6226.676667	536.383789	200.820938
401.757979	6226.676667	535.137695	98.157486
401.757979	6226.676667	533.892578	9.568797
401.757979	6226.676667	532.645508	45.244389
401.757979	6226.676667	531.399414	64.880898
401.757979	6226.676667	530.152344	78.496262
401.757979	6226.676667	528.905273	78.088799
401.757979	6226.676667	527.658203	-12.410388
401.757979	6226.676667	526.410156	107.302116
401.757979	6226.676667	525.163086	72.876732
401.757979	6226.676667	523.914063	-113.598030
401.757979	6226.676667	522.666016	38.079773
401.757979	6226.676667	521.416992	-68.297440
401.757979	6226.676667	520.167969	243.276886
401.757979	6226.676667	518.918945	-142.954117
401.757979	6226.676667	517.669922	8.627650
401.757979	6226.676667	516.419922	16.279247
401.757979	6226.676667	515.169922	-93.931290
401.757979	6226.676667	513.919922	-62.269176
401.757979	6226.676667	512.668945	-134.451950
401.757979	6226.676667	511.417969	15.022448
401.757979	6226.676667	510.166992	-13.203506
401.757979	6226.676667	508.916016	4.498492
401.757979	6226.676667	507.664063	2.253684
401.757979	6226.676667	506.412109	-31.889095
401.757979	6226.676667	505.160156	23.747246
401.757979	6226.676667	503.907227	-165.879044
401.757979	6226.676667	502.655273	-48.399818
401.757979	6226.676667	501.402344	-14.663566
401.757979	6226.676667	500.148438	-20.776896
401.757979	6226.676667	498.895508	-74.675072
401.757979	6226.676667	497.641602	-114.587860
401.757979	6226.676667	496.387695	-98.701576
401.757979	6226.676667	495.132813	-48.955429
401.757979	6226.676667	493.878906	-17.116974
401.757979	6226.676667	492.624023	-112.634659
401.757979	6226.676667	491.368164	52.555630
401.757979	6226.676667	490.113281	54.588470
401.757979	6226.676667	488.857422	-36.828293
401.757979	6226.676667	487.601563	-118.235817
401.757979	6226.676667	486.344727	-80.307747
401.757979	6226.676667	485.088867	-8.575842
401.757979	6226.676667	483.832031	-169.337097
401.757979	6226.676667	482.575195	-10.149512
401.757979	6226.676667	481.317383	-3.942157
401.757979	6226.676667	480.059570	-35.437717
401.757979	6226.676667	478.801758	38.334713
401.757979	6226.676667	477.543945	-104.251663
401.757979	6226.676667	476.285156	-2.654803
401.757979	6226.676667	475.027344	106.868660
401.757979	6226.676667	473.767578	8.085711
401.757979	6226.676667	472.508789	-82.687675
401.757979	6226.676667	471.249023	-0.890558
401.757979	6226.676667	469.989258	13.500825
401.757979	6226.676667	468.729492	158.724533
401.757979	6226.676667	467.469727	38.392570
401.757979	6226.676667	466.208984	-36.295071
401.757979	6226.676667	464.948242	27.724569
401.757979	6226.676667	463.686523	67.979996
401.757979	6226.676667	462.425781	-85.770927
401.757979	6226.676667	461.164063	-87.019157
401.757979	6226.676667	459.901367	-5.126671
401.757979	6226.676667	458.639648	114.351036
401.757979	6226.676667	457.376953	-25.329536
401.757979	6226.676667	456.114258	32.840637
401.757979	6226.676667	454.851563	146.372223
401.757979	6226.676667	453.587891	76.030548
401.757979	6226.676667	452.324219	130.252548
401.757979	6226.676667	451.060547	-50.667244
401.757979	6226.676667	449.796875	-6.281019
401.757979	6226.676667	448.532227	24.275343
401.757979	6226.676667	447.267578	224.655563
401.757979	6226.676667	446.002930	36.035648
401.757979	6226.676667	444.737305	68.574333
401.757979	6226.676667	443.471680	79.401535
401.757979	6226.676667	442.206055	-69.578583
401.757979	6226.676667	440.940430	189.826599
401.757979	6226.676667	439.673828	17.227507
401.757979	6226.676667	438.407227	168.059692
401.757979	6226.676667	437.140625	98.044693
401.757979	6226.676667	435.873047	77.323296
401.757979	6226.676667	434.605469	121.626541
401.757979	6226.676667	433.337891	39.821037
401.757979	6226.676667	432.070313	162.870911
401.757979	6226.676667	430.801758	67.274757
401.757979	6226.676667	429.533203	72.103355
401.757979	6226.676667	428.264648	-27.413025
401.757979	6226.676667	426.996094	83.645164
401.757979	6226.676667	425.726563	1.813898
401.757979	6226.676667	424.457031	268.138947
401.757979	6226.676667	423.186523	101.661201
401.757979	6226.676667	421.916992	161.319916
401.757979	6226.676667	420.646484	42.020195
401.757979	6226.676667	419.375977	123.176781
401.757979	6226.676667	418.104492	80.449829
401.757979	6226.676667	416.833008	-11.434692
401.757979	6226.676667	415.561523	77.339066
401.757979	6226.676667	414.290039	-16.614922
401.757979	6226.676667	413.017578	44.476215
401.757979	6226.676667	411.746094	121.156807
401.757979	6226.676667	410.472656	91.739914
401.757979	6226.676667	409.200195	285.891357
401.757979	6226.676667	407.926758	69.903603
401.757979	6226.676667	406.653320	193.151764
401.757979	6226.676667	405.379883	49.582664
401.757979	6226.676667	404.105469	84.318047
401.757979	6226.676667	402.831055	134.578156
401.757979	6226.676667	401.556641	88.663597
401.757979	6226.676667	400.282227	113.135414
401.757979	6226.676667	399.006836	145.263229
401.757979	6226.676667	397.731445	198.743225
401.757979	6226.676667	396.456055	203.077972
401.757979	6226.676667	395.179688	72.168655
401.757979	6226.676667	393.903320	246.372055
401.757979	6226.676667	392.626953	281.388153
401.757979	6226.676667	391.350586	114.707565
401.757979	6226.676667	390.073242	239.231537
401.757979	6226.676667	388.795898	97.568169
401.757979	6226.676667	387.518555	65.171005
401.757979	6226.676667	386.240234	-0.705823
401.757979	6226.676667	384.961914	-16.034781
401.757979	6226.676667	383.683594	130.481384
401.757979	6226.676667	382.405273	-20.218849
401.757979	6226.676667	381.125977	191.992279
401.757979	6226.676667	379.846680	-17.874884
401.757979	6226.676667	378.567383	174.049637
401.757979	6226.676667	377.287109	115.762726
401.757979	6226.676667	376.006836	220.994995
401.757979	6226.676667	374.726563	-11.627945
401.757979	6226.676667	373.446289	12.841388
401.757979	6226.676667	372.165039	-17.718204
401.757979	6226.676667	370.883789	23.413568
401.757979	6226.676667	369.602539	40.687767
401.757979	6226.676667	368.320313	24.349964
401.757979	6226.676667	367.039063	-134.654968
401.757979	6226.676667	365.755859	34.993660
401.757979	6226.676667	364.473633	19.085003
401.757979	6226.676667	363.190430	88.272911
401.757979	6226.676667	361.907227	-2.723143
401.757979	6226.676667	360.624023	-10.601909
401.757979	6226.676667	359.340820	47.052593
401.757979	6226.676667	358.056641	-26.269445
401.757979	6226.676667	356.772461	-24.379181
401.757979	6226.676667	355.487305	-15.404747
401.757979	6226.676667	354.202148	25.906984
401.757979	6226.676667	352.916992	-96.751457
401.757979	6226.676667	351.631836	-35.541615
401.757979	6226.676667	350.346680	-19.806267
401.757979	6226.676667	349.060547	-86.452690
401.757979	6226.676667	347.774414	-2.460410
401.757979	6226.676667	346.487305	-37.779274
401.757979	6226.676667	345.200195	69.643349
401.757979	6226.676667	343.913086	205.214478
401.757979	6226.676667	342.625977	-11.314785
401.757979	6226.676667	341.338867	-79.384377
401.757979	6226.676667	340.050781	-12.715612
401.757979	6226.676667	338.762695	-36.277290
401.757979	6226.676667	337.473633	-33.778095
401.757979	6226.676667	336.184570	-9.121363
401.757979	6226.676667	334.895508	-63.093372
401.757979	6226.676667	333.606445	-94.958664
401.757979	6226.676667	332.317383	-141.559662
401.757979	6226.676667	331.027344	-63.558430
401.757979	6226.676667	329.736328	-108.828133
401.757979	6226.676667	328.446289	7.198627
401.757979	6226.676667	327.155273	30.869513
401.757979	6226.676667	325.864258	-82.253181
401.757979	6226.676667	324.573242	-28.499126
401.757979	6226.676667	323.281250	72.071793
401.757979	6226.676667	321.989258	196.223526
401.757979	6226.676667	320.697266	26.949968
401.757979	6226.676667	319.405273	-116.789055
401.757979	6226.676667	318.112305	-103.730659
401.757979	6226.676667	316.819336	-7.379522
401.757979	6226.676667	315.526367	13.828803
401.757979	6226.676667	314.232422	-9.258716
401.757979	6226.676667	312.938477	73.926315
401.757979	6226.676667	311.644531	191.866318
401.757979	6226.676667	310.349609	83.995750
401.757979	6226.676667	309.054688	16.631073
401.757979	6226.676667	307.759766	66.829735
401.757979	6226.676667	306.464844	276.878632
401.757979	6226.676667	305.168945	131.905029
401.757979	6226.676667	303.873047	219.914444
401.757979	6226.676667	302.577148	159.207123
401.757979	6226.676667	301.281250	286.923950
401.757979	6226.676667	299.984375	229.204330
