#X		#Y		#Wave		#Intensity
148.696809	5766.390000	1999.946289	37.275826
148.696809	5766.390000	1998.981445	100.344238
148.696809	5766.390000	1998.017578	43.406342
148.696809	5766.390000	1997.052734	-112.681938
148.696809	5766.390000	1996.088867	-50.726555
148.696809	5766.390000	1995.124023	68.135986
148.696809	5766.390000	1994.159180	-50.856796
148.696809	5766.390000	1993.193359	-16.318651
148.696809	5766.390000	1992.228516	75.106865
148.696809	5766.390000	1991.262695	-227.123459
148.696809	5766.390000	1990.296875	34.994095
148.696809	5766.390000	1989.331055	-39.547676
148.696809	5766.390000	1988.365234	-52.251125
148.696809	5766.390000	1987.398438	21.587008
148.696809	5766.390000	1986.432617	-15.926479
148.696809	5766.390000	1985.465820	62.751518
148.696809	5766.390000	1984.499023	-16.850746
148.696809	5766.390000	1983.532227	-2.533092
148.696809	5766.390000	1982.565430	11.746924
148.696809	5766.390000	1981.597656	-1.188126
148.696809	5766.390000	1980.629883	69.841927
148.696809	5766.390000	1979.662109	-4.905208
148.696809	5766.390000	1978.694336	41.346249
148.696809	5766.390000	1977.726563	144.338348
148.696809	5766.390000	1976.758789	96.687630
148.696809	5766.390000	1975.790039	90.984947
148.696809	5766.390000	1974.821289	8.764536
148.696809	5766.390000	1973.852539	116.515938
148.696809	5766.390000	1972.883789	86.071442
148.696809	5766.390000	1971.915039	60.547028
148.696809	5766.390000	1970.945313	47.338013
148.696809	5766.390000	1969.975586	31.646646
148.696809	5766.390000	1969.005859	65.235817
148.696809	5766.390000	1968.036133	29.789791
148.696809	5766.390000	1967.066406	-232.341171
148.696809	5766.390000	1966.096680	67.268852
148.696809	5766.390000	1965.125977	14.542808
148.696809	5766.390000	1964.155273	40.618999
148.696809	5766.390000	1963.184570	93.749969
148.696809	5766.390000	1962.213867	-79.623283
148.696809	5766.390000	1961.242188	-58.518379
148.696809	5766.390000	1960.271484	149.575211
148.696809	5766.390000	1959.299805	59.887249
148.696809	5766.390000	1958.328125	24.332924
148.696809	5766.390000	1957.356445	138.795547
148.696809	5766.390000	1956.384766	73.704308
148.696809	5766.390000	1955.412109	70.083893
148.696809	5766.390000	1954.439453	41.871952
148.696809	5766.390000	1953.467773	16.115536
148.696809	5766.390000	1952.495117	54.238953
148.696809	5766.390000	1951.521484	55.487209
148.696809	5766.390000	1950.548828	-2.223269
148.696809	5766.390000	1949.575195	23.568819
148.696809	5766.390000	1948.601563	66.527191
148.696809	5766.390000	1947.627930	-20.643200
148.696809	5766.390000	1946.654297	91.007217
148.696809	5766.390000	1945.680664	-57.500698
148.696809	5766.390000	1944.706055	-14.599566
148.696809	5766.390000	1943.732422	67.523582
148.696809	5766.390000	1942.757813	-44.137955
148.696809	5766.390000	1941.783203	-23.357964
148.696809	5766.390000	1940.807617	17.018265
148.696809	5766.390000	1939.833008	57.371586
148.696809	5766.390000	1938.857422	-5.224725
148.696809	5766.390000	1937.881836	-133.960495
148.696809	5766.390000	1936.906250	28.861795
148.696809	5766.390000	1935.930664	-33.716133
148.696809	5766.390000	1934.955078	65.343536
148.696809	5766.390000	1933.978516	76.218842
148.696809	5766.390000	1933.001953	28.333708
148.696809	5766.390000	1932.025391	112.622406
148.696809	5766.390000	1931.048828	23.137362
148.696809	5766.390000	1930.072266	51.113125
148.696809	5766.390000	1929.094727	-23.662489
148.696809	5766.390000	1928.118164	26.311037
148.696809	5766.390000	1927.140625	-6.875708
148.696809	5766.390000	1926.163086	-57.168446
148.696809	5766.390000	1925.184570	68.537964
148.696809	5766.390000	1924.207031	164.867584
148.696809	5766.390000	1923.228516	-71.138390
148.696809	5766.390000	1922.250000	-4.143954
148.696809	5766.390000	1921.271484	33.511627
148.696809	5766.390000	1920.292969	-38.739925
148.696809	5766.390000	1919.314453	-1.101649
148.696809	5766.390000	1918.334961	36.518326
148.696809	5766.390000	1917.355469	-1.539624
148.696809	5766.390000	1916.375977	-103.031792
148.696809	5766.390000	1915.396484	-36.151478
148.696809	5766.390000	1914.416992	-22.963596
148.696809	5766.390000	1913.436523	-58.561378
148.696809	5766.390000	1912.457031	-20.999956
148.696809	5766.390000	1911.476563	-90.723671
148.696809	5766.390000	1910.496094	-43.429272
148.696809	5766.390000	1909.515625	45.270943
148.696809	5766.390000	1908.534180	38.909660
148.696809	5766.390000	1907.552734	88.575768
148.696809	5766.390000	1906.572266	-22.530033
148.696809	5766.390000	1905.590820	-2.101666
148.696809	5766.390000	1904.608398	-10.901862
148.696809	5766.390000	1903.626953	-124.374901
148.696809	5766.390000	1902.644531	73.713470
148.696809	5766.390000	1901.663086	-76.242157
148.696809	5766.390000	1900.680664	-80.174065
148.696809	5766.390000	1899.698242	30.214142
148.696809	5766.390000	1898.714844	16.526344
148.696809	5766.390000	1897.732422	44.174725
148.696809	5766.390000	1896.749023	105.842186
148.696809	5766.390000	1895.765625	9.493089
148.696809	5766.390000	1894.782227	20.100988
148.696809	5766.390000	1893.798828	-8.174519
148.696809	5766.390000	1892.814453	38.860725
148.696809	5766.390000	1891.831055	64.014931
148.696809	5766.390000	1890.846680	-163.391876
148.696809	5766.390000	1889.862305	2.595877
148.696809	5766.390000	1888.877930	-117.918877
148.696809	5766.390000	1887.892578	-63.653652
148.696809	5766.390000	1886.908203	22.130951
148.696809	5766.390000	1885.922852	47.226082
148.696809	5766.390000	1884.937500	28.644445
148.696809	5766.390000	1883.952148	-74.815735
148.696809	5766.390000	1882.965820	241.227127
148.696809	5766.390000	1881.980469	1.995838
148.696809	5766.390000	1880.994141	-21.435795
148.696809	5766.390000	1880.007813	56.914185
148.696809	5766.390000	1879.021484	4.393301
148.696809	5766.390000	1878.035156	123.876915
148.696809	5766.390000	1877.047852	3.533652
148.696809	5766.390000	1876.061523	6.726046
148.696809	5766.390000	1875.074219	-147.459503
148.696809	5766.390000	1874.086914	32.449219
148.696809	5766.390000	1873.098633	28.350296
148.696809	5766.390000	1872.111328	-149.971817
148.696809	5766.390000	1871.123047	-6.476210
148.696809	5766.390000	1870.135742	37.787628
148.696809	5766.390000	1869.147461	33.659901
148.696809	5766.390000	1868.158203	-45.430363
148.696809	5766.390000	1867.169922	64.061607
148.696809	5766.390000	1866.180664	127.579964
148.696809	5766.390000	1865.192383	0.161219
148.696809	5766.390000	1864.203125	8.081039
148.696809	5766.390000	1863.213867	52.222832
148.696809	5766.390000	1862.223633	144.641312
148.696809	5766.390000	1861.234375	19.692379
148.696809	5766.390000	1860.244141	8.249774
148.696809	5766.390000	1859.253906	33.009434
148.696809	5766.390000	1858.263672	-53.264645
148.696809	5766.390000	1857.273438	89.708626
148.696809	5766.390000	1856.282227	-8.626943
148.696809	5766.390000	1855.291992	49.843929
148.696809	5766.390000	1854.300781	146.866455
148.696809	5766.390000	1853.309570	147.397842
148.696809	5766.390000	1852.317383	-3.952592
148.696809	5766.390000	1851.326172	-49.208176
148.696809	5766.390000	1850.333984	-26.987059
148.696809	5766.390000	1849.342773	110.860817
148.696809	5766.390000	1848.350586	125.793930
148.696809	5766.390000	1847.357422	8.248591
148.696809	5766.390000	1846.365234	30.394949
148.696809	5766.390000	1845.372070	52.520508
148.696809	5766.390000	1844.379883	-52.945759
148.696809	5766.390000	1843.386719	-165.605057
148.696809	5766.390000	1842.393555	58.619572
148.696809	5766.390000	1841.399414	56.614643
148.696809	5766.390000	1840.406250	126.754555
148.696809	5766.390000	1839.412109	57.377934
148.696809	5766.390000	1838.417969	101.016380
148.696809	5766.390000	1837.423828	149.432419
148.696809	5766.390000	1836.429688	-28.102617
148.696809	5766.390000	1835.434570	152.452011
148.696809	5766.390000	1834.440430	15.797494
148.696809	5766.390000	1833.445313	-77.584114
148.696809	5766.390000	1832.450195	126.850578
148.696809	5766.390000	1831.454102	43.057312
148.696809	5766.390000	1830.458984	136.931732
148.696809	5766.390000	1829.462891	-14.068157
148.696809	5766.390000	1828.466797	146.943878
148.696809	5766.390000	1827.470703	22.361235
148.696809	5766.390000	1826.474609	-15.830894
148.696809	5766.390000	1825.478516	68.294586
148.696809	5766.390000	1824.481445	-61.047409
148.696809	5766.390000	1823.484375	56.587051
148.696809	5766.390000	1822.487305	68.690483
148.696809	5766.390000	1821.490234	-22.281202
148.696809	5766.390000	1820.493164	145.549286
148.696809	5766.390000	1819.495117	23.419260
148.696809	5766.390000	1818.498047	33.058231
148.696809	5766.390000	1817.500000	193.546921
148.696809	5766.390000	1816.500977	102.551140
148.696809	5766.390000	1815.502930	64.238991
148.696809	5766.390000	1814.504883	116.874611
148.696809	5766.390000	1813.505859	59.393959
148.696809	5766.390000	1812.506836	56.945732
148.696809	5766.390000	1811.507813	28.167492
148.696809	5766.390000	1810.508789	80.697784
148.696809	5766.390000	1809.508789	-19.847326
148.696809	5766.390000	1808.508789	92.402130
148.696809	5766.390000	1807.508789	56.393780
148.696809	5766.390000	1806.508789	-34.585880
148.696809	5766.390000	1805.508789	-1.302106
148.696809	5766.390000	1804.508789	46.283554
148.696809	5766.390000	1803.507813	-20.815947
148.696809	5766.390000	1802.506836	-21.044493
148.696809	5766.390000	1801.505859	112.411278
148.696809	5766.390000	1800.504883	107.344711
148.696809	5766.390000	1799.502930	-2.754248
148.696809	5766.390000	1798.501953	49.432999
148.696809	5766.390000	1797.500000	72.949905
148.696809	5766.390000	1796.498047	-63.377754
148.696809	5766.390000	1795.496094	91.278526
148.696809	5766.390000	1794.493164	24.104889
148.696809	5766.390000	1793.491211	-33.525654
148.696809	5766.390000	1792.488281	125.742180
148.696809	5766.390000	1791.485352	37.091690
148.696809	5766.390000	1790.482422	58.054035
148.696809	5766.390000	1789.478516	167.125336
148.696809	5766.390000	1788.475586	130.853119
148.696809	5766.390000	1787.471680	113.621788
148.696809	5766.390000	1786.467773	122.564941
148.696809	5766.390000	1785.463867	-70.845818
148.696809	5766.390000	1784.459961	-42.873753
148.696809	5766.390000	1783.455078	215.869751
148.696809	5766.390000	1782.450195	27.244440
148.696809	5766.390000	1781.445313	-25.754627
148.696809	5766.390000	1780.440430	-24.058666
148.696809	5766.390000	1779.435547	46.566639
148.696809	5766.390000	1778.429688	-13.603481
148.696809	5766.390000	1777.424805	-90.407761
148.696809	5766.390000	1776.418945	-27.006149
148.696809	5766.390000	1775.413086	31.598486
148.696809	5766.390000	1774.406250	132.913239
148.696809	5766.390000	1773.400391	-5.697828
148.696809	5766.390000	1772.393555	38.554909
148.696809	5766.390000	1771.386719	49.531944
148.696809	5766.390000	1770.379883	157.799164
148.696809	5766.390000	1769.373047	182.944412
148.696809	5766.390000	1768.365234	77.558189
148.696809	5766.390000	1767.358398	31.497505
148.696809	5766.390000	1766.350586	101.646957
148.696809	5766.390000	1765.342773	10.497546
148.696809	5766.390000	1764.334961	-11.883844
148.696809	5766.390000	1763.326172	-3.466385
148.696809	5766.390000	1762.318359	-25.881624
148.696809	5766.390000	1761.309570	44.098114
148.696809	5766.390000	1760.300781	-73.127846
148.696809	5766.390000	1759.291016	60.739819
148.696809	5766.390000	1758.282227	47.710350
148.696809	5766.390000	1757.272461	209.871628
148.696809	5766.390000	1756.262695	-101.504364
148.696809	5766.390000	1755.252930	22.709322
148.696809	5766.390000	1754.243164	-75.584457
148.696809	5766.390000	1753.233398	-124.179649
148.696809	5766.390000	1752.222656	28.283504
148.696809	5766.390000	1751.211914	-100.770569
148.696809	5766.390000	1750.201172	35.033154
148.696809	5766.390000	1749.190430	17.095087
148.696809	5766.390000	1748.179688	-3.221943
148.696809	5766.390000	1747.167969	66.245422
148.696809	5766.390000	1746.156250	-58.082161
148.696809	5766.390000	1745.144531	1.874925
148.696809	5766.390000	1744.132813	205.860870
148.696809	5766.390000	1743.121094	60.257538
148.696809	5766.390000	1742.108398	-45.179005
148.696809	5766.390000	1741.095703	-6.606127
148.696809	5766.390000	1740.083008	93.290680
148.696809	5766.390000	1739.070313	-14.517832
148.696809	5766.390000	1738.057617	45.192524
148.696809	5766.390000	1737.043945	64.757294
148.696809	5766.390000	1736.030273	79.575882
148.696809	5766.390000	1735.016602	37.779205
148.696809	5766.390000	1734.002930	40.766266
148.696809	5766.390000	1732.989258	109.724144
148.696809	5766.390000	1731.974609	-40.519993
148.696809	5766.390000	1730.959961	-32.876205
148.696809	5766.390000	1729.945313	10.076488
148.696809	5766.390000	1728.930664	128.354279
148.696809	5766.390000	1727.916016	81.739494
148.696809	5766.390000	1726.900391	-103.780151
148.696809	5766.390000	1725.885742	19.095043
148.696809	5766.390000	1724.870117	144.251572
148.696809	5766.390000	1723.853516	45.814957
148.696809	5766.390000	1722.837891	-26.726021
148.696809	5766.390000	1721.822266	-23.997419
148.696809	5766.390000	1720.805664	-65.973030
148.696809	5766.390000	1719.789063	-82.091484
148.696809	5766.390000	1718.772461	73.369499
148.696809	5766.390000	1717.754883	-3.918895
148.696809	5766.390000	1716.738281	-78.844604
148.696809	5766.390000	1715.720703	34.174351
148.696809	5766.390000	1714.703125	93.107658
148.696809	5766.390000	1713.685547	39.276726
148.696809	5766.390000	1712.667969	11.272997
148.696809	5766.390000	1711.649414	-21.438007
148.696809	5766.390000	1710.630859	-30.686819
148.696809	5766.390000	1709.612305	-7.099763
148.696809	5766.390000	1708.593750	-86.770454
148.696809	5766.390000	1707.575195	16.531233
148.696809	5766.390000	1706.555664	115.080315
148.696809	5766.390000	1705.536133	103.368149
148.696809	5766.390000	1704.516602	23.656595
148.696809	5766.390000	1703.497070	-32.604977
148.696809	5766.390000	1702.477539	-70.116600
148.696809	5766.390000	1701.457031	-100.607239
148.696809	5766.390000	1700.437500	-6.948114
148.696809	5766.390000	1699.416992	-7.029430
148.696809	5766.390000	1698.395508	51.407719
148.696809	5766.390000	1697.375000	-51.732399
148.696809	5766.390000	1696.354492	95.604927
148.696809	5766.390000	1695.333008	130.531982
148.696809	5766.390000	1694.311523	-54.514366
148.696809	5766.390000	1693.290039	-0.892350
148.696809	5766.390000	1692.267578	10.587423
148.696809	5766.390000	1691.246094	33.741528
148.696809	5766.390000	1690.223633	38.162411
148.696809	5766.390000	1689.201172	150.092209
148.696809	5766.390000	1688.178711	-2.131494
148.696809	5766.390000	1687.155273	-65.523956
148.696809	5766.390000	1686.132813	-93.860741
148.696809	5766.390000	1685.109375	-91.841995
148.696809	5766.390000	1684.085938	143.691467
148.696809	5766.390000	1683.062500	-8.469120
148.696809	5766.390000	1682.039063	21.497719
148.696809	5766.390000	1681.014648	-76.934570
148.696809	5766.390000	1679.990234	46.340546
148.696809	5766.390000	1678.965820	-75.419403
148.696809	5766.390000	1677.941406	59.440571
148.696809	5766.390000	1676.916992	14.657503
148.696809	5766.390000	1675.891602	0.185250
148.696809	5766.390000	1674.866211	60.305222
148.696809	5766.390000	1673.840820	24.824760
148.696809	5766.390000	1672.815430	103.531685
148.696809	5766.390000	1671.790039	7.451124
148.696809	5766.390000	1670.763672	-81.621811
148.696809	5766.390000	1669.737305	31.951788
148.696809	5766.390000	1668.710938	80.268822
148.696809	5766.390000	1667.684570	51.726002
148.696809	5766.390000	1666.658203	76.718086
148.696809	5766.390000	1665.630859	-5.367546
148.696809	5766.390000	1664.603516	112.668602
148.696809	5766.390000	1663.576172	63.151958
148.696809	5766.390000	1662.548828	78.767822
148.696809	5766.390000	1661.520508	52.504120
148.696809	5766.390000	1660.493164	126.217743
148.696809	5766.390000	1659.464844	85.985847
148.696809	5766.390000	1658.436523	-30.935825
148.696809	5766.390000	1657.408203	100.805984
148.696809	5766.390000	1656.378906	30.365671
148.696809	5766.390000	1655.350586	-51.667355
148.696809	5766.390000	1654.321289	277.362610
148.696809	5766.390000	1653.291992	37.405678
148.696809	5766.390000	1652.261719	122.522469
148.696809	5766.390000	1651.232422	42.815140
148.696809	5766.390000	1650.202148	276.391510
148.696809	5766.390000	1649.171875	38.900921
148.696809	5766.390000	1648.141602	137.834854
148.696809	5766.390000	1647.111328	211.211639
148.696809	5766.390000	1646.080078	212.669022
148.696809	5766.390000	1645.049805	109.801414
148.696809	5766.390000	1644.018555	278.144318
148.696809	5766.390000	1642.987305	112.717216
148.696809	5766.390000	1641.955078	118.794113
148.696809	5766.390000	1640.923828	259.219940
148.696809	5766.390000	1639.891602	293.045319
148.696809	5766.390000	1638.859375	440.313171
148.696809	5766.390000	1637.827148	136.074127
148.696809	5766.390000	1636.794922	135.166794
148.696809	5766.390000	1635.761719	94.909554
148.696809	5766.390000	1634.729492	283.728485
148.696809	5766.390000	1633.696289	208.748825
148.696809	5766.390000	1632.662109	251.745285
148.696809	5766.390000	1631.628906	273.913483
148.696809	5766.390000	1630.594727	173.531448
148.696809	5766.390000	1629.561523	216.502853
148.696809	5766.390000	1628.527344	187.807434
148.696809	5766.390000	1627.493164	286.203522
148.696809	5766.390000	1626.458008	227.464111
148.696809	5766.390000	1625.423828	270.376129
148.696809	5766.390000	1624.388672	227.822617
148.696809	5766.390000	1623.353516	252.239670
148.696809	5766.390000	1622.318359	168.152496
148.696809	5766.390000	1621.282227	282.573303
148.696809	5766.390000	1620.247070	343.881317
148.696809	5766.390000	1619.210938	414.388336
148.696809	5766.390000	1618.174805	367.233063
148.696809	5766.390000	1617.137695	377.744629
148.696809	5766.390000	1616.101563	268.361359
148.696809	5766.390000	1615.064453	345.739746
148.696809	5766.390000	1614.027344	360.860352
148.696809	5766.390000	1612.990234	334.498322
148.696809	5766.390000	1611.953125	372.656372
148.696809	5766.390000	1610.916016	330.181061
148.696809	5766.390000	1609.877930	264.690521
148.696809	5766.390000	1608.839844	249.883072
148.696809	5766.390000	1607.801758	396.229736
148.696809	5766.390000	1606.763672	519.506104
148.696809	5766.390000	1605.724609	299.856415
148.696809	5766.390000	1604.685547	487.526703
148.696809	5766.390000	1603.646484	376.089569
148.696809	5766.390000	1602.607422	266.999847
148.696809	5766.390000	1601.568359	436.183167
148.696809	5766.390000	1600.528320	320.231873
148.696809	5766.390000	1599.489258	379.020691
148.696809	5766.390000	1598.449219	384.932343
148.696809	5766.390000	1597.408203	372.462769
148.696809	5766.390000	1596.368164	488.647705
148.696809	5766.390000	1595.327148	464.690308
148.696809	5766.390000	1594.287109	500.455872
148.696809	5766.390000	1593.246094	494.884827
148.696809	5766.390000	1592.204102	429.640106
148.696809	5766.390000	1591.163086	456.228577
148.696809	5766.390000	1590.121094	491.987244
148.696809	5766.390000	1589.079102	557.562500
148.696809	5766.390000	1588.037109	405.231476
148.696809	5766.390000	1586.995117	379.089691
148.696809	5766.390000	1585.953125	357.552429
148.696809	5766.390000	1584.910156	443.762573
148.696809	5766.390000	1583.867188	438.277588
148.696809	5766.390000	1582.824219	407.599670
148.696809	5766.390000	1581.781250	383.816559
148.696809	5766.390000	1580.737305	442.503723
148.696809	5766.390000	1579.693359	224.092117
148.696809	5766.390000	1578.649414	365.231964
148.696809	5766.390000	1577.605469	238.505524
148.696809	5766.390000	1576.561523	416.227600
148.696809	5766.390000	1575.516602	371.934631
148.696809	5766.390000	1574.472656	302.509613
148.696809	5766.390000	1573.427734	418.389954
148.696809	5766.390000	1572.381836	433.612640
148.696809	5766.390000	1571.336914	469.423798
148.696809	5766.390000	1570.291016	505.230255
148.696809	5766.390000	1569.246094	570.751221
148.696809	5766.390000	1568.200195	515.148865
148.696809	5766.390000	1567.153320	480.140350
148.696809	5766.390000	1566.107422	552.518066
148.696809	5766.390000	1565.060547	492.423798
148.696809	5766.390000	1564.013672	398.118835
148.696809	5766.390000	1562.966797	333.542969
148.696809	5766.390000	1561.919922	405.948853
148.696809	5766.390000	1560.872070	245.584106
148.696809	5766.390000	1559.825195	406.987091
148.696809	5766.390000	1558.777344	299.180573
148.696809	5766.390000	1557.729492	394.402344
148.696809	5766.390000	1556.680664	428.037323
148.696809	5766.390000	1555.632813	336.297974
148.696809	5766.390000	1554.583984	344.894257
148.696809	5766.390000	1553.535156	273.747986
148.696809	5766.390000	1552.486328	318.841827
148.696809	5766.390000	1551.436523	263.706238
148.696809	5766.390000	1550.387695	308.821167
148.696809	5766.390000	1549.337891	265.131561
148.696809	5766.390000	1548.288086	155.459045
148.696809	5766.390000	1547.238281	155.100250
148.696809	5766.390000	1546.187500	184.341599
148.696809	5766.390000	1545.136719	279.571075
148.696809	5766.390000	1544.086914	81.346436
148.696809	5766.390000	1543.035156	31.041727
148.696809	5766.390000	1541.984375	214.986557
148.696809	5766.390000	1540.933594	139.712982
148.696809	5766.390000	1539.881836	19.028543
148.696809	5766.390000	1538.830078	-3.869849
148.696809	5766.390000	1537.778320	120.945786
148.696809	5766.390000	1536.725586	98.076988
148.696809	5766.390000	1535.673828	36.632950
148.696809	5766.390000	1534.621094	138.723267
148.696809	5766.390000	1533.568359	95.499825
148.696809	5766.390000	1532.515625	97.712845
148.696809	5766.390000	1531.461914	204.335083
148.696809	5766.390000	1530.409180	208.841217
148.696809	5766.390000	1529.355469	140.775620
148.696809	5766.390000	1528.301758	52.349155
148.696809	5766.390000	1527.247070	50.145958
148.696809	5766.390000	1526.193359	115.984756
148.696809	5766.390000	1525.138672	63.952614
148.696809	5766.390000	1524.083984	-3.896976
148.696809	5766.390000	1523.029297	12.138363
148.696809	5766.390000	1521.974609	89.357193
148.696809	5766.390000	1520.918945	-57.654236
148.696809	5766.390000	1519.863281	62.620365
148.696809	5766.390000	1518.807617	35.715881
148.696809	5766.390000	1517.751953	63.172569
148.696809	5766.390000	1516.696289	-180.924408
148.696809	5766.390000	1515.639648	29.888781
148.696809	5766.390000	1514.583008	-78.322411
148.696809	5766.390000	1513.526367	-41.712067
148.696809	5766.390000	1512.469727	31.092085
148.696809	5766.390000	1511.412109	-22.714592
148.696809	5766.390000	1510.355469	156.351349
148.696809	5766.390000	1509.297852	89.037872
148.696809	5766.390000	1508.240234	24.039179
148.696809	5766.390000	1507.181641	53.972610
148.696809	5766.390000	1506.124023	-58.366123
148.696809	5766.390000	1505.065430	-78.049637
148.696809	5766.390000	1504.006836	-23.190973
148.696809	5766.390000	1502.948242	-117.304115
148.696809	5766.390000	1501.888672	-109.795509
148.696809	5766.390000	1500.830078	-122.565056
148.696809	5766.390000	1499.770508	-119.510284
148.696809	5766.390000	1498.710938	-132.214127
148.696809	5766.390000	1497.650391	-9.583413
148.696809	5766.390000	1496.590820	-19.988008
148.696809	5766.390000	1495.530273	-97.983910
148.696809	5766.390000	1494.469727	164.388306
148.696809	5766.390000	1493.409180	190.098526
148.696809	5766.390000	1492.348633	49.123974
148.696809	5766.390000	1491.287109	56.889530
148.696809	5766.390000	1490.225586	96.209953
148.696809	5766.390000	1489.164063	31.981407
148.696809	5766.390000	1488.102539	-86.213440
148.696809	5766.390000	1487.041016	45.481529
148.696809	5766.390000	1485.978516	42.149536
148.696809	5766.390000	1484.916016	-84.870407
148.696809	5766.390000	1483.853516	-43.133324
148.696809	5766.390000	1482.791016	-8.117586
148.696809	5766.390000	1481.727539	-13.554303
148.696809	5766.390000	1480.664063	142.883682
148.696809	5766.390000	1479.600586	54.339581
148.696809	5766.390000	1478.537109	53.501019
148.696809	5766.390000	1477.473633	30.232885
148.696809	5766.390000	1476.409180	-2.000473
148.696809	5766.390000	1475.344727	-2.775388
148.696809	5766.390000	1474.280273	45.968327
148.696809	5766.390000	1473.215820	67.718590
148.696809	5766.390000	1472.151367	73.877861
148.696809	5766.390000	1471.085938	-121.848633
148.696809	5766.390000	1470.020508	0.913293
148.696809	5766.390000	1468.955078	18.399584
148.696809	5766.390000	1467.888672	24.610485
148.696809	5766.390000	1466.823242	-58.752953
148.696809	5766.390000	1465.756836	73.081650
148.696809	5766.390000	1464.690430	135.136719
148.696809	5766.390000	1463.624023	-24.013414
148.696809	5766.390000	1462.556641	31.720507
148.696809	5766.390000	1461.490234	-44.511105
148.696809	5766.390000	1460.422852	-8.876955
148.696809	5766.390000	1459.355469	107.116402
148.696809	5766.390000	1458.287109	126.785896
148.696809	5766.390000	1457.219727	-45.129971
148.696809	5766.390000	1456.151367	122.100266
148.696809	5766.390000	1455.083008	70.573906
148.696809	5766.390000	1454.014648	19.561541
148.696809	5766.390000	1452.945313	153.223999
148.696809	5766.390000	1451.876953	157.626114
148.696809	5766.390000	1450.807617	235.950333
148.696809	5766.390000	1449.738281	101.729324
148.696809	5766.390000	1448.668945	75.783966
148.696809	5766.390000	1447.598633	107.737663
148.696809	5766.390000	1446.528320	48.771885
148.696809	5766.390000	1445.458008	116.133766
148.696809	5766.390000	1444.387695	87.807236
148.696809	5766.390000	1443.317383	214.709351
148.696809	5766.390000	1442.246094	10.786921
148.696809	5766.390000	1441.174805	105.647499
148.696809	5766.390000	1440.103516	92.120239
148.696809	5766.390000	1439.032227	93.794037
148.696809	5766.390000	1437.960938	159.843750
148.696809	5766.390000	1436.888672	318.691925
148.696809	5766.390000	1435.816406	240.714020
148.696809	5766.390000	1434.744141	290.089233
148.696809	5766.390000	1433.670898	264.470734
148.696809	5766.390000	1432.598633	190.559174
148.696809	5766.390000	1431.525391	108.712608
148.696809	5766.390000	1430.452148	187.685165
148.696809	5766.390000	1429.378906	146.852371
148.696809	5766.390000	1428.304688	-60.096863
148.696809	5766.390000	1427.231445	72.268272
148.696809	5766.390000	1426.157227	-84.494148
148.696809	5766.390000	1425.083008	-10.768354
148.696809	5766.390000	1424.007813	65.270958
148.696809	5766.390000	1422.933594	26.916090
148.696809	5766.390000	1421.858398	-138.167175
148.696809	5766.390000	1420.783203	-0.318789
148.696809	5766.390000	1419.708008	89.881157
148.696809	5766.390000	1418.631836	-183.459625
148.696809	5766.390000	1417.555664	-32.864319
148.696809	5766.390000	1416.479492	62.227615
148.696809	5766.390000	1415.403320	13.254145
148.696809	5766.390000	1414.327148	-57.763748
148.696809	5766.390000	1413.250000	18.845766
148.696809	5766.390000	1412.173828	-0.388932
148.696809	5766.390000	1411.096680	107.866104
148.696809	5766.390000	1410.018555	42.685658
148.696809	5766.390000	1408.941406	61.601311
148.696809	5766.390000	1407.863281	200.321228
148.696809	5766.390000	1406.785156	162.193451
148.696809	5766.390000	1405.707031	264.999664
148.696809	5766.390000	1404.628906	259.232025
148.696809	5766.390000	1403.549805	195.086578
148.696809	5766.390000	1402.470703	195.811584
148.696809	5766.390000	1401.391602	369.803986
148.696809	5766.390000	1400.312500	401.418213
148.696809	5766.390000	1399.233398	289.691284
148.696809	5766.390000	1398.153320	489.968903
148.696809	5766.390000	1397.073242	595.922913
148.696809	5766.390000	1395.993164	563.799377
148.696809	5766.390000	1394.913086	626.450256
148.696809	5766.390000	1393.832031	543.519165
148.696809	5766.390000	1392.750977	378.510864
148.696809	5766.390000	1391.669922	416.099640
148.696809	5766.390000	1390.588867	202.537308
148.696809	5766.390000	1389.506836	103.752327
148.696809	5766.390000	1388.425781	31.519974
148.696809	5766.390000	1387.343750	21.393475
148.696809	5766.390000	1386.261719	121.695229
148.696809	5766.390000	1385.178711	80.291290
148.696809	5766.390000	1384.096680	145.523056
148.696809	5766.390000	1383.013672	52.426456
148.696809	5766.390000	1381.930664	-12.284665
148.696809	5766.390000	1380.846680	30.986336
148.696809	5766.390000	1379.763672	61.571796
148.696809	5766.390000	1378.679688	47.864342
148.696809	5766.390000	1377.595703	-67.957474
148.696809	5766.390000	1376.511719	-4.530971
148.696809	5766.390000	1375.427734	-43.190727
148.696809	5766.390000	1374.342773	159.709885
148.696809	5766.390000	1373.257813	76.166672
148.696809	5766.390000	1372.172852	113.260544
148.696809	5766.390000	1371.087891	-28.054007
148.696809	5766.390000	1370.001953	33.335102
148.696809	5766.390000	1368.916992	4.867421
148.696809	5766.390000	1367.831055	58.847847
148.696809	5766.390000	1366.744141	-28.213877
148.696809	5766.390000	1365.658203	-19.141111
148.696809	5766.390000	1364.571289	46.664207
148.696809	5766.390000	1363.484375	3.151643
148.696809	5766.390000	1362.397461	-78.354233
148.696809	5766.390000	1361.310547	110.291451
148.696809	5766.390000	1360.222656	151.930573
148.696809	5766.390000	1359.135742	25.805265
148.696809	5766.390000	1358.047852	51.864571
148.696809	5766.390000	1356.958984	-127.689903
148.696809	5766.390000	1355.871094	-49.578121
148.696809	5766.390000	1354.782227	18.131554
148.696809	5766.390000	1353.693359	99.475777
148.696809	5766.390000	1352.604492	86.998817
148.696809	5766.390000	1351.515625	-13.962072
148.696809	5766.390000	1350.425781	25.700857
148.696809	5766.390000	1349.335938	56.811230
148.696809	5766.390000	1348.246094	-5.884045
148.696809	5766.390000	1347.156250	-68.540413
148.696809	5766.390000	1346.066406	172.753586
148.696809	5766.390000	1344.975586	1.467169
148.696809	5766.390000	1343.884766	108.586884
148.696809	5766.390000	1342.793945	72.411385
148.696809	5766.390000	1341.702148	65.812325
148.696809	5766.390000	1340.611328	58.947750
148.696809	5766.390000	1339.519531	41.327282
148.696809	5766.390000	1338.427734	56.390434
148.696809	5766.390000	1337.334961	119.067070
148.696809	5766.390000	1336.243164	49.369480
148.696809	5766.390000	1335.150391	25.184965
148.696809	5766.390000	1334.057617	56.497337
148.696809	5766.390000	1332.964844	-4.702874
148.696809	5766.390000	1331.871094	-131.496399
148.696809	5766.390000	1330.778320	59.478348
148.696809	5766.390000	1329.684570	62.307198
148.696809	5766.390000	1328.590820	96.712090
148.696809	5766.390000	1327.496094	-53.767006
148.696809	5766.390000	1326.402344	6.439290
148.696809	5766.390000	1325.307617	160.772964
148.696809	5766.390000	1324.212891	151.767853
148.696809	5766.390000	1323.117188	156.936707
148.696809	5766.390000	1322.022461	43.946785
148.696809	5766.390000	1320.926758	-2.129806
148.696809	5766.390000	1319.831055	23.038013
148.696809	5766.390000	1318.735352	93.964188
148.696809	5766.390000	1317.638672	59.739208
148.696809	5766.390000	1316.542969	109.430489
148.696809	5766.390000	1315.446289	128.707047
148.696809	5766.390000	1314.349609	211.104904
148.696809	5766.390000	1313.251953	243.220505
148.696809	5766.390000	1312.155273	298.248016
148.696809	5766.390000	1311.057617	319.817078
148.696809	5766.390000	1309.959961	227.197983
148.696809	5766.390000	1308.862305	218.098053
148.696809	5766.390000	1307.763672	368.090881
148.696809	5766.390000	1306.665039	240.350464
148.696809	5766.390000	1305.566406	174.359024
148.696809	5766.390000	1304.467773	230.495224
148.696809	5766.390000	1303.369141	160.208023
148.696809	5766.390000	1302.269531	76.963272
148.696809	5766.390000	1301.169922	82.893829
148.696809	5766.390000	1300.070313	130.146912
148.696809	5766.390000	1298.970703	-57.069714
148.696809	5766.390000	1297.870117	24.821680
148.696809	5766.390000	1296.769531	15.381110
148.696809	5766.390000	1295.668945	4.417411
148.696809	5766.390000	1294.568359	-93.129234
148.696809	5766.390000	1293.466797	115.418594
148.696809	5766.390000	1292.366211	40.490494
148.696809	5766.390000	1291.264648	94.541176
148.696809	5766.390000	1290.162109	18.491835
148.696809	5766.390000	1289.060547	46.829071
148.696809	5766.390000	1287.958008	-29.509859
148.696809	5766.390000	1286.855469	61.844421
148.696809	5766.390000	1285.752930	13.129453
148.696809	5766.390000	1284.650391	17.901615
148.696809	5766.390000	1283.546875	113.566048
148.696809	5766.390000	1282.444336	170.119339
148.696809	5766.390000	1281.339844	149.891724
148.696809	5766.390000	1280.236328	316.451385
148.696809	5766.390000	1279.132813	276.098450
148.696809	5766.390000	1278.028320	439.411072
148.696809	5766.390000	1276.923828	369.056702
148.696809	5766.390000	1275.819336	439.999969
148.696809	5766.390000	1274.713867	469.573853
148.696809	5766.390000	1273.608398	353.559143
148.696809	5766.390000	1272.503906	297.989410
148.696809	5766.390000	1271.397461	186.460052
148.696809	5766.390000	1270.291992	301.034332
148.696809	5766.390000	1269.185547	274.523651
148.696809	5766.390000	1268.080078	96.830902
148.696809	5766.390000	1266.972656	21.879747
148.696809	5766.390000	1265.866211	7.160511
148.696809	5766.390000	1264.759766	-38.243702
148.696809	5766.390000	1263.652344	4.481243
148.696809	5766.390000	1262.544922	15.678901
148.696809	5766.390000	1261.436523	10.486674
148.696809	5766.390000	1260.329102	-34.575634
148.696809	5766.390000	1259.220703	-58.622093
148.696809	5766.390000	1258.112305	-3.122690
148.696809	5766.390000	1257.003906	-98.843323
148.696809	5766.390000	1255.895508	44.463299
148.696809	5766.390000	1254.786133	-99.710854
148.696809	5766.390000	1253.676758	-8.395399
148.696809	5766.390000	1252.567383	12.584687
148.696809	5766.390000	1251.458008	-111.540894
148.696809	5766.390000	1250.347656	-69.875816
148.696809	5766.390000	1249.237305	-16.566454
148.696809	5766.390000	1248.126953	-6.438274
148.696809	5766.390000	1247.016602	-13.960794
148.696809	5766.390000	1245.905273	-11.512058
148.696809	5766.390000	1244.793945	48.662395
148.696809	5766.390000	1243.682617	103.579865
148.696809	5766.390000	1242.571289	131.840164
148.696809	5766.390000	1241.459961	20.907373
148.696809	5766.390000	1240.347656	24.703310
148.696809	5766.390000	1239.235352	7.236282
148.696809	5766.390000	1238.123047	74.159325
148.696809	5766.390000	1237.009766	-40.333248
148.696809	5766.390000	1235.897461	11.794408
148.696809	5766.390000	1234.784180	-39.919880
148.696809	5766.390000	1233.670898	2.396897
148.696809	5766.390000	1232.556641	-52.009163
148.696809	5766.390000	1231.443359	73.279060
148.696809	5766.390000	1230.329102	68.374664
148.696809	5766.390000	1229.214844	84.962135
148.696809	5766.390000	1228.099609	104.584007
148.696809	5766.390000	1226.985352	88.565521
148.696809	5766.390000	1225.870117	175.124832
148.696809	5766.390000	1224.754883	235.258896
148.696809	5766.390000	1223.639648	241.024551
148.696809	5766.390000	1222.523438	93.047386
148.696809	5766.390000	1221.408203	14.342017
148.696809	5766.390000	1220.291992	26.793171
148.696809	5766.390000	1219.174805	64.894241
148.696809	5766.390000	1218.058594	20.739906
148.696809	5766.390000	1216.941406	112.875076
148.696809	5766.390000	1215.824219	136.779083
148.696809	5766.390000	1214.707031	54.235825
148.696809	5766.390000	1213.589844	21.433498
148.696809	5766.390000	1212.471680	43.903488
148.696809	5766.390000	1211.353516	6.692486
148.696809	5766.390000	1210.235352	80.344154
148.696809	5766.390000	1209.117188	13.784492
148.696809	5766.390000	1207.998047	-40.344753
148.696809	5766.390000	1206.878906	-45.146809
148.696809	5766.390000	1205.759766	-3.013551
148.696809	5766.390000	1204.640625	48.012753
148.696809	5766.390000	1203.520508	34.707169
148.696809	5766.390000	1202.401367	63.281448
148.696809	5766.390000	1201.281250	3.687365
148.696809	5766.390000	1200.160156	-75.244781
148.696809	5766.390000	1199.040039	-40.071316
148.696809	5766.390000	1197.918945	-70.909302
148.696809	5766.390000	1196.797852	-111.679367
148.696809	5766.390000	1195.676758	6.027879
148.696809	5766.390000	1194.555664	-34.120831
148.696809	5766.390000	1193.433594	-109.951973
148.696809	5766.390000	1192.311523	38.329140
148.696809	5766.390000	1191.189453	-68.421791
148.696809	5766.390000	1190.066406	-105.038574
148.696809	5766.390000	1188.944336	-3.270901
148.696809	5766.390000	1187.821289	-50.471165
148.696809	5766.390000	1186.698242	16.414612
148.696809	5766.390000	1185.574219	58.042866
148.696809	5766.390000	1184.451172	-8.421060
148.696809	5766.390000	1183.327148	101.852089
148.696809	5766.390000	1182.203125	4.332791
148.696809	5766.390000	1181.078125	107.122307
148.696809	5766.390000	1179.954102	131.091080
148.696809	5766.390000	1178.829102	117.517082
148.696809	5766.390000	1177.704102	79.617874
148.696809	5766.390000	1176.579102	227.264786
148.696809	5766.390000	1175.453125	110.581528
148.696809	5766.390000	1174.327148	74.541534
148.696809	5766.390000	1173.201172	-45.062958
148.696809	5766.390000	1172.075195	108.246796
148.696809	5766.390000	1170.949219	152.935898
148.696809	5766.390000	1169.822266	103.948334
148.696809	5766.390000	1168.695313	30.416763
148.696809	5766.390000	1167.568359	124.253525
148.696809	5766.390000	1166.440430	7.672163
148.696809	5766.390000	1165.313477	-103.351807
148.696809	5766.390000	1164.185547	-24.891079
148.696809	5766.390000	1163.057617	-62.965328
148.696809	5766.390000	1161.928711	34.489536
148.696809	5766.390000	1160.800781	-30.325314
148.696809	5766.390000	1159.671875	-0.631547
148.696809	5766.390000	1158.541992	-31.981176
148.696809	5766.390000	1157.413086	-105.177391
148.696809	5766.390000	1156.283203	-147.523926
148.696809	5766.390000	1155.154297	-73.851280
148.696809	5766.390000	1154.023438	-145.166016
148.696809	5766.390000	1152.893555	-18.036247
148.696809	5766.390000	1151.763672	-73.155235
148.696809	5766.390000	1150.632813	26.296450
148.696809	5766.390000	1149.501953	71.459854
148.696809	5766.390000	1148.370117	-47.079010
148.696809	5766.390000	1147.239258	17.446135
148.696809	5766.390000	1146.107422	95.513672
148.696809	5766.390000	1144.975586	34.521530
148.696809	5766.390000	1143.843750	11.252212
148.696809	5766.390000	1142.710938	40.651546
148.696809	5766.390000	1141.578125	-9.519711
148.696809	5766.390000	1140.445313	-0.816949
148.696809	5766.390000	1139.312500	0.435407
148.696809	5766.390000	1138.178711	-41.291454
148.696809	5766.390000	1137.045898	-87.767693
148.696809	5766.390000	1135.912109	33.729057
148.696809	5766.390000	1134.777344	-132.960617
148.696809	5766.390000	1133.643555	-32.384148
148.696809	5766.390000	1132.508789	-14.195701
148.696809	5766.390000	1131.374023	-30.473770
148.696809	5766.390000	1130.239258	-31.983690
148.696809	5766.390000	1129.104492	140.313400
148.696809	5766.390000	1127.968750	189.237747
148.696809	5766.390000	1126.833008	26.060993
148.696809	5766.390000	1125.697266	94.827377
148.696809	5766.390000	1124.560547	-14.726398
148.696809	5766.390000	1123.424805	128.539459
148.696809	5766.390000	1122.288086	42.107323
148.696809	5766.390000	1121.151367	-20.056753
148.696809	5766.390000	1120.013672	52.438679
148.696809	5766.390000	1118.876953	172.449326
148.696809	5766.390000	1117.739258	57.986286
148.696809	5766.390000	1116.601563	46.993206
148.696809	5766.390000	1115.462891	120.540199
148.696809	5766.390000	1114.324219	66.380020
148.696809	5766.390000	1113.186523	-9.031890
148.696809	5766.390000	1112.046875	-4.206094
148.696809	5766.390000	1110.908203	150.289032
148.696809	5766.390000	1109.769531	116.629044
148.696809	5766.390000	1108.629883	1.643760
148.696809	5766.390000	1107.490234	-58.815338
148.696809	5766.390000	1106.349609	88.874504
148.696809	5766.390000	1105.209961	18.459955
148.696809	5766.390000	1104.069336	63.568031
148.696809	5766.390000	1102.928711	32.576637
148.696809	5766.390000	1101.787109	21.916584
148.696809	5766.390000	1100.646484	113.987991
148.696809	5766.390000	1099.504883	-1.550508
148.696809	5766.390000	1098.363281	75.642448
148.696809	5766.390000	1097.221680	-33.184273
148.696809	5766.390000	1096.079102	-61.343079
148.696809	5766.390000	1094.936523	89.205673
148.696809	5766.390000	1093.793945	-70.427315
148.696809	5766.390000	1092.651367	75.029785
148.696809	5766.390000	1091.507813	2.173695
148.696809	5766.390000	1090.364258	3.585625
148.696809	5766.390000	1089.220703	-3.245784
148.696809	5766.390000	1088.077148	-11.756207
148.696809	5766.390000	1086.933594	-30.021452
148.696809	5766.390000	1085.789063	41.359318
148.696809	5766.390000	1084.644531	-81.254761
148.696809	5766.390000	1083.499023	12.033698
148.696809	5766.390000	1082.354492	3.885117
148.696809	5766.390000	1081.208984	-73.266464
148.696809	5766.390000	1080.063477	-102.154602
148.696809	5766.390000	1078.917969	10.611213
148.696809	5766.390000	1077.771484	10.811597
148.696809	5766.390000	1076.625977	-15.161408
148.696809	5766.390000	1075.479492	-11.584370
148.696809	5766.390000	1074.332031	0.469315
148.696809	5766.390000	1073.185547	52.435253
148.696809	5766.390000	1072.038086	-38.216148
148.696809	5766.390000	1070.890625	116.850555
148.696809	5766.390000	1069.743164	49.303715
148.696809	5766.390000	1068.594727	135.971191
148.696809	5766.390000	1067.447266	-27.097933
148.696809	5766.390000	1066.298828	74.794601
148.696809	5766.390000	1065.149414	34.406948
148.696809	5766.390000	1064.000977	99.996307
148.696809	5766.390000	1062.851563	111.546005
148.696809	5766.390000	1061.702148	216.020554
148.696809	5766.390000	1060.552734	171.955017
148.696809	5766.390000	1059.402344	36.906116
148.696809	5766.390000	1058.252930	133.151764
148.696809	5766.390000	1057.102539	-24.815121
148.696809	5766.390000	1055.951172	-22.002491
148.696809	5766.390000	1054.800781	-37.455570
148.696809	5766.390000	1053.649414	79.336029
148.696809	5766.390000	1052.498047	37.191467
148.696809	5766.390000	1051.346680	-55.581215
148.696809	5766.390000	1050.194336	-68.568970
148.696809	5766.390000	1049.042969	-6.949162
148.696809	5766.390000	1047.890625	52.637547
148.696809	5766.390000	1046.738281	-2.199057
148.696809	5766.390000	1045.584961	104.801659
148.696809	5766.390000	1044.431641	84.584007
148.696809	5766.390000	1043.278320	129.894012
148.696809	5766.390000	1042.125000	-20.419708
148.696809	5766.390000	1040.971680	-12.011033
148.696809	5766.390000	1039.817383	-25.390894
148.696809	5766.390000	1038.663086	44.593128
148.696809	5766.390000	1037.508789	74.214920
148.696809	5766.390000	1036.353516	242.703720
148.696809	5766.390000	1035.198242	80.348251
148.696809	5766.390000	1034.042969	96.158722
148.696809	5766.390000	1032.887695	48.063335
148.696809	5766.390000	1031.732422	-40.119099
148.696809	5766.390000	1030.576172	119.915283
148.696809	5766.390000	1029.419922	95.536850
148.696809	5766.390000	1028.263672	155.538544
148.696809	5766.390000	1027.106445	180.097702
148.696809	5766.390000	1025.949219	128.191711
148.696809	5766.390000	1024.792969	186.394165
148.696809	5766.390000	1023.634766	129.932846
148.696809	5766.390000	1022.477539	227.410538
148.696809	5766.390000	1021.319336	107.669609
148.696809	5766.390000	1020.161133	116.508316
148.696809	5766.390000	1019.002930	137.409576
148.696809	5766.390000	1017.843750	200.897751
148.696809	5766.390000	1016.684570	81.053894
148.696809	5766.390000	1015.525391	75.150948
148.696809	5766.390000	1014.366211	222.467728
148.696809	5766.390000	1013.207031	137.047195
148.696809	5766.390000	1012.046875	94.093811
148.696809	5766.390000	1010.886719	110.596443
148.696809	5766.390000	1009.726563	6.570726
148.696809	5766.390000	1008.565430	50.421257
148.696809	5766.390000	1007.404297	76.405037
148.696809	5766.390000	1006.243164	-68.707893
148.696809	5766.390000	1005.082031	-8.445855
148.696809	5766.390000	1003.920898	-36.614487
148.696809	5766.390000	1002.758789	-66.629601
148.696809	5766.390000	1001.596680	33.633602
148.696809	5766.390000	1000.433594	71.105461
148.696809	5766.390000	999.271484	50.514187
148.696809	5766.390000	998.108398	-15.576919
148.696809	5766.390000	996.945313	-38.764172
148.696809	5766.390000	995.782227	59.301575
148.696809	5766.390000	994.618164	94.675583
148.696809	5766.390000	993.454102	-3.984991
148.696809	5766.390000	992.290039	212.094299
148.696809	5766.390000	991.125977	176.276794
148.696809	5766.390000	989.960938	46.590298
148.696809	5766.390000	988.796875	103.554428
148.696809	5766.390000	987.630859	56.115387
148.696809	5766.390000	986.465820	110.255760
148.696809	5766.390000	985.300781	170.199173
148.696809	5766.390000	984.134766	73.989517
148.696809	5766.390000	982.968750	79.095154
148.696809	5766.390000	981.801758	45.656116
148.696809	5766.390000	980.635742	108.584862
148.696809	5766.390000	979.468750	-26.383049
148.696809	5766.390000	978.301758	-20.806499
148.696809	5766.390000	977.133789	127.065308
148.696809	5766.390000	975.966797	50.397915
148.696809	5766.390000	974.798828	-12.395532
148.696809	5766.390000	973.630859	-38.817188
148.696809	5766.390000	972.461914	107.876839
148.696809	5766.390000	971.293945	-12.796190
148.696809	5766.390000	970.125000	51.446350
148.696809	5766.390000	968.956055	47.441746
148.696809	5766.390000	967.786133	-92.347435
148.696809	5766.390000	966.617188	-12.105923
148.696809	5766.390000	965.447266	12.617711
148.696809	5766.390000	964.276367	74.579819
148.696809	5766.390000	963.106445	89.114845
148.696809	5766.390000	961.935547	-58.110088
148.696809	5766.390000	960.764648	119.266380
148.696809	5766.390000	959.593750	-53.368477
148.696809	5766.390000	958.422852	1.975653
148.696809	5766.390000	957.250977	-7.573289
148.696809	5766.390000	956.079102	34.960388
148.696809	5766.390000	954.907227	34.380955
148.696809	5766.390000	953.734375	38.223534
148.696809	5766.390000	952.562500	-10.795269
148.696809	5766.390000	951.389648	46.740383
148.696809	5766.390000	950.215820	65.863724
148.696809	5766.390000	949.042969	35.055153
148.696809	5766.390000	947.869141	-4.264725
148.696809	5766.390000	946.695313	137.027405
148.696809	5766.390000	945.521484	74.635231
148.696809	5766.390000	944.346680	-30.470215
148.696809	5766.390000	943.172852	79.061256
148.696809	5766.390000	941.998047	21.267292
148.696809	5766.390000	940.822266	-7.028838
148.696809	5766.390000	939.647461	-46.844982
148.696809	5766.390000	938.471680	35.456486
148.696809	5766.390000	937.295898	-10.955565
148.696809	5766.390000	936.119141	-98.156624
148.696809	5766.390000	934.943359	-67.879242
148.696809	5766.390000	933.766602	-3.714930
148.696809	5766.390000	932.589844	69.505249
148.696809	5766.390000	931.413086	79.391258
148.696809	5766.390000	930.235352	143.443695
148.696809	5766.390000	929.057617	6.434589
148.696809	5766.390000	927.879883	36.574482
148.696809	5766.390000	926.702148	71.252632
148.696809	5766.390000	925.523438	128.451523
148.696809	5766.390000	924.344727	52.419312
148.696809	5766.390000	923.166016	3.478366
148.696809	5766.390000	921.987305	-90.596794
148.696809	5766.390000	920.807617	56.780243
148.696809	5766.390000	919.627930	58.407516
148.696809	5766.390000	919.497070	12.508283
148.696809	5766.390000	918.331055	-63.540985
148.696809	5766.390000	917.165039	36.313965
148.696809	5766.390000	915.999023	-5.927255
148.696809	5766.390000	914.833008	57.773540
148.696809	5766.390000	913.666016	74.104729
148.696809	5766.390000	912.499023	4.790224
148.696809	5766.390000	911.332031	-39.733841
148.696809	5766.390000	910.165039	-118.041580
148.696809	5766.390000	908.997070	15.336579
148.696809	5766.390000	907.830078	-8.953730
148.696809	5766.390000	906.661133	47.783051
148.696809	5766.390000	905.493164	27.963394
148.696809	5766.390000	904.325195	55.384003
148.696809	5766.390000	903.156250	71.529991
148.696809	5766.390000	901.987305	-9.057689
148.696809	5766.390000	900.818359	-44.657745
148.696809	5766.390000	899.648438	18.659727
148.696809	5766.390000	898.478516	23.493822
148.696809	5766.390000	897.308594	-57.084553
148.696809	5766.390000	896.138672	35.353912
148.696809	5766.390000	894.968750	78.319084
148.696809	5766.390000	893.797852	13.450770
148.696809	5766.390000	892.626953	-22.217793
148.696809	5766.390000	891.456055	43.134312
148.696809	5766.390000	890.284180	14.176126
148.696809	5766.390000	889.113281	106.389694
148.696809	5766.390000	887.941406	37.014366
148.696809	5766.390000	886.768555	115.697174
148.696809	5766.390000	885.596680	140.507645
148.696809	5766.390000	884.423828	-29.777359
148.696809	5766.390000	883.250977	-34.120087
148.696809	5766.390000	882.078125	19.795982
148.696809	5766.390000	880.905273	22.135992
148.696809	5766.390000	879.731445	-36.028778
148.696809	5766.390000	878.557617	-20.268436
148.696809	5766.390000	877.383789	22.343399
148.696809	5766.390000	876.209961	-6.724411
148.696809	5766.390000	875.035156	49.268791
148.696809	5766.390000	873.860352	-53.677711
148.696809	5766.390000	872.685547	26.886381
148.696809	5766.390000	871.510742	-35.774166
148.696809	5766.390000	870.334961	-0.008592
148.696809	5766.390000	869.159180	-26.886898
148.696809	5766.390000	867.983398	62.491901
148.696809	5766.390000	866.807617	-9.123061
148.696809	5766.390000	865.630859	-51.668957
148.696809	5766.390000	864.454102	-33.882736
148.696809	5766.390000	863.277344	-114.411263
148.696809	5766.390000	862.100586	102.132774
148.696809	5766.390000	860.922852	-78.903656
148.696809	5766.390000	859.745117	-54.483543
148.696809	5766.390000	858.567383	43.572914
148.696809	5766.390000	857.389648	-199.867477
148.696809	5766.390000	856.210938	-113.003700
148.696809	5766.390000	855.032227	-75.265488
148.696809	5766.390000	853.853516	7.049903
148.696809	5766.390000	852.674805	-44.470509
148.696809	5766.390000	851.495117	-95.982780
148.696809	5766.390000	850.315430	-136.341904
148.696809	5766.390000	849.135742	99.629982
148.696809	5766.390000	847.956055	-58.861961
148.696809	5766.390000	846.775391	45.548145
148.696809	5766.390000	845.595703	-70.578659
148.696809	5766.390000	844.415039	-21.899416
148.696809	5766.390000	843.233398	-68.977539
148.696809	5766.390000	842.052734	55.330601
148.696809	5766.390000	840.871094	-62.975857
148.696809	5766.390000	839.689453	23.434225
148.696809	5766.390000	838.506836	-74.821884
148.696809	5766.390000	837.325195	56.008884
148.696809	5766.390000	836.142578	11.124812
148.696809	5766.390000	834.959961	66.280418
148.696809	5766.390000	833.777344	-100.847923
148.696809	5766.390000	832.593750	-5.718209
148.696809	5766.390000	831.410156	73.810349
148.696809	5766.390000	830.226563	-8.847601
148.696809	5766.390000	829.042969	-27.083567
148.696809	5766.390000	827.858398	47.925678
148.696809	5766.390000	826.673828	102.915680
148.696809	5766.390000	825.489258	49.126270
148.696809	5766.390000	824.304688	-184.377518
148.696809	5766.390000	823.120117	61.373669
148.696809	5766.390000	821.934570	47.516468
148.696809	5766.390000	820.749023	15.914883
148.696809	5766.390000	819.562500	-102.147476
148.696809	5766.390000	818.376953	-91.612068
148.696809	5766.390000	817.190430	80.683426
148.696809	5766.390000	816.003906	-6.332005
148.696809	5766.390000	814.817383	13.007249
148.696809	5766.390000	813.629883	-60.690052
148.696809	5766.390000	812.442383	-1.511022
148.696809	5766.390000	811.254883	-64.125984
148.696809	5766.390000	810.067383	-175.418152
148.696809	5766.390000	808.878906	96.155273
148.696809	5766.390000	807.690430	-28.418072
148.696809	5766.390000	806.501953	52.763256
148.696809	5766.390000	805.313477	29.960569
148.696809	5766.390000	804.124023	27.057465
148.696809	5766.390000	802.934570	-70.910065
148.696809	5766.390000	801.745117	111.842232
148.696809	5766.390000	800.555664	51.443352
148.696809	5766.390000	799.365234	55.128418
148.696809	5766.390000	798.175781	78.681808
148.696809	5766.390000	796.985352	42.591740
148.696809	5766.390000	795.793945	26.378304
148.696809	5766.390000	794.603516	-84.755630
148.696809	5766.390000	793.412109	20.427624
148.696809	5766.390000	792.220703	-42.134018
148.696809	5766.390000	791.028320	-47.321705
148.696809	5766.390000	789.836914	123.929802
148.696809	5766.390000	788.644531	28.282455
148.696809	5766.390000	787.452148	98.015976
148.696809	5766.390000	786.258789	64.114433
148.696809	5766.390000	785.066406	-62.338825
148.696809	5766.390000	783.873047	-43.330830
148.696809	5766.390000	782.679688	46.151569
148.696809	5766.390000	781.485352	43.088501
148.696809	5766.390000	780.291992	-83.288200
148.696809	5766.390000	779.097656	-156.785919
148.696809	5766.390000	777.903320	38.260838
148.696809	5766.390000	776.708008	-0.038906
148.696809	5766.390000	775.512695	-53.731052
148.696809	5766.390000	774.318359	13.570163
148.696809	5766.390000	773.122070	65.442078
148.696809	5766.390000	771.926758	-21.234999
148.696809	5766.390000	770.730469	-11.160156
148.696809	5766.390000	769.534180	-5.492547
148.696809	5766.390000	768.337891	19.940742
148.696809	5766.390000	767.141602	-101.835327
148.696809	5766.390000	765.944336	-65.425186
148.696809	5766.390000	764.747070	-22.449877
148.696809	5766.390000	763.549805	75.388504
148.696809	5766.390000	762.351563	56.840004
148.696809	5766.390000	761.154297	101.935471
148.696809	5766.390000	759.956055	63.627552
148.696809	5766.390000	758.757813	45.071602
148.696809	5766.390000	757.558594	133.984421
148.696809	5766.390000	756.359375	14.539947
148.696809	5766.390000	755.160156	52.984303
148.696809	5766.390000	753.960938	170.313156
148.696809	5766.390000	752.761719	31.191608
148.696809	5766.390000	751.561523	27.959965
148.696809	5766.390000	750.361328	7.198905
148.696809	5766.390000	749.160156	-48.600876
148.696809	5766.390000	747.959961	178.071075
148.696809	5766.390000	746.758789	1.843572
148.696809	5766.390000	745.557617	92.700119
148.696809	5766.390000	744.356445	144.124176
148.696809	5766.390000	743.154297	73.006310
148.696809	5766.390000	741.952148	56.593727
148.696809	5766.390000	740.750000	11.752209
148.696809	5766.390000	739.547852	41.260605
148.696809	5766.390000	738.344727	107.910347
148.696809	5766.390000	737.142578	111.147522
148.696809	5766.390000	735.939453	99.081787
148.696809	5766.390000	734.735352	108.860641
148.696809	5766.390000	733.532227	112.076675
148.696809	5766.390000	732.328125	65.061203
148.696809	5766.390000	731.124023	101.019974
148.696809	5766.390000	729.918945	21.273184
148.696809	5766.390000	728.714844	-43.170509
148.696809	5766.390000	727.509766	-22.502789
148.696809	5766.390000	726.303711	52.684578
148.696809	5766.390000	725.098633	73.311897
148.696809	5766.390000	723.892578	37.232376
148.696809	5766.390000	722.686523	38.222595
148.696809	5766.390000	721.480469	-104.643181
148.696809	5766.390000	720.274414	94.660477
148.696809	5766.390000	719.067383	-26.383192
148.696809	5766.390000	717.860352	0.733864
148.696809	5766.390000	716.653320	60.499474
148.696809	5766.390000	715.445313	22.257710
148.696809	5766.390000	714.238281	-118.283455
148.696809	5766.390000	713.030273	-12.844132
148.696809	5766.390000	711.821289	1.157255
148.696809	5766.390000	710.613281	-67.518562
148.696809	5766.390000	709.404297	-38.297283
148.696809	5766.390000	708.195313	34.396545
148.696809	5766.390000	706.986328	-66.870621
148.696809	5766.390000	705.776367	92.731575
148.696809	5766.390000	704.566406	-6.342977
148.696809	5766.390000	703.356445	124.923828
148.696809	5766.390000	702.146484	141.002258
148.696809	5766.390000	700.935547	83.227516
148.696809	5766.390000	699.724609	-63.552422
148.696809	5766.390000	698.513672	71.936890
148.696809	5766.390000	697.302734	166.126144
148.696809	5766.390000	696.090820	119.223618
148.696809	5766.390000	694.878906	94.030396
148.696809	5766.390000	693.666992	155.605118
148.696809	5766.390000	692.455078	95.707573
148.696809	5766.390000	691.242188	64.015755
148.696809	5766.390000	690.029297	147.218948
148.696809	5766.390000	688.816406	26.663870
148.696809	5766.390000	687.602539	46.993820
148.696809	5766.390000	686.389648	147.464310
148.696809	5766.390000	685.175781	63.789639
148.696809	5766.390000	683.960938	62.430771
148.696809	5766.390000	682.747070	177.974792
148.696809	5766.390000	681.532227	27.233124
148.696809	5766.390000	680.317383	43.180740
148.696809	5766.390000	679.102539	61.280579
148.696809	5766.390000	677.886719	81.531372
148.696809	5766.390000	676.670898	-30.153418
148.696809	5766.390000	675.455078	87.398605
148.696809	5766.390000	674.239258	18.985352
148.696809	5766.390000	673.022461	112.694412
148.696809	5766.390000	671.805664	35.652630
148.696809	5766.390000	670.588867	32.091991
148.696809	5766.390000	669.372070	24.209316
148.696809	5766.390000	668.154297	115.661049
148.696809	5766.390000	666.936523	34.348457
148.696809	5766.390000	665.718750	48.043072
148.696809	5766.390000	664.500977	150.210281
148.696809	5766.390000	663.282227	79.717445
148.696809	5766.390000	662.063477	35.137245
148.696809	5766.390000	660.844727	78.998047
148.696809	5766.390000	659.625000	96.960670
148.696809	5766.390000	658.405273	2.808738
148.696809	5766.390000	657.185547	89.744934
148.696809	5766.390000	655.965820	6.401643
148.696809	5766.390000	654.745117	125.609108
148.696809	5766.390000	653.525391	-149.420929
148.696809	5766.390000	652.303711	-38.852131
148.696809	5766.390000	651.083008	43.676052
148.696809	5766.390000	649.861328	-22.366856
148.696809	5766.390000	648.640625	-23.818901
148.696809	5766.390000	647.417969	22.063934
148.696809	5766.390000	646.196289	115.252602
148.696809	5766.390000	644.973633	8.370891
148.696809	5766.390000	643.750977	97.215645
148.696809	5766.390000	642.528320	-106.368835
148.696809	5766.390000	641.305664	-45.486496
148.696809	5766.390000	640.082031	2.472691
148.696809	5766.390000	638.858398	-59.167576
148.696809	5766.390000	637.634766	72.544434
148.696809	5766.390000	636.410156	-4.124037
148.696809	5766.390000	635.185547	-12.052405
148.696809	5766.390000	633.960938	-60.767941
148.696809	5766.390000	632.736328	-25.760805
148.696809	5766.390000	631.510742	19.957914
148.696809	5766.390000	630.285156	3.439485
148.696809	5766.390000	629.059570	-25.943949
148.696809	5766.390000	627.833984	-33.872978
148.696809	5766.390000	626.607422	93.271683
148.696809	5766.390000	625.380859	29.584284
148.696809	5766.390000	624.154297	17.355909
148.696809	5766.390000	622.927734	28.699924
148.696809	5766.390000	621.700195	-67.072495
148.696809	5766.390000	620.472656	-15.026272
148.696809	5766.390000	619.245117	45.560841
148.696809	5766.390000	618.016602	11.924337
148.696809	5766.390000	616.788086	102.442169
148.696809	5766.390000	615.559570	-48.890465
148.696809	5766.390000	614.331055	-22.585194
148.696809	5766.390000	613.101563	-24.099884
148.696809	5766.390000	611.872070	-36.307552
148.696809	5766.390000	610.642578	77.636612
148.696809	5766.390000	609.413086	9.831326
148.696809	5766.390000	608.182617	-104.964462
148.696809	5766.390000	606.952148	100.798096
148.696809	5766.390000	605.721680	-86.603073
148.696809	5766.390000	604.491211	-68.886131
148.696809	5766.390000	603.259766	-38.365391
148.696809	5766.390000	602.028320	-20.667768
148.696809	5766.390000	600.796875	24.769819
148.696809	5766.390000	599.564453	-51.450912
148.696809	5766.390000	598.332031	17.442537
148.696809	5766.390000	597.099609	5.248602
148.696809	5766.390000	595.867188	10.121185
148.696809	5766.390000	594.633789	-100.147560
148.696809	5766.390000	593.400391	79.547867
148.696809	5766.390000	592.166992	112.108452
148.696809	5766.390000	590.933594	80.730576
148.696809	5766.390000	589.699219	72.800148
148.696809	5766.390000	588.464844	130.901184
148.696809	5766.390000	587.230469	171.942978
148.696809	5766.390000	585.995117	149.096573
148.696809	5766.390000	584.760742	49.632946
148.696809	5766.390000	583.525391	22.568443
148.696809	5766.390000	582.289063	-8.739407
148.696809	5766.390000	581.053711	96.108765
148.696809	5766.390000	579.817383	-16.015211
148.696809	5766.390000	578.581055	33.508324
148.696809	5766.390000	577.343750	21.362648
148.696809	5766.390000	576.107422	-9.904924
148.696809	5766.390000	574.870117	58.714653
148.696809	5766.390000	573.631836	93.314743
148.696809	5766.390000	572.394531	70.553490
148.696809	5766.390000	571.156250	11.702645
148.696809	5766.390000	569.917969	-38.627918
148.696809	5766.390000	568.679688	80.878311
148.696809	5766.390000	567.440430	79.368980
148.696809	5766.390000	566.202148	3.601809
148.696809	5766.390000	564.961914	133.635788
148.696809	5766.390000	563.722656	43.047855
148.696809	5766.390000	562.482422	-49.619202
148.696809	5766.390000	561.243164	-68.045677
148.696809	5766.390000	560.001953	100.054001
148.696809	5766.390000	558.761719	-51.890221
148.696809	5766.390000	557.520508	39.870983
148.696809	5766.390000	556.279297	27.807323
148.696809	5766.390000	555.038086	45.399841
148.696809	5766.390000	553.795898	103.215157
148.696809	5766.390000	552.554688	-1.982747
148.696809	5766.390000	551.311523	127.779747
148.696809	5766.390000	550.069336	48.018940
148.696809	5766.390000	548.826172	-4.203315
148.696809	5766.390000	547.583984	30.313961
148.696809	5766.390000	546.339844	-78.967308
148.696809	5766.390000	545.096680	-46.555298
148.696809	5766.390000	543.852539	-45.857361
148.696809	5766.390000	542.608398	66.841263
148.696809	5766.390000	541.364258	-101.493546
148.696809	5766.390000	540.119141	-138.793198
148.696809	5766.390000	538.875000	-171.848511
148.696809	5766.390000	537.628906	6.248793
148.696809	5766.390000	536.383789	-3.595493
148.696809	5766.390000	535.137695	-13.431275
148.696809	5766.390000	533.892578	-78.117752
148.696809	5766.390000	532.645508	118.810005
148.696809	5766.390000	531.399414	100.531166
148.696809	5766.390000	530.152344	126.545654
148.696809	5766.390000	528.905273	101.957779
148.696809	5766.390000	527.658203	-11.140142
148.696809	5766.390000	526.410156	19.109516
148.696809	5766.390000	525.163086	74.633110
148.696809	5766.390000	523.914063	31.137814
148.696809	5766.390000	522.666016	78.220154
148.696809	5766.390000	521.416992	87.388367
148.696809	5766.390000	520.167969	41.826782
148.696809	5766.390000	518.918945	-20.547138
148.696809	5766.390000	517.669922	-78.681679
148.696809	5766.390000	516.419922	-23.189425
148.696809	5766.390000	515.169922	2.838521
148.696809	5766.390000	513.919922	68.812256
148.696809	5766.390000	512.668945	23.339399
148.696809	5766.390000	511.417969	38.843948
148.696809	5766.390000	510.166992	81.664688
148.696809	5766.390000	508.916016	63.543236
148.696809	5766.390000	507.664063	30.729757
148.696809	5766.390000	506.412109	69.336197
148.696809	5766.390000	505.160156	53.340462
148.696809	5766.390000	503.907227	131.815948
148.696809	5766.390000	502.655273	-31.087637
148.696809	5766.390000	501.402344	11.709705
148.696809	5766.390000	500.148438	50.295715
148.696809	5766.390000	498.895508	25.948479
148.696809	5766.390000	497.641602	79.199142
148.696809	5766.390000	496.387695	54.861683
148.696809	5766.390000	495.132813	-36.534508
148.696809	5766.390000	493.878906	113.097176
148.696809	5766.390000	492.624023	-20.169180
148.696809	5766.390000	491.368164	72.843437
148.696809	5766.390000	490.113281	-58.259857
148.696809	5766.390000	488.857422	41.005142
148.696809	5766.390000	487.601563	-35.607254
148.696809	5766.390000	486.344727	-55.679565
148.696809	5766.390000	485.088867	-19.248352
148.696809	5766.390000	483.832031	73.648582
148.696809	5766.390000	482.575195	-61.464512
148.696809	5766.390000	481.317383	-27.148237
148.696809	5766.390000	480.059570	-84.831985
148.696809	5766.390000	478.801758	-31.716343
148.696809	5766.390000	477.543945	-12.060026
148.696809	5766.390000	476.285156	-59.269417
148.696809	5766.390000	475.027344	100.326805
148.696809	5766.390000	473.767578	-84.721634
148.696809	5766.390000	472.508789	-100.576256
148.696809	5766.390000	471.249023	-9.969897
148.696809	5766.390000	469.989258	-44.625553
148.696809	5766.390000	468.729492	-87.617500
148.696809	5766.390000	467.469727	-38.809597
148.696809	5766.390000	466.208984	-6.714364
148.696809	5766.390000	464.948242	-37.195011
148.696809	5766.390000	463.686523	44.904331
148.696809	5766.390000	462.425781	-64.792526
148.696809	5766.390000	461.164063	-55.673454
148.696809	5766.390000	459.901367	-67.401787
148.696809	5766.390000	458.639648	-45.809311
148.696809	5766.390000	457.376953	-51.308933
148.696809	5766.390000	456.114258	-54.736641
148.696809	5766.390000	454.851563	37.576176
148.696809	5766.390000	453.587891	-63.708538
148.696809	5766.390000	452.324219	-10.995200
148.696809	5766.390000	451.060547	8.396434
148.696809	5766.390000	449.796875	6.965913
148.696809	5766.390000	448.532227	20.073254
148.696809	5766.390000	447.267578	130.862793
148.696809	5766.390000	446.002930	-53.550304
148.696809	5766.390000	444.737305	-34.263672
148.696809	5766.390000	443.471680	22.388445
148.696809	5766.390000	442.206055	89.378052
148.696809	5766.390000	440.940430	145.931519
148.696809	5766.390000	439.673828	100.702454
148.696809	5766.390000	438.407227	26.406336
148.696809	5766.390000	437.140625	80.781143
148.696809	5766.390000	435.873047	103.980301
148.696809	5766.390000	434.605469	131.287109
148.696809	5766.390000	433.337891	98.406723
148.696809	5766.390000	432.070313	50.992950
148.696809	5766.390000	430.801758	24.293692
148.696809	5766.390000	429.533203	-52.171989
148.696809	5766.390000	428.264648	122.084084
148.696809	5766.390000	426.996094	51.767326
148.696809	5766.390000	425.726563	58.074059
148.696809	5766.390000	424.457031	51.909992
148.696809	5766.390000	423.186523	27.069437
148.696809	5766.390000	421.916992	66.360291
148.696809	5766.390000	420.646484	31.084686
148.696809	5766.390000	419.375977	121.981285
148.696809	5766.390000	418.104492	-20.959183
148.696809	5766.390000	416.833008	189.749954
148.696809	5766.390000	415.561523	24.000664
148.696809	5766.390000	414.290039	5.034492
148.696809	5766.390000	413.017578	223.689423
148.696809	5766.390000	411.746094	161.171524
148.696809	5766.390000	410.472656	111.006676
148.696809	5766.390000	409.200195	62.862598
148.696809	5766.390000	407.926758	153.018524
148.696809	5766.390000	406.653320	59.321384
148.696809	5766.390000	405.379883	27.510330
148.696809	5766.390000	404.105469	47.223331
148.696809	5766.390000	402.831055	139.056305
148.696809	5766.390000	401.556641	59.561203
148.696809	5766.390000	400.282227	89.312874
148.696809	5766.390000	399.006836	172.567398
148.696809	5766.390000	397.731445	45.433369
148.696809	5766.390000	396.456055	153.202682
148.696809	5766.390000	395.179688	188.708160
148.696809	5766.390000	393.903320	184.954834
148.696809	5766.390000	392.626953	164.621124
148.696809	5766.390000	391.350586	271.852661
148.696809	5766.390000	390.073242	144.233047
148.696809	5766.390000	388.795898	253.249283
148.696809	5766.390000	387.518555	158.377808
148.696809	5766.390000	386.240234	104.568413
148.696809	5766.390000	384.961914	116.475098
148.696809	5766.390000	383.683594	122.075508
148.696809	5766.390000	382.405273	28.851101
148.696809	5766.390000	381.125977	132.856888
148.696809	5766.390000	379.846680	142.139465
148.696809	5766.390000	378.567383	27.990570
148.696809	5766.390000	377.287109	104.777100
148.696809	5766.390000	376.006836	60.201447
148.696809	5766.390000	374.726563	-5.049433
148.696809	5766.390000	373.446289	169.747940
148.696809	5766.390000	372.165039	-62.084850
148.696809	5766.390000	370.883789	13.803575
148.696809	5766.390000	369.602539	46.395672
148.696809	5766.390000	368.320313	-40.178642
148.696809	5766.390000	367.039063	-120.749992
148.696809	5766.390000	365.755859	62.982010
148.696809	5766.390000	364.473633	-112.267616
148.696809	5766.390000	363.190430	87.367279
148.696809	5766.390000	361.907227	20.352051
148.696809	5766.390000	360.624023	-57.094810
148.696809	5766.390000	359.340820	45.487251
148.696809	5766.390000	358.056641	-44.677849
148.696809	5766.390000	356.772461	81.947678
148.696809	5766.390000	355.487305	99.798065
148.696809	5766.390000	354.202148	176.729553
148.696809	5766.390000	352.916992	149.038971
148.696809	5766.390000	351.631836	104.734444
148.696809	5766.390000	350.346680	72.448494
148.696809	5766.390000	349.060547	109.401299
148.696809	5766.390000	347.774414	39.769203
148.696809	5766.390000	346.487305	61.825375
148.696809	5766.390000	345.200195	71.314148
148.696809	5766.390000	343.913086	60.066055
148.696809	5766.390000	342.625977	-27.051409
148.696809	5766.390000	341.338867	-24.618158
148.696809	5766.390000	340.050781	-12.318513
148.696809	5766.390000	338.762695	9.841275
148.696809	5766.390000	337.473633	-11.213110
148.696809	5766.390000	336.184570	-53.013634
148.696809	5766.390000	334.895508	-80.884178
148.696809	5766.390000	333.606445	-76.491058
148.696809	5766.390000	332.317383	13.138392
148.696809	5766.390000	331.027344	-48.496193
148.696809	5766.390000	329.736328	17.859331
148.696809	5766.390000	328.446289	-1.779649
148.696809	5766.390000	327.155273	-121.645660
148.696809	5766.390000	325.864258	-72.871872
148.696809	5766.390000	324.573242	32.445953
148.696809	5766.390000	323.281250	-76.471947
148.696809	5766.390000	321.989258	-90.157745
148.696809	5766.390000	320.697266	25.904001
148.696809	5766.390000	319.405273	31.586983
148.696809	5766.390000	318.112305	-12.050443
148.696809	5766.390000	316.819336	21.088547
148.696809	5766.390000	315.526367	53.695377
148.696809	5766.390000	314.232422	-42.296913
148.696809	5766.390000	312.938477	111.137695
148.696809	5766.390000	311.644531	-12.331007
148.696809	5766.390000	310.349609	87.085060
148.696809	5766.390000	309.054688	33.583347
148.696809	5766.390000	307.759766	182.526825
148.696809	5766.390000	306.464844	123.768959
148.696809	5766.390000	305.168945	141.511154
148.696809	5766.390000	303.873047	150.497070
148.696809	5766.390000	302.577148	120.292366
148.696809	5766.390000	301.281250	192.864319
148.696809	5766.390000	299.984375	132.921646
