#X		#Y		#Wave		#Intensity
-174.257447	5465.245000	1999.946289	116.840965
-174.257447	5465.245000	1998.981445	65.250473
-174.257447	5465.245000	1998.017578	-106.094864
-174.257447	5465.245000	1997.052734	-59.262054
-174.257447	5465.245000	1996.088867	-37.179359
-174.257447	5465.245000	1995.124023	29.523932
-174.257447	5465.245000	1994.159180	-52.361679
-174.257447	5465.245000	1993.193359	26.778288
-174.257447	5465.245000	1992.228516	-35.192226
-174.257447	5465.245000	1991.262695	-12.942163
-174.257447	5465.245000	1990.296875	-72.335426
-174.257447	5465.245000	1989.331055	113.298470
-174.257447	5465.245000	1988.365234	58.922031
-174.257447	5465.245000	1987.398438	-86.921730
-174.257447	5465.245000	1986.432617	73.982803
-174.257447	5465.245000	1985.465820	2.433527
-174.257447	5465.245000	1984.499023	192.989243
-174.257447	5465.245000	1983.532227	32.526100
-174.257447	5465.245000	1982.565430	156.343582
-174.257447	5465.245000	1981.597656	-48.469608
-174.257447	5465.245000	1980.629883	33.377670
-174.257447	5465.245000	1979.662109	137.451065
-174.257447	5465.245000	1978.694336	11.858718
-174.257447	5465.245000	1977.726563	219.645782
-174.257447	5465.245000	1976.758789	25.019552
-174.257447	5465.245000	1975.790039	18.058199
-174.257447	5465.245000	1974.821289	35.799370
-174.257447	5465.245000	1973.852539	41.222351
-174.257447	5465.245000	1972.883789	51.598927
-174.257447	5465.245000	1971.915039	34.865440
-174.257447	5465.245000	1970.945313	28.022127
-174.257447	5465.245000	1969.975586	-35.499397
-174.257447	5465.245000	1969.005859	31.658140
-174.257447	5465.245000	1968.036133	-2.228539
-174.257447	5465.245000	1967.066406	25.514269
-174.257447	5465.245000	1966.096680	23.703836
-174.257447	5465.245000	1965.125977	21.910891
-174.257447	5465.245000	1964.155273	-21.726473
-174.257447	5465.245000	1963.184570	-11.165854
-174.257447	5465.245000	1962.213867	48.639057
-174.257447	5465.245000	1961.242188	-34.310234
-174.257447	5465.245000	1960.271484	-11.402634
-174.257447	5465.245000	1959.299805	-13.092077
-174.257447	5465.245000	1958.328125	-24.606236
-174.257447	5465.245000	1957.356445	74.567078
-174.257447	5465.245000	1956.384766	107.327255
-174.257447	5465.245000	1955.412109	110.586594
-174.257447	5465.245000	1954.439453	20.454302
-174.257447	5465.245000	1953.467773	6.550310
-174.257447	5465.245000	1952.495117	24.603556
-174.257447	5465.245000	1951.521484	50.029629
-174.257447	5465.245000	1950.548828	-44.892094
-174.257447	5465.245000	1949.575195	14.937049
-174.257447	5465.245000	1948.601563	121.402138
-174.257447	5465.245000	1947.627930	-25.002144
-174.257447	5465.245000	1946.654297	-58.446125
-174.257447	5465.245000	1945.680664	-23.161665
-174.257447	5465.245000	1944.706055	102.891174
-174.257447	5465.245000	1943.732422	-50.727551
-174.257447	5465.245000	1942.757813	-89.016647
-174.257447	5465.245000	1941.783203	-107.668686
-174.257447	5465.245000	1940.807617	-160.630005
-174.257447	5465.245000	1939.833008	-17.477282
-174.257447	5465.245000	1938.857422	-41.016376
-174.257447	5465.245000	1937.881836	35.916100
-174.257447	5465.245000	1936.906250	58.930649
-174.257447	5465.245000	1935.930664	23.159260
-174.257447	5465.245000	1934.955078	119.641159
-174.257447	5465.245000	1933.978516	130.397858
-174.257447	5465.245000	1933.001953	45.686039
-174.257447	5465.245000	1932.025391	-7.173825
-174.257447	5465.245000	1931.048828	-8.624409
-174.257447	5465.245000	1930.072266	-54.108879
-174.257447	5465.245000	1929.094727	49.635551
-174.257447	5465.245000	1928.118164	101.986755
-174.257447	5465.245000	1927.140625	-68.191017
-174.257447	5465.245000	1926.163086	-40.281715
-174.257447	5465.245000	1925.184570	102.497986
-174.257447	5465.245000	1924.207031	30.171482
-174.257447	5465.245000	1923.228516	55.606476
-174.257447	5465.245000	1922.250000	15.074307
-174.257447	5465.245000	1921.271484	20.963898
-174.257447	5465.245000	1920.292969	24.409779
-174.257447	5465.245000	1919.314453	-45.391502
-174.257447	5465.245000	1918.334961	-7.760578
-174.257447	5465.245000	1917.355469	-11.635070
-174.257447	5465.245000	1916.375977	-78.952202
-174.257447	5465.245000	1915.396484	44.051003
-174.257447	5465.245000	1914.416992	49.923653
-174.257447	5465.245000	1913.436523	77.741142
-174.257447	5465.245000	1912.457031	-9.054638
-174.257447	5465.245000	1911.476563	13.884563
-174.257447	5465.245000	1910.496094	-85.057549
-174.257447	5465.245000	1909.515625	-110.856255
-174.257447	5465.245000	1908.534180	58.273327
-174.257447	5465.245000	1907.552734	-103.966728
-174.257447	5465.245000	1906.572266	87.013863
-174.257447	5465.245000	1905.590820	56.321651
-174.257447	5465.245000	1904.608398	-10.882881
-174.257447	5465.245000	1903.626953	-65.894089
-174.257447	5465.245000	1902.644531	-4.066361
-174.257447	5465.245000	1901.663086	77.201477
-174.257447	5465.245000	1900.680664	-26.463034
-174.257447	5465.245000	1899.698242	32.879547
-174.257447	5465.245000	1898.714844	9.508743
-174.257447	5465.245000	1897.732422	17.753300
-174.257447	5465.245000	1896.749023	62.455597
-174.257447	5465.245000	1895.765625	-4.670970
-174.257447	5465.245000	1894.782227	-11.022516
-174.257447	5465.245000	1893.798828	113.827118
-174.257447	5465.245000	1892.814453	85.583229
-174.257447	5465.245000	1891.831055	132.637619
-174.257447	5465.245000	1890.846680	114.104637
-174.257447	5465.245000	1889.862305	-16.108458
-174.257447	5465.245000	1888.877930	-34.616497
-174.257447	5465.245000	1887.892578	53.663258
-174.257447	5465.245000	1886.908203	100.654411
-174.257447	5465.245000	1885.922852	55.432682
-174.257447	5465.245000	1884.937500	15.073369
-174.257447	5465.245000	1883.952148	-88.329865
-174.257447	5465.245000	1882.965820	-89.863708
-174.257447	5465.245000	1881.980469	189.810028
-174.257447	5465.245000	1880.994141	108.228981
-174.257447	5465.245000	1880.007813	-87.223923
-174.257447	5465.245000	1879.021484	75.976654
-174.257447	5465.245000	1878.035156	45.315994
-174.257447	5465.245000	1877.047852	-24.090473
-174.257447	5465.245000	1876.061523	-15.988432
-174.257447	5465.245000	1875.074219	59.894051
-174.257447	5465.245000	1874.086914	-40.962372
-174.257447	5465.245000	1873.098633	122.008888
-174.257447	5465.245000	1872.111328	93.757011
-174.257447	5465.245000	1871.123047	55.832237
-174.257447	5465.245000	1870.135742	75.966972
-174.257447	5465.245000	1869.147461	50.138672
-174.257447	5465.245000	1868.158203	-65.148819
-174.257447	5465.245000	1867.169922	27.500546
-174.257447	5465.245000	1866.180664	-61.165314
-174.257447	5465.245000	1865.192383	94.265778
-174.257447	5465.245000	1864.203125	-62.042736
-174.257447	5465.245000	1863.213867	144.044174
-174.257447	5465.245000	1862.223633	-58.116402
-174.257447	5465.245000	1861.234375	-21.150820
-174.257447	5465.245000	1860.244141	64.078934
-174.257447	5465.245000	1859.253906	-75.213463
-174.257447	5465.245000	1858.263672	63.074512
-174.257447	5465.245000	1857.273438	13.098612
-174.257447	5465.245000	1856.282227	185.078674
-174.257447	5465.245000	1855.291992	65.136986
-174.257447	5465.245000	1854.300781	73.044296
-174.257447	5465.245000	1853.309570	-3.445621
-174.257447	5465.245000	1852.317383	18.921238
-174.257447	5465.245000	1851.326172	-86.465706
-174.257447	5465.245000	1850.333984	126.263390
-174.257447	5465.245000	1849.342773	52.203041
-174.257447	5465.245000	1848.350586	120.283623
-174.257447	5465.245000	1847.357422	70.320549
-174.257447	5465.245000	1846.365234	-90.393379
-174.257447	5465.245000	1845.372070	61.915432
-174.257447	5465.245000	1844.379883	-96.343475
-174.257447	5465.245000	1843.386719	77.554642
-174.257447	5465.245000	1842.393555	1.145852
-174.257447	5465.245000	1841.399414	124.427292
-174.257447	5465.245000	1840.406250	132.206970
-174.257447	5465.245000	1839.412109	84.666634
-174.257447	5465.245000	1838.417969	-78.268463
-174.257447	5465.245000	1837.423828	4.042821
-174.257447	5465.245000	1836.429688	14.214750
-174.257447	5465.245000	1835.434570	9.957802
-174.257447	5465.245000	1834.440430	34.526367
-174.257447	5465.245000	1833.445313	51.872139
-174.257447	5465.245000	1832.450195	35.582531
-174.257447	5465.245000	1831.454102	-23.928879
-174.257447	5465.245000	1830.458984	-107.430107
-174.257447	5465.245000	1829.462891	-10.890886
-174.257447	5465.245000	1828.466797	-10.385403
-174.257447	5465.245000	1827.470703	30.901800
-174.257447	5465.245000	1826.474609	43.380421
-174.257447	5465.245000	1825.478516	79.831734
-174.257447	5465.245000	1824.481445	17.946142
-174.257447	5465.245000	1823.484375	42.387299
-174.257447	5465.245000	1822.487305	40.445263
-174.257447	5465.245000	1821.490234	12.134725
-174.257447	5465.245000	1820.493164	-71.283058
-174.257447	5465.245000	1819.495117	139.994598
-174.257447	5465.245000	1818.498047	159.567490
-174.257447	5465.245000	1817.500000	35.437939
-174.257447	5465.245000	1816.500977	31.064936
-174.257447	5465.245000	1815.502930	139.201645
-174.257447	5465.245000	1814.504883	165.913910
-174.257447	5465.245000	1813.505859	147.142593
-174.257447	5465.245000	1812.506836	47.025517
-174.257447	5465.245000	1811.507813	100.033920
-174.257447	5465.245000	1810.508789	45.392441
-174.257447	5465.245000	1809.508789	110.323647
-174.257447	5465.245000	1808.508789	31.780827
-174.257447	5465.245000	1807.508789	51.262554
-174.257447	5465.245000	1806.508789	65.951981
-174.257447	5465.245000	1805.508789	-2.998520
-174.257447	5465.245000	1804.508789	59.461884
-174.257447	5465.245000	1803.507813	-11.862243
-174.257447	5465.245000	1802.506836	-28.240725
-174.257447	5465.245000	1801.505859	112.960274
-174.257447	5465.245000	1800.504883	60.746162
-174.257447	5465.245000	1799.502930	20.478130
-174.257447	5465.245000	1798.501953	123.393410
-174.257447	5465.245000	1797.500000	75.960411
-174.257447	5465.245000	1796.498047	78.631516
-174.257447	5465.245000	1795.496094	83.680702
-174.257447	5465.245000	1794.493164	-1.885852
-174.257447	5465.245000	1793.491211	19.853214
-174.257447	5465.245000	1792.488281	163.136780
-174.257447	5465.245000	1791.485352	-43.948471
-174.257447	5465.245000	1790.482422	-84.177879
-174.257447	5465.245000	1789.478516	-41.023804
-174.257447	5465.245000	1788.475586	75.942978
-174.257447	5465.245000	1787.471680	133.328003
-174.257447	5465.245000	1786.467773	100.215538
-174.257447	5465.245000	1785.463867	40.926910
-174.257447	5465.245000	1784.459961	67.332298
-174.257447	5465.245000	1783.455078	72.306000
-174.257447	5465.245000	1782.450195	96.304855
-174.257447	5465.245000	1781.445313	72.719055
-174.257447	5465.245000	1780.440430	-12.692569
-174.257447	5465.245000	1779.435547	-36.258575
-174.257447	5465.245000	1778.429688	87.564262
-174.257447	5465.245000	1777.424805	111.513855
-174.257447	5465.245000	1776.418945	218.618500
-174.257447	5465.245000	1775.413086	195.006454
-174.257447	5465.245000	1774.406250	161.896713
-174.257447	5465.245000	1773.400391	-61.198376
-174.257447	5465.245000	1772.393555	33.965775
-174.257447	5465.245000	1771.386719	-86.947411
-174.257447	5465.245000	1770.379883	-58.283096
-174.257447	5465.245000	1769.373047	-3.529999
-174.257447	5465.245000	1768.365234	65.432716
-174.257447	5465.245000	1767.358398	79.805420
-174.257447	5465.245000	1766.350586	167.692032
-174.257447	5465.245000	1765.342773	-5.304532
-174.257447	5465.245000	1764.334961	6.689297
-174.257447	5465.245000	1763.326172	146.675201
-174.257447	5465.245000	1762.318359	51.978592
-174.257447	5465.245000	1761.309570	-26.100842
-174.257447	5465.245000	1760.300781	-78.094467
-174.257447	5465.245000	1759.291016	87.839241
-174.257447	5465.245000	1758.282227	-106.254089
-174.257447	5465.245000	1757.272461	88.027275
-174.257447	5465.245000	1756.262695	54.973259
-174.257447	5465.245000	1755.252930	-25.408260
-174.257447	5465.245000	1754.243164	-22.939991
-174.257447	5465.245000	1753.233398	-67.794243
-174.257447	5465.245000	1752.222656	19.829460
-174.257447	5465.245000	1751.211914	0.991090
-174.257447	5465.245000	1750.201172	-124.249245
-174.257447	5465.245000	1749.190430	-112.326050
-174.257447	5465.245000	1748.179688	10.681117
-174.257447	5465.245000	1747.167969	74.556618
-174.257447	5465.245000	1746.156250	124.227623
-174.257447	5465.245000	1745.144531	34.500832
-174.257447	5465.245000	1744.132813	-76.451843
-174.257447	5465.245000	1743.121094	55.859901
-174.257447	5465.245000	1742.108398	105.483086
-174.257447	5465.245000	1741.095703	-26.674631
-174.257447	5465.245000	1740.083008	-7.740639
-174.257447	5465.245000	1739.070313	6.463825
-174.257447	5465.245000	1738.057617	89.075531
-174.257447	5465.245000	1737.043945	4.183003
-174.257447	5465.245000	1736.030273	-73.604431
-174.257447	5465.245000	1735.016602	4.250393
-174.257447	5465.245000	1734.002930	32.567833
-174.257447	5465.245000	1732.989258	-28.690145
-174.257447	5465.245000	1731.974609	56.171913
-174.257447	5465.245000	1730.959961	-30.989592
-174.257447	5465.245000	1729.945313	-28.609177
-174.257447	5465.245000	1728.930664	-75.688744
-174.257447	5465.245000	1727.916016	-52.113499
-174.257447	5465.245000	1726.900391	103.285156
-174.257447	5465.245000	1725.885742	42.077400
-174.257447	5465.245000	1724.870117	-73.236046
-174.257447	5465.245000	1723.853516	-7.338738
-174.257447	5465.245000	1722.837891	27.950857
-174.257447	5465.245000	1721.822266	-162.562439
-174.257447	5465.245000	1720.805664	11.476954
-174.257447	5465.245000	1719.789063	49.086601
-174.257447	5465.245000	1718.772461	49.070259
-174.257447	5465.245000	1717.754883	49.051098
-174.257447	5465.245000	1716.738281	-42.607216
-174.257447	5465.245000	1715.720703	-66.105164
-174.257447	5465.245000	1714.703125	-26.178122
-174.257447	5465.245000	1713.685547	20.777473
-174.257447	5465.245000	1712.667969	32.494579
-174.257447	5465.245000	1711.649414	95.848312
-174.257447	5465.245000	1710.630859	1.927040
-174.257447	5465.245000	1709.612305	15.982267
-174.257447	5465.245000	1708.593750	-19.237907
-174.257447	5465.245000	1707.575195	69.873497
-174.257447	5465.245000	1706.555664	-84.952934
-174.257447	5465.245000	1705.536133	-38.072197
-174.257447	5465.245000	1704.516602	-40.441277
-174.257447	5465.245000	1703.497070	13.442312
-174.257447	5465.245000	1702.477539	39.183117
-174.257447	5465.245000	1701.457031	-145.954590
-174.257447	5465.245000	1700.437500	-122.537796
-174.257447	5465.245000	1699.416992	-115.526268
-174.257447	5465.245000	1698.395508	-96.812057
-174.257447	5465.245000	1697.375000	-127.268776
-174.257447	5465.245000	1696.354492	-94.515457
-174.257447	5465.245000	1695.333008	-5.610578
-174.257447	5465.245000	1694.311523	64.540565
-174.257447	5465.245000	1693.290039	69.162643
-174.257447	5465.245000	1692.267578	-8.081651
-174.257447	5465.245000	1691.246094	50.335930
-174.257447	5465.245000	1690.223633	-52.593716
-174.257447	5465.245000	1689.201172	-99.383301
-174.257447	5465.245000	1688.178711	3.420343
-174.257447	5465.245000	1687.155273	103.846146
-174.257447	5465.245000	1686.132813	-78.447784
-174.257447	5465.245000	1685.109375	-76.147781
-174.257447	5465.245000	1684.085938	-125.226036
-174.257447	5465.245000	1683.062500	-69.216690
-174.257447	5465.245000	1682.039063	117.498482
-174.257447	5465.245000	1681.014648	73.077789
-174.257447	5465.245000	1679.990234	-29.664335
-174.257447	5465.245000	1678.965820	28.614931
-174.257447	5465.245000	1677.941406	35.554302
-174.257447	5465.245000	1676.916992	56.484394
-174.257447	5465.245000	1675.891602	-78.820259
-174.257447	5465.245000	1674.866211	35.373222
-174.257447	5465.245000	1673.840820	-71.905327
-174.257447	5465.245000	1672.815430	72.537987
-174.257447	5465.245000	1671.790039	130.719315
-174.257447	5465.245000	1670.763672	146.945938
-174.257447	5465.245000	1669.737305	28.083996
-174.257447	5465.245000	1668.710938	16.382095
-174.257447	5465.245000	1667.684570	7.013613
-174.257447	5465.245000	1666.658203	-114.079018
-174.257447	5465.245000	1665.630859	27.850908
-174.257447	5465.245000	1664.603516	-37.356308
-174.257447	5465.245000	1663.576172	76.588928
-174.257447	5465.245000	1662.548828	-21.163437
-174.257447	5465.245000	1661.520508	95.060562
-174.257447	5465.245000	1660.493164	162.417038
-174.257447	5465.245000	1659.464844	60.056606
-174.257447	5465.245000	1658.436523	113.449936
-174.257447	5465.245000	1657.408203	50.641975
-174.257447	5465.245000	1656.378906	80.785233
-174.257447	5465.245000	1655.350586	36.591938
-174.257447	5465.245000	1654.321289	80.661964
-174.257447	5465.245000	1653.291992	17.911745
-174.257447	5465.245000	1652.261719	-100.527206
-174.257447	5465.245000	1651.232422	27.101273
-174.257447	5465.245000	1650.202148	98.988373
-174.257447	5465.245000	1649.171875	101.247803
-174.257447	5465.245000	1648.141602	87.270706
-174.257447	5465.245000	1647.111328	117.364273
-174.257447	5465.245000	1646.080078	31.511076
-174.257447	5465.245000	1645.049805	87.107407
-174.257447	5465.245000	1644.018555	-12.610111
-174.257447	5465.245000	1642.987305	-26.545370
-174.257447	5465.245000	1641.955078	221.334030
-174.257447	5465.245000	1640.923828	54.476612
-174.257447	5465.245000	1639.891602	-28.940077
-174.257447	5465.245000	1638.859375	31.241590
-174.257447	5465.245000	1637.827148	47.414726
-174.257447	5465.245000	1636.794922	33.492947
-174.257447	5465.245000	1635.761719	-61.419552
-174.257447	5465.245000	1634.729492	58.886448
-174.257447	5465.245000	1633.696289	151.386887
-174.257447	5465.245000	1632.662109	54.198502
-174.257447	5465.245000	1631.628906	114.294662
-174.257447	5465.245000	1630.594727	24.090776
-174.257447	5465.245000	1629.561523	61.058720
-174.257447	5465.245000	1628.527344	188.144180
-174.257447	5465.245000	1627.493164	287.455444
-174.257447	5465.245000	1626.458008	58.686077
-174.257447	5465.245000	1625.423828	151.059418
-174.257447	5465.245000	1624.388672	121.007004
-174.257447	5465.245000	1623.353516	301.070709
-174.257447	5465.245000	1622.318359	199.446365
-174.257447	5465.245000	1621.282227	104.786552
-174.257447	5465.245000	1620.247070	67.853630
-174.257447	5465.245000	1619.210938	83.998619
-174.257447	5465.245000	1618.174805	47.088058
-174.257447	5465.245000	1617.137695	51.704235
-174.257447	5465.245000	1616.101563	173.911728
-174.257447	5465.245000	1615.064453	58.634811
-174.257447	5465.245000	1614.027344	259.159943
-174.257447	5465.245000	1612.990234	171.569214
-174.257447	5465.245000	1611.953125	97.838730
-174.257447	5465.245000	1610.916016	134.704376
-174.257447	5465.245000	1609.877930	104.770905
-174.257447	5465.245000	1608.839844	153.138733
-174.257447	5465.245000	1607.801758	162.355255
-174.257447	5465.245000	1606.763672	67.997192
-174.257447	5465.245000	1605.724609	40.412968
-174.257447	5465.245000	1604.685547	120.976891
-174.257447	5465.245000	1603.646484	141.705612
-174.257447	5465.245000	1602.607422	104.933640
-174.257447	5465.245000	1601.568359	35.987190
-174.257447	5465.245000	1600.528320	210.758667
-174.257447	5465.245000	1599.489258	185.497086
-174.257447	5465.245000	1598.449219	84.412018
-174.257447	5465.245000	1597.408203	286.651947
-174.257447	5465.245000	1596.368164	63.845272
-174.257447	5465.245000	1595.327148	174.149338
-174.257447	5465.245000	1594.287109	190.268692
-174.257447	5465.245000	1593.246094	103.073570
-174.257447	5465.245000	1592.204102	52.640709
-174.257447	5465.245000	1591.163086	190.414856
-174.257447	5465.245000	1590.121094	50.507977
-174.257447	5465.245000	1589.079102	128.591217
-174.257447	5465.245000	1588.037109	156.189011
-174.257447	5465.245000	1586.995117	112.694000
-174.257447	5465.245000	1585.953125	131.121841
-174.257447	5465.245000	1584.910156	186.220932
-174.257447	5465.245000	1583.867188	124.422188
-174.257447	5465.245000	1582.824219	103.895538
-174.257447	5465.245000	1581.781250	140.653244
-174.257447	5465.245000	1580.737305	246.112183
-174.257447	5465.245000	1579.693359	65.287216
-174.257447	5465.245000	1578.649414	285.204742
-174.257447	5465.245000	1577.605469	310.468323
-174.257447	5465.245000	1576.561523	200.698090
-174.257447	5465.245000	1575.516602	157.331009
-174.257447	5465.245000	1574.472656	65.944504
-174.257447	5465.245000	1573.427734	219.336227
-174.257447	5465.245000	1572.381836	114.259163
-174.257447	5465.245000	1571.336914	146.412292
-174.257447	5465.245000	1570.291016	100.834534
-174.257447	5465.245000	1569.246094	103.276100
-174.257447	5465.245000	1568.200195	57.733925
-174.257447	5465.245000	1567.153320	165.281799
-174.257447	5465.245000	1566.107422	154.017090
-174.257447	5465.245000	1565.060547	147.328842
-174.257447	5465.245000	1564.013672	186.312393
-174.257447	5465.245000	1562.966797	127.125984
-174.257447	5465.245000	1561.919922	90.791138
-174.257447	5465.245000	1560.872070	86.421127
-174.257447	5465.245000	1559.825195	127.687973
-174.257447	5465.245000	1558.777344	148.413879
-174.257447	5465.245000	1557.729492	2.656080
-174.257447	5465.245000	1556.680664	230.897980
-174.257447	5465.245000	1555.632813	128.505875
-174.257447	5465.245000	1554.583984	215.332306
-174.257447	5465.245000	1553.535156	99.320686
-174.257447	5465.245000	1552.486328	79.048714
-174.257447	5465.245000	1551.436523	181.794739
-174.257447	5465.245000	1550.387695	129.641800
-174.257447	5465.245000	1549.337891	154.931259
-174.257447	5465.245000	1548.288086	155.174881
-174.257447	5465.245000	1547.238281	144.043106
-174.257447	5465.245000	1546.187500	164.779663
-174.257447	5465.245000	1545.136719	326.574982
-174.257447	5465.245000	1544.086914	172.125366
-174.257447	5465.245000	1543.035156	336.140472
-174.257447	5465.245000	1541.984375	297.726105
-174.257447	5465.245000	1540.933594	216.138748
-174.257447	5465.245000	1539.881836	189.138748
-174.257447	5465.245000	1538.830078	323.502441
-174.257447	5465.245000	1537.778320	187.446198
-174.257447	5465.245000	1536.725586	287.694733
-174.257447	5465.245000	1535.673828	165.338226
-174.257447	5465.245000	1534.621094	299.623993
-174.257447	5465.245000	1533.568359	200.027588
-174.257447	5465.245000	1532.515625	118.634941
-174.257447	5465.245000	1531.461914	175.710403
-174.257447	5465.245000	1530.409180	142.014496
-174.257447	5465.245000	1529.355469	101.531898
-174.257447	5465.245000	1528.301758	97.359680
-174.257447	5465.245000	1527.247070	199.770493
-174.257447	5465.245000	1526.193359	222.799225
-174.257447	5465.245000	1525.138672	180.090759
-174.257447	5465.245000	1524.083984	139.672333
-174.257447	5465.245000	1523.029297	10.911648
-174.257447	5465.245000	1521.974609	149.516251
-174.257447	5465.245000	1520.918945	29.876524
-174.257447	5465.245000	1519.863281	107.295532
-174.257447	5465.245000	1518.807617	26.212769
-174.257447	5465.245000	1517.751953	133.041840
-174.257447	5465.245000	1516.696289	135.733459
-174.257447	5465.245000	1515.639648	136.167297
-174.257447	5465.245000	1514.583008	41.596584
-174.257447	5465.245000	1513.526367	-16.741833
-174.257447	5465.245000	1512.469727	78.717026
-174.257447	5465.245000	1511.412109	144.754211
-174.257447	5465.245000	1510.355469	-28.829489
-174.257447	5465.245000	1509.297852	43.996765
-174.257447	5465.245000	1508.240234	121.320152
-174.257447	5465.245000	1507.181641	-6.954234
-174.257447	5465.245000	1506.124023	-65.153091
-174.257447	5465.245000	1505.065430	129.591385
-174.257447	5465.245000	1504.006836	-39.224983
-174.257447	5465.245000	1502.948242	92.248444
-174.257447	5465.245000	1501.888672	-80.993362
-174.257447	5465.245000	1500.830078	127.167152
-174.257447	5465.245000	1499.770508	87.101288
-174.257447	5465.245000	1498.710938	4.205229
-174.257447	5465.245000	1497.650391	-35.805790
-174.257447	5465.245000	1496.590820	-53.246895
-174.257447	5465.245000	1495.530273	84.860199
-174.257447	5465.245000	1494.469727	-76.818817
-174.257447	5465.245000	1493.409180	2.670194
-174.257447	5465.245000	1492.348633	-14.734757
-174.257447	5465.245000	1491.287109	28.687468
-174.257447	5465.245000	1490.225586	58.589340
-174.257447	5465.245000	1489.164063	11.937693
-174.257447	5465.245000	1488.102539	44.097782
-174.257447	5465.245000	1487.041016	-11.518738
-174.257447	5465.245000	1485.978516	27.398659
-174.257447	5465.245000	1484.916016	77.563446
-174.257447	5465.245000	1483.853516	60.227596
-174.257447	5465.245000	1482.791016	121.617706
-174.257447	5465.245000	1481.727539	77.326561
-174.257447	5465.245000	1480.664063	51.044643
-174.257447	5465.245000	1479.600586	-47.115219
-174.257447	5465.245000	1478.537109	68.182930
-174.257447	5465.245000	1477.473633	-119.753746
-174.257447	5465.245000	1476.409180	-181.832916
-174.257447	5465.245000	1475.344727	-30.654169
-174.257447	5465.245000	1474.280273	-52.274124
-174.257447	5465.245000	1473.215820	35.984001
-174.257447	5465.245000	1472.151367	-149.390503
-174.257447	5465.245000	1471.085938	-108.253517
-174.257447	5465.245000	1470.020508	9.156663
-174.257447	5465.245000	1468.955078	66.066132
-174.257447	5465.245000	1467.888672	-2.639246
-174.257447	5465.245000	1466.823242	-26.572910
-174.257447	5465.245000	1465.756836	79.670624
-174.257447	5465.245000	1464.690430	26.638660
-174.257447	5465.245000	1463.624023	34.345863
-174.257447	5465.245000	1462.556641	129.191803
-174.257447	5465.245000	1461.490234	45.286114
-174.257447	5465.245000	1460.422852	25.754080
-174.257447	5465.245000	1459.355469	69.408096
-174.257447	5465.245000	1458.287109	-97.490906
-174.257447	5465.245000	1457.219727	43.776005
-174.257447	5465.245000	1456.151367	-44.436806
-174.257447	5465.245000	1455.083008	12.344638
-174.257447	5465.245000	1454.014648	15.526605
-174.257447	5465.245000	1452.945313	-34.151417
-174.257447	5465.245000	1451.876953	-11.188847
-174.257447	5465.245000	1450.807617	2.790255
-174.257447	5465.245000	1449.738281	90.886772
-174.257447	5465.245000	1448.668945	-4.356318
-174.257447	5465.245000	1447.598633	-6.880630
-174.257447	5465.245000	1446.528320	64.586563
-174.257447	5465.245000	1445.458008	-105.395149
-174.257447	5465.245000	1444.387695	-62.650459
-174.257447	5465.245000	1443.317383	-32.348297
-174.257447	5465.245000	1442.246094	8.493097
-174.257447	5465.245000	1441.174805	55.443283
-174.257447	5465.245000	1440.103516	8.842117
-174.257447	5465.245000	1439.032227	-147.683426
-174.257447	5465.245000	1437.960938	-134.259811
-174.257447	5465.245000	1436.888672	-69.918892
-174.257447	5465.245000	1435.816406	97.654434
-174.257447	5465.245000	1434.744141	57.316154
-174.257447	5465.245000	1433.670898	-227.496841
-174.257447	5465.245000	1432.598633	36.843159
-174.257447	5465.245000	1431.525391	-32.857918
-174.257447	5465.245000	1430.452148	-29.431969
-174.257447	5465.245000	1429.378906	-8.461990
-174.257447	5465.245000	1428.304688	-28.595997
-174.257447	5465.245000	1427.231445	-27.032059
-174.257447	5465.245000	1426.157227	42.205765
-174.257447	5465.245000	1425.083008	-81.854126
-174.257447	5465.245000	1424.007813	-95.928543
-174.257447	5465.245000	1422.933594	-8.656569
-174.257447	5465.245000	1421.858398	-76.636398
-174.257447	5465.245000	1420.783203	-71.335762
-174.257447	5465.245000	1419.708008	72.848869
-174.257447	5465.245000	1418.631836	-2.468728
-174.257447	5465.245000	1417.555664	-108.290977
-174.257447	5465.245000	1416.479492	-130.747742
-174.257447	5465.245000	1415.403320	16.217112
-174.257447	5465.245000	1414.327148	64.765717
-174.257447	5465.245000	1413.250000	-94.628242
-174.257447	5465.245000	1412.173828	49.596668
-174.257447	5465.245000	1411.096680	80.003555
-174.257447	5465.245000	1410.018555	84.915199
-174.257447	5465.245000	1408.941406	-3.168543
-174.257447	5465.245000	1407.863281	47.115292
-174.257447	5465.245000	1406.785156	162.324722
-174.257447	5465.245000	1405.707031	150.844055
-174.257447	5465.245000	1404.628906	29.240643
-174.257447	5465.245000	1403.549805	-26.418468
-174.257447	5465.245000	1402.470703	3.377344
-174.257447	5465.245000	1401.391602	44.178864
-174.257447	5465.245000	1400.312500	29.681398
-174.257447	5465.245000	1399.233398	51.746769
-174.257447	5465.245000	1398.153320	-100.709328
-174.257447	5465.245000	1397.073242	-6.909208
-174.257447	5465.245000	1395.993164	61.841938
-174.257447	5465.245000	1394.913086	48.643230
-174.257447	5465.245000	1393.832031	36.390877
-174.257447	5465.245000	1392.750977	-82.669708
-174.257447	5465.245000	1391.669922	-39.017063
-174.257447	5465.245000	1390.588867	92.231636
-174.257447	5465.245000	1389.506836	-1.649441
-174.257447	5465.245000	1388.425781	29.055510
-174.257447	5465.245000	1387.343750	77.307442
-174.257447	5465.245000	1386.261719	53.736969
-174.257447	5465.245000	1385.178711	51.598263
-174.257447	5465.245000	1384.096680	5.855115
-174.257447	5465.245000	1383.013672	183.534470
-174.257447	5465.245000	1381.930664	99.882599
-174.257447	5465.245000	1380.846680	174.136169
-174.257447	5465.245000	1379.763672	24.890211
-174.257447	5465.245000	1378.679688	17.704468
-174.257447	5465.245000	1377.595703	-23.938486
-174.257447	5465.245000	1376.511719	51.180084
-174.257447	5465.245000	1375.427734	91.179802
-174.257447	5465.245000	1374.342773	2.690423
-174.257447	5465.245000	1373.257813	34.435207
-174.257447	5465.245000	1372.172852	181.803802
-174.257447	5465.245000	1371.087891	123.539825
-174.257447	5465.245000	1370.001953	236.717422
-174.257447	5465.245000	1368.916992	126.576477
-174.257447	5465.245000	1367.831055	19.644670
-174.257447	5465.245000	1366.744141	119.816544
-174.257447	5465.245000	1365.658203	119.396873
-174.257447	5465.245000	1364.571289	79.207336
-174.257447	5465.245000	1363.484375	24.168854
-174.257447	5465.245000	1362.397461	75.544601
-174.257447	5465.245000	1361.310547	10.751542
-174.257447	5465.245000	1360.222656	83.181274
-174.257447	5465.245000	1359.135742	51.306431
-174.257447	5465.245000	1358.047852	89.335510
-174.257447	5465.245000	1356.958984	101.899376
-174.257447	5465.245000	1355.871094	149.305084
-174.257447	5465.245000	1354.782227	89.486763
-174.257447	5465.245000	1353.693359	116.646996
-174.257447	5465.245000	1352.604492	85.282349
-174.257447	5465.245000	1351.515625	-29.005154
-174.257447	5465.245000	1350.425781	68.835335
-174.257447	5465.245000	1349.335938	87.393562
-174.257447	5465.245000	1348.246094	19.978106
-174.257447	5465.245000	1347.156250	95.129463
-174.257447	5465.245000	1346.066406	203.355911
-174.257447	5465.245000	1344.975586	62.112621
-174.257447	5465.245000	1343.884766	-31.904726
-174.257447	5465.245000	1342.793945	95.443481
-174.257447	5465.245000	1341.702148	85.879059
-174.257447	5465.245000	1340.611328	-27.132511
-174.257447	5465.245000	1339.519531	70.869026
-174.257447	5465.245000	1338.427734	39.176945
-174.257447	5465.245000	1337.334961	-7.836523
-174.257447	5465.245000	1336.243164	-134.478424
-174.257447	5465.245000	1335.150391	-9.183935
-174.257447	5465.245000	1334.057617	8.221027
-174.257447	5465.245000	1332.964844	-31.046764
-174.257447	5465.245000	1331.871094	119.025581
-174.257447	5465.245000	1330.778320	30.627037
-174.257447	5465.245000	1329.684570	54.762917
-174.257447	5465.245000	1328.590820	86.322121
-174.257447	5465.245000	1327.496094	23.159864
-174.257447	5465.245000	1326.402344	139.014359
-174.257447	5465.245000	1325.307617	75.526726
-174.257447	5465.245000	1324.212891	127.987198
-174.257447	5465.245000	1323.117188	22.559614
-174.257447	5465.245000	1322.022461	-19.991024
-174.257447	5465.245000	1320.926758	18.848541
-174.257447	5465.245000	1319.831055	-43.124168
-174.257447	5465.245000	1318.735352	122.975082
-174.257447	5465.245000	1317.638672	-51.415897
-174.257447	5465.245000	1316.542969	25.759794
-174.257447	5465.245000	1315.446289	21.770382
-174.257447	5465.245000	1314.349609	52.995373
-174.257447	5465.245000	1313.251953	-55.464317
-174.257447	5465.245000	1312.155273	24.669838
-174.257447	5465.245000	1311.057617	98.041611
-174.257447	5465.245000	1309.959961	89.972366
-174.257447	5465.245000	1308.862305	5.381980
-174.257447	5465.245000	1307.763672	51.954910
-174.257447	5465.245000	1306.665039	73.312294
-174.257447	5465.245000	1305.566406	-65.850105
-174.257447	5465.245000	1304.467773	-12.042583
-174.257447	5465.245000	1303.369141	40.025341
-174.257447	5465.245000	1302.269531	18.787169
-174.257447	5465.245000	1301.169922	76.617920
-174.257447	5465.245000	1300.070313	15.068815
-174.257447	5465.245000	1298.970703	162.665695
-174.257447	5465.245000	1297.870117	-129.763885
-174.257447	5465.245000	1296.769531	28.387993
-174.257447	5465.245000	1295.668945	32.793140
-174.257447	5465.245000	1294.568359	51.241066
-174.257447	5465.245000	1293.466797	176.901657
-174.257447	5465.245000	1292.366211	101.004341
-174.257447	5465.245000	1291.264648	30.688742
-174.257447	5465.245000	1290.162109	23.766363
-174.257447	5465.245000	1289.060547	-19.541719
-174.257447	5465.245000	1287.958008	114.108269
-174.257447	5465.245000	1286.855469	19.662048
-174.257447	5465.245000	1285.752930	8.932551
-174.257447	5465.245000	1284.650391	-14.526562
-174.257447	5465.245000	1283.546875	-139.710388
-174.257447	5465.245000	1282.444336	-25.296846
-174.257447	5465.245000	1281.339844	-64.754990
-174.257447	5465.245000	1280.236328	23.320641
-174.257447	5465.245000	1279.132813	-45.546486
-174.257447	5465.245000	1278.028320	-81.574089
-174.257447	5465.245000	1276.923828	70.009171
-174.257447	5465.245000	1275.819336	-44.370010
-174.257447	5465.245000	1274.713867	19.470573
-174.257447	5465.245000	1273.608398	100.095200
-174.257447	5465.245000	1272.503906	-37.316635
-174.257447	5465.245000	1271.397461	-101.384193
-174.257447	5465.245000	1270.291992	-22.737848
-174.257447	5465.245000	1269.185547	-7.601954
-174.257447	5465.245000	1268.080078	7.656413
-174.257447	5465.245000	1266.972656	23.242287
-174.257447	5465.245000	1265.866211	32.018387
-174.257447	5465.245000	1264.759766	-103.323769
-174.257447	5465.245000	1263.652344	-59.389027
-174.257447	5465.245000	1262.544922	15.989847
-174.257447	5465.245000	1261.436523	-3.539049
-174.257447	5465.245000	1260.329102	16.712788
-174.257447	5465.245000	1259.220703	0.568462
-174.257447	5465.245000	1258.112305	52.021362
-174.257447	5465.245000	1257.003906	23.011370
-174.257447	5465.245000	1255.895508	44.353851
-174.257447	5465.245000	1254.786133	129.024567
-174.257447	5465.245000	1253.676758	5.280072
-174.257447	5465.245000	1252.567383	-10.824041
-174.257447	5465.245000	1251.458008	43.267834
-174.257447	5465.245000	1250.347656	45.947487
-174.257447	5465.245000	1249.237305	64.115005
-174.257447	5465.245000	1248.126953	75.285461
-174.257447	5465.245000	1247.016602	-6.664748
-174.257447	5465.245000	1245.905273	-22.822809
-174.257447	5465.245000	1244.793945	65.726959
-174.257447	5465.245000	1243.682617	5.359004
-174.257447	5465.245000	1242.571289	-24.610819
-174.257447	5465.245000	1241.459961	-84.703087
-174.257447	5465.245000	1240.347656	-16.942951
-174.257447	5465.245000	1239.235352	-5.927941
-174.257447	5465.245000	1238.123047	-55.883221
-174.257447	5465.245000	1237.009766	-37.000919
-174.257447	5465.245000	1235.897461	113.740730
-174.257447	5465.245000	1234.784180	12.554200
-174.257447	5465.245000	1233.670898	-147.452972
-174.257447	5465.245000	1232.556641	-36.423100
-174.257447	5465.245000	1231.443359	-30.015608
-174.257447	5465.245000	1230.329102	-3.190341
-174.257447	5465.245000	1229.214844	-15.541940
-174.257447	5465.245000	1228.099609	7.299018
-174.257447	5465.245000	1226.985352	28.644756
-174.257447	5465.245000	1225.870117	-17.628603
-174.257447	5465.245000	1224.754883	-63.671867
-174.257447	5465.245000	1223.639648	-22.937260
-174.257447	5465.245000	1222.523438	-8.358556
-174.257447	5465.245000	1221.408203	58.562458
-174.257447	5465.245000	1220.291992	47.907513
-174.257447	5465.245000	1219.174805	28.872347
-174.257447	5465.245000	1218.058594	-41.959885
-174.257447	5465.245000	1216.941406	34.675190
-174.257447	5465.245000	1215.824219	-85.971909
-174.257447	5465.245000	1214.707031	83.882439
-174.257447	5465.245000	1213.589844	23.474497
-174.257447	5465.245000	1212.471680	48.009666
-174.257447	5465.245000	1211.353516	9.611016
-174.257447	5465.245000	1210.235352	50.849766
-174.257447	5465.245000	1209.117188	-34.437241
-174.257447	5465.245000	1207.998047	-21.749664
-174.257447	5465.245000	1206.878906	92.414459
-174.257447	5465.245000	1205.759766	15.489134
-174.257447	5465.245000	1204.640625	48.656910
-174.257447	5465.245000	1203.520508	-1.409007
-174.257447	5465.245000	1202.401367	-15.068427
-174.257447	5465.245000	1201.281250	-3.168226
-174.257447	5465.245000	1200.160156	93.326691
-174.257447	5465.245000	1199.040039	75.497414
-174.257447	5465.245000	1197.918945	15.126966
-174.257447	5465.245000	1196.797852	-14.419921
-174.257447	5465.245000	1195.676758	-1.881604
-174.257447	5465.245000	1194.555664	83.963036
-174.257447	5465.245000	1193.433594	-36.128792
-174.257447	5465.245000	1192.311523	-16.297251
-174.257447	5465.245000	1191.189453	-0.048275
-174.257447	5465.245000	1190.066406	17.824081
-174.257447	5465.245000	1188.944336	-6.991703
-174.257447	5465.245000	1187.821289	47.587723
-174.257447	5465.245000	1186.698242	51.216618
-174.257447	5465.245000	1185.574219	-29.419571
-174.257447	5465.245000	1184.451172	18.693300
-174.257447	5465.245000	1183.327148	16.322680
-174.257447	5465.245000	1182.203125	20.501728
-174.257447	5465.245000	1181.078125	141.734741
-174.257447	5465.245000	1179.954102	-44.044712
-174.257447	5465.245000	1178.829102	-35.490559
-174.257447	5465.245000	1177.704102	-87.758125
-174.257447	5465.245000	1176.579102	-149.716629
-174.257447	5465.245000	1175.453125	-53.799248
-174.257447	5465.245000	1174.327148	-42.483105
-174.257447	5465.245000	1173.201172	-56.075397
-174.257447	5465.245000	1172.075195	-8.206570
-174.257447	5465.245000	1170.949219	-76.525620
-174.257447	5465.245000	1169.822266	96.664139
-174.257447	5465.245000	1168.695313	37.242538
-174.257447	5465.245000	1167.568359	64.239769
-174.257447	5465.245000	1166.440430	-17.306643
-174.257447	5465.245000	1165.313477	-12.922638
-174.257447	5465.245000	1164.185547	41.996674
-174.257447	5465.245000	1163.057617	70.629456
-174.257447	5465.245000	1161.928711	3.788124
-174.257447	5465.245000	1160.800781	-5.474646
-174.257447	5465.245000	1159.671875	-108.629150
-174.257447	5465.245000	1158.541992	-25.282888
-174.257447	5465.245000	1157.413086	21.167599
-174.257447	5465.245000	1156.283203	99.412170
-174.257447	5465.245000	1155.154297	35.569897
-174.257447	5465.245000	1154.023438	-17.126390
-174.257447	5465.245000	1152.893555	17.825691
-174.257447	5465.245000	1151.763672	96.044228
-174.257447	5465.245000	1150.632813	13.962736
-174.257447	5465.245000	1149.501953	86.153419
-174.257447	5465.245000	1148.370117	137.979477
-174.257447	5465.245000	1147.239258	89.300713
-174.257447	5465.245000	1146.107422	99.773293
-174.257447	5465.245000	1144.975586	-30.408022
-174.257447	5465.245000	1143.843750	80.789902
-174.257447	5465.245000	1142.710938	38.289837
-174.257447	5465.245000	1141.578125	32.042892
-174.257447	5465.245000	1140.445313	-30.893875
-174.257447	5465.245000	1139.312500	-12.778346
-174.257447	5465.245000	1138.178711	45.052483
-174.257447	5465.245000	1137.045898	-8.455633
-174.257447	5465.245000	1135.912109	5.864691
-174.257447	5465.245000	1134.777344	32.826862
-174.257447	5465.245000	1133.643555	-33.970528
-174.257447	5465.245000	1132.508789	-57.085197
-174.257447	5465.245000	1131.374023	38.719131
-174.257447	5465.245000	1130.239258	48.163090
-174.257447	5465.245000	1129.104492	-17.863251
-174.257447	5465.245000	1127.968750	-31.216425
-174.257447	5465.245000	1126.833008	-47.954098
-174.257447	5465.245000	1125.697266	79.084305
-174.257447	5465.245000	1124.560547	3.045671
-174.257447	5465.245000	1123.424805	94.724899
-174.257447	5465.245000	1122.288086	46.459274
-174.257447	5465.245000	1121.151367	7.837132
-174.257447	5465.245000	1120.013672	-7.063984
-174.257447	5465.245000	1118.876953	118.145081
-174.257447	5465.245000	1117.739258	38.075039
-174.257447	5465.245000	1116.601563	-13.310765
-174.257447	5465.245000	1115.462891	33.948986
-174.257447	5465.245000	1114.324219	7.196068
-174.257447	5465.245000	1113.186523	81.713173
-174.257447	5465.245000	1112.046875	45.910259
-174.257447	5465.245000	1110.908203	26.214645
-174.257447	5465.245000	1109.769531	80.658943
-174.257447	5465.245000	1108.629883	18.158552
-174.257447	5465.245000	1107.490234	103.878998
-174.257447	5465.245000	1106.349609	7.840176
-174.257447	5465.245000	1105.209961	14.009426
-174.257447	5465.245000	1104.069336	27.591644
-174.257447	5465.245000	1102.928711	38.649818
-174.257447	5465.245000	1101.787109	171.845932
-174.257447	5465.245000	1100.646484	137.608276
-174.257447	5465.245000	1099.504883	76.172485
-174.257447	5465.245000	1098.363281	90.518570
-174.257447	5465.245000	1097.221680	156.154266
-174.257447	5465.245000	1096.079102	135.911469
-174.257447	5465.245000	1094.936523	94.500656
-174.257447	5465.245000	1093.793945	130.490616
-174.257447	5465.245000	1092.651367	95.676682
-174.257447	5465.245000	1091.507813	98.911751
-174.257447	5465.245000	1090.364258	-4.945268
-174.257447	5465.245000	1089.220703	98.334579
-174.257447	5465.245000	1088.077148	99.435806
-174.257447	5465.245000	1086.933594	120.023399
-174.257447	5465.245000	1085.789063	164.935074
-174.257447	5465.245000	1084.644531	16.342287
-174.257447	5465.245000	1083.499023	56.507542
-174.257447	5465.245000	1082.354492	9.978879
-174.257447	5465.245000	1081.208984	3.972801
-174.257447	5465.245000	1080.063477	38.602657
-174.257447	5465.245000	1078.917969	132.578354
-174.257447	5465.245000	1077.771484	23.687307
-174.257447	5465.245000	1076.625977	71.118698
-174.257447	5465.245000	1075.479492	-19.304075
-174.257447	5465.245000	1074.332031	3.471176
-174.257447	5465.245000	1073.185547	6.804560
-174.257447	5465.245000	1072.038086	-11.861403
-174.257447	5465.245000	1070.890625	129.965576
-174.257447	5465.245000	1069.743164	44.600876
-174.257447	5465.245000	1068.594727	51.159031
-174.257447	5465.245000	1067.447266	36.674503
-174.257447	5465.245000	1066.298828	-36.960999
-174.257447	5465.245000	1065.149414	-24.569805
-174.257447	5465.245000	1064.000977	36.385021
-174.257447	5465.245000	1062.851563	65.349846
-174.257447	5465.245000	1061.702148	-67.415428
-174.257447	5465.245000	1060.552734	76.932419
-174.257447	5465.245000	1059.402344	-51.269955
-174.257447	5465.245000	1058.252930	-101.299034
-174.257447	5465.245000	1057.102539	-90.801270
-174.257447	5465.245000	1055.951172	-73.297714
-174.257447	5465.245000	1054.800781	30.737902
-174.257447	5465.245000	1053.649414	99.398354
-174.257447	5465.245000	1052.498047	86.097893
-174.257447	5465.245000	1051.346680	-35.871052
-174.257447	5465.245000	1050.194336	-62.499474
-174.257447	5465.245000	1049.042969	-43.162918
-174.257447	5465.245000	1047.890625	22.241127
-174.257447	5465.245000	1046.738281	6.420378
-174.257447	5465.245000	1045.584961	166.482941
-174.257447	5465.245000	1044.431641	-162.606613
-174.257447	5465.245000	1043.278320	34.641418
-174.257447	5465.245000	1042.125000	40.170368
-174.257447	5465.245000	1040.971680	-42.554474
-174.257447	5465.245000	1039.817383	-15.491912
-174.257447	5465.245000	1038.663086	-34.870716
-174.257447	5465.245000	1037.508789	-52.355465
-174.257447	5465.245000	1036.353516	41.575478
-174.257447	5465.245000	1035.198242	-26.395496
-174.257447	5465.245000	1034.042969	32.449841
-174.257447	5465.245000	1032.887695	88.096321
-174.257447	5465.245000	1031.732422	71.073212
-174.257447	5465.245000	1030.576172	64.156044
-174.257447	5465.245000	1029.419922	135.490112
-174.257447	5465.245000	1028.263672	-73.982224
-174.257447	5465.245000	1027.106445	-4.676849
-174.257447	5465.245000	1025.949219	-113.615936
-174.257447	5465.245000	1024.792969	54.466469
-174.257447	5465.245000	1023.634766	84.092735
-174.257447	5465.245000	1022.477539	-92.013474
-174.257447	5465.245000	1021.319336	45.930321
-174.257447	5465.245000	1020.161133	72.896614
-174.257447	5465.245000	1019.002930	-85.753288
-174.257447	5465.245000	1017.843750	-37.957298
-174.257447	5465.245000	1016.684570	85.330841
-174.257447	5465.245000	1015.525391	75.554459
-174.257447	5465.245000	1014.366211	19.956217
-174.257447	5465.245000	1013.207031	32.407673
-174.257447	5465.245000	1012.046875	66.955765
-174.257447	5465.245000	1010.886719	-51.974323
-174.257447	5465.245000	1009.726563	-104.003708
-174.257447	5465.245000	1008.565430	80.198219
-174.257447	5465.245000	1007.404297	2.431185
-174.257447	5465.245000	1006.243164	29.095062
-174.257447	5465.245000	1005.082031	-45.389263
-174.257447	5465.245000	1003.920898	36.628098
-174.257447	5465.245000	1002.758789	25.796087
-174.257447	5465.245000	1001.596680	-106.763283
-174.257447	5465.245000	1000.433594	-25.383495
-174.257447	5465.245000	999.271484	18.780104
-174.257447	5465.245000	998.108398	-8.654777
-174.257447	5465.245000	996.945313	-19.878115
-174.257447	5465.245000	995.782227	1.759002
-174.257447	5465.245000	994.618164	-39.792267
-174.257447	5465.245000	993.454102	4.762007
-174.257447	5465.245000	992.290039	65.066345
-174.257447	5465.245000	991.125977	8.935673
-174.257447	5465.245000	989.960938	153.341644
-174.257447	5465.245000	988.796875	49.616814
-174.257447	5465.245000	987.630859	-19.921539
-174.257447	5465.245000	986.465820	-41.491100
-174.257447	5465.245000	985.300781	56.563858
-174.257447	5465.245000	984.134766	-12.736705
-174.257447	5465.245000	982.968750	39.015450
-174.257447	5465.245000	981.801758	50.633728
-174.257447	5465.245000	980.635742	125.193932
-174.257447	5465.245000	979.468750	91.026497
-174.257447	5465.245000	978.301758	36.180309
-174.257447	5465.245000	977.133789	62.984379
-174.257447	5465.245000	975.966797	18.455477
-174.257447	5465.245000	974.798828	-46.253750
-174.257447	5465.245000	973.630859	132.947617
-174.257447	5465.245000	972.461914	93.522827
-174.257447	5465.245000	971.293945	141.018021
-174.257447	5465.245000	970.125000	-49.869793
-174.257447	5465.245000	968.956055	99.303856
-174.257447	5465.245000	967.786133	112.338638
-174.257447	5465.245000	966.617188	161.261185
-174.257447	5465.245000	965.447266	104.653252
-174.257447	5465.245000	964.276367	28.775574
-174.257447	5465.245000	963.106445	-25.124481
-174.257447	5465.245000	961.935547	126.794586
-174.257447	5465.245000	960.764648	4.358605
-174.257447	5465.245000	959.593750	3.750698
-174.257447	5465.245000	958.422852	19.020185
-174.257447	5465.245000	957.250977	1.109758
-174.257447	5465.245000	956.079102	91.749580
-174.257447	5465.245000	954.907227	94.151085
-174.257447	5465.245000	953.734375	-18.506233
-174.257447	5465.245000	952.562500	42.738483
-174.257447	5465.245000	951.389648	-79.747490
-174.257447	5465.245000	950.215820	-52.780571
-174.257447	5465.245000	949.042969	15.602586
-174.257447	5465.245000	947.869141	167.429367
-174.257447	5465.245000	946.695313	-50.931332
-174.257447	5465.245000	945.521484	81.494125
-174.257447	5465.245000	944.346680	-19.185604
-174.257447	5465.245000	943.172852	17.693556
-174.257447	5465.245000	941.998047	32.400646
-174.257447	5465.245000	940.822266	71.538696
-174.257447	5465.245000	939.647461	-36.518227
-174.257447	5465.245000	938.471680	39.352901
-174.257447	5465.245000	937.295898	24.700695
-174.257447	5465.245000	936.119141	78.442368
-174.257447	5465.245000	934.943359	-27.088982
-174.257447	5465.245000	933.766602	16.816538
-174.257447	5465.245000	932.589844	-24.965281
-174.257447	5465.245000	931.413086	60.729156
-174.257447	5465.245000	930.235352	124.360481
-174.257447	5465.245000	929.057617	104.591629
-174.257447	5465.245000	927.879883	-32.769283
-174.257447	5465.245000	926.702148	-13.301827
-174.257447	5465.245000	925.523438	79.625031
-174.257447	5465.245000	924.344727	-79.732506
-174.257447	5465.245000	923.166016	98.863380
-174.257447	5465.245000	921.987305	-121.663467
-174.257447	5465.245000	920.807617	-60.618061
-174.257447	5465.245000	919.627930	-59.876995
-174.257447	5465.245000	919.497070	-21.544592
-174.257447	5465.245000	918.331055	46.777496
-174.257447	5465.245000	917.165039	-2.356895
-174.257447	5465.245000	915.999023	-53.923824
-174.257447	5465.245000	914.833008	-54.123947
-174.257447	5465.245000	913.666016	-5.433708
-174.257447	5465.245000	912.499023	89.672691
-174.257447	5465.245000	911.332031	-18.103561
-174.257447	5465.245000	910.165039	74.511009
-174.257447	5465.245000	908.997070	69.369026
-174.257447	5465.245000	907.830078	100.857094
-174.257447	5465.245000	906.661133	17.560884
-174.257447	5465.245000	905.493164	51.476803
-174.257447	5465.245000	904.325195	-24.465857
-174.257447	5465.245000	903.156250	72.881905
-174.257447	5465.245000	901.987305	-51.842731
-174.257447	5465.245000	900.818359	6.429099
-174.257447	5465.245000	899.648438	-86.537399
-174.257447	5465.245000	898.478516	-20.979059
-174.257447	5465.245000	897.308594	-4.210308
-174.257447	5465.245000	896.138672	-75.199379
-174.257447	5465.245000	894.968750	65.841843
-174.257447	5465.245000	893.797852	-44.126152
-174.257447	5465.245000	892.626953	77.352692
-174.257447	5465.245000	891.456055	-203.060455
-174.257447	5465.245000	890.284180	8.480625
-174.257447	5465.245000	889.113281	-86.802849
-174.257447	5465.245000	887.941406	17.525663
-174.257447	5465.245000	886.768555	5.003780
-174.257447	5465.245000	885.596680	-82.939240
-174.257447	5465.245000	884.423828	1.848934
-174.257447	5465.245000	883.250977	96.323921
-174.257447	5465.245000	882.078125	-110.738365
-174.257447	5465.245000	880.905273	-47.892101
-174.257447	5465.245000	879.731445	53.809967
-174.257447	5465.245000	878.557617	87.427483
-174.257447	5465.245000	877.383789	206.055206
-174.257447	5465.245000	876.209961	11.298621
-174.257447	5465.245000	875.035156	49.745117
-174.257447	5465.245000	873.860352	-30.798096
-174.257447	5465.245000	872.685547	80.452705
-174.257447	5465.245000	871.510742	-133.555176
-174.257447	5465.245000	870.334961	-5.354516
-174.257447	5465.245000	869.159180	93.677361
-174.257447	5465.245000	867.983398	-37.752968
-174.257447	5465.245000	866.807617	-69.711884
-174.257447	5465.245000	865.630859	17.134541
-174.257447	5465.245000	864.454102	-119.062698
-174.257447	5465.245000	863.277344	-54.063328
-174.257447	5465.245000	862.100586	-35.131477
-174.257447	5465.245000	860.922852	22.547228
-174.257447	5465.245000	859.745117	43.867458
-174.257447	5465.245000	858.567383	7.058739
-174.257447	5465.245000	857.389648	11.416515
-174.257447	5465.245000	856.210938	1.244892
-174.257447	5465.245000	855.032227	27.372149
-174.257447	5465.245000	853.853516	24.450176
-174.257447	5465.245000	852.674805	-101.843742
-174.257447	5465.245000	851.495117	-0.752891
-174.257447	5465.245000	850.315430	68.857681
-174.257447	5465.245000	849.135742	70.745323
-174.257447	5465.245000	847.956055	118.549721
-174.257447	5465.245000	846.775391	50.338619
-174.257447	5465.245000	845.595703	28.054272
-174.257447	5465.245000	844.415039	-64.274323
-174.257447	5465.245000	843.233398	0.405106
-174.257447	5465.245000	842.052734	38.493816
-174.257447	5465.245000	840.871094	-58.621792
-174.257447	5465.245000	839.689453	78.408592
-174.257447	5465.245000	838.506836	-16.271629
-174.257447	5465.245000	837.325195	2.470759
-174.257447	5465.245000	836.142578	-36.686852
-174.257447	5465.245000	834.959961	15.805079
-174.257447	5465.245000	833.777344	82.736626
-174.257447	5465.245000	832.593750	72.499702
-174.257447	5465.245000	831.410156	16.471994
-174.257447	5465.245000	830.226563	18.292200
-174.257447	5465.245000	829.042969	56.242580
-174.257447	5465.245000	827.858398	43.593952
-174.257447	5465.245000	826.673828	21.313845
-174.257447	5465.245000	825.489258	-5.775930
-174.257447	5465.245000	824.304688	-20.823774
-174.257447	5465.245000	823.120117	94.084892
-174.257447	5465.245000	821.934570	81.420586
-174.257447	5465.245000	820.749023	114.463341
-174.257447	5465.245000	819.562500	-47.322201
-174.257447	5465.245000	818.376953	55.458515
-174.257447	5465.245000	817.190430	35.584335
-174.257447	5465.245000	816.003906	49.364620
-174.257447	5465.245000	814.817383	31.895594
-174.257447	5465.245000	813.629883	-96.089569
-174.257447	5465.245000	812.442383	-22.249281
-174.257447	5465.245000	811.254883	51.556149
-174.257447	5465.245000	810.067383	60.497646
-174.257447	5465.245000	808.878906	136.649200
-174.257447	5465.245000	807.690430	18.355831
-174.257447	5465.245000	806.501953	-3.907334
-174.257447	5465.245000	805.313477	-66.949829
-174.257447	5465.245000	804.124023	69.115799
-174.257447	5465.245000	802.934570	154.760544
-174.257447	5465.245000	801.745117	48.556236
-174.257447	5465.245000	800.555664	69.440399
-174.257447	5465.245000	799.365234	25.603199
-174.257447	5465.245000	798.175781	10.534022
-174.257447	5465.245000	796.985352	72.128311
-174.257447	5465.245000	795.793945	6.751324
-174.257447	5465.245000	794.603516	49.157104
-174.257447	5465.245000	793.412109	-97.596809
-174.257447	5465.245000	792.220703	-69.555496
-174.257447	5465.245000	791.028320	-34.349609
-174.257447	5465.245000	789.836914	-82.905258
-174.257447	5465.245000	788.644531	-47.718147
-174.257447	5465.245000	787.452148	56.810204
-174.257447	5465.245000	786.258789	-10.873225
-174.257447	5465.245000	785.066406	115.114067
-174.257447	5465.245000	783.873047	73.732399
-174.257447	5465.245000	782.679688	127.952354
-174.257447	5465.245000	781.485352	62.687187
-174.257447	5465.245000	780.291992	-55.105377
-174.257447	5465.245000	779.097656	42.086235
-174.257447	5465.245000	777.903320	50.889339
-174.257447	5465.245000	776.708008	-9.543544
-174.257447	5465.245000	775.512695	-86.661270
-174.257447	5465.245000	774.318359	46.237694
-174.257447	5465.245000	773.122070	-47.564926
-174.257447	5465.245000	771.926758	61.412392
-174.257447	5465.245000	770.730469	-3.743613
-174.257447	5465.245000	769.534180	-21.190775
-174.257447	5465.245000	768.337891	-45.785023
-174.257447	5465.245000	767.141602	-77.521446
-174.257447	5465.245000	765.944336	-9.171369
-174.257447	5465.245000	764.747070	1.973104
-174.257447	5465.245000	763.549805	127.434952
-174.257447	5465.245000	762.351563	17.096153
-174.257447	5465.245000	761.154297	40.123970
-174.257447	5465.245000	759.956055	139.308228
-174.257447	5465.245000	758.757813	138.497940
-174.257447	5465.245000	757.558594	49.652245
-174.257447	5465.245000	756.359375	-67.704552
-174.257447	5465.245000	755.160156	121.784523
-174.257447	5465.245000	753.960938	30.611662
-174.257447	5465.245000	752.761719	29.812059
-174.257447	5465.245000	751.561523	-54.177635
-174.257447	5465.245000	750.361328	23.454018
-174.257447	5465.245000	749.160156	10.770134
-174.257447	5465.245000	747.959961	-16.162584
-174.257447	5465.245000	746.758789	-26.463043
-174.257447	5465.245000	745.557617	51.088402
-174.257447	5465.245000	744.356445	47.895088
-174.257447	5465.245000	743.154297	-43.112682
-174.257447	5465.245000	741.952148	-41.544365
-174.257447	5465.245000	740.750000	-4.393103
-174.257447	5465.245000	739.547852	103.895325
-174.257447	5465.245000	738.344727	31.913315
-174.257447	5465.245000	737.142578	-2.106874
-174.257447	5465.245000	735.939453	-43.226563
-174.257447	5465.245000	734.735352	50.751534
-174.257447	5465.245000	733.532227	-18.798723
-174.257447	5465.245000	732.328125	41.966614
-174.257447	5465.245000	731.124023	-15.715217
-174.257447	5465.245000	729.918945	99.481079
-174.257447	5465.245000	728.714844	-7.908023
-174.257447	5465.245000	727.509766	66.997055
-174.257447	5465.245000	726.303711	-7.214810
-174.257447	5465.245000	725.098633	-53.006641
-174.257447	5465.245000	723.892578	-32.550140
-174.257447	5465.245000	722.686523	-42.847813
-174.257447	5465.245000	721.480469	17.789330
-174.257447	5465.245000	720.274414	-160.357941
-174.257447	5465.245000	719.067383	-99.725563
-174.257447	5465.245000	717.860352	93.204468
-174.257447	5465.245000	716.653320	28.544970
-174.257447	5465.245000	715.445313	1.701779
-174.257447	5465.245000	714.238281	71.687477
-174.257447	5465.245000	713.030273	59.008564
-174.257447	5465.245000	711.821289	-62.248528
-174.257447	5465.245000	710.613281	33.660725
-174.257447	5465.245000	709.404297	30.429819
-174.257447	5465.245000	708.195313	-17.621954
-174.257447	5465.245000	706.986328	-77.447701
-174.257447	5465.245000	705.776367	74.968758
-174.257447	5465.245000	704.566406	22.217222
-174.257447	5465.245000	703.356445	54.338242
-174.257447	5465.245000	702.146484	62.878708
-174.257447	5465.245000	700.935547	-15.758492
-174.257447	5465.245000	699.724609	-0.143699
-174.257447	5465.245000	698.513672	-1.022018
-174.257447	5465.245000	697.302734	-13.674684
-174.257447	5465.245000	696.090820	30.173264
-174.257447	5465.245000	694.878906	3.394842
-174.257447	5465.245000	693.666992	87.219063
-174.257447	5465.245000	692.455078	6.327593
-174.257447	5465.245000	691.242188	92.464615
-174.257447	5465.245000	690.029297	4.548566
-174.257447	5465.245000	688.816406	-1.045056
-174.257447	5465.245000	687.602539	-74.804482
-174.257447	5465.245000	686.389648	-33.381138
-174.257447	5465.245000	685.175781	-27.219761
-174.257447	5465.245000	683.960938	94.042450
-174.257447	5465.245000	682.747070	76.684738
-174.257447	5465.245000	681.532227	-67.464203
-174.257447	5465.245000	680.317383	6.773335
-174.257447	5465.245000	679.102539	57.506748
-174.257447	5465.245000	677.886719	-93.592049
-174.257447	5465.245000	676.670898	-19.400517
-174.257447	5465.245000	675.455078	-39.067078
-174.257447	5465.245000	674.239258	70.255936
-174.257447	5465.245000	673.022461	15.406452
-174.257447	5465.245000	671.805664	9.805358
-174.257447	5465.245000	670.588867	51.078644
-174.257447	5465.245000	669.372070	26.724363
-174.257447	5465.245000	668.154297	42.204472
-174.257447	5465.245000	666.936523	-14.930751
-174.257447	5465.245000	665.718750	145.732285
-174.257447	5465.245000	664.500977	175.220444
-174.257447	5465.245000	663.282227	29.143127
-174.257447	5465.245000	662.063477	-6.884915
-174.257447	5465.245000	660.844727	71.746193
-174.257447	5465.245000	659.625000	0.633148
-174.257447	5465.245000	658.405273	-49.402267
-174.257447	5465.245000	657.185547	45.551582
-174.257447	5465.245000	655.965820	16.565016
-174.257447	5465.245000	654.745117	-17.085567
-174.257447	5465.245000	653.525391	-95.121376
-174.257447	5465.245000	652.303711	69.844360
-174.257447	5465.245000	651.083008	57.221771
-174.257447	5465.245000	649.861328	-9.107269
-174.257447	5465.245000	648.640625	31.989555
-174.257447	5465.245000	647.417969	47.390221
-174.257447	5465.245000	646.196289	55.782692
-174.257447	5465.245000	644.973633	24.503920
-174.257447	5465.245000	643.750977	126.206741
-174.257447	5465.245000	642.528320	17.958548
-174.257447	5465.245000	641.305664	-71.590736
-174.257447	5465.245000	640.082031	-18.893250
-174.257447	5465.245000	638.858398	-19.827885
-174.257447	5465.245000	637.634766	77.109764
-174.257447	5465.245000	636.410156	59.844524
-174.257447	5465.245000	635.185547	54.231384
-174.257447	5465.245000	633.960938	62.593109
-174.257447	5465.245000	632.736328	-26.840305
-174.257447	5465.245000	631.510742	114.220222
-174.257447	5465.245000	630.285156	78.341110
-174.257447	5465.245000	629.059570	-36.637787
-174.257447	5465.245000	627.833984	146.207382
-174.257447	5465.245000	626.607422	-45.493492
-174.257447	5465.245000	625.380859	53.559902
-174.257447	5465.245000	624.154297	-19.471777
-174.257447	5465.245000	622.927734	179.481796
-174.257447	5465.245000	621.700195	80.889397
-174.257447	5465.245000	620.472656	-43.219677
-174.257447	5465.245000	619.245117	99.859192
-174.257447	5465.245000	618.016602	138.366730
-174.257447	5465.245000	616.788086	81.658440
-174.257447	5465.245000	615.559570	1.758253
-174.257447	5465.245000	614.331055	-152.379227
-174.257447	5465.245000	613.101563	-4.792063
-174.257447	5465.245000	611.872070	-28.946062
-174.257447	5465.245000	610.642578	-50.770893
-174.257447	5465.245000	609.413086	-16.932068
-174.257447	5465.245000	608.182617	16.892206
-174.257447	5465.245000	606.952148	-21.156939
-174.257447	5465.245000	605.721680	28.874620
-174.257447	5465.245000	604.491211	146.077728
-174.257447	5465.245000	603.259766	-30.967550
-174.257447	5465.245000	602.028320	-31.920345
-174.257447	5465.245000	600.796875	131.529404
-174.257447	5465.245000	599.564453	74.980354
-174.257447	5465.245000	598.332031	64.745514
-174.257447	5465.245000	597.099609	86.911324
-174.257447	5465.245000	595.867188	-48.255104
-174.257447	5465.245000	594.633789	-109.346535
-174.257447	5465.245000	593.400391	58.533054
-174.257447	5465.245000	592.166992	-85.791122
-174.257447	5465.245000	590.933594	-52.061230
-174.257447	5465.245000	589.699219	-133.901779
-174.257447	5465.245000	588.464844	-70.139389
-174.257447	5465.245000	587.230469	-68.777466
-174.257447	5465.245000	585.995117	1.871980
-174.257447	5465.245000	584.760742	84.036537
-174.257447	5465.245000	583.525391	117.684464
-174.257447	5465.245000	582.289063	70.532570
-174.257447	5465.245000	581.053711	-1.984040
-174.257447	5465.245000	579.817383	-7.562147
-174.257447	5465.245000	578.581055	-43.125061
-174.257447	5465.245000	577.343750	52.779373
-174.257447	5465.245000	576.107422	70.249336
-174.257447	5465.245000	574.870117	117.678871
-174.257447	5465.245000	573.631836	8.368297
-174.257447	5465.245000	572.394531	0.489028
-174.257447	5465.245000	571.156250	13.347219
-174.257447	5465.245000	569.917969	3.167018
-174.257447	5465.245000	568.679688	9.110064
-174.257447	5465.245000	567.440430	-37.901272
-174.257447	5465.245000	566.202148	87.738998
-174.257447	5465.245000	564.961914	-69.729378
-174.257447	5465.245000	563.722656	58.164333
-174.257447	5465.245000	562.482422	8.882539
-174.257447	5465.245000	561.243164	76.910133
-174.257447	5465.245000	560.001953	-2.245570
-174.257447	5465.245000	558.761719	42.767521
-174.257447	5465.245000	557.520508	25.707218
-174.257447	5465.245000	556.279297	-161.384476
-174.257447	5465.245000	555.038086	97.285446
-174.257447	5465.245000	553.795898	80.224289
-174.257447	5465.245000	552.554688	113.689903
-174.257447	5465.245000	551.311523	-132.952484
-174.257447	5465.245000	550.069336	56.629177
-174.257447	5465.245000	548.826172	108.437828
-174.257447	5465.245000	547.583984	-0.382479
-174.257447	5465.245000	546.339844	-67.865921
-174.257447	5465.245000	545.096680	-59.637974
-174.257447	5465.245000	543.852539	168.705185
-174.257447	5465.245000	542.608398	98.936974
-174.257447	5465.245000	541.364258	33.782524
-174.257447	5465.245000	540.119141	-90.921257
-174.257447	5465.245000	538.875000	4.358832
-174.257447	5465.245000	537.628906	-24.085701
-174.257447	5465.245000	536.383789	66.559601
-174.257447	5465.245000	535.137695	65.587700
-174.257447	5465.245000	533.892578	50.882389
-174.257447	5465.245000	532.645508	40.760559
-174.257447	5465.245000	531.399414	-58.588837
-174.257447	5465.245000	530.152344	-13.782501
-174.257447	5465.245000	528.905273	72.170769
-174.257447	5465.245000	527.658203	57.480438
-174.257447	5465.245000	526.410156	8.505872
-174.257447	5465.245000	525.163086	62.402325
-174.257447	5465.245000	523.914063	-87.094864
-174.257447	5465.245000	522.666016	-78.892448
-174.257447	5465.245000	521.416992	-18.159883
-174.257447	5465.245000	520.167969	-14.543184
-174.257447	5465.245000	518.918945	-141.063858
-174.257447	5465.245000	517.669922	-71.226822
-174.257447	5465.245000	516.419922	-88.139999
-174.257447	5465.245000	515.169922	45.540813
-174.257447	5465.245000	513.919922	-26.137548
-174.257447	5465.245000	512.668945	-8.840151
-174.257447	5465.245000	511.417969	42.651714
-174.257447	5465.245000	510.166992	66.765251
-174.257447	5465.245000	508.916016	90.868576
-174.257447	5465.245000	507.664063	51.157459
-174.257447	5465.245000	506.412109	-2.205566
-174.257447	5465.245000	505.160156	-146.654633
-174.257447	5465.245000	503.907227	100.638824
-174.257447	5465.245000	502.655273	19.976980
-174.257447	5465.245000	501.402344	62.266029
-174.257447	5465.245000	500.148438	-32.008251
-174.257447	5465.245000	498.895508	-30.682369
-174.257447	5465.245000	497.641602	38.885212
-174.257447	5465.245000	496.387695	81.130440
-174.257447	5465.245000	495.132813	-3.975075
-174.257447	5465.245000	493.878906	20.072964
-174.257447	5465.245000	492.624023	25.926813
-174.257447	5465.245000	491.368164	140.848587
-174.257447	5465.245000	490.113281	92.147255
-174.257447	5465.245000	488.857422	50.280247
-174.257447	5465.245000	487.601563	-16.550406
-174.257447	5465.245000	486.344727	-108.327736
-174.257447	5465.245000	485.088867	-43.445885
-174.257447	5465.245000	483.832031	55.446560
-174.257447	5465.245000	482.575195	-70.325813
-174.257447	5465.245000	481.317383	39.867218
-174.257447	5465.245000	480.059570	70.633919
-174.257447	5465.245000	478.801758	51.501484
-174.257447	5465.245000	477.543945	-8.430629
-174.257447	5465.245000	476.285156	128.841797
-174.257447	5465.245000	475.027344	19.062273
-174.257447	5465.245000	473.767578	4.476179
-174.257447	5465.245000	472.508789	-73.525986
-174.257447	5465.245000	471.249023	11.545788
-174.257447	5465.245000	469.989258	-39.263760
-174.257447	5465.245000	468.729492	-85.528076
-174.257447	5465.245000	467.469727	-104.620407
-174.257447	5465.245000	466.208984	-39.994629
-174.257447	5465.245000	464.948242	76.625923
-174.257447	5465.245000	463.686523	43.927979
-174.257447	5465.245000	462.425781	-31.721430
-174.257447	5465.245000	461.164063	3.424911
-174.257447	5465.245000	459.901367	24.990265
-174.257447	5465.245000	458.639648	78.175156
-174.257447	5465.245000	457.376953	45.483578
-174.257447	5465.245000	456.114258	62.490009
-174.257447	5465.245000	454.851563	-19.875671
-174.257447	5465.245000	453.587891	-23.195398
-174.257447	5465.245000	452.324219	165.338196
-174.257447	5465.245000	451.060547	62.671078
-174.257447	5465.245000	449.796875	50.287762
-174.257447	5465.245000	448.532227	37.901173
-174.257447	5465.245000	447.267578	-10.571964
-174.257447	5465.245000	446.002930	-31.976753
-174.257447	5465.245000	444.737305	-8.297594
-174.257447	5465.245000	443.471680	51.421772
-174.257447	5465.245000	442.206055	23.227802
-174.257447	5465.245000	440.940430	67.123497
-174.257447	5465.245000	439.673828	-10.634420
-174.257447	5465.245000	438.407227	6.205208
-174.257447	5465.245000	437.140625	-67.027519
-174.257447	5465.245000	435.873047	33.072502
-174.257447	5465.245000	434.605469	126.364799
-174.257447	5465.245000	433.337891	84.612045
-174.257447	5465.245000	432.070313	150.832291
-174.257447	5465.245000	430.801758	-7.879067
-174.257447	5465.245000	429.533203	-54.117085
-174.257447	5465.245000	428.264648	36.770981
-174.257447	5465.245000	426.996094	102.881218
-174.257447	5465.245000	425.726563	52.105331
-174.257447	5465.245000	424.457031	-45.841721
-174.257447	5465.245000	423.186523	-47.189400
-174.257447	5465.245000	421.916992	196.201401
-174.257447	5465.245000	420.646484	12.919696
-174.257447	5465.245000	419.375977	114.747826
-174.257447	5465.245000	418.104492	218.754028
-174.257447	5465.245000	416.833008	1.869084
-174.257447	5465.245000	415.561523	38.518974
-174.257447	5465.245000	414.290039	81.856735
-174.257447	5465.245000	413.017578	-18.341028
-174.257447	5465.245000	411.746094	40.631779
-174.257447	5465.245000	410.472656	-52.842297
-174.257447	5465.245000	409.200195	-23.069372
-174.257447	5465.245000	407.926758	102.987747
-174.257447	5465.245000	406.653320	-35.315414
-174.257447	5465.245000	405.379883	-72.826950
-174.257447	5465.245000	404.105469	-103.637268
-174.257447	5465.245000	402.831055	174.401627
-174.257447	5465.245000	401.556641	-8.676127
-174.257447	5465.245000	400.282227	11.876503
-174.257447	5465.245000	399.006836	18.964502
-174.257447	5465.245000	397.731445	52.848164
-174.257447	5465.245000	396.456055	147.044937
-174.257447	5465.245000	395.179688	109.281410
-174.257447	5465.245000	393.903320	2.216810
-174.257447	5465.245000	392.626953	11.340657
-174.257447	5465.245000	391.350586	49.457874
-174.257447	5465.245000	390.073242	33.914944
-174.257447	5465.245000	388.795898	-84.376488
-174.257447	5465.245000	387.518555	-12.912852
-174.257447	5465.245000	386.240234	98.644310
-174.257447	5465.245000	384.961914	36.057247
-174.257447	5465.245000	383.683594	-37.707687
-174.257447	5465.245000	382.405273	75.861725
-174.257447	5465.245000	381.125977	44.382462
-174.257447	5465.245000	379.846680	46.303303
-174.257447	5465.245000	378.567383	-81.112175
-174.257447	5465.245000	377.287109	-48.082180
-174.257447	5465.245000	376.006836	125.236107
-174.257447	5465.245000	374.726563	64.530472
-174.257447	5465.245000	373.446289	23.831434
-174.257447	5465.245000	372.165039	-12.463847
-174.257447	5465.245000	370.883789	44.683285
-174.257447	5465.245000	369.602539	-5.089844
-174.257447	5465.245000	368.320313	-1.512326
-174.257447	5465.245000	367.039063	22.014315
-174.257447	5465.245000	365.755859	38.779423
-174.257447	5465.245000	364.473633	131.065857
-174.257447	5465.245000	363.190430	-10.198380
-174.257447	5465.245000	361.907227	81.896507
-174.257447	5465.245000	360.624023	76.092033
-174.257447	5465.245000	359.340820	30.214624
-174.257447	5465.245000	358.056641	-77.926598
-174.257447	5465.245000	356.772461	49.284763
-174.257447	5465.245000	355.487305	45.351933
-174.257447	5465.245000	354.202148	36.886456
-174.257447	5465.245000	352.916992	72.712059
-174.257447	5465.245000	351.631836	1.920007
-174.257447	5465.245000	350.346680	-53.415588
-174.257447	5465.245000	349.060547	-64.479172
-174.257447	5465.245000	347.774414	46.306732
-174.257447	5465.245000	346.487305	15.052804
-174.257447	5465.245000	345.200195	28.025024
-174.257447	5465.245000	343.913086	-65.487442
-174.257447	5465.245000	342.625977	-48.309269
-174.257447	5465.245000	341.338867	-35.691452
-174.257447	5465.245000	340.050781	-36.494751
-174.257447	5465.245000	338.762695	15.707586
-174.257447	5465.245000	337.473633	-131.460663
-174.257447	5465.245000	336.184570	-33.059525
-174.257447	5465.245000	334.895508	85.071320
-174.257447	5465.245000	333.606445	54.803043
-174.257447	5465.245000	332.317383	-77.328217
-174.257447	5465.245000	331.027344	4.915670
-174.257447	5465.245000	329.736328	67.070862
-174.257447	5465.245000	328.446289	-3.558845
-174.257447	5465.245000	327.155273	-122.934708
-174.257447	5465.245000	325.864258	-125.340065
-174.257447	5465.245000	324.573242	50.985867
-174.257447	5465.245000	323.281250	72.486588
-174.257447	5465.245000	321.989258	-23.206564
-174.257447	5465.245000	320.697266	143.616684
-174.257447	5465.245000	319.405273	14.482430
-174.257447	5465.245000	318.112305	33.026184
-174.257447	5465.245000	316.819336	-47.891529
-174.257447	5465.245000	315.526367	-137.793671
-174.257447	5465.245000	314.232422	-40.460495
-174.257447	5465.245000	312.938477	-108.700249
-174.257447	5465.245000	311.644531	-69.137230
-174.257447	5465.245000	310.349609	-25.409872
-174.257447	5465.245000	309.054688	37.900822
-174.257447	5465.245000	307.759766	65.716652
-174.257447	5465.245000	306.464844	99.892426
-174.257447	5465.245000	305.168945	67.764732
-174.257447	5465.245000	303.873047	108.037018
-174.257447	5465.245000	302.577148	93.029617
-174.257447	5465.245000	301.281250	71.173622
-174.257447	5465.245000	299.984375	163.430405
