#X		#Y		#Wave		#Intensity
529.493617	6251.160000	1999.946289	37.534996
529.493617	6251.160000	1998.981445	116.101616
529.493617	6251.160000	1998.017578	-162.107285
529.493617	6251.160000	1997.052734	-66.192741
529.493617	6251.160000	1996.088867	-37.387955
529.493617	6251.160000	1995.124023	30.873165
529.493617	6251.160000	1994.159180	-71.951233
529.493617	6251.160000	1993.193359	-130.324875
529.493617	6251.160000	1992.228516	110.734032
529.493617	6251.160000	1991.262695	12.427704
529.493617	6251.160000	1990.296875	-93.419067
529.493617	6251.160000	1989.331055	119.826256
529.493617	6251.160000	1988.365234	75.554939
529.493617	6251.160000	1987.398438	169.677017
529.493617	6251.160000	1986.432617	246.311493
529.493617	6251.160000	1985.465820	176.901581
529.493617	6251.160000	1984.499023	-80.496857
529.493617	6251.160000	1983.532227	84.728821
529.493617	6251.160000	1982.565430	-4.767761
529.493617	6251.160000	1981.597656	2.007266
529.493617	6251.160000	1980.629883	-139.557922
529.493617	6251.160000	1979.662109	76.941109
529.493617	6251.160000	1978.694336	16.674383
529.493617	6251.160000	1977.726563	141.489594
529.493617	6251.160000	1976.758789	108.167961
529.493617	6251.160000	1975.790039	-83.198021
529.493617	6251.160000	1974.821289	-30.307680
529.493617	6251.160000	1973.852539	-2.207077
529.493617	6251.160000	1972.883789	215.717834
529.493617	6251.160000	1971.915039	4.351533
529.493617	6251.160000	1970.945313	51.873680
529.493617	6251.160000	1969.975586	79.565681
529.493617	6251.160000	1969.005859	331.459351
529.493617	6251.160000	1968.036133	218.449722
529.493617	6251.160000	1967.066406	-52.287903
529.493617	6251.160000	1966.096680	-74.198433
529.493617	6251.160000	1965.125977	241.249542
529.493617	6251.160000	1964.155273	251.153107
529.493617	6251.160000	1963.184570	-118.177895
529.493617	6251.160000	1962.213867	76.264610
529.493617	6251.160000	1961.242188	213.958817
529.493617	6251.160000	1960.271484	127.613838
529.493617	6251.160000	1959.299805	-54.714653
529.493617	6251.160000	1958.328125	75.353806
529.493617	6251.160000	1957.356445	77.428619
529.493617	6251.160000	1956.384766	217.140625
529.493617	6251.160000	1955.412109	164.985977
529.493617	6251.160000	1954.439453	31.684072
529.493617	6251.160000	1953.467773	99.892990
529.493617	6251.160000	1952.495117	202.422180
529.493617	6251.160000	1951.521484	44.464626
529.493617	6251.160000	1950.548828	55.991905
529.493617	6251.160000	1949.575195	18.353100
529.493617	6251.160000	1948.601563	-68.421761
529.493617	6251.160000	1947.627930	222.824188
529.493617	6251.160000	1946.654297	81.963593
529.493617	6251.160000	1945.680664	262.567291
529.493617	6251.160000	1944.706055	153.565079
529.493617	6251.160000	1943.732422	-16.755709
529.493617	6251.160000	1942.757813	-30.094673
529.493617	6251.160000	1941.783203	-55.722519
529.493617	6251.160000	1940.807617	77.974838
529.493617	6251.160000	1939.833008	-126.660431
529.493617	6251.160000	1938.857422	-174.411346
529.493617	6251.160000	1937.881836	-28.610142
529.493617	6251.160000	1936.906250	16.669197
529.493617	6251.160000	1935.930664	-60.559467
529.493617	6251.160000	1934.955078	99.748947
529.493617	6251.160000	1933.978516	88.585060
529.493617	6251.160000	1933.001953	221.827560
529.493617	6251.160000	1932.025391	247.309540
529.493617	6251.160000	1931.048828	84.340584
529.493617	6251.160000	1930.072266	-19.871279
529.493617	6251.160000	1929.094727	-170.542725
529.493617	6251.160000	1928.118164	-76.614555
529.493617	6251.160000	1927.140625	-75.656883
529.493617	6251.160000	1926.163086	-6.266643
529.493617	6251.160000	1925.184570	212.178177
529.493617	6251.160000	1924.207031	-65.563004
529.493617	6251.160000	1923.228516	-50.017570
529.493617	6251.160000	1922.250000	202.467499
529.493617	6251.160000	1921.271484	29.861673
529.493617	6251.160000	1920.292969	23.360983
529.493617	6251.160000	1919.314453	-190.679413
529.493617	6251.160000	1918.334961	205.612259
529.493617	6251.160000	1917.355469	84.335213
529.493617	6251.160000	1916.375977	-117.431816
529.493617	6251.160000	1915.396484	127.330315
529.493617	6251.160000	1914.416992	269.544037
529.493617	6251.160000	1913.436523	155.619980
529.493617	6251.160000	1912.457031	68.553864
529.493617	6251.160000	1911.476563	196.042374
529.493617	6251.160000	1910.496094	-3.137615
529.493617	6251.160000	1909.515625	124.302422
529.493617	6251.160000	1908.534180	12.907756
529.493617	6251.160000	1907.552734	42.839008
529.493617	6251.160000	1906.572266	80.062454
529.493617	6251.160000	1905.590820	-104.334793
529.493617	6251.160000	1904.608398	-25.723486
529.493617	6251.160000	1903.626953	-0.697873
529.493617	6251.160000	1902.644531	68.119125
529.493617	6251.160000	1901.663086	180.708435
529.493617	6251.160000	1900.680664	-35.188660
529.493617	6251.160000	1899.698242	33.583450
529.493617	6251.160000	1898.714844	-272.197754
529.493617	6251.160000	1897.732422	209.941727
529.493617	6251.160000	1896.749023	208.116180
529.493617	6251.160000	1895.765625	-53.785480
529.493617	6251.160000	1894.782227	2.755468
529.493617	6251.160000	1893.798828	226.921783
529.493617	6251.160000	1892.814453	74.467361
529.493617	6251.160000	1891.831055	-153.222687
529.493617	6251.160000	1890.846680	-45.723698
529.493617	6251.160000	1889.862305	-166.486649
529.493617	6251.160000	1888.877930	-61.457794
529.493617	6251.160000	1887.892578	186.717300
529.493617	6251.160000	1886.908203	-145.134918
529.493617	6251.160000	1885.922852	42.306602
529.493617	6251.160000	1884.937500	42.905266
529.493617	6251.160000	1883.952148	-70.480545
529.493617	6251.160000	1882.965820	92.585556
529.493617	6251.160000	1881.980469	-25.620850
529.493617	6251.160000	1880.994141	-153.482864
529.493617	6251.160000	1880.007813	-55.930119
529.493617	6251.160000	1879.021484	70.658409
529.493617	6251.160000	1878.035156	-66.848236
529.493617	6251.160000	1877.047852	6.403236
529.493617	6251.160000	1876.061523	-72.928825
529.493617	6251.160000	1875.074219	63.237228
529.493617	6251.160000	1874.086914	17.803740
529.493617	6251.160000	1873.098633	134.532135
529.493617	6251.160000	1872.111328	125.391296
529.493617	6251.160000	1871.123047	-16.811604
529.493617	6251.160000	1870.135742	-21.091106
529.493617	6251.160000	1869.147461	-107.599052
529.493617	6251.160000	1868.158203	-133.633499
529.493617	6251.160000	1867.169922	-116.147461
529.493617	6251.160000	1866.180664	159.942520
529.493617	6251.160000	1865.192383	83.113113
529.493617	6251.160000	1864.203125	107.779770
529.493617	6251.160000	1863.213867	-176.766571
529.493617	6251.160000	1862.223633	-19.240179
529.493617	6251.160000	1861.234375	106.833641
529.493617	6251.160000	1860.244141	78.338058
529.493617	6251.160000	1859.253906	40.191940
529.493617	6251.160000	1858.263672	55.146957
529.493617	6251.160000	1857.273438	-11.949503
529.493617	6251.160000	1856.282227	-28.368446
529.493617	6251.160000	1855.291992	140.936142
529.493617	6251.160000	1854.300781	90.717453
529.493617	6251.160000	1853.309570	4.342580
529.493617	6251.160000	1852.317383	110.841248
529.493617	6251.160000	1851.326172	43.758533
529.493617	6251.160000	1850.333984	118.865120
529.493617	6251.160000	1849.342773	213.209030
529.493617	6251.160000	1848.350586	278.599976
529.493617	6251.160000	1847.357422	144.059067
529.493617	6251.160000	1846.365234	166.075790
529.493617	6251.160000	1845.372070	-98.418144
529.493617	6251.160000	1844.379883	164.313828
529.493617	6251.160000	1843.386719	37.071518
529.493617	6251.160000	1842.393555	-20.358976
529.493617	6251.160000	1841.399414	167.594894
529.493617	6251.160000	1840.406250	102.921700
529.493617	6251.160000	1839.412109	6.994440
529.493617	6251.160000	1838.417969	170.754471
529.493617	6251.160000	1837.423828	50.786411
529.493617	6251.160000	1836.429688	228.868195
529.493617	6251.160000	1835.434570	17.590841
529.493617	6251.160000	1834.440430	-162.387009
529.493617	6251.160000	1833.445313	17.990070
529.493617	6251.160000	1832.450195	135.841263
529.493617	6251.160000	1831.454102	145.579788
529.493617	6251.160000	1830.458984	-15.147340
529.493617	6251.160000	1829.462891	112.192741
529.493617	6251.160000	1828.466797	181.873550
529.493617	6251.160000	1827.470703	23.574381
529.493617	6251.160000	1826.474609	-67.514702
529.493617	6251.160000	1825.478516	239.549271
529.493617	6251.160000	1824.481445	122.036827
529.493617	6251.160000	1823.484375	-57.786251
529.493617	6251.160000	1822.487305	-69.767021
529.493617	6251.160000	1821.490234	145.913467
529.493617	6251.160000	1820.493164	66.765564
529.493617	6251.160000	1819.495117	54.704254
529.493617	6251.160000	1818.498047	73.766594
529.493617	6251.160000	1817.500000	169.430344
529.493617	6251.160000	1816.500977	238.696045
529.493617	6251.160000	1815.502930	-39.198914
529.493617	6251.160000	1814.504883	13.283430
529.493617	6251.160000	1813.505859	159.046219
529.493617	6251.160000	1812.506836	24.803696
529.493617	6251.160000	1811.507813	-118.980652
529.493617	6251.160000	1810.508789	-71.404846
529.493617	6251.160000	1809.508789	-86.045326
529.493617	6251.160000	1808.508789	52.301491
529.493617	6251.160000	1807.508789	116.472160
529.493617	6251.160000	1806.508789	80.219254
529.493617	6251.160000	1805.508789	180.147873
529.493617	6251.160000	1804.508789	-40.102699
529.493617	6251.160000	1803.507813	21.538445
529.493617	6251.160000	1802.506836	13.876605
529.493617	6251.160000	1801.505859	-82.150093
529.493617	6251.160000	1800.504883	175.125000
529.493617	6251.160000	1799.502930	21.763901
529.493617	6251.160000	1798.501953	9.222578
529.493617	6251.160000	1797.500000	18.124409
529.493617	6251.160000	1796.498047	77.085411
529.493617	6251.160000	1795.496094	71.602333
529.493617	6251.160000	1794.493164	58.934330
529.493617	6251.160000	1793.491211	3.333565
529.493617	6251.160000	1792.488281	-95.184265
529.493617	6251.160000	1791.485352	173.293884
529.493617	6251.160000	1790.482422	139.048004
529.493617	6251.160000	1789.478516	-2.416820
529.493617	6251.160000	1788.475586	153.856018
529.493617	6251.160000	1787.471680	-82.872955
529.493617	6251.160000	1786.467773	16.146397
529.493617	6251.160000	1785.463867	-96.755157
529.493617	6251.160000	1784.459961	40.241428
529.493617	6251.160000	1783.455078	-10.826644
529.493617	6251.160000	1782.450195	52.281132
529.493617	6251.160000	1781.445313	134.358429
529.493617	6251.160000	1780.440430	-104.672165
529.493617	6251.160000	1779.435547	-70.218140
529.493617	6251.160000	1778.429688	47.384529
529.493617	6251.160000	1777.424805	195.807983
529.493617	6251.160000	1776.418945	144.528931
529.493617	6251.160000	1775.413086	31.460018
529.493617	6251.160000	1774.406250	75.169434
529.493617	6251.160000	1773.400391	-116.288551
529.493617	6251.160000	1772.393555	-264.974579
529.493617	6251.160000	1771.386719	13.684299
529.493617	6251.160000	1770.379883	-9.244755
529.493617	6251.160000	1769.373047	136.289810
529.493617	6251.160000	1768.365234	201.055252
529.493617	6251.160000	1767.358398	135.289871
529.493617	6251.160000	1766.350586	143.032257
529.493617	6251.160000	1765.342773	-60.315304
529.493617	6251.160000	1764.334961	16.139580
529.493617	6251.160000	1763.326172	-75.778366
529.493617	6251.160000	1762.318359	-75.266975
529.493617	6251.160000	1761.309570	-186.167877
529.493617	6251.160000	1760.300781	-26.990675
529.493617	6251.160000	1759.291016	20.755236
529.493617	6251.160000	1758.282227	115.811790
529.493617	6251.160000	1757.272461	101.872246
529.493617	6251.160000	1756.262695	-115.687080
529.493617	6251.160000	1755.252930	-39.718872
529.493617	6251.160000	1754.243164	109.537506
529.493617	6251.160000	1753.233398	52.861244
529.493617	6251.160000	1752.222656	201.957581
529.493617	6251.160000	1751.211914	8.028240
529.493617	6251.160000	1750.201172	145.170761
529.493617	6251.160000	1749.190430	-39.299480
529.493617	6251.160000	1748.179688	71.717018
529.493617	6251.160000	1747.167969	0.678301
529.493617	6251.160000	1746.156250	47.762844
529.493617	6251.160000	1745.144531	-139.081161
529.493617	6251.160000	1744.132813	-172.374283
529.493617	6251.160000	1743.121094	-38.036488
529.493617	6251.160000	1742.108398	-78.507355
529.493617	6251.160000	1741.095703	-114.283974
529.493617	6251.160000	1740.083008	-298.772614
529.493617	6251.160000	1739.070313	0.486683
529.493617	6251.160000	1738.057617	23.569082
529.493617	6251.160000	1737.043945	-142.101883
529.493617	6251.160000	1736.030273	41.270901
529.493617	6251.160000	1735.016602	153.796799
529.493617	6251.160000	1734.002930	-110.939209
529.493617	6251.160000	1732.989258	93.408615
529.493617	6251.160000	1731.974609	69.053673
529.493617	6251.160000	1730.959961	61.158524
529.493617	6251.160000	1729.945313	46.157780
529.493617	6251.160000	1728.930664	5.214580
529.493617	6251.160000	1727.916016	70.204956
529.493617	6251.160000	1726.900391	-6.130486
529.493617	6251.160000	1725.885742	14.030914
529.493617	6251.160000	1724.870117	170.629272
529.493617	6251.160000	1723.853516	-23.455574
529.493617	6251.160000	1722.837891	-318.655579
529.493617	6251.160000	1721.822266	-202.192123
529.493617	6251.160000	1720.805664	-12.923376
529.493617	6251.160000	1719.789063	-265.768341
529.493617	6251.160000	1718.772461	-123.655647
529.493617	6251.160000	1717.754883	-211.960159
529.493617	6251.160000	1716.738281	-210.976654
529.493617	6251.160000	1715.720703	-19.751953
529.493617	6251.160000	1714.703125	-150.427505
529.493617	6251.160000	1713.685547	-41.561729
529.493617	6251.160000	1712.667969	-10.258976
529.493617	6251.160000	1711.649414	-126.905060
529.493617	6251.160000	1710.630859	268.099976
529.493617	6251.160000	1709.612305	-69.212433
529.493617	6251.160000	1708.593750	245.781906
529.493617	6251.160000	1707.575195	187.656433
529.493617	6251.160000	1706.555664	-74.526558
529.493617	6251.160000	1705.536133	101.821365
529.493617	6251.160000	1704.516602	15.499248
529.493617	6251.160000	1703.497070	62.770977
529.493617	6251.160000	1702.477539	46.712955
529.493617	6251.160000	1701.457031	136.049423
529.493617	6251.160000	1700.437500	115.221237
529.493617	6251.160000	1699.416992	87.328972
529.493617	6251.160000	1698.395508	122.626694
529.493617	6251.160000	1697.375000	-113.695511
529.493617	6251.160000	1696.354492	127.540665
529.493617	6251.160000	1695.333008	97.168694
529.493617	6251.160000	1694.311523	165.044067
529.493617	6251.160000	1693.290039	108.869217
529.493617	6251.160000	1692.267578	59.689438
529.493617	6251.160000	1691.246094	-57.316463
529.493617	6251.160000	1690.223633	279.254303
529.493617	6251.160000	1689.201172	173.858978
529.493617	6251.160000	1688.178711	222.718582
529.493617	6251.160000	1687.155273	119.634163
529.493617	6251.160000	1686.132813	254.854187
529.493617	6251.160000	1685.109375	198.448151
529.493617	6251.160000	1684.085938	1.910616
529.493617	6251.160000	1683.062500	235.029999
529.493617	6251.160000	1682.039063	120.197281
529.493617	6251.160000	1681.014648	217.758270
529.493617	6251.160000	1679.990234	429.591461
529.493617	6251.160000	1678.965820	160.698181
529.493617	6251.160000	1677.941406	171.790726
529.493617	6251.160000	1676.916992	236.485672
529.493617	6251.160000	1675.891602	280.131653
529.493617	6251.160000	1674.866211	263.116150
529.493617	6251.160000	1673.840820	278.708038
529.493617	6251.160000	1672.815430	161.431229
529.493617	6251.160000	1671.790039	302.790955
529.493617	6251.160000	1670.763672	89.979538
529.493617	6251.160000	1669.737305	98.477325
529.493617	6251.160000	1668.710938	358.429291
529.493617	6251.160000	1667.684570	113.047729
529.493617	6251.160000	1666.658203	328.613403
529.493617	6251.160000	1665.630859	439.335052
529.493617	6251.160000	1664.603516	321.961823
529.493617	6251.160000	1663.576172	369.777283
529.493617	6251.160000	1662.548828	598.964539
529.493617	6251.160000	1661.520508	367.595612
529.493617	6251.160000	1660.493164	666.393066
529.493617	6251.160000	1659.464844	425.750427
529.493617	6251.160000	1658.436523	484.983337
529.493617	6251.160000	1657.408203	488.400909
529.493617	6251.160000	1656.378906	670.670715
529.493617	6251.160000	1655.350586	794.786133
529.493617	6251.160000	1654.321289	375.408051
529.493617	6251.160000	1653.291992	592.353271
529.493617	6251.160000	1652.261719	416.869385
529.493617	6251.160000	1651.232422	550.124695
529.493617	6251.160000	1650.202148	578.877686
529.493617	6251.160000	1649.171875	612.239136
529.493617	6251.160000	1648.141602	564.381409
529.493617	6251.160000	1647.111328	620.884155
529.493617	6251.160000	1646.080078	795.591675
529.493617	6251.160000	1645.049805	576.118652
529.493617	6251.160000	1644.018555	662.654175
529.493617	6251.160000	1642.987305	626.319763
529.493617	6251.160000	1641.955078	756.789856
529.493617	6251.160000	1640.923828	977.543518
529.493617	6251.160000	1639.891602	822.995300
529.493617	6251.160000	1638.859375	895.415283
529.493617	6251.160000	1637.827148	1030.300171
529.493617	6251.160000	1636.794922	838.752930
529.493617	6251.160000	1635.761719	681.970459
529.493617	6251.160000	1634.729492	902.386108
529.493617	6251.160000	1633.696289	877.485474
529.493617	6251.160000	1632.662109	1002.908875
529.493617	6251.160000	1631.628906	1005.723450
529.493617	6251.160000	1630.594727	1253.584839
529.493617	6251.160000	1629.561523	1025.177490
529.493617	6251.160000	1628.527344	1092.655884
529.493617	6251.160000	1627.493164	1206.311035
529.493617	6251.160000	1626.458008	1347.627441
529.493617	6251.160000	1625.423828	1357.235107
529.493617	6251.160000	1624.388672	1456.885254
529.493617	6251.160000	1623.353516	1872.797363
529.493617	6251.160000	1622.318359	1669.898804
529.493617	6251.160000	1621.282227	1674.777832
529.493617	6251.160000	1620.247070	1788.109253
529.493617	6251.160000	1619.210938	1490.733276
529.493617	6251.160000	1618.174805	1790.872192
529.493617	6251.160000	1617.137695	2090.882080
529.493617	6251.160000	1616.101563	1991.899414
529.493617	6251.160000	1615.064453	1699.306396
529.493617	6251.160000	1614.027344	1669.569824
529.493617	6251.160000	1612.990234	1586.844360
529.493617	6251.160000	1611.953125	1619.344604
529.493617	6251.160000	1610.916016	1345.476440
529.493617	6251.160000	1609.877930	1612.908325
529.493617	6251.160000	1608.839844	1484.202515
529.493617	6251.160000	1607.801758	1551.225830
529.493617	6251.160000	1606.763672	1415.682129
529.493617	6251.160000	1605.724609	1616.159668
529.493617	6251.160000	1604.685547	1413.933716
529.493617	6251.160000	1603.646484	1582.138672
529.493617	6251.160000	1602.607422	1683.587646
529.493617	6251.160000	1601.568359	1699.924805
529.493617	6251.160000	1600.528320	1507.051270
529.493617	6251.160000	1599.489258	1688.922729
529.493617	6251.160000	1598.449219	1571.977173
529.493617	6251.160000	1597.408203	1597.528809
529.493617	6251.160000	1596.368164	1646.058838
529.493617	6251.160000	1595.327148	1655.528809
529.493617	6251.160000	1594.287109	1779.825073
529.493617	6251.160000	1593.246094	1842.089844
529.493617	6251.160000	1592.204102	1445.263306
529.493617	6251.160000	1591.163086	1762.327515
529.493617	6251.160000	1590.121094	2125.162109
529.493617	6251.160000	1589.079102	1852.428589
529.493617	6251.160000	1588.037109	1662.383789
529.493617	6251.160000	1586.995117	1681.102295
529.493617	6251.160000	1585.953125	1667.730469
529.493617	6251.160000	1584.910156	1585.606934
529.493617	6251.160000	1583.867188	1327.067139
529.493617	6251.160000	1582.824219	1662.096069
529.493617	6251.160000	1581.781250	1433.458984
529.493617	6251.160000	1580.737305	1562.228271
529.493617	6251.160000	1579.693359	1477.999756
529.493617	6251.160000	1578.649414	1233.557495
529.493617	6251.160000	1577.605469	1355.484131
529.493617	6251.160000	1576.561523	1346.932617
529.493617	6251.160000	1575.516602	1342.975220
529.493617	6251.160000	1574.472656	1316.172363
529.493617	6251.160000	1573.427734	1236.789307
529.493617	6251.160000	1572.381836	1097.996460
529.493617	6251.160000	1571.336914	966.149170
529.493617	6251.160000	1570.291016	1200.120972
529.493617	6251.160000	1569.246094	1258.052368
529.493617	6251.160000	1568.200195	989.220093
529.493617	6251.160000	1567.153320	848.450317
529.493617	6251.160000	1566.107422	1223.987427
529.493617	6251.160000	1565.060547	1081.000488
529.493617	6251.160000	1564.013672	1170.989258
529.493617	6251.160000	1562.966797	861.483887
529.493617	6251.160000	1561.919922	782.647949
529.493617	6251.160000	1560.872070	820.243652
529.493617	6251.160000	1559.825195	1202.363770
529.493617	6251.160000	1558.777344	1080.256592
529.493617	6251.160000	1557.729492	1054.014893
529.493617	6251.160000	1556.680664	904.683899
529.493617	6251.160000	1555.632813	928.706970
529.493617	6251.160000	1554.583984	800.041504
529.493617	6251.160000	1553.535156	1024.671631
529.493617	6251.160000	1552.486328	877.884094
529.493617	6251.160000	1551.436523	865.578979
529.493617	6251.160000	1550.387695	675.683533
529.493617	6251.160000	1549.337891	786.455383
529.493617	6251.160000	1548.288086	931.370605
529.493617	6251.160000	1547.238281	878.249084
529.493617	6251.160000	1546.187500	854.765625
529.493617	6251.160000	1545.136719	822.232117
529.493617	6251.160000	1544.086914	723.791199
529.493617	6251.160000	1543.035156	782.343201
529.493617	6251.160000	1541.984375	502.120850
529.493617	6251.160000	1540.933594	572.153442
529.493617	6251.160000	1539.881836	699.019287
529.493617	6251.160000	1538.830078	535.000671
529.493617	6251.160000	1537.778320	571.031738
529.493617	6251.160000	1536.725586	750.198792
529.493617	6251.160000	1535.673828	584.132690
529.493617	6251.160000	1534.621094	706.552429
529.493617	6251.160000	1533.568359	742.700989
529.493617	6251.160000	1532.515625	901.452820
529.493617	6251.160000	1531.461914	660.778259
529.493617	6251.160000	1530.409180	690.253113
529.493617	6251.160000	1529.355469	656.244141
529.493617	6251.160000	1528.301758	644.978455
529.493617	6251.160000	1527.247070	742.606140
529.493617	6251.160000	1526.193359	497.917542
529.493617	6251.160000	1525.138672	695.371521
529.493617	6251.160000	1524.083984	335.311218
529.493617	6251.160000	1523.029297	439.928558
529.493617	6251.160000	1521.974609	363.333405
529.493617	6251.160000	1520.918945	660.520935
529.493617	6251.160000	1519.863281	353.043915
529.493617	6251.160000	1518.807617	310.629517
529.493617	6251.160000	1517.751953	184.536942
529.493617	6251.160000	1516.696289	178.494247
529.493617	6251.160000	1515.639648	450.809326
529.493617	6251.160000	1514.583008	189.197830
529.493617	6251.160000	1513.526367	228.559631
529.493617	6251.160000	1512.469727	315.451843
529.493617	6251.160000	1511.412109	266.712830
529.493617	6251.160000	1510.355469	342.379242
529.493617	6251.160000	1509.297852	248.574661
529.493617	6251.160000	1508.240234	285.918671
529.493617	6251.160000	1507.181641	251.015457
529.493617	6251.160000	1506.124023	281.691223
529.493617	6251.160000	1505.065430	244.667664
529.493617	6251.160000	1504.006836	255.132446
529.493617	6251.160000	1502.948242	-48.102451
529.493617	6251.160000	1501.888672	-64.542900
529.493617	6251.160000	1500.830078	124.420822
529.493617	6251.160000	1499.770508	121.616478
529.493617	6251.160000	1498.710938	125.644508
529.493617	6251.160000	1497.650391	127.476822
529.493617	6251.160000	1496.590820	454.038055
529.493617	6251.160000	1495.530273	115.563660
529.493617	6251.160000	1494.469727	68.015144
529.493617	6251.160000	1493.409180	2.526687
529.493617	6251.160000	1492.348633	151.145538
529.493617	6251.160000	1491.287109	76.789268
529.493617	6251.160000	1490.225586	133.139801
529.493617	6251.160000	1489.164063	-10.840571
529.493617	6251.160000	1488.102539	142.435410
529.493617	6251.160000	1487.041016	57.163399
529.493617	6251.160000	1485.978516	-138.263123
529.493617	6251.160000	1484.916016	-11.832507
529.493617	6251.160000	1483.853516	-99.073723
529.493617	6251.160000	1482.791016	-49.025505
529.493617	6251.160000	1481.727539	-32.646671
529.493617	6251.160000	1480.664063	-128.601654
529.493617	6251.160000	1479.600586	-260.372559
529.493617	6251.160000	1478.537109	-162.841873
529.493617	6251.160000	1477.473633	-81.054253
529.493617	6251.160000	1476.409180	-62.061935
529.493617	6251.160000	1475.344727	71.432190
529.493617	6251.160000	1474.280273	-223.701462
529.493617	6251.160000	1473.215820	22.223881
529.493617	6251.160000	1472.151367	315.096191
529.493617	6251.160000	1471.085938	226.722946
529.493617	6251.160000	1470.020508	284.143036
529.493617	6251.160000	1468.955078	502.916290
529.493617	6251.160000	1467.888672	125.903091
529.493617	6251.160000	1466.823242	281.881531
529.493617	6251.160000	1465.756836	68.839760
529.493617	6251.160000	1464.690430	502.517487
529.493617	6251.160000	1463.624023	399.671753
529.493617	6251.160000	1462.556641	331.565613
529.493617	6251.160000	1461.490234	302.395386
529.493617	6251.160000	1460.422852	529.687988
529.493617	6251.160000	1459.355469	306.930756
529.493617	6251.160000	1458.287109	271.437775
529.493617	6251.160000	1457.219727	415.830566
529.493617	6251.160000	1456.151367	512.722534
529.493617	6251.160000	1455.083008	285.897583
529.493617	6251.160000	1454.014648	432.327545
529.493617	6251.160000	1452.945313	612.601318
529.493617	6251.160000	1451.876953	494.437164
529.493617	6251.160000	1450.807617	421.191498
529.493617	6251.160000	1449.738281	401.303070
529.493617	6251.160000	1448.668945	464.654846
529.493617	6251.160000	1447.598633	427.095734
529.493617	6251.160000	1446.528320	436.052643
529.493617	6251.160000	1445.458008	412.792206
529.493617	6251.160000	1444.387695	499.308716
529.493617	6251.160000	1443.317383	584.612061
529.493617	6251.160000	1442.246094	393.847412
529.493617	6251.160000	1441.174805	688.281982
529.493617	6251.160000	1440.103516	634.574158
529.493617	6251.160000	1439.032227	400.763916
529.493617	6251.160000	1437.960938	441.899292
529.493617	6251.160000	1436.888672	439.578888
529.493617	6251.160000	1435.816406	513.686768
529.493617	6251.160000	1434.744141	540.676086
529.493617	6251.160000	1433.670898	222.411392
529.493617	6251.160000	1432.598633	426.681366
529.493617	6251.160000	1431.525391	467.886017
529.493617	6251.160000	1430.452148	368.516327
529.493617	6251.160000	1429.378906	515.420959
529.493617	6251.160000	1428.304688	592.316345
529.493617	6251.160000	1427.231445	202.729660
529.493617	6251.160000	1426.157227	290.634888
529.493617	6251.160000	1425.083008	385.156372
529.493617	6251.160000	1424.007813	466.632904
529.493617	6251.160000	1422.933594	449.026642
529.493617	6251.160000	1421.858398	473.615723
529.493617	6251.160000	1420.783203	183.186386
529.493617	6251.160000	1419.708008	364.555939
529.493617	6251.160000	1418.631836	515.654358
529.493617	6251.160000	1417.555664	491.951111
529.493617	6251.160000	1416.479492	324.780182
529.493617	6251.160000	1415.403320	490.301605
529.493617	6251.160000	1414.327148	428.720428
529.493617	6251.160000	1413.250000	472.196381
529.493617	6251.160000	1412.173828	301.524048
529.493617	6251.160000	1411.096680	500.856110
529.493617	6251.160000	1410.018555	382.089172
529.493617	6251.160000	1408.941406	539.188171
529.493617	6251.160000	1407.863281	646.388367
529.493617	6251.160000	1406.785156	612.785278
529.493617	6251.160000	1405.707031	739.847656
529.493617	6251.160000	1404.628906	685.386780
529.493617	6251.160000	1403.549805	606.430359
529.493617	6251.160000	1402.470703	668.534546
529.493617	6251.160000	1401.391602	726.304688
529.493617	6251.160000	1400.312500	783.969177
529.493617	6251.160000	1399.233398	751.403809
529.493617	6251.160000	1398.153320	948.279114
529.493617	6251.160000	1397.073242	640.758301
529.493617	6251.160000	1395.993164	767.219177
529.493617	6251.160000	1394.913086	922.473022
529.493617	6251.160000	1393.832031	800.282532
529.493617	6251.160000	1392.750977	703.351501
529.493617	6251.160000	1391.669922	755.456238
529.493617	6251.160000	1390.588867	701.709778
529.493617	6251.160000	1389.506836	843.205933
529.493617	6251.160000	1388.425781	601.832581
529.493617	6251.160000	1387.343750	539.853943
529.493617	6251.160000	1386.261719	601.355286
529.493617	6251.160000	1385.178711	773.264893
529.493617	6251.160000	1384.096680	411.428772
529.493617	6251.160000	1383.013672	349.791534
529.493617	6251.160000	1381.930664	404.671509
529.493617	6251.160000	1380.846680	567.495239
529.493617	6251.160000	1379.763672	374.225403
529.493617	6251.160000	1378.679688	395.046326
529.493617	6251.160000	1377.595703	482.228241
529.493617	6251.160000	1376.511719	584.344116
529.493617	6251.160000	1375.427734	451.142700
529.493617	6251.160000	1374.342773	404.906281
529.493617	6251.160000	1373.257813	387.951691
529.493617	6251.160000	1372.172852	369.182861
529.493617	6251.160000	1371.087891	242.135666
529.493617	6251.160000	1370.001953	50.057487
529.493617	6251.160000	1368.916992	292.985779
529.493617	6251.160000	1367.831055	415.798584
529.493617	6251.160000	1366.744141	335.001648
529.493617	6251.160000	1365.658203	356.997162
529.493617	6251.160000	1364.571289	274.276886
529.493617	6251.160000	1363.484375	341.661835
529.493617	6251.160000	1362.397461	297.797119
529.493617	6251.160000	1361.310547	470.244904
529.493617	6251.160000	1360.222656	448.774628
529.493617	6251.160000	1359.135742	484.408813
529.493617	6251.160000	1358.047852	400.684875
529.493617	6251.160000	1356.958984	513.661194
529.493617	6251.160000	1355.871094	378.034637
529.493617	6251.160000	1354.782227	341.043213
529.493617	6251.160000	1353.693359	464.521973
529.493617	6251.160000	1352.604492	574.781982
529.493617	6251.160000	1351.515625	510.995697
529.493617	6251.160000	1350.425781	321.391113
529.493617	6251.160000	1349.335938	296.177032
529.493617	6251.160000	1348.246094	450.621521
529.493617	6251.160000	1347.156250	500.642151
529.493617	6251.160000	1346.066406	576.501160
529.493617	6251.160000	1344.975586	414.943420
529.493617	6251.160000	1343.884766	465.689117
529.493617	6251.160000	1342.793945	377.578613
529.493617	6251.160000	1341.702148	426.838379
529.493617	6251.160000	1340.611328	139.342255
529.493617	6251.160000	1339.519531	481.426514
529.493617	6251.160000	1338.427734	162.588364
529.493617	6251.160000	1337.334961	352.283997
529.493617	6251.160000	1336.243164	332.556671
529.493617	6251.160000	1335.150391	447.658142
529.493617	6251.160000	1334.057617	284.022888
529.493617	6251.160000	1332.964844	102.395493
529.493617	6251.160000	1331.871094	213.708038
529.493617	6251.160000	1330.778320	163.490433
529.493617	6251.160000	1329.684570	193.876907
529.493617	6251.160000	1328.590820	124.728310
529.493617	6251.160000	1327.496094	178.779648
529.493617	6251.160000	1326.402344	99.782082
529.493617	6251.160000	1325.307617	248.775513
529.493617	6251.160000	1324.212891	173.358826
529.493617	6251.160000	1323.117188	167.937180
529.493617	6251.160000	1322.022461	159.986832
529.493617	6251.160000	1320.926758	495.065704
529.493617	6251.160000	1319.831055	90.718750
529.493617	6251.160000	1318.735352	165.108505
529.493617	6251.160000	1317.638672	114.110069
529.493617	6251.160000	1316.542969	229.450180
529.493617	6251.160000	1315.446289	160.833679
529.493617	6251.160000	1314.349609	213.619736
529.493617	6251.160000	1313.251953	364.677765
529.493617	6251.160000	1312.155273	443.670624
529.493617	6251.160000	1311.057617	320.737122
529.493617	6251.160000	1309.959961	489.502838
529.493617	6251.160000	1308.862305	265.293335
529.493617	6251.160000	1307.763672	286.779053
529.493617	6251.160000	1306.665039	393.398804
529.493617	6251.160000	1305.566406	454.770233
529.493617	6251.160000	1304.467773	288.154449
529.493617	6251.160000	1303.369141	260.921936
529.493617	6251.160000	1302.269531	395.979645
529.493617	6251.160000	1301.169922	323.862885
529.493617	6251.160000	1300.070313	418.343536
529.493617	6251.160000	1298.970703	374.816467
529.493617	6251.160000	1297.870117	252.947586
529.493617	6251.160000	1296.769531	399.946808
529.493617	6251.160000	1295.668945	457.295013
529.493617	6251.160000	1294.568359	348.742523
529.493617	6251.160000	1293.466797	416.757141
529.493617	6251.160000	1292.366211	166.432755
529.493617	6251.160000	1291.264648	235.580536
529.493617	6251.160000	1290.162109	342.935394
529.493617	6251.160000	1289.060547	103.655342
529.493617	6251.160000	1287.958008	103.785278
529.493617	6251.160000	1286.855469	189.896072
529.493617	6251.160000	1285.752930	110.291779
529.493617	6251.160000	1284.650391	237.134872
529.493617	6251.160000	1283.546875	247.870972
529.493617	6251.160000	1282.444336	23.718262
529.493617	6251.160000	1281.339844	-70.639259
529.493617	6251.160000	1280.236328	26.998884
529.493617	6251.160000	1279.132813	44.165276
529.493617	6251.160000	1278.028320	141.299850
529.493617	6251.160000	1276.923828	109.468285
529.493617	6251.160000	1275.819336	-5.452128
529.493617	6251.160000	1274.713867	19.989370
529.493617	6251.160000	1273.608398	109.230438
529.493617	6251.160000	1272.503906	-3.479863
529.493617	6251.160000	1271.397461	141.575485
529.493617	6251.160000	1270.291992	-3.139211
529.493617	6251.160000	1269.185547	-9.288982
529.493617	6251.160000	1268.080078	-39.452343
529.493617	6251.160000	1266.972656	-0.983241
529.493617	6251.160000	1265.866211	33.941673
529.493617	6251.160000	1264.759766	199.458862
529.493617	6251.160000	1263.652344	27.149225
529.493617	6251.160000	1262.544922	-3.484430
529.493617	6251.160000	1261.436523	218.278488
529.493617	6251.160000	1260.329102	33.167702
529.493617	6251.160000	1259.220703	-28.871021
529.493617	6251.160000	1258.112305	-116.494148
529.493617	6251.160000	1257.003906	-178.267761
529.493617	6251.160000	1255.895508	-72.679840
529.493617	6251.160000	1254.786133	-127.244995
529.493617	6251.160000	1253.676758	-98.213547
529.493617	6251.160000	1252.567383	-39.486546
529.493617	6251.160000	1251.458008	-138.518738
529.493617	6251.160000	1250.347656	-165.945786
529.493617	6251.160000	1249.237305	-142.238770
529.493617	6251.160000	1248.126953	-252.464767
529.493617	6251.160000	1247.016602	-105.243553
529.493617	6251.160000	1245.905273	-157.212692
529.493617	6251.160000	1244.793945	-47.698784
529.493617	6251.160000	1243.682617	-70.117538
529.493617	6251.160000	1242.571289	-112.411011
529.493617	6251.160000	1241.459961	-49.417732
529.493617	6251.160000	1240.347656	36.082230
529.493617	6251.160000	1239.235352	-93.324722
529.493617	6251.160000	1238.123047	-44.031818
529.493617	6251.160000	1237.009766	-13.537827
529.493617	6251.160000	1235.897461	-92.230919
529.493617	6251.160000	1234.784180	-76.670494
529.493617	6251.160000	1233.670898	-120.050468
529.493617	6251.160000	1232.556641	-137.408646
529.493617	6251.160000	1231.443359	-105.983841
529.493617	6251.160000	1230.329102	-140.793381
529.493617	6251.160000	1229.214844	-110.282211
529.493617	6251.160000	1228.099609	-63.850391
529.493617	6251.160000	1226.985352	25.675320
529.493617	6251.160000	1225.870117	-91.425484
529.493617	6251.160000	1224.754883	61.045807
529.493617	6251.160000	1223.639648	-22.234678
529.493617	6251.160000	1222.523438	-142.360352
529.493617	6251.160000	1221.408203	47.478722
529.493617	6251.160000	1220.291992	58.684254
529.493617	6251.160000	1219.174805	122.823982
529.493617	6251.160000	1218.058594	45.272278
529.493617	6251.160000	1216.941406	-62.008575
529.493617	6251.160000	1215.824219	-17.243813
529.493617	6251.160000	1214.707031	-77.432098
529.493617	6251.160000	1213.589844	-33.509583
529.493617	6251.160000	1212.471680	-53.667324
529.493617	6251.160000	1211.353516	63.558922
529.493617	6251.160000	1210.235352	-41.714268
529.493617	6251.160000	1209.117188	-31.425974
529.493617	6251.160000	1207.998047	-79.719391
529.493617	6251.160000	1206.878906	72.334572
529.493617	6251.160000	1205.759766	121.317360
529.493617	6251.160000	1204.640625	97.552589
529.493617	6251.160000	1203.520508	141.914627
529.493617	6251.160000	1202.401367	66.585587
529.493617	6251.160000	1201.281250	173.446625
529.493617	6251.160000	1200.160156	140.100647
529.493617	6251.160000	1199.040039	38.431973
529.493617	6251.160000	1197.918945	71.801208
529.493617	6251.160000	1196.797852	39.632641
529.493617	6251.160000	1195.676758	6.140556
529.493617	6251.160000	1194.555664	112.591957
529.493617	6251.160000	1193.433594	163.936356
529.493617	6251.160000	1192.311523	78.272911
529.493617	6251.160000	1191.189453	-115.721214
529.493617	6251.160000	1190.066406	26.245270
529.493617	6251.160000	1188.944336	-75.208755
529.493617	6251.160000	1187.821289	-44.495289
529.493617	6251.160000	1186.698242	-165.979950
529.493617	6251.160000	1185.574219	-98.484787
529.493617	6251.160000	1184.451172	-29.378090
529.493617	6251.160000	1183.327148	64.629219
529.493617	6251.160000	1182.203125	32.381531
529.493617	6251.160000	1181.078125	30.949356
529.493617	6251.160000	1179.954102	-84.510086
529.493617	6251.160000	1178.829102	-53.364082
529.493617	6251.160000	1177.704102	-129.645096
529.493617	6251.160000	1176.579102	41.392448
529.493617	6251.160000	1175.453125	81.366837
529.493617	6251.160000	1174.327148	-17.757277
529.493617	6251.160000	1173.201172	203.349686
529.493617	6251.160000	1172.075195	167.501709
529.493617	6251.160000	1170.949219	185.698257
529.493617	6251.160000	1169.822266	60.605427
529.493617	6251.160000	1168.695313	217.320786
529.493617	6251.160000	1167.568359	170.736435
529.493617	6251.160000	1166.440430	173.208817
529.493617	6251.160000	1165.313477	-59.416817
529.493617	6251.160000	1164.185547	33.743771
529.493617	6251.160000	1163.057617	-3.774207
529.493617	6251.160000	1161.928711	-34.433731
529.493617	6251.160000	1160.800781	-38.640308
529.493617	6251.160000	1159.671875	62.354378
529.493617	6251.160000	1158.541992	-13.303705
529.493617	6251.160000	1157.413086	39.740837
529.493617	6251.160000	1156.283203	1.127782
529.493617	6251.160000	1155.154297	-32.605721
529.493617	6251.160000	1154.023438	-157.976044
529.493617	6251.160000	1152.893555	46.041138
529.493617	6251.160000	1151.763672	-104.698914
529.493617	6251.160000	1150.632813	74.000786
529.493617	6251.160000	1149.501953	-30.252924
529.493617	6251.160000	1148.370117	258.786682
529.493617	6251.160000	1147.239258	68.843704
529.493617	6251.160000	1146.107422	115.296722
529.493617	6251.160000	1144.975586	193.629684
529.493617	6251.160000	1143.843750	252.256256
529.493617	6251.160000	1142.710938	109.058800
529.493617	6251.160000	1141.578125	204.327011
529.493617	6251.160000	1140.445313	72.389633
529.493617	6251.160000	1139.312500	197.086151
529.493617	6251.160000	1138.178711	35.525375
529.493617	6251.160000	1137.045898	131.912415
529.493617	6251.160000	1135.912109	182.575607
529.493617	6251.160000	1134.777344	142.512527
529.493617	6251.160000	1133.643555	89.803528
529.493617	6251.160000	1132.508789	354.715210
529.493617	6251.160000	1131.374023	394.487793
529.493617	6251.160000	1130.239258	572.598511
529.493617	6251.160000	1129.104492	648.221802
529.493617	6251.160000	1127.968750	666.009216
529.493617	6251.160000	1126.833008	456.644592
529.493617	6251.160000	1125.697266	502.323792
529.493617	6251.160000	1124.560547	724.124084
529.493617	6251.160000	1123.424805	487.621582
529.493617	6251.160000	1122.288086	676.063782
529.493617	6251.160000	1121.151367	720.688293
529.493617	6251.160000	1120.013672	588.098572
529.493617	6251.160000	1118.876953	429.713867
529.493617	6251.160000	1117.739258	420.701263
529.493617	6251.160000	1116.601563	262.137482
529.493617	6251.160000	1115.462891	292.585785
529.493617	6251.160000	1114.324219	336.571198
529.493617	6251.160000	1113.186523	389.407898
529.493617	6251.160000	1112.046875	168.345734
529.493617	6251.160000	1110.908203	199.818970
529.493617	6251.160000	1109.769531	344.428009
529.493617	6251.160000	1108.629883	157.112946
529.493617	6251.160000	1107.490234	226.323807
529.493617	6251.160000	1106.349609	88.532852
529.493617	6251.160000	1105.209961	224.165054
529.493617	6251.160000	1104.069336	346.871155
529.493617	6251.160000	1102.928711	204.986099
529.493617	6251.160000	1101.787109	330.171509
529.493617	6251.160000	1100.646484	476.801880
529.493617	6251.160000	1099.504883	613.792297
529.493617	6251.160000	1098.363281	517.686951
529.493617	6251.160000	1097.221680	743.411377
529.493617	6251.160000	1096.079102	484.190552
529.493617	6251.160000	1094.936523	517.289368
529.493617	6251.160000	1093.793945	551.317139
529.493617	6251.160000	1092.651367	541.111572
529.493617	6251.160000	1091.507813	544.951111
529.493617	6251.160000	1090.364258	470.365601
529.493617	6251.160000	1089.220703	464.832428
529.493617	6251.160000	1088.077148	413.252869
529.493617	6251.160000	1086.933594	467.745941
529.493617	6251.160000	1085.789063	200.227646
529.493617	6251.160000	1084.644531	218.200638
529.493617	6251.160000	1083.499023	169.621887
529.493617	6251.160000	1082.354492	125.698273
529.493617	6251.160000	1081.208984	163.701172
529.493617	6251.160000	1080.063477	158.515259
529.493617	6251.160000	1078.917969	353.976440
529.493617	6251.160000	1077.771484	88.972084
529.493617	6251.160000	1076.625977	170.257431
529.493617	6251.160000	1075.479492	116.868095
529.493617	6251.160000	1074.332031	128.975784
529.493617	6251.160000	1073.185547	117.216805
529.493617	6251.160000	1072.038086	220.228134
529.493617	6251.160000	1070.890625	-6.867890
529.493617	6251.160000	1069.743164	165.232437
529.493617	6251.160000	1068.594727	66.003174
529.493617	6251.160000	1067.447266	216.108398
529.493617	6251.160000	1066.298828	260.654449
529.493617	6251.160000	1065.149414	441.941925
529.493617	6251.160000	1064.000977	358.821747
529.493617	6251.160000	1062.851563	385.402893
529.493617	6251.160000	1061.702148	434.209503
529.493617	6251.160000	1060.552734	362.469086
529.493617	6251.160000	1059.402344	289.844910
529.493617	6251.160000	1058.252930	288.561279
529.493617	6251.160000	1057.102539	360.583282
529.493617	6251.160000	1055.951172	254.077866
529.493617	6251.160000	1054.800781	26.221743
529.493617	6251.160000	1053.649414	53.043255
529.493617	6251.160000	1052.498047	213.358856
529.493617	6251.160000	1051.346680	185.865845
529.493617	6251.160000	1050.194336	329.194000
529.493617	6251.160000	1049.042969	141.004852
529.493617	6251.160000	1047.890625	201.176941
529.493617	6251.160000	1046.738281	144.662704
529.493617	6251.160000	1045.584961	-105.059662
529.493617	6251.160000	1044.431641	25.203598
529.493617	6251.160000	1043.278320	142.378342
529.493617	6251.160000	1042.125000	31.161921
529.493617	6251.160000	1040.971680	264.930420
529.493617	6251.160000	1039.817383	152.510513
529.493617	6251.160000	1038.663086	-48.500530
529.493617	6251.160000	1037.508789	13.801707
529.493617	6251.160000	1036.353516	86.947899
529.493617	6251.160000	1035.198242	-26.962599
529.493617	6251.160000	1034.042969	337.101593
529.493617	6251.160000	1032.887695	97.803665
529.493617	6251.160000	1031.732422	161.329315
529.493617	6251.160000	1030.576172	198.201233
529.493617	6251.160000	1029.419922	66.820747
529.493617	6251.160000	1028.263672	146.578629
529.493617	6251.160000	1027.106445	119.116600
529.493617	6251.160000	1025.949219	-32.399223
529.493617	6251.160000	1024.792969	161.552887
529.493617	6251.160000	1023.634766	84.078278
529.493617	6251.160000	1022.477539	-10.500334
529.493617	6251.160000	1021.319336	61.917492
529.493617	6251.160000	1020.161133	84.197289
529.493617	6251.160000	1019.002930	-95.250595
529.493617	6251.160000	1017.843750	118.226990
529.493617	6251.160000	1016.684570	106.227173
529.493617	6251.160000	1015.525391	-250.730331
529.493617	6251.160000	1014.366211	-20.626801
529.493617	6251.160000	1013.207031	-116.731560
529.493617	6251.160000	1012.046875	80.048828
529.493617	6251.160000	1010.886719	-87.815285
529.493617	6251.160000	1009.726563	47.083538
529.493617	6251.160000	1008.565430	-206.363525
529.493617	6251.160000	1007.404297	-76.712364
529.493617	6251.160000	1006.243164	122.044067
529.493617	6251.160000	1005.082031	130.552475
529.493617	6251.160000	1003.920898	102.812103
529.493617	6251.160000	1002.758789	-115.721588
529.493617	6251.160000	1001.596680	-88.486122
529.493617	6251.160000	1000.433594	37.615509
529.493617	6251.160000	999.271484	-40.236046
529.493617	6251.160000	998.108398	-100.224953
529.493617	6251.160000	996.945313	-14.882333
529.493617	6251.160000	995.782227	115.751030
529.493617	6251.160000	994.618164	102.428230
529.493617	6251.160000	993.454102	30.264751
529.493617	6251.160000	992.290039	58.602627
529.493617	6251.160000	991.125977	33.322956
529.493617	6251.160000	989.960938	-15.159179
529.493617	6251.160000	988.796875	60.396107
529.493617	6251.160000	987.630859	-46.586849
529.493617	6251.160000	986.465820	96.316750
529.493617	6251.160000	985.300781	325.497528
529.493617	6251.160000	984.134766	80.811859
529.493617	6251.160000	982.968750	11.097172
529.493617	6251.160000	981.801758	119.080849
529.493617	6251.160000	980.635742	63.896805
529.493617	6251.160000	979.468750	32.188927
529.493617	6251.160000	978.301758	-71.170021
529.493617	6251.160000	977.133789	-0.494777
529.493617	6251.160000	975.966797	-42.362118
529.493617	6251.160000	974.798828	-15.811013
529.493617	6251.160000	973.630859	33.192570
529.493617	6251.160000	972.461914	-213.697479
529.493617	6251.160000	971.293945	-16.890703
529.493617	6251.160000	970.125000	120.565895
529.493617	6251.160000	968.956055	-51.941002
529.493617	6251.160000	967.786133	-67.464653
529.493617	6251.160000	966.617188	10.447970
529.493617	6251.160000	965.447266	92.975189
529.493617	6251.160000	964.276367	48.125980
529.493617	6251.160000	963.106445	16.695341
529.493617	6251.160000	961.935547	49.916115
529.493617	6251.160000	960.764648	21.462320
529.493617	6251.160000	959.593750	69.071541
529.493617	6251.160000	958.422852	-13.910248
529.493617	6251.160000	957.250977	-295.107849
529.493617	6251.160000	956.079102	-142.110794
529.493617	6251.160000	954.907227	-242.515503
529.493617	6251.160000	953.734375	-116.386299
529.493617	6251.160000	952.562500	89.867241
529.493617	6251.160000	951.389648	-85.278412
529.493617	6251.160000	950.215820	-103.769341
529.493617	6251.160000	949.042969	1.992844
529.493617	6251.160000	947.869141	-140.141510
529.493617	6251.160000	946.695313	-163.213867
529.493617	6251.160000	945.521484	93.867851
529.493617	6251.160000	944.346680	-175.873047
529.493617	6251.160000	943.172852	-121.606430
529.493617	6251.160000	941.998047	-94.439270
529.493617	6251.160000	940.822266	-67.104752
529.493617	6251.160000	939.647461	-80.450371
529.493617	6251.160000	938.471680	-0.026585
529.493617	6251.160000	937.295898	5.645841
529.493617	6251.160000	936.119141	112.507065
529.493617	6251.160000	934.943359	234.141418
529.493617	6251.160000	933.766602	94.627151
529.493617	6251.160000	932.589844	187.017807
529.493617	6251.160000	931.413086	238.360535
529.493617	6251.160000	930.235352	200.276031
529.493617	6251.160000	929.057617	297.416504
529.493617	6251.160000	927.879883	107.137726
529.493617	6251.160000	926.702148	361.060028
529.493617	6251.160000	925.523438	262.587250
529.493617	6251.160000	924.344727	284.724213
529.493617	6251.160000	923.166016	333.380371
529.493617	6251.160000	921.987305	374.758118
529.493617	6251.160000	920.807617	377.519928
529.493617	6251.160000	919.627930	380.046753
529.493617	6251.160000	919.497070	156.318787
529.493617	6251.160000	918.331055	127.709167
529.493617	6251.160000	917.165039	-93.708611
529.493617	6251.160000	915.999023	51.177990
529.493617	6251.160000	914.833008	145.394592
529.493617	6251.160000	913.666016	150.436539
529.493617	6251.160000	912.499023	-179.256531
529.493617	6251.160000	911.332031	95.445457
529.493617	6251.160000	910.165039	76.356201
529.493617	6251.160000	908.997070	-120.827843
529.493617	6251.160000	907.830078	-173.593704
529.493617	6251.160000	906.661133	-17.073191
529.493617	6251.160000	905.493164	7.080761
529.493617	6251.160000	904.325195	-110.665894
529.493617	6251.160000	903.156250	86.550194
529.493617	6251.160000	901.987305	-50.433773
529.493617	6251.160000	900.818359	33.701733
529.493617	6251.160000	899.648438	-132.087234
529.493617	6251.160000	898.478516	-91.247612
529.493617	6251.160000	897.308594	-122.494041
529.493617	6251.160000	896.138672	139.190247
529.493617	6251.160000	894.968750	143.878647
529.493617	6251.160000	893.797852	129.345505
529.493617	6251.160000	892.626953	-79.574806
529.493617	6251.160000	891.456055	66.649132
529.493617	6251.160000	890.284180	136.036682
529.493617	6251.160000	889.113281	238.949966
529.493617	6251.160000	887.941406	183.554474
529.493617	6251.160000	886.768555	149.738998
529.493617	6251.160000	885.596680	173.437988
529.493617	6251.160000	884.423828	180.335403
529.493617	6251.160000	883.250977	67.424904
529.493617	6251.160000	882.078125	-47.854881
529.493617	6251.160000	880.905273	16.503002
529.493617	6251.160000	879.731445	133.490402
529.493617	6251.160000	878.557617	188.174271
529.493617	6251.160000	877.383789	249.996140
529.493617	6251.160000	876.209961	225.633850
529.493617	6251.160000	875.035156	12.270587
529.493617	6251.160000	873.860352	222.331741
529.493617	6251.160000	872.685547	348.591827
529.493617	6251.160000	871.510742	178.316574
529.493617	6251.160000	870.334961	-61.226944
529.493617	6251.160000	869.159180	-59.311523
529.493617	6251.160000	867.983398	-59.804272
529.493617	6251.160000	866.807617	-45.981476
529.493617	6251.160000	865.630859	-3.519495
529.493617	6251.160000	864.454102	-4.074872
529.493617	6251.160000	863.277344	43.100502
529.493617	6251.160000	862.100586	-0.464018
529.493617	6251.160000	860.922852	-220.624557
529.493617	6251.160000	859.745117	-149.624527
529.493617	6251.160000	858.567383	-33.346691
529.493617	6251.160000	857.389648	-107.932632
529.493617	6251.160000	856.210938	-146.737549
529.493617	6251.160000	855.032227	2.793983
529.493617	6251.160000	853.853516	-93.255966
529.493617	6251.160000	852.674805	-158.304367
529.493617	6251.160000	851.495117	-128.040527
529.493617	6251.160000	850.315430	-31.110098
529.493617	6251.160000	849.135742	-22.352942
529.493617	6251.160000	847.956055	-142.194839
529.493617	6251.160000	846.775391	-138.213821
529.493617	6251.160000	845.595703	49.013721
529.493617	6251.160000	844.415039	-92.235687
529.493617	6251.160000	843.233398	59.186333
529.493617	6251.160000	842.052734	3.587234
529.493617	6251.160000	840.871094	55.011036
529.493617	6251.160000	839.689453	-38.640015
529.493617	6251.160000	838.506836	-18.165762
529.493617	6251.160000	837.325195	-73.771362
529.493617	6251.160000	836.142578	317.348785
529.493617	6251.160000	834.959961	92.988602
529.493617	6251.160000	833.777344	80.095238
529.493617	6251.160000	832.593750	45.817017
529.493617	6251.160000	831.410156	37.651943
529.493617	6251.160000	830.226563	145.784515
529.493617	6251.160000	829.042969	223.001755
529.493617	6251.160000	827.858398	39.167694
529.493617	6251.160000	826.673828	30.937616
529.493617	6251.160000	825.489258	-19.999128
529.493617	6251.160000	824.304688	12.061457
529.493617	6251.160000	823.120117	-12.808475
529.493617	6251.160000	821.934570	-203.609238
529.493617	6251.160000	820.749023	131.750031
529.493617	6251.160000	819.562500	-163.288651
529.493617	6251.160000	818.376953	-93.425140
529.493617	6251.160000	817.190430	71.125084
529.493617	6251.160000	816.003906	-91.176949
529.493617	6251.160000	814.817383	-220.289383
529.493617	6251.160000	813.629883	-141.081833
529.493617	6251.160000	812.442383	-9.865695
529.493617	6251.160000	811.254883	-72.729027
529.493617	6251.160000	810.067383	216.860229
529.493617	6251.160000	808.878906	210.693527
529.493617	6251.160000	807.690430	261.254425
529.493617	6251.160000	806.501953	441.791748
529.493617	6251.160000	805.313477	345.706696
529.493617	6251.160000	804.124023	282.723267
529.493617	6251.160000	802.934570	297.704895
529.493617	6251.160000	801.745117	222.903366
529.493617	6251.160000	800.555664	98.518661
529.493617	6251.160000	799.365234	37.910408
529.493617	6251.160000	798.175781	50.480778
529.493617	6251.160000	796.985352	70.103493
529.493617	6251.160000	795.793945	87.335892
529.493617	6251.160000	794.603516	78.588051
529.493617	6251.160000	793.412109	279.733582
529.493617	6251.160000	792.220703	134.133133
529.493617	6251.160000	791.028320	148.885468
529.493617	6251.160000	789.836914	250.819717
529.493617	6251.160000	788.644531	338.548584
529.493617	6251.160000	787.452148	256.573425
529.493617	6251.160000	786.258789	73.315147
529.493617	6251.160000	785.066406	92.649902
529.493617	6251.160000	783.873047	20.119892
529.493617	6251.160000	782.679688	46.468746
529.493617	6251.160000	781.485352	39.828186
529.493617	6251.160000	780.291992	124.938789
529.493617	6251.160000	779.097656	125.289848
529.493617	6251.160000	777.903320	111.500046
529.493617	6251.160000	776.708008	219.978348
529.493617	6251.160000	775.512695	220.226288
529.493617	6251.160000	774.318359	166.378296
529.493617	6251.160000	773.122070	255.890244
529.493617	6251.160000	771.926758	491.023438
529.493617	6251.160000	770.730469	183.342010
529.493617	6251.160000	769.534180	432.425720
529.493617	6251.160000	768.337891	-16.074345
529.493617	6251.160000	767.141602	-107.548195
529.493617	6251.160000	765.944336	115.529129
529.493617	6251.160000	764.747070	68.593910
529.493617	6251.160000	763.549805	28.686838
529.493617	6251.160000	762.351563	167.050537
529.493617	6251.160000	761.154297	28.569845
529.493617	6251.160000	759.956055	-55.954266
529.493617	6251.160000	758.757813	236.975143
529.493617	6251.160000	757.558594	107.842796
529.493617	6251.160000	756.359375	320.871246
529.493617	6251.160000	755.160156	503.319946
529.493617	6251.160000	753.960938	427.987335
529.493617	6251.160000	752.761719	418.226624
529.493617	6251.160000	751.561523	204.726471
529.493617	6251.160000	750.361328	145.784744
529.493617	6251.160000	749.160156	182.792206
529.493617	6251.160000	747.959961	165.928207
529.493617	6251.160000	746.758789	74.168869
529.493617	6251.160000	745.557617	351.979218
529.493617	6251.160000	744.356445	28.629387
529.493617	6251.160000	743.154297	292.229706
529.493617	6251.160000	741.952148	221.408340
529.493617	6251.160000	740.750000	260.421753
529.493617	6251.160000	739.547852	-69.803627
529.493617	6251.160000	738.344727	268.197845
529.493617	6251.160000	737.142578	-106.346100
529.493617	6251.160000	735.939453	128.696381
529.493617	6251.160000	734.735352	204.842422
529.493617	6251.160000	733.532227	140.867783
529.493617	6251.160000	732.328125	214.564285
529.493617	6251.160000	731.124023	260.190247
529.493617	6251.160000	729.918945	154.129059
529.493617	6251.160000	728.714844	-21.895958
529.493617	6251.160000	727.509766	214.823730
529.493617	6251.160000	726.303711	73.740799
529.493617	6251.160000	725.098633	198.379517
529.493617	6251.160000	723.892578	68.921883
529.493617	6251.160000	722.686523	93.239716
529.493617	6251.160000	721.480469	33.649086
529.493617	6251.160000	720.274414	102.121323
529.493617	6251.160000	719.067383	79.714340
529.493617	6251.160000	717.860352	178.317703
529.493617	6251.160000	716.653320	-28.047430
529.493617	6251.160000	715.445313	121.633766
529.493617	6251.160000	714.238281	-194.064957
529.493617	6251.160000	713.030273	-44.506168
529.493617	6251.160000	711.821289	51.457142
529.493617	6251.160000	710.613281	-20.059053
529.493617	6251.160000	709.404297	13.003347
529.493617	6251.160000	708.195313	34.382858
529.493617	6251.160000	706.986328	-169.667908
529.493617	6251.160000	705.776367	88.581413
529.493617	6251.160000	704.566406	-73.692039
529.493617	6251.160000	703.356445	-208.084290
529.493617	6251.160000	702.146484	-42.999931
529.493617	6251.160000	700.935547	-233.149170
529.493617	6251.160000	699.724609	22.268351
529.493617	6251.160000	698.513672	-91.357056
529.493617	6251.160000	697.302734	13.049528
529.493617	6251.160000	696.090820	75.615662
529.493617	6251.160000	694.878906	179.836182
529.493617	6251.160000	693.666992	91.561417
529.493617	6251.160000	692.455078	-8.318292
529.493617	6251.160000	691.242188	-96.626686
529.493617	6251.160000	690.029297	-85.336517
529.493617	6251.160000	688.816406	18.539267
529.493617	6251.160000	687.602539	173.259811
529.493617	6251.160000	686.389648	165.801193
529.493617	6251.160000	685.175781	262.448486
529.493617	6251.160000	683.960938	564.960144
529.493617	6251.160000	682.747070	552.628906
529.493617	6251.160000	681.532227	429.210327
529.493617	6251.160000	680.317383	345.105103
529.493617	6251.160000	679.102539	323.408752
529.493617	6251.160000	677.886719	241.556870
529.493617	6251.160000	676.670898	187.418076
529.493617	6251.160000	675.455078	128.623047
529.493617	6251.160000	674.239258	79.036858
529.493617	6251.160000	673.022461	124.113510
529.493617	6251.160000	671.805664	25.936687
529.493617	6251.160000	670.588867	59.346073
529.493617	6251.160000	669.372070	212.716537
529.493617	6251.160000	668.154297	220.567383
529.493617	6251.160000	666.936523	110.680710
529.493617	6251.160000	665.718750	173.798615
529.493617	6251.160000	664.500977	165.332123
529.493617	6251.160000	663.282227	-62.253330
529.493617	6251.160000	662.063477	88.287483
529.493617	6251.160000	660.844727	141.897858
529.493617	6251.160000	659.625000	149.335114
529.493617	6251.160000	658.405273	-41.430767
529.493617	6251.160000	657.185547	-174.588287
529.493617	6251.160000	655.965820	-75.148232
529.493617	6251.160000	654.745117	169.245224
529.493617	6251.160000	653.525391	-28.507385
529.493617	6251.160000	652.303711	-39.819122
529.493617	6251.160000	651.083008	-106.407776
529.493617	6251.160000	649.861328	100.735001
529.493617	6251.160000	648.640625	-145.379486
529.493617	6251.160000	647.417969	29.366455
529.493617	6251.160000	646.196289	238.468491
529.493617	6251.160000	644.973633	247.440521
529.493617	6251.160000	643.750977	12.748343
529.493617	6251.160000	642.528320	-3.629467
529.493617	6251.160000	641.305664	55.745667
529.493617	6251.160000	640.082031	291.875641
529.493617	6251.160000	638.858398	11.206903
529.493617	6251.160000	637.634766	242.535507
529.493617	6251.160000	636.410156	101.880814
529.493617	6251.160000	635.185547	34.656265
529.493617	6251.160000	633.960938	116.527061
529.493617	6251.160000	632.736328	21.684782
529.493617	6251.160000	631.510742	85.055885
529.493617	6251.160000	630.285156	304.248383
529.493617	6251.160000	629.059570	62.540802
529.493617	6251.160000	627.833984	36.306412
529.493617	6251.160000	626.607422	71.885612
529.493617	6251.160000	625.380859	45.539948
529.493617	6251.160000	624.154297	113.051910
529.493617	6251.160000	622.927734	93.462784
529.493617	6251.160000	621.700195	44.057182
529.493617	6251.160000	620.472656	95.327347
529.493617	6251.160000	619.245117	82.444481
529.493617	6251.160000	618.016602	85.520256
529.493617	6251.160000	616.788086	42.790249
529.493617	6251.160000	615.559570	36.613205
529.493617	6251.160000	614.331055	-104.518333
529.493617	6251.160000	613.101563	-5.621723
529.493617	6251.160000	611.872070	90.891373
529.493617	6251.160000	610.642578	-93.746223
529.493617	6251.160000	609.413086	-123.012634
529.493617	6251.160000	608.182617	21.261204
529.493617	6251.160000	606.952148	85.495872
529.493617	6251.160000	605.721680	-74.089439
529.493617	6251.160000	604.491211	-14.533334
529.493617	6251.160000	603.259766	42.658329
529.493617	6251.160000	602.028320	65.549896
529.493617	6251.160000	600.796875	-50.767330
529.493617	6251.160000	599.564453	-46.218220
529.493617	6251.160000	598.332031	6.161135
529.493617	6251.160000	597.099609	-89.709801
529.493617	6251.160000	595.867188	26.374599
529.493617	6251.160000	594.633789	17.026461
529.493617	6251.160000	593.400391	-115.388748
529.493617	6251.160000	592.166992	-165.797211
529.493617	6251.160000	590.933594	-138.806732
529.493617	6251.160000	589.699219	47.493530
529.493617	6251.160000	588.464844	-71.352043
529.493617	6251.160000	587.230469	-21.784241
529.493617	6251.160000	585.995117	32.261051
529.493617	6251.160000	584.760742	140.841034
529.493617	6251.160000	583.525391	106.042313
529.493617	6251.160000	582.289063	-124.340622
529.493617	6251.160000	581.053711	-59.126328
529.493617	6251.160000	579.817383	-132.632660
529.493617	6251.160000	578.581055	34.724148
529.493617	6251.160000	577.343750	-36.587639
529.493617	6251.160000	576.107422	-32.944897
529.493617	6251.160000	574.870117	-11.182293
529.493617	6251.160000	573.631836	-166.568726
529.493617	6251.160000	572.394531	59.433186
529.493617	6251.160000	571.156250	26.574560
529.493617	6251.160000	569.917969	179.751923
529.493617	6251.160000	568.679688	-5.181451
529.493617	6251.160000	567.440430	-126.571892
529.493617	6251.160000	566.202148	-73.337799
529.493617	6251.160000	564.961914	156.658020
529.493617	6251.160000	563.722656	48.809181
529.493617	6251.160000	562.482422	18.014961
529.493617	6251.160000	561.243164	-17.321550
529.493617	6251.160000	560.001953	248.573303
529.493617	6251.160000	558.761719	253.899094
529.493617	6251.160000	557.520508	-55.531017
529.493617	6251.160000	556.279297	-13.989146
529.493617	6251.160000	555.038086	127.087982
529.493617	6251.160000	553.795898	10.123371
529.493617	6251.160000	552.554688	-36.681747
529.493617	6251.160000	551.311523	79.339447
529.493617	6251.160000	550.069336	131.977737
529.493617	6251.160000	548.826172	105.435715
529.493617	6251.160000	547.583984	119.573883
529.493617	6251.160000	546.339844	0.343060
529.493617	6251.160000	545.096680	-143.705048
529.493617	6251.160000	543.852539	-73.129730
529.493617	6251.160000	542.608398	-68.096497
529.493617	6251.160000	541.364258	-20.186642
529.493617	6251.160000	540.119141	-60.359180
529.493617	6251.160000	538.875000	-98.269073
529.493617	6251.160000	537.628906	69.139671
529.493617	6251.160000	536.383789	-61.315426
529.493617	6251.160000	535.137695	-266.167480
529.493617	6251.160000	533.892578	-173.284332
529.493617	6251.160000	532.645508	-60.179443
529.493617	6251.160000	531.399414	-233.386810
529.493617	6251.160000	530.152344	3.598400
529.493617	6251.160000	528.905273	55.722004
529.493617	6251.160000	527.658203	-97.170654
529.493617	6251.160000	526.410156	-42.826908
529.493617	6251.160000	525.163086	52.018242
529.493617	6251.160000	523.914063	11.733855
529.493617	6251.160000	522.666016	108.750801
529.493617	6251.160000	521.416992	43.700680
529.493617	6251.160000	520.167969	-124.813583
529.493617	6251.160000	518.918945	-36.859879
529.493617	6251.160000	517.669922	-56.887947
529.493617	6251.160000	516.419922	-38.701969
529.493617	6251.160000	515.169922	-90.209846
529.493617	6251.160000	513.919922	103.245033
529.493617	6251.160000	512.668945	-13.446287
529.493617	6251.160000	511.417969	-53.721096
529.493617	6251.160000	510.166992	81.186493
529.493617	6251.160000	508.916016	-75.858040
529.493617	6251.160000	507.664063	-93.668892
529.493617	6251.160000	506.412109	-136.164917
529.493617	6251.160000	505.160156	-17.090149
529.493617	6251.160000	503.907227	32.377834
529.493617	6251.160000	502.655273	88.554337
529.493617	6251.160000	501.402344	90.876999
529.493617	6251.160000	500.148438	7.994205
529.493617	6251.160000	498.895508	-41.230057
529.493617	6251.160000	497.641602	102.277458
529.493617	6251.160000	496.387695	97.846535
529.493617	6251.160000	495.132813	207.643982
529.493617	6251.160000	493.878906	100.162491
529.493617	6251.160000	492.624023	-49.827648
529.493617	6251.160000	491.368164	-121.416733
529.493617	6251.160000	490.113281	15.163164
529.493617	6251.160000	488.857422	-47.475105
529.493617	6251.160000	487.601563	-145.887894
529.493617	6251.160000	486.344727	-65.345383
529.493617	6251.160000	485.088867	131.437683
529.493617	6251.160000	483.832031	-18.407570
529.493617	6251.160000	482.575195	-0.561815
529.493617	6251.160000	481.317383	39.602913
529.493617	6251.160000	480.059570	90.907761
529.493617	6251.160000	478.801758	238.225601
529.493617	6251.160000	477.543945	432.360870
529.493617	6251.160000	476.285156	144.112061
529.493617	6251.160000	475.027344	74.738480
529.493617	6251.160000	473.767578	355.754242
529.493617	6251.160000	472.508789	210.449783
529.493617	6251.160000	471.249023	281.569427
529.493617	6251.160000	469.989258	392.779358
529.493617	6251.160000	468.729492	323.293579
529.493617	6251.160000	467.469727	209.220367
529.493617	6251.160000	466.208984	382.687408
529.493617	6251.160000	464.948242	163.841003
529.493617	6251.160000	463.686523	346.077087
529.493617	6251.160000	462.425781	225.267593
529.493617	6251.160000	461.164063	434.055023
529.493617	6251.160000	459.901367	435.636841
529.493617	6251.160000	458.639648	239.060501
529.493617	6251.160000	457.376953	144.887955
529.493617	6251.160000	456.114258	155.281387
529.493617	6251.160000	454.851563	312.435852
529.493617	6251.160000	453.587891	493.919800
529.493617	6251.160000	452.324219	317.259369
529.493617	6251.160000	451.060547	474.079834
529.493617	6251.160000	449.796875	468.507294
529.493617	6251.160000	448.532227	453.965851
529.493617	6251.160000	447.267578	550.436279
529.493617	6251.160000	446.002930	635.676086
529.493617	6251.160000	444.737305	414.321533
529.493617	6251.160000	443.471680	683.647095
529.493617	6251.160000	442.206055	728.561035
529.493617	6251.160000	440.940430	535.887512
529.493617	6251.160000	439.673828	680.442444
529.493617	6251.160000	438.407227	618.516479
529.493617	6251.160000	437.140625	569.805298
529.493617	6251.160000	435.873047	494.373962
529.493617	6251.160000	434.605469	558.508850
529.493617	6251.160000	433.337891	598.099243
529.493617	6251.160000	432.070313	571.050110
529.493617	6251.160000	430.801758	585.948608
529.493617	6251.160000	429.533203	536.448914
529.493617	6251.160000	428.264648	338.435547
529.493617	6251.160000	426.996094	461.369110
529.493617	6251.160000	425.726563	442.396088
529.493617	6251.160000	424.457031	361.277405
529.493617	6251.160000	423.186523	569.838501
529.493617	6251.160000	421.916992	687.418152
529.493617	6251.160000	420.646484	510.581482
529.493617	6251.160000	419.375977	550.291321
529.493617	6251.160000	418.104492	647.221863
529.493617	6251.160000	416.833008	586.947937
529.493617	6251.160000	415.561523	393.869141
529.493617	6251.160000	414.290039	454.675995
529.493617	6251.160000	413.017578	338.477325
529.493617	6251.160000	411.746094	325.847931
529.493617	6251.160000	410.472656	617.585571
529.493617	6251.160000	409.200195	348.250671
529.493617	6251.160000	407.926758	297.184113
529.493617	6251.160000	406.653320	486.304565
529.493617	6251.160000	405.379883	247.067871
529.493617	6251.160000	404.105469	245.754868
529.493617	6251.160000	402.831055	308.021271
529.493617	6251.160000	401.556641	539.626587
529.493617	6251.160000	400.282227	202.121078
529.493617	6251.160000	399.006836	102.320084
529.493617	6251.160000	397.731445	480.194427
529.493617	6251.160000	396.456055	489.651642
529.493617	6251.160000	395.179688	346.702240
529.493617	6251.160000	393.903320	264.993591
529.493617	6251.160000	392.626953	167.433990
529.493617	6251.160000	391.350586	230.066101
529.493617	6251.160000	390.073242	518.754822
529.493617	6251.160000	388.795898	45.709797
529.493617	6251.160000	387.518555	51.742931
529.493617	6251.160000	386.240234	112.157021
529.493617	6251.160000	384.961914	308.250458
529.493617	6251.160000	383.683594	193.774216
529.493617	6251.160000	382.405273	94.106865
529.493617	6251.160000	381.125977	231.073853
529.493617	6251.160000	379.846680	83.994957
529.493617	6251.160000	378.567383	417.181854
529.493617	6251.160000	377.287109	343.359314
529.493617	6251.160000	376.006836	62.522911
529.493617	6251.160000	374.726563	92.662468
529.493617	6251.160000	373.446289	365.539764
529.493617	6251.160000	372.165039	238.274673
529.493617	6251.160000	370.883789	167.261276
529.493617	6251.160000	369.602539	75.701118
529.493617	6251.160000	368.320313	112.613838
529.493617	6251.160000	367.039063	113.573792
529.493617	6251.160000	365.755859	82.884918
529.493617	6251.160000	364.473633	237.484238
529.493617	6251.160000	363.190430	143.529282
529.493617	6251.160000	361.907227	-115.611755
529.493617	6251.160000	360.624023	-7.899618
529.493617	6251.160000	359.340820	173.115479
529.493617	6251.160000	358.056641	79.404228
529.493617	6251.160000	356.772461	13.046236
529.493617	6251.160000	355.487305	76.762054
529.493617	6251.160000	354.202148	12.427467
529.493617	6251.160000	352.916992	-42.172222
529.493617	6251.160000	351.631836	-52.102962
529.493617	6251.160000	350.346680	196.733658
529.493617	6251.160000	349.060547	35.531414
529.493617	6251.160000	347.774414	165.743271
529.493617	6251.160000	346.487305	-54.964973
529.493617	6251.160000	345.200195	-41.206337
529.493617	6251.160000	343.913086	-98.783638
529.493617	6251.160000	342.625977	-210.229935
529.493617	6251.160000	341.338867	8.481485
529.493617	6251.160000	340.050781	-69.047882
529.493617	6251.160000	338.762695	65.561684
529.493617	6251.160000	337.473633	91.536400
529.493617	6251.160000	336.184570	48.191204
529.493617	6251.160000	334.895508	-105.883041
529.493617	6251.160000	333.606445	-39.432266
529.493617	6251.160000	332.317383	-164.413223
529.493617	6251.160000	331.027344	7.112774
529.493617	6251.160000	329.736328	-71.706856
529.493617	6251.160000	328.446289	-54.464577
529.493617	6251.160000	327.155273	-6.691149
529.493617	6251.160000	325.864258	-126.442078
529.493617	6251.160000	324.573242	-54.651451
529.493617	6251.160000	323.281250	-117.860596
529.493617	6251.160000	321.989258	166.843430
529.493617	6251.160000	320.697266	-192.339783
529.493617	6251.160000	319.405273	-153.743866
529.493617	6251.160000	318.112305	-37.249443
529.493617	6251.160000	316.819336	-253.590424
529.493617	6251.160000	315.526367	-11.821441
529.493617	6251.160000	314.232422	-70.412231
529.493617	6251.160000	312.938477	-31.764467
529.493617	6251.160000	311.644531	97.484726
529.493617	6251.160000	310.349609	-49.702583
529.493617	6251.160000	309.054688	25.995037
529.493617	6251.160000	307.759766	215.884186
529.493617	6251.160000	306.464844	222.645264
529.493617	6251.160000	305.168945	317.326294
529.493617	6251.160000	303.873047	376.294342
529.493617	6251.160000	302.577148	408.177216
529.493617	6251.160000	301.281250	677.322266
529.493617	6251.160000	299.984375	743.541931
