#X		#Y		#Wave		#Intensity
474.061170	6145.881667	1999.946289	161.448135
474.061170	6145.881667	1998.981445	24.017092
474.061170	6145.881667	1998.017578	18.241423
474.061170	6145.881667	1997.052734	-96.436089
474.061170	6145.881667	1996.088867	-114.316391
474.061170	6145.881667	1995.124023	-45.361389
474.061170	6145.881667	1994.159180	102.947021
474.061170	6145.881667	1993.193359	-75.544830
474.061170	6145.881667	1992.228516	-65.692505
474.061170	6145.881667	1991.262695	231.415237
474.061170	6145.881667	1990.296875	-82.773239
474.061170	6145.881667	1989.331055	48.663410
474.061170	6145.881667	1988.365234	6.982470
474.061170	6145.881667	1987.398438	74.259613
474.061170	6145.881667	1986.432617	297.416382
474.061170	6145.881667	1985.465820	80.470963
474.061170	6145.881667	1984.499023	128.224701
474.061170	6145.881667	1983.532227	-46.394085
474.061170	6145.881667	1982.565430	107.819305
474.061170	6145.881667	1981.597656	-9.713038
474.061170	6145.881667	1980.629883	-119.699829
474.061170	6145.881667	1979.662109	-9.741971
474.061170	6145.881667	1978.694336	6.423930
474.061170	6145.881667	1977.726563	314.000732
474.061170	6145.881667	1976.758789	169.815353
474.061170	6145.881667	1975.790039	-75.423340
474.061170	6145.881667	1974.821289	29.900713
474.061170	6145.881667	1973.852539	11.905516
474.061170	6145.881667	1972.883789	48.255955
474.061170	6145.881667	1971.915039	178.378662
474.061170	6145.881667	1970.945313	-2.153772
474.061170	6145.881667	1969.975586	340.083069
474.061170	6145.881667	1969.005859	186.832291
474.061170	6145.881667	1968.036133	43.558685
474.061170	6145.881667	1967.066406	188.675308
474.061170	6145.881667	1966.096680	16.014189
474.061170	6145.881667	1965.125977	74.999016
474.061170	6145.881667	1964.155273	69.991440
474.061170	6145.881667	1963.184570	-80.221390
474.061170	6145.881667	1962.213867	79.835228
474.061170	6145.881667	1961.242188	-13.610050
474.061170	6145.881667	1960.271484	119.404770
474.061170	6145.881667	1959.299805	-94.469650
474.061170	6145.881667	1958.328125	-13.047648
474.061170	6145.881667	1957.356445	142.166077
474.061170	6145.881667	1956.384766	152.291824
474.061170	6145.881667	1955.412109	-61.257759
474.061170	6145.881667	1954.439453	27.638426
474.061170	6145.881667	1953.467773	-67.779495
474.061170	6145.881667	1952.495117	62.924999
474.061170	6145.881667	1951.521484	218.184906
474.061170	6145.881667	1950.548828	-17.109632
474.061170	6145.881667	1949.575195	167.636322
474.061170	6145.881667	1948.601563	-47.857567
474.061170	6145.881667	1947.627930	127.061409
474.061170	6145.881667	1946.654297	81.053787
474.061170	6145.881667	1945.680664	39.994015
474.061170	6145.881667	1944.706055	-167.853226
474.061170	6145.881667	1943.732422	83.089478
474.061170	6145.881667	1942.757813	110.787643
474.061170	6145.881667	1941.783203	-30.694380
474.061170	6145.881667	1940.807617	-262.810516
474.061170	6145.881667	1939.833008	-41.377960
474.061170	6145.881667	1938.857422	-94.480789
474.061170	6145.881667	1937.881836	-147.551727
474.061170	6145.881667	1936.906250	12.533814
474.061170	6145.881667	1935.930664	-339.329041
474.061170	6145.881667	1934.955078	26.450119
474.061170	6145.881667	1933.978516	32.195915
474.061170	6145.881667	1933.001953	-194.606384
474.061170	6145.881667	1932.025391	-7.701263
474.061170	6145.881667	1931.048828	66.575050
474.061170	6145.881667	1930.072266	118.805275
474.061170	6145.881667	1929.094727	-9.986713
474.061170	6145.881667	1928.118164	98.486450
474.061170	6145.881667	1927.140625	-71.825790
474.061170	6145.881667	1926.163086	-105.174385
474.061170	6145.881667	1925.184570	125.469482
474.061170	6145.881667	1924.207031	-27.660444
474.061170	6145.881667	1923.228516	34.278851
474.061170	6145.881667	1922.250000	93.744514
474.061170	6145.881667	1921.271484	-25.119074
474.061170	6145.881667	1920.292969	12.337375
474.061170	6145.881667	1919.314453	144.986786
474.061170	6145.881667	1918.334961	-86.138069
474.061170	6145.881667	1917.355469	9.850724
474.061170	6145.881667	1916.375977	-118.706070
474.061170	6145.881667	1915.396484	-74.010666
474.061170	6145.881667	1914.416992	-7.397072
474.061170	6145.881667	1913.436523	-89.586464
474.061170	6145.881667	1912.457031	18.421043
474.061170	6145.881667	1911.476563	175.130402
474.061170	6145.881667	1910.496094	102.642677
474.061170	6145.881667	1909.515625	237.302612
474.061170	6145.881667	1908.534180	-159.265274
474.061170	6145.881667	1907.552734	-53.880756
474.061170	6145.881667	1906.572266	-2.148589
474.061170	6145.881667	1905.590820	-40.556210
474.061170	6145.881667	1904.608398	-25.408276
474.061170	6145.881667	1903.626953	16.478271
474.061170	6145.881667	1902.644531	41.290688
474.061170	6145.881667	1901.663086	5.224871
474.061170	6145.881667	1900.680664	51.866425
474.061170	6145.881667	1899.698242	23.055115
474.061170	6145.881667	1898.714844	135.280518
474.061170	6145.881667	1897.732422	193.935120
474.061170	6145.881667	1896.749023	106.675621
474.061170	6145.881667	1895.765625	-0.030115
474.061170	6145.881667	1894.782227	245.640427
474.061170	6145.881667	1893.798828	117.011719
474.061170	6145.881667	1892.814453	46.702106
474.061170	6145.881667	1891.831055	105.101662
474.061170	6145.881667	1890.846680	182.873550
474.061170	6145.881667	1889.862305	-33.194721
474.061170	6145.881667	1888.877930	32.359077
474.061170	6145.881667	1887.892578	-81.741364
474.061170	6145.881667	1886.908203	78.351494
474.061170	6145.881667	1885.922852	90.359093
474.061170	6145.881667	1884.937500	56.233253
474.061170	6145.881667	1883.952148	121.509506
474.061170	6145.881667	1882.965820	206.120392
474.061170	6145.881667	1881.980469	293.076019
474.061170	6145.881667	1880.994141	198.175598
474.061170	6145.881667	1880.007813	23.297005
474.061170	6145.881667	1879.021484	1.079350
474.061170	6145.881667	1878.035156	138.703751
474.061170	6145.881667	1877.047852	67.945305
474.061170	6145.881667	1876.061523	-39.159851
474.061170	6145.881667	1875.074219	3.838364
474.061170	6145.881667	1874.086914	-207.391785
474.061170	6145.881667	1873.098633	-113.648613
474.061170	6145.881667	1872.111328	-22.412136
474.061170	6145.881667	1871.123047	-6.252150
474.061170	6145.881667	1870.135742	67.899391
474.061170	6145.881667	1869.147461	21.059422
474.061170	6145.881667	1868.158203	20.130707
474.061170	6145.881667	1867.169922	91.669907
474.061170	6145.881667	1866.180664	-71.312172
474.061170	6145.881667	1865.192383	-45.800636
474.061170	6145.881667	1864.203125	64.216125
474.061170	6145.881667	1863.213867	7.460738
474.061170	6145.881667	1862.223633	223.590515
474.061170	6145.881667	1861.234375	94.278046
474.061170	6145.881667	1860.244141	-8.479123
474.061170	6145.881667	1859.253906	45.645409
474.061170	6145.881667	1858.263672	-115.092804
474.061170	6145.881667	1857.273438	170.559860
474.061170	6145.881667	1856.282227	26.638357
474.061170	6145.881667	1855.291992	-69.048264
474.061170	6145.881667	1854.300781	-106.875114
474.061170	6145.881667	1853.309570	-94.110138
474.061170	6145.881667	1852.317383	-1.853311
474.061170	6145.881667	1851.326172	-90.454285
474.061170	6145.881667	1850.333984	100.451637
474.061170	6145.881667	1849.342773	14.160564
474.061170	6145.881667	1848.350586	159.093628
474.061170	6145.881667	1847.357422	-156.082535
474.061170	6145.881667	1846.365234	-150.946487
474.061170	6145.881667	1845.372070	-44.755112
474.061170	6145.881667	1844.379883	90.218956
474.061170	6145.881667	1843.386719	-121.457176
474.061170	6145.881667	1842.393555	44.644585
474.061170	6145.881667	1841.399414	217.844635
474.061170	6145.881667	1840.406250	140.778076
474.061170	6145.881667	1839.412109	-25.293102
474.061170	6145.881667	1838.417969	39.451061
474.061170	6145.881667	1837.423828	108.918663
474.061170	6145.881667	1836.429688	151.863510
474.061170	6145.881667	1835.434570	185.122299
474.061170	6145.881667	1834.440430	30.912912
474.061170	6145.881667	1833.445313	208.183212
474.061170	6145.881667	1832.450195	41.900040
474.061170	6145.881667	1831.454102	-112.372559
474.061170	6145.881667	1830.458984	40.636539
474.061170	6145.881667	1829.462891	23.113024
474.061170	6145.881667	1828.466797	267.110931
474.061170	6145.881667	1827.470703	-21.692987
474.061170	6145.881667	1826.474609	-8.192325
474.061170	6145.881667	1825.478516	79.594360
474.061170	6145.881667	1824.481445	-24.549540
474.061170	6145.881667	1823.484375	218.924500
474.061170	6145.881667	1822.487305	45.157108
474.061170	6145.881667	1821.490234	77.501831
474.061170	6145.881667	1820.493164	47.474308
474.061170	6145.881667	1819.495117	-23.329819
474.061170	6145.881667	1818.498047	-3.148642
474.061170	6145.881667	1817.500000	201.362350
474.061170	6145.881667	1816.500977	197.429581
474.061170	6145.881667	1815.502930	71.346619
474.061170	6145.881667	1814.504883	136.726563
474.061170	6145.881667	1813.505859	82.371780
474.061170	6145.881667	1812.506836	37.546360
474.061170	6145.881667	1811.507813	222.316803
474.061170	6145.881667	1810.508789	-147.901749
474.061170	6145.881667	1809.508789	144.315903
474.061170	6145.881667	1808.508789	225.978226
474.061170	6145.881667	1807.508789	152.181076
474.061170	6145.881667	1806.508789	-0.512943
474.061170	6145.881667	1805.508789	131.125809
474.061170	6145.881667	1804.508789	14.205842
474.061170	6145.881667	1803.507813	-257.979767
474.061170	6145.881667	1802.506836	-40.579391
474.061170	6145.881667	1801.505859	133.702072
474.061170	6145.881667	1800.504883	42.888226
474.061170	6145.881667	1799.502930	-4.990798
474.061170	6145.881667	1798.501953	16.288372
474.061170	6145.881667	1797.500000	32.727215
474.061170	6145.881667	1796.498047	51.486374
474.061170	6145.881667	1795.496094	375.441040
474.061170	6145.881667	1794.493164	115.034187
474.061170	6145.881667	1793.491211	269.475128
474.061170	6145.881667	1792.488281	28.136892
474.061170	6145.881667	1791.485352	58.498775
474.061170	6145.881667	1790.482422	79.260223
474.061170	6145.881667	1789.478516	223.826843
474.061170	6145.881667	1788.475586	165.837265
474.061170	6145.881667	1787.471680	269.735260
474.061170	6145.881667	1786.467773	-28.817930
474.061170	6145.881667	1785.463867	72.581276
474.061170	6145.881667	1784.459961	219.104019
474.061170	6145.881667	1783.455078	63.322620
474.061170	6145.881667	1782.450195	188.264786
474.061170	6145.881667	1781.445313	244.125122
474.061170	6145.881667	1780.440430	178.625565
474.061170	6145.881667	1779.435547	212.955872
474.061170	6145.881667	1778.429688	-197.318756
474.061170	6145.881667	1777.424805	27.096851
474.061170	6145.881667	1776.418945	332.162903
474.061170	6145.881667	1775.413086	2.712172
474.061170	6145.881667	1774.406250	-103.385574
474.061170	6145.881667	1773.400391	92.120308
474.061170	6145.881667	1772.393555	-2.190247
474.061170	6145.881667	1771.386719	64.914238
474.061170	6145.881667	1770.379883	48.864735
474.061170	6145.881667	1769.373047	115.827591
474.061170	6145.881667	1768.365234	-40.322861
474.061170	6145.881667	1767.358398	73.969360
474.061170	6145.881667	1766.350586	112.266022
474.061170	6145.881667	1765.342773	-34.466694
474.061170	6145.881667	1764.334961	27.440502
474.061170	6145.881667	1763.326172	-33.991802
474.061170	6145.881667	1762.318359	77.557549
474.061170	6145.881667	1761.309570	-2.919494
474.061170	6145.881667	1760.300781	101.370674
474.061170	6145.881667	1759.291016	-85.772247
474.061170	6145.881667	1758.282227	-66.860680
474.061170	6145.881667	1757.272461	79.847931
474.061170	6145.881667	1756.262695	15.763614
474.061170	6145.881667	1755.252930	65.262711
474.061170	6145.881667	1754.243164	180.952057
474.061170	6145.881667	1753.233398	261.059570
474.061170	6145.881667	1752.222656	312.701080
474.061170	6145.881667	1751.211914	127.773170
474.061170	6145.881667	1750.201172	30.357283
474.061170	6145.881667	1749.190430	-0.873325
474.061170	6145.881667	1748.179688	206.590530
474.061170	6145.881667	1747.167969	64.171120
474.061170	6145.881667	1746.156250	217.105103
474.061170	6145.881667	1745.144531	145.515945
474.061170	6145.881667	1744.132813	116.421631
474.061170	6145.881667	1743.121094	195.919266
474.061170	6145.881667	1742.108398	-0.893323
474.061170	6145.881667	1741.095703	-72.568283
474.061170	6145.881667	1740.083008	18.584263
474.061170	6145.881667	1739.070313	17.634071
474.061170	6145.881667	1738.057617	-44.695766
474.061170	6145.881667	1737.043945	-147.146454
474.061170	6145.881667	1736.030273	-126.971123
474.061170	6145.881667	1735.016602	-71.476936
474.061170	6145.881667	1734.002930	71.176376
474.061170	6145.881667	1732.989258	13.397466
474.061170	6145.881667	1731.974609	-190.504257
474.061170	6145.881667	1730.959961	86.258308
474.061170	6145.881667	1729.945313	70.785240
474.061170	6145.881667	1728.930664	-15.373217
474.061170	6145.881667	1727.916016	-179.241013
474.061170	6145.881667	1726.900391	59.480343
474.061170	6145.881667	1725.885742	123.898315
474.061170	6145.881667	1724.870117	42.345753
474.061170	6145.881667	1723.853516	-13.335199
474.061170	6145.881667	1722.837891	53.298103
474.061170	6145.881667	1721.822266	30.495274
474.061170	6145.881667	1720.805664	35.878838
474.061170	6145.881667	1719.789063	-240.900406
474.061170	6145.881667	1718.772461	-197.926926
474.061170	6145.881667	1717.754883	58.855297
474.061170	6145.881667	1716.738281	-58.093124
474.061170	6145.881667	1715.720703	-69.317841
474.061170	6145.881667	1714.703125	133.170975
474.061170	6145.881667	1713.685547	-131.774612
474.061170	6145.881667	1712.667969	-16.288910
474.061170	6145.881667	1711.649414	-156.756470
474.061170	6145.881667	1710.630859	-43.725399
474.061170	6145.881667	1709.612305	-163.076080
474.061170	6145.881667	1708.593750	-75.954529
474.061170	6145.881667	1707.575195	4.066525
474.061170	6145.881667	1706.555664	-73.105621
474.061170	6145.881667	1705.536133	49.027931
474.061170	6145.881667	1704.516602	-32.869240
474.061170	6145.881667	1703.497070	-117.106209
474.061170	6145.881667	1702.477539	-95.884636
474.061170	6145.881667	1701.457031	30.730015
474.061170	6145.881667	1700.437500	30.779320
474.061170	6145.881667	1699.416992	-107.384773
474.061170	6145.881667	1698.395508	-23.071390
474.061170	6145.881667	1697.375000	-203.362854
474.061170	6145.881667	1696.354492	-65.272926
474.061170	6145.881667	1695.333008	-58.319317
474.061170	6145.881667	1694.311523	-144.984329
474.061170	6145.881667	1693.290039	-203.566269
474.061170	6145.881667	1692.267578	119.088943
474.061170	6145.881667	1691.246094	95.510551
474.061170	6145.881667	1690.223633	-80.056282
474.061170	6145.881667	1689.201172	-164.411133
474.061170	6145.881667	1688.178711	-124.888428
474.061170	6145.881667	1687.155273	12.735136
474.061170	6145.881667	1686.132813	82.539795
474.061170	6145.881667	1685.109375	42.513683
474.061170	6145.881667	1684.085938	-97.934654
474.061170	6145.881667	1683.062500	230.960907
474.061170	6145.881667	1682.039063	69.484077
474.061170	6145.881667	1681.014648	244.139359
474.061170	6145.881667	1679.990234	68.682022
474.061170	6145.881667	1678.965820	210.574493
474.061170	6145.881667	1677.941406	0.170796
474.061170	6145.881667	1676.916992	-23.593994
474.061170	6145.881667	1675.891602	237.100967
474.061170	6145.881667	1674.866211	122.345985
474.061170	6145.881667	1673.840820	142.809540
474.061170	6145.881667	1672.815430	18.768486
474.061170	6145.881667	1671.790039	41.548546
474.061170	6145.881667	1670.763672	17.712700
474.061170	6145.881667	1669.737305	194.169662
474.061170	6145.881667	1668.710938	65.504890
474.061170	6145.881667	1667.684570	39.316555
474.061170	6145.881667	1666.658203	157.443054
474.061170	6145.881667	1665.630859	28.823301
474.061170	6145.881667	1664.603516	-34.605621
474.061170	6145.881667	1663.576172	81.107964
474.061170	6145.881667	1662.548828	87.452835
474.061170	6145.881667	1661.520508	-15.513943
474.061170	6145.881667	1660.493164	276.803986
474.061170	6145.881667	1659.464844	292.378662
474.061170	6145.881667	1658.436523	159.198929
474.061170	6145.881667	1657.408203	270.046539
474.061170	6145.881667	1656.378906	355.286163
474.061170	6145.881667	1655.350586	303.451691
474.061170	6145.881667	1654.321289	147.124481
474.061170	6145.881667	1653.291992	213.750427
474.061170	6145.881667	1652.261719	266.414917
474.061170	6145.881667	1651.232422	263.357849
474.061170	6145.881667	1650.202148	452.895020
474.061170	6145.881667	1649.171875	512.434204
474.061170	6145.881667	1648.141602	286.639984
474.061170	6145.881667	1647.111328	309.081177
474.061170	6145.881667	1646.080078	206.298264
474.061170	6145.881667	1645.049805	305.246979
474.061170	6145.881667	1644.018555	587.258667
474.061170	6145.881667	1642.987305	526.195251
474.061170	6145.881667	1641.955078	384.061096
474.061170	6145.881667	1640.923828	404.139984
474.061170	6145.881667	1639.891602	264.404907
474.061170	6145.881667	1638.859375	532.263672
474.061170	6145.881667	1637.827148	482.853516
474.061170	6145.881667	1636.794922	486.703186
474.061170	6145.881667	1635.761719	469.723297
474.061170	6145.881667	1634.729492	487.466156
474.061170	6145.881667	1633.696289	845.258362
474.061170	6145.881667	1632.662109	828.230286
474.061170	6145.881667	1631.628906	649.351257
474.061170	6145.881667	1630.594727	653.188965
474.061170	6145.881667	1629.561523	657.036987
474.061170	6145.881667	1628.527344	905.858643
474.061170	6145.881667	1627.493164	796.447388
474.061170	6145.881667	1626.458008	839.552673
474.061170	6145.881667	1625.423828	882.655518
474.061170	6145.881667	1624.388672	699.438904
474.061170	6145.881667	1623.353516	795.670044
474.061170	6145.881667	1622.318359	697.972290
474.061170	6145.881667	1621.282227	937.274048
474.061170	6145.881667	1620.247070	795.766907
474.061170	6145.881667	1619.210938	852.726013
474.061170	6145.881667	1618.174805	863.543274
474.061170	6145.881667	1617.137695	802.875610
474.061170	6145.881667	1616.101563	786.057068
474.061170	6145.881667	1615.064453	605.583618
474.061170	6145.881667	1614.027344	731.729919
474.061170	6145.881667	1612.990234	841.711243
474.061170	6145.881667	1611.953125	562.309326
474.061170	6145.881667	1610.916016	974.061707
474.061170	6145.881667	1609.877930	828.343140
474.061170	6145.881667	1608.839844	673.487732
474.061170	6145.881667	1607.801758	820.283142
474.061170	6145.881667	1606.763672	861.163269
474.061170	6145.881667	1605.724609	899.739319
474.061170	6145.881667	1604.685547	869.296509
474.061170	6145.881667	1603.646484	972.302185
474.061170	6145.881667	1602.607422	875.199951
474.061170	6145.881667	1601.568359	1132.261841
474.061170	6145.881667	1600.528320	874.275818
474.061170	6145.881667	1599.489258	986.472778
474.061170	6145.881667	1598.449219	999.826843
474.061170	6145.881667	1597.408203	1137.262207
474.061170	6145.881667	1596.368164	904.830078
474.061170	6145.881667	1595.327148	782.747742
474.061170	6145.881667	1594.287109	929.402161
474.061170	6145.881667	1593.246094	855.620117
474.061170	6145.881667	1592.204102	1022.899170
474.061170	6145.881667	1591.163086	903.276550
474.061170	6145.881667	1590.121094	971.867126
474.061170	6145.881667	1589.079102	1042.749878
474.061170	6145.881667	1588.037109	755.834351
474.061170	6145.881667	1586.995117	776.333801
474.061170	6145.881667	1585.953125	767.046448
474.061170	6145.881667	1584.910156	893.025330
474.061170	6145.881667	1583.867188	537.710388
474.061170	6145.881667	1582.824219	647.700684
474.061170	6145.881667	1581.781250	732.475098
474.061170	6145.881667	1580.737305	798.916748
474.061170	6145.881667	1579.693359	851.620911
474.061170	6145.881667	1578.649414	977.597656
474.061170	6145.881667	1577.605469	755.615845
474.061170	6145.881667	1576.561523	611.562683
474.061170	6145.881667	1575.516602	769.631958
474.061170	6145.881667	1574.472656	776.684082
474.061170	6145.881667	1573.427734	891.261780
474.061170	6145.881667	1572.381836	751.982666
474.061170	6145.881667	1571.336914	644.803650
474.061170	6145.881667	1570.291016	622.274475
474.061170	6145.881667	1569.246094	551.794250
474.061170	6145.881667	1568.200195	577.342529
474.061170	6145.881667	1567.153320	554.933350
474.061170	6145.881667	1566.107422	525.716797
474.061170	6145.881667	1565.060547	578.756348
474.061170	6145.881667	1564.013672	437.731750
474.061170	6145.881667	1562.966797	557.035889
474.061170	6145.881667	1561.919922	795.010864
474.061170	6145.881667	1560.872070	432.783539
474.061170	6145.881667	1559.825195	422.080658
474.061170	6145.881667	1558.777344	591.614685
474.061170	6145.881667	1557.729492	352.897064
474.061170	6145.881667	1556.680664	326.357544
474.061170	6145.881667	1555.632813	450.325043
474.061170	6145.881667	1554.583984	540.090454
474.061170	6145.881667	1553.535156	554.658203
474.061170	6145.881667	1552.486328	489.516907
474.061170	6145.881667	1551.436523	367.490021
474.061170	6145.881667	1550.387695	336.648285
474.061170	6145.881667	1549.337891	353.671600
474.061170	6145.881667	1548.288086	766.842529
474.061170	6145.881667	1547.238281	610.870361
474.061170	6145.881667	1546.187500	389.003571
474.061170	6145.881667	1545.136719	592.721802
474.061170	6145.881667	1544.086914	311.885498
474.061170	6145.881667	1543.035156	392.806122
474.061170	6145.881667	1541.984375	405.523285
474.061170	6145.881667	1540.933594	545.586365
474.061170	6145.881667	1539.881836	474.248871
474.061170	6145.881667	1538.830078	587.053772
474.061170	6145.881667	1537.778320	663.503235
474.061170	6145.881667	1536.725586	692.258179
474.061170	6145.881667	1535.673828	755.113770
474.061170	6145.881667	1534.621094	793.007813
474.061170	6145.881667	1533.568359	551.689087
474.061170	6145.881667	1532.515625	576.075867
474.061170	6145.881667	1531.461914	870.547852
474.061170	6145.881667	1530.409180	525.116699
474.061170	6145.881667	1529.355469	706.147339
474.061170	6145.881667	1528.301758	671.689087
474.061170	6145.881667	1527.247070	605.541870
474.061170	6145.881667	1526.193359	602.946350
474.061170	6145.881667	1525.138672	432.661469
474.061170	6145.881667	1524.083984	806.382751
474.061170	6145.881667	1523.029297	556.914124
474.061170	6145.881667	1521.974609	298.528320
474.061170	6145.881667	1520.918945	443.437561
474.061170	6145.881667	1519.863281	282.637085
474.061170	6145.881667	1518.807617	352.873169
474.061170	6145.881667	1517.751953	377.857971
474.061170	6145.881667	1516.696289	224.095505
474.061170	6145.881667	1515.639648	122.480934
474.061170	6145.881667	1514.583008	414.574646
474.061170	6145.881667	1513.526367	242.943268
474.061170	6145.881667	1512.469727	42.031273
474.061170	6145.881667	1511.412109	-106.755318
474.061170	6145.881667	1510.355469	54.240768
474.061170	6145.881667	1509.297852	192.620499
474.061170	6145.881667	1508.240234	-66.677101
474.061170	6145.881667	1507.181641	55.954357
474.061170	6145.881667	1506.124023	185.364151
474.061170	6145.881667	1505.065430	41.533482
474.061170	6145.881667	1504.006836	184.538879
474.061170	6145.881667	1502.948242	65.694939
474.061170	6145.881667	1501.888672	136.518417
474.061170	6145.881667	1500.830078	90.033897
474.061170	6145.881667	1499.770508	84.223984
474.061170	6145.881667	1498.710938	6.291933
474.061170	6145.881667	1497.650391	158.451935
474.061170	6145.881667	1496.590820	236.201797
474.061170	6145.881667	1495.530273	268.889771
474.061170	6145.881667	1494.469727	488.670013
474.061170	6145.881667	1493.409180	307.338593
474.061170	6145.881667	1492.348633	256.792084
474.061170	6145.881667	1491.287109	282.896301
474.061170	6145.881667	1490.225586	162.669495
474.061170	6145.881667	1489.164063	49.295406
474.061170	6145.881667	1488.102539	359.205750
474.061170	6145.881667	1487.041016	335.964050
474.061170	6145.881667	1485.978516	103.523354
474.061170	6145.881667	1484.916016	343.723877
474.061170	6145.881667	1483.853516	208.130173
474.061170	6145.881667	1482.791016	158.173965
474.061170	6145.881667	1481.727539	249.938263
474.061170	6145.881667	1480.664063	361.940887
474.061170	6145.881667	1479.600586	458.246368
474.061170	6145.881667	1478.537109	208.523682
474.061170	6145.881667	1477.473633	235.313919
474.061170	6145.881667	1476.409180	381.152527
474.061170	6145.881667	1475.344727	284.528656
474.061170	6145.881667	1474.280273	71.235374
474.061170	6145.881667	1473.215820	336.054932
474.061170	6145.881667	1472.151367	183.670990
474.061170	6145.881667	1471.085938	127.647499
474.061170	6145.881667	1470.020508	89.759544
474.061170	6145.881667	1468.955078	27.351879
474.061170	6145.881667	1467.888672	-46.153957
474.061170	6145.881667	1466.823242	70.818054
474.061170	6145.881667	1465.756836	60.093418
474.061170	6145.881667	1464.690430	190.712555
474.061170	6145.881667	1463.624023	190.893280
474.061170	6145.881667	1462.556641	220.933319
474.061170	6145.881667	1461.490234	-28.887722
474.061170	6145.881667	1460.422852	-16.452839
474.061170	6145.881667	1459.355469	135.792786
474.061170	6145.881667	1458.287109	147.923447
474.061170	6145.881667	1457.219727	3.996654
474.061170	6145.881667	1456.151367	38.698162
474.061170	6145.881667	1455.083008	57.605026
474.061170	6145.881667	1454.014648	299.766083
474.061170	6145.881667	1452.945313	44.412079
474.061170	6145.881667	1451.876953	30.658630
474.061170	6145.881667	1450.807617	119.764229
474.061170	6145.881667	1449.738281	5.561535
474.061170	6145.881667	1448.668945	224.723373
474.061170	6145.881667	1447.598633	93.361603
474.061170	6145.881667	1446.528320	84.322411
474.061170	6145.881667	1445.458008	208.196579
474.061170	6145.881667	1444.387695	185.231140
474.061170	6145.881667	1443.317383	166.414322
474.061170	6145.881667	1442.246094	217.985184
474.061170	6145.881667	1441.174805	159.825790
474.061170	6145.881667	1440.103516	27.346222
474.061170	6145.881667	1439.032227	215.819870
474.061170	6145.881667	1437.960938	26.869713
474.061170	6145.881667	1436.888672	-59.587204
474.061170	6145.881667	1435.816406	198.681473
474.061170	6145.881667	1434.744141	64.427620
474.061170	6145.881667	1433.670898	145.391663
474.061170	6145.881667	1432.598633	172.670731
474.061170	6145.881667	1431.525391	93.453773
474.061170	6145.881667	1430.452148	87.317612
474.061170	6145.881667	1429.378906	114.582474
474.061170	6145.881667	1428.304688	173.830795
474.061170	6145.881667	1427.231445	32.559608
474.061170	6145.881667	1426.157227	49.384106
474.061170	6145.881667	1425.083008	-94.911140
474.061170	6145.881667	1424.007813	137.566071
474.061170	6145.881667	1422.933594	0.358248
474.061170	6145.881667	1421.858398	3.359296
474.061170	6145.881667	1420.783203	7.212949
474.061170	6145.881667	1419.708008	-163.638519
474.061170	6145.881667	1418.631836	100.816467
474.061170	6145.881667	1417.555664	9.397254
474.061170	6145.881667	1416.479492	-44.627712
474.061170	6145.881667	1415.403320	-127.540787
474.061170	6145.881667	1414.327148	102.114952
474.061170	6145.881667	1413.250000	-50.842068
474.061170	6145.881667	1412.173828	196.058365
474.061170	6145.881667	1411.096680	126.993347
474.061170	6145.881667	1410.018555	201.471664
474.061170	6145.881667	1408.941406	75.161491
474.061170	6145.881667	1407.863281	-11.484426
474.061170	6145.881667	1406.785156	124.608612
474.061170	6145.881667	1405.707031	-77.421837
474.061170	6145.881667	1404.628906	49.827400
474.061170	6145.881667	1403.549805	86.935905
474.061170	6145.881667	1402.470703	-48.865570
474.061170	6145.881667	1401.391602	201.480438
474.061170	6145.881667	1400.312500	288.030426
474.061170	6145.881667	1399.233398	120.108429
474.061170	6145.881667	1398.153320	-9.986987
474.061170	6145.881667	1397.073242	19.156330
474.061170	6145.881667	1395.993164	133.096802
474.061170	6145.881667	1394.913086	-18.967501
474.061170	6145.881667	1393.832031	64.375435
474.061170	6145.881667	1392.750977	-93.188026
474.061170	6145.881667	1391.669922	12.136854
474.061170	6145.881667	1390.588867	-35.377636
474.061170	6145.881667	1389.506836	83.473656
474.061170	6145.881667	1388.425781	-79.440788
474.061170	6145.881667	1387.343750	125.863777
474.061170	6145.881667	1386.261719	114.701370
474.061170	6145.881667	1385.178711	-78.537155
474.061170	6145.881667	1384.096680	49.240932
474.061170	6145.881667	1383.013672	10.031477
474.061170	6145.881667	1381.930664	-192.450348
474.061170	6145.881667	1380.846680	99.889633
474.061170	6145.881667	1379.763672	-164.331818
474.061170	6145.881667	1378.679688	138.589508
474.061170	6145.881667	1377.595703	173.753357
474.061170	6145.881667	1376.511719	-156.186172
474.061170	6145.881667	1375.427734	-80.033020
474.061170	6145.881667	1374.342773	-148.023819
474.061170	6145.881667	1373.257813	-157.737701
474.061170	6145.881667	1372.172852	-317.786194
474.061170	6145.881667	1371.087891	-208.375626
474.061170	6145.881667	1370.001953	-159.634033
474.061170	6145.881667	1368.916992	-111.679924
474.061170	6145.881667	1367.831055	10.617526
474.061170	6145.881667	1366.744141	-121.441994
474.061170	6145.881667	1365.658203	-115.863937
474.061170	6145.881667	1364.571289	-132.344406
474.061170	6145.881667	1363.484375	-163.783234
474.061170	6145.881667	1362.397461	-54.792961
474.061170	6145.881667	1361.310547	174.920105
474.061170	6145.881667	1360.222656	137.498749
474.061170	6145.881667	1359.135742	8.509281
474.061170	6145.881667	1358.047852	192.672089
474.061170	6145.881667	1356.958984	70.262421
474.061170	6145.881667	1355.871094	-23.740551
474.061170	6145.881667	1354.782227	152.662109
474.061170	6145.881667	1353.693359	42.423698
474.061170	6145.881667	1352.604492	-11.984360
474.061170	6145.881667	1351.515625	-51.566227
474.061170	6145.881667	1350.425781	-38.670006
474.061170	6145.881667	1349.335938	-121.686317
474.061170	6145.881667	1348.246094	-204.751160
474.061170	6145.881667	1347.156250	105.560989
474.061170	6145.881667	1346.066406	29.350437
474.061170	6145.881667	1344.975586	82.772202
474.061170	6145.881667	1343.884766	-114.661217
474.061170	6145.881667	1342.793945	-67.333878
474.061170	6145.881667	1341.702148	-28.145359
474.061170	6145.881667	1340.611328	-109.467201
474.061170	6145.881667	1339.519531	36.558975
474.061170	6145.881667	1338.427734	26.579262
474.061170	6145.881667	1337.334961	-62.451283
474.061170	6145.881667	1336.243164	79.845505
474.061170	6145.881667	1335.150391	12.022612
474.061170	6145.881667	1334.057617	-36.648029
474.061170	6145.881667	1332.964844	-24.131546
474.061170	6145.881667	1331.871094	-173.525452
474.061170	6145.881667	1330.778320	51.404503
474.061170	6145.881667	1329.684570	-9.080344
474.061170	6145.881667	1328.590820	-12.482654
474.061170	6145.881667	1327.496094	76.436119
474.061170	6145.881667	1326.402344	1.459770
474.061170	6145.881667	1325.307617	-204.511444
474.061170	6145.881667	1324.212891	-40.173676
474.061170	6145.881667	1323.117188	54.974442
474.061170	6145.881667	1322.022461	-67.136116
474.061170	6145.881667	1320.926758	-3.945635
474.061170	6145.881667	1319.831055	129.946259
474.061170	6145.881667	1318.735352	-16.202913
474.061170	6145.881667	1317.638672	-31.103550
474.061170	6145.881667	1316.542969	-79.660927
474.061170	6145.881667	1315.446289	22.602943
474.061170	6145.881667	1314.349609	-180.006454
474.061170	6145.881667	1313.251953	-109.758965
474.061170	6145.881667	1312.155273	6.790482
474.061170	6145.881667	1311.057617	-26.603539
474.061170	6145.881667	1309.959961	-11.794835
474.061170	6145.881667	1308.862305	-6.399923
474.061170	6145.881667	1307.763672	-23.650421
474.061170	6145.881667	1306.665039	-128.412933
474.061170	6145.881667	1305.566406	-57.609627
474.061170	6145.881667	1304.467773	-86.330673
474.061170	6145.881667	1303.369141	-13.711136
474.061170	6145.881667	1302.269531	108.322182
474.061170	6145.881667	1301.169922	116.552925
474.061170	6145.881667	1300.070313	15.953448
474.061170	6145.881667	1298.970703	-96.921883
474.061170	6145.881667	1297.870117	-87.294678
474.061170	6145.881667	1296.769531	1.633243
474.061170	6145.881667	1295.668945	-95.560303
474.061170	6145.881667	1294.568359	-41.381500
474.061170	6145.881667	1293.466797	19.533104
474.061170	6145.881667	1292.366211	65.582649
474.061170	6145.881667	1291.264648	-128.838654
474.061170	6145.881667	1290.162109	73.726967
474.061170	6145.881667	1289.060547	-97.558800
474.061170	6145.881667	1287.958008	-115.098473
474.061170	6145.881667	1286.855469	-142.068695
474.061170	6145.881667	1285.752930	-66.480545
474.061170	6145.881667	1284.650391	-223.080429
474.061170	6145.881667	1283.546875	-90.356247
474.061170	6145.881667	1282.444336	-89.246216
474.061170	6145.881667	1281.339844	-30.108868
474.061170	6145.881667	1280.236328	-157.590210
474.061170	6145.881667	1279.132813	40.858967
474.061170	6145.881667	1278.028320	-15.696398
474.061170	6145.881667	1276.923828	-92.356018
474.061170	6145.881667	1275.819336	-64.777451
474.061170	6145.881667	1274.713867	-172.999207
474.061170	6145.881667	1273.608398	13.308616
474.061170	6145.881667	1272.503906	-48.358135
474.061170	6145.881667	1271.397461	-41.083015
474.061170	6145.881667	1270.291992	76.064537
474.061170	6145.881667	1269.185547	18.215952
474.061170	6145.881667	1268.080078	169.198105
474.061170	6145.881667	1266.972656	36.942307
474.061170	6145.881667	1265.866211	134.646484
474.061170	6145.881667	1264.759766	173.002701
474.061170	6145.881667	1263.652344	133.936478
474.061170	6145.881667	1262.544922	213.979675
474.061170	6145.881667	1261.436523	8.316674
474.061170	6145.881667	1260.329102	-10.924163
474.061170	6145.881667	1259.220703	6.987547
474.061170	6145.881667	1258.112305	-33.526749
474.061170	6145.881667	1257.003906	-45.499603
474.061170	6145.881667	1255.895508	119.249329
474.061170	6145.881667	1254.786133	117.121292
474.061170	6145.881667	1253.676758	167.683182
474.061170	6145.881667	1252.567383	64.438568
474.061170	6145.881667	1251.458008	226.303162
474.061170	6145.881667	1250.347656	68.693893
474.061170	6145.881667	1249.237305	120.803558
474.061170	6145.881667	1248.126953	310.751953
474.061170	6145.881667	1247.016602	268.993866
474.061170	6145.881667	1245.905273	73.835884
474.061170	6145.881667	1244.793945	105.759850
474.061170	6145.881667	1243.682617	118.568184
474.061170	6145.881667	1242.571289	60.630669
474.061170	6145.881667	1241.459961	242.724350
474.061170	6145.881667	1240.347656	133.479141
474.061170	6145.881667	1239.235352	152.488144
474.061170	6145.881667	1238.123047	129.733459
474.061170	6145.881667	1237.009766	133.310883
474.061170	6145.881667	1235.897461	19.728081
474.061170	6145.881667	1234.784180	36.359589
474.061170	6145.881667	1233.670898	-39.736717
474.061170	6145.881667	1232.556641	20.405109
474.061170	6145.881667	1231.443359	41.021183
474.061170	6145.881667	1230.329102	4.956819
474.061170	6145.881667	1229.214844	24.305008
474.061170	6145.881667	1228.099609	73.798340
474.061170	6145.881667	1226.985352	36.204113
474.061170	6145.881667	1225.870117	17.250523
474.061170	6145.881667	1224.754883	-127.338615
474.061170	6145.881667	1223.639648	175.093628
474.061170	6145.881667	1222.523438	63.369720
474.061170	6145.881667	1221.408203	-48.106400
474.061170	6145.881667	1220.291992	-33.914066
474.061170	6145.881667	1219.174805	102.494286
474.061170	6145.881667	1218.058594	157.475677
474.061170	6145.881667	1216.941406	131.567017
474.061170	6145.881667	1215.824219	131.215729
474.061170	6145.881667	1214.707031	311.900970
474.061170	6145.881667	1213.589844	359.902740
474.061170	6145.881667	1212.471680	177.896103
474.061170	6145.881667	1211.353516	227.436844
474.061170	6145.881667	1210.235352	509.548096
474.061170	6145.881667	1209.117188	369.372162
474.061170	6145.881667	1207.998047	348.865356
474.061170	6145.881667	1206.878906	251.004379
474.061170	6145.881667	1205.759766	348.782074
474.061170	6145.881667	1204.640625	453.757721
474.061170	6145.881667	1203.520508	541.560547
474.061170	6145.881667	1202.401367	500.560181
474.061170	6145.881667	1201.281250	620.977234
474.061170	6145.881667	1200.160156	615.330933
474.061170	6145.881667	1199.040039	781.124695
474.061170	6145.881667	1197.918945	892.305725
474.061170	6145.881667	1196.797852	1010.242310
474.061170	6145.881667	1195.676758	1129.304199
474.061170	6145.881667	1194.555664	952.583008
474.061170	6145.881667	1193.433594	992.040894
474.061170	6145.881667	1192.311523	1036.482666
474.061170	6145.881667	1191.189453	1110.928589
474.061170	6145.881667	1190.066406	958.653442
474.061170	6145.881667	1188.944336	941.470032
474.061170	6145.881667	1187.821289	915.848206
474.061170	6145.881667	1186.698242	1112.401245
474.061170	6145.881667	1185.574219	809.018188
474.061170	6145.881667	1184.451172	860.661377
474.061170	6145.881667	1183.327148	746.000793
474.061170	6145.881667	1182.203125	746.880188
474.061170	6145.881667	1181.078125	625.912231
474.061170	6145.881667	1179.954102	486.019348
474.061170	6145.881667	1178.829102	504.648682
474.061170	6145.881667	1177.704102	465.074799
474.061170	6145.881667	1176.579102	349.308136
474.061170	6145.881667	1175.453125	400.017059
474.061170	6145.881667	1174.327148	451.263153
474.061170	6145.881667	1173.201172	335.426056
474.061170	6145.881667	1172.075195	435.657898
474.061170	6145.881667	1170.949219	374.650757
474.061170	6145.881667	1169.822266	444.337585
474.061170	6145.881667	1168.695313	384.253693
474.061170	6145.881667	1167.568359	431.757202
474.061170	6145.881667	1166.440430	426.727386
474.061170	6145.881667	1165.313477	264.765350
474.061170	6145.881667	1164.185547	176.367111
474.061170	6145.881667	1163.057617	93.728157
474.061170	6145.881667	1161.928711	207.300919
474.061170	6145.881667	1160.800781	50.891705
474.061170	6145.881667	1159.671875	269.230835
474.061170	6145.881667	1158.541992	252.453766
474.061170	6145.881667	1157.413086	138.638351
474.061170	6145.881667	1156.283203	213.427963
474.061170	6145.881667	1155.154297	99.169968
474.061170	6145.881667	1154.023438	110.686935
474.061170	6145.881667	1152.893555	290.609924
474.061170	6145.881667	1151.763672	83.549606
474.061170	6145.881667	1150.632813	-16.162767
474.061170	6145.881667	1149.501953	90.341248
474.061170	6145.881667	1148.370117	188.087280
474.061170	6145.881667	1147.239258	168.625931
474.061170	6145.881667	1146.107422	130.296768
474.061170	6145.881667	1144.975586	-40.638187
474.061170	6145.881667	1143.843750	-10.874482
474.061170	6145.881667	1142.710938	-109.545700
474.061170	6145.881667	1141.578125	-11.517722
474.061170	6145.881667	1140.445313	-143.487045
474.061170	6145.881667	1139.312500	16.547096
474.061170	6145.881667	1138.178711	125.079979
474.061170	6145.881667	1137.045898	217.171188
474.061170	6145.881667	1135.912109	48.936501
474.061170	6145.881667	1134.777344	67.465500
474.061170	6145.881667	1133.643555	60.942863
474.061170	6145.881667	1132.508789	132.991119
474.061170	6145.881667	1131.374023	404.555023
474.061170	6145.881667	1130.239258	340.690094
474.061170	6145.881667	1129.104492	201.026932
474.061170	6145.881667	1127.968750	385.111572
474.061170	6145.881667	1126.833008	272.075317
474.061170	6145.881667	1125.697266	277.139648
474.061170	6145.881667	1124.560547	401.424805
474.061170	6145.881667	1123.424805	297.585297
474.061170	6145.881667	1122.288086	297.208405
474.061170	6145.881667	1121.151367	246.884445
474.061170	6145.881667	1120.013672	192.243347
474.061170	6145.881667	1118.876953	256.432007
474.061170	6145.881667	1117.739258	453.672272
474.061170	6145.881667	1116.601563	325.686432
474.061170	6145.881667	1115.462891	252.390488
474.061170	6145.881667	1114.324219	232.148346
474.061170	6145.881667	1113.186523	159.295654
474.061170	6145.881667	1112.046875	202.747620
474.061170	6145.881667	1110.908203	218.334808
474.061170	6145.881667	1109.769531	322.459503
474.061170	6145.881667	1108.629883	552.149902
474.061170	6145.881667	1107.490234	222.572723
474.061170	6145.881667	1106.349609	139.803085
474.061170	6145.881667	1105.209961	197.766510
474.061170	6145.881667	1104.069336	390.292969
474.061170	6145.881667	1102.928711	487.204529
474.061170	6145.881667	1101.787109	424.294006
474.061170	6145.881667	1100.646484	620.290710
474.061170	6145.881667	1099.504883	230.964066
474.061170	6145.881667	1098.363281	333.766968
474.061170	6145.881667	1097.221680	401.355560
474.061170	6145.881667	1096.079102	313.052826
474.061170	6145.881667	1094.936523	418.763031
474.061170	6145.881667	1093.793945	261.323853
474.061170	6145.881667	1092.651367	-41.031403
474.061170	6145.881667	1091.507813	270.312164
474.061170	6145.881667	1090.364258	431.821381
474.061170	6145.881667	1089.220703	45.421856
474.061170	6145.881667	1088.077148	229.146683
474.061170	6145.881667	1086.933594	210.785751
474.061170	6145.881667	1085.789063	97.557442
474.061170	6145.881667	1084.644531	324.745026
474.061170	6145.881667	1083.499023	51.966286
474.061170	6145.881667	1082.354492	80.418892
474.061170	6145.881667	1081.208984	224.039627
474.061170	6145.881667	1080.063477	97.648979
474.061170	6145.881667	1078.917969	-43.487560
474.061170	6145.881667	1077.771484	-6.366574
474.061170	6145.881667	1076.625977	133.077988
474.061170	6145.881667	1075.479492	82.146004
474.061170	6145.881667	1074.332031	-20.768150
474.061170	6145.881667	1073.185547	212.736649
474.061170	6145.881667	1072.038086	81.096886
474.061170	6145.881667	1070.890625	147.336334
474.061170	6145.881667	1069.743164	193.530090
474.061170	6145.881667	1068.594727	-110.442612
474.061170	6145.881667	1067.447266	52.835171
474.061170	6145.881667	1066.298828	380.890594
474.061170	6145.881667	1065.149414	218.927582
474.061170	6145.881667	1064.000977	271.865173
474.061170	6145.881667	1062.851563	385.411041
474.061170	6145.881667	1061.702148	291.262939
474.061170	6145.881667	1060.552734	231.980362
474.061170	6145.881667	1059.402344	192.724640
474.061170	6145.881667	1058.252930	205.982330
474.061170	6145.881667	1057.102539	282.632874
474.061170	6145.881667	1055.951172	51.258114
474.061170	6145.881667	1054.800781	93.229546
474.061170	6145.881667	1053.649414	151.367859
474.061170	6145.881667	1052.498047	11.559436
474.061170	6145.881667	1051.346680	77.944817
474.061170	6145.881667	1050.194336	158.841446
474.061170	6145.881667	1049.042969	5.444241
474.061170	6145.881667	1047.890625	58.442844
474.061170	6145.881667	1046.738281	30.802849
474.061170	6145.881667	1045.584961	-79.525558
474.061170	6145.881667	1044.431641	31.254303
474.061170	6145.881667	1043.278320	-80.194550
474.061170	6145.881667	1042.125000	-66.986458
474.061170	6145.881667	1040.971680	101.125580
474.061170	6145.881667	1039.817383	-238.691544
474.061170	6145.881667	1038.663086	71.898010
474.061170	6145.881667	1037.508789	-105.119492
474.061170	6145.881667	1036.353516	-177.438538
474.061170	6145.881667	1035.198242	172.776779
474.061170	6145.881667	1034.042969	-21.048796
474.061170	6145.881667	1032.887695	183.734085
474.061170	6145.881667	1031.732422	159.346054
474.061170	6145.881667	1030.576172	12.787826
474.061170	6145.881667	1029.419922	-35.835030
474.061170	6145.881667	1028.263672	-78.480583
474.061170	6145.881667	1027.106445	20.924084
474.061170	6145.881667	1025.949219	-57.136490
474.061170	6145.881667	1024.792969	108.507851
474.061170	6145.881667	1023.634766	-222.728806
474.061170	6145.881667	1022.477539	-31.737225
474.061170	6145.881667	1021.319336	132.609818
474.061170	6145.881667	1020.161133	-116.384689
474.061170	6145.881667	1019.002930	-45.180759
474.061170	6145.881667	1017.843750	-296.803284
474.061170	6145.881667	1016.684570	-158.321243
474.061170	6145.881667	1015.525391	18.366840
474.061170	6145.881667	1014.366211	160.350769
474.061170	6145.881667	1013.207031	-19.627298
474.061170	6145.881667	1012.046875	-13.799405
474.061170	6145.881667	1010.886719	125.126884
474.061170	6145.881667	1009.726563	125.663254
474.061170	6145.881667	1008.565430	-75.630402
474.061170	6145.881667	1007.404297	240.572601
474.061170	6145.881667	1006.243164	-24.342041
474.061170	6145.881667	1005.082031	42.349270
474.061170	6145.881667	1003.920898	23.198246
474.061170	6145.881667	1002.758789	175.742233
474.061170	6145.881667	1001.596680	106.431053
474.061170	6145.881667	1000.433594	-184.271225
474.061170	6145.881667	999.271484	97.371216
474.061170	6145.881667	998.108398	-178.705688
474.061170	6145.881667	996.945313	256.944092
474.061170	6145.881667	995.782227	105.303902
474.061170	6145.881667	994.618164	128.217590
474.061170	6145.881667	993.454102	43.583385
474.061170	6145.881667	992.290039	-71.978615
474.061170	6145.881667	991.125977	14.280563
474.061170	6145.881667	989.960938	132.215424
474.061170	6145.881667	988.796875	32.354153
474.061170	6145.881667	987.630859	-1.843285
474.061170	6145.881667	986.465820	69.391609
474.061170	6145.881667	985.300781	92.170143
474.061170	6145.881667	984.134766	221.262695
474.061170	6145.881667	982.968750	347.358765
474.061170	6145.881667	981.801758	402.175903
474.061170	6145.881667	980.635742	290.644073
474.061170	6145.881667	979.468750	216.778534
474.061170	6145.881667	978.301758	188.779617
474.061170	6145.881667	977.133789	346.573822
474.061170	6145.881667	975.966797	395.146881
474.061170	6145.881667	974.798828	556.423096
474.061170	6145.881667	973.630859	460.913452
474.061170	6145.881667	972.461914	322.356842
474.061170	6145.881667	971.293945	442.500916
474.061170	6145.881667	970.125000	407.468018
474.061170	6145.881667	968.956055	277.867828
474.061170	6145.881667	967.786133	254.658920
474.061170	6145.881667	966.617188	233.190659
474.061170	6145.881667	965.447266	12.540340
474.061170	6145.881667	964.276367	-56.798985
474.061170	6145.881667	963.106445	118.116943
474.061170	6145.881667	961.935547	-70.600563
474.061170	6145.881667	960.764648	125.290161
474.061170	6145.881667	959.593750	61.833035
474.061170	6145.881667	958.422852	246.895218
474.061170	6145.881667	957.250977	-279.915527
474.061170	6145.881667	956.079102	-13.407241
474.061170	6145.881667	954.907227	-9.180548
474.061170	6145.881667	953.734375	56.407413
474.061170	6145.881667	952.562500	-71.132294
474.061170	6145.881667	951.389648	69.760468
474.061170	6145.881667	950.215820	-36.310890
474.061170	6145.881667	949.042969	-163.824417
474.061170	6145.881667	947.869141	-95.193741
474.061170	6145.881667	946.695313	-12.226757
474.061170	6145.881667	945.521484	129.625351
474.061170	6145.881667	944.346680	124.183952
474.061170	6145.881667	943.172852	26.789608
474.061170	6145.881667	941.998047	-39.553608
474.061170	6145.881667	940.822266	43.894447
474.061170	6145.881667	939.647461	130.281097
474.061170	6145.881667	938.471680	-49.201225
474.061170	6145.881667	937.295898	58.275524
474.061170	6145.881667	936.119141	175.154633
474.061170	6145.881667	934.943359	282.858032
474.061170	6145.881667	933.766602	387.426575
474.061170	6145.881667	932.589844	351.375946
474.061170	6145.881667	931.413086	385.489288
474.061170	6145.881667	930.235352	266.996857
474.061170	6145.881667	929.057617	7.940807
474.061170	6145.881667	927.879883	142.931412
474.061170	6145.881667	926.702148	21.357323
474.061170	6145.881667	925.523438	192.854004
474.061170	6145.881667	924.344727	220.850342
474.061170	6145.881667	923.166016	-89.936882
474.061170	6145.881667	921.987305	334.708130
474.061170	6145.881667	920.807617	185.666794
474.061170	6145.881667	919.627930	191.115189
474.061170	6145.881667	919.497070	-35.930210
474.061170	6145.881667	918.331055	-26.378262
474.061170	6145.881667	917.165039	-29.052771
474.061170	6145.881667	915.999023	-95.762360
474.061170	6145.881667	914.833008	-77.142799
474.061170	6145.881667	913.666016	127.307327
474.061170	6145.881667	912.499023	100.130432
474.061170	6145.881667	911.332031	72.938805
474.061170	6145.881667	910.165039	-109.565445
474.061170	6145.881667	908.997070	115.931503
474.061170	6145.881667	907.830078	24.752075
474.061170	6145.881667	906.661133	-93.797028
474.061170	6145.881667	905.493164	-63.245220
474.061170	6145.881667	904.325195	-50.985741
474.061170	6145.881667	903.156250	-209.065231
474.061170	6145.881667	901.987305	-120.814133
474.061170	6145.881667	900.818359	-111.668007
474.061170	6145.881667	899.648438	167.961182
474.061170	6145.881667	898.478516	-8.374109
474.061170	6145.881667	897.308594	-90.480553
474.061170	6145.881667	896.138672	-29.816187
474.061170	6145.881667	894.968750	-124.088089
474.061170	6145.881667	893.797852	-39.202484
474.061170	6145.881667	892.626953	12.228173
474.061170	6145.881667	891.456055	96.996811
474.061170	6145.881667	890.284180	175.636597
474.061170	6145.881667	889.113281	81.282219
474.061170	6145.881667	887.941406	193.203156
474.061170	6145.881667	886.768555	38.182468
474.061170	6145.881667	885.596680	125.753479
474.061170	6145.881667	884.423828	40.475513
474.061170	6145.881667	883.250977	18.849592
474.061170	6145.881667	882.078125	-163.393860
474.061170	6145.881667	880.905273	-157.760757
474.061170	6145.881667	879.731445	14.435155
474.061170	6145.881667	878.557617	-34.532551
474.061170	6145.881667	877.383789	-174.339706
474.061170	6145.881667	876.209961	-35.629906
474.061170	6145.881667	875.035156	-123.984589
474.061170	6145.881667	873.860352	50.912876
474.061170	6145.881667	872.685547	86.551704
474.061170	6145.881667	871.510742	-110.744911
474.061170	6145.881667	870.334961	3.479580
474.061170	6145.881667	869.159180	250.655197
474.061170	6145.881667	867.983398	-143.115601
474.061170	6145.881667	866.807617	-146.903137
474.061170	6145.881667	865.630859	-54.029312
474.061170	6145.881667	864.454102	114.298302
474.061170	6145.881667	863.277344	-82.921333
474.061170	6145.881667	862.100586	-195.539825
474.061170	6145.881667	860.922852	96.405998
474.061170	6145.881667	859.745117	-19.278656
474.061170	6145.881667	858.567383	-62.518642
474.061170	6145.881667	857.389648	343.781677
474.061170	6145.881667	856.210938	158.650818
474.061170	6145.881667	855.032227	15.787643
474.061170	6145.881667	853.853516	117.191109
474.061170	6145.881667	852.674805	-67.871262
474.061170	6145.881667	851.495117	-29.845684
474.061170	6145.881667	850.315430	-25.013659
474.061170	6145.881667	849.135742	-56.367432
474.061170	6145.881667	847.956055	-63.642422
474.061170	6145.881667	846.775391	151.914276
474.061170	6145.881667	845.595703	-162.579346
474.061170	6145.881667	844.415039	-25.422112
474.061170	6145.881667	843.233398	-117.086845
474.061170	6145.881667	842.052734	-1.121392
474.061170	6145.881667	840.871094	120.785591
474.061170	6145.881667	839.689453	50.107708
474.061170	6145.881667	838.506836	156.857437
474.061170	6145.881667	837.325195	29.012541
474.061170	6145.881667	836.142578	-50.713531
474.061170	6145.881667	834.959961	70.923454
474.061170	6145.881667	833.777344	-23.865633
474.061170	6145.881667	832.593750	52.591698
474.061170	6145.881667	831.410156	-123.310829
474.061170	6145.881667	830.226563	61.175728
474.061170	6145.881667	829.042969	-21.649864
474.061170	6145.881667	827.858398	3.588880
474.061170	6145.881667	826.673828	-4.225937
474.061170	6145.881667	825.489258	50.937840
474.061170	6145.881667	824.304688	58.049866
474.061170	6145.881667	823.120117	26.136436
474.061170	6145.881667	821.934570	60.174484
474.061170	6145.881667	820.749023	127.142929
474.061170	6145.881667	819.562500	20.207125
474.061170	6145.881667	818.376953	230.932602
474.061170	6145.881667	817.190430	67.028038
474.061170	6145.881667	816.003906	184.732224
474.061170	6145.881667	814.817383	152.611511
474.061170	6145.881667	813.629883	78.552773
474.061170	6145.881667	812.442383	184.109360
474.061170	6145.881667	811.254883	112.999916
474.061170	6145.881667	810.067383	-53.869358
474.061170	6145.881667	808.878906	-20.254267
474.061170	6145.881667	807.690430	49.208202
474.061170	6145.881667	806.501953	154.493561
474.061170	6145.881667	805.313477	-30.321127
474.061170	6145.881667	804.124023	3.127379
474.061170	6145.881667	802.934570	126.187553
474.061170	6145.881667	801.745117	87.806580
474.061170	6145.881667	800.555664	7.583019
474.061170	6145.881667	799.365234	-24.850479
474.061170	6145.881667	798.175781	53.181942
474.061170	6145.881667	796.985352	8.739563
474.061170	6145.881667	795.793945	113.530235
474.061170	6145.881667	794.603516	6.352062
474.061170	6145.881667	793.412109	-76.945808
474.061170	6145.881667	792.220703	-64.784172
474.061170	6145.881667	791.028320	-1.959298
474.061170	6145.881667	789.836914	36.946297
474.061170	6145.881667	788.644531	-46.429409
474.061170	6145.881667	787.452148	34.129627
474.061170	6145.881667	786.258789	-168.482559
474.061170	6145.881667	785.066406	-96.941978
474.061170	6145.881667	783.873047	-73.127510
474.061170	6145.881667	782.679688	84.659439
474.061170	6145.881667	781.485352	-97.095406
474.061170	6145.881667	780.291992	-115.080544
474.061170	6145.881667	779.097656	57.390377
474.061170	6145.881667	777.903320	164.287537
474.061170	6145.881667	776.708008	21.198109
474.061170	6145.881667	775.512695	-17.763126
474.061170	6145.881667	774.318359	-128.117981
474.061170	6145.881667	773.122070	-74.934105
474.061170	6145.881667	771.926758	106.011299
474.061170	6145.881667	770.730469	150.134613
474.061170	6145.881667	769.534180	212.029282
474.061170	6145.881667	768.337891	74.820244
474.061170	6145.881667	767.141602	-2.965210
474.061170	6145.881667	765.944336	174.622116
474.061170	6145.881667	764.747070	236.311554
474.061170	6145.881667	763.549805	30.792494
474.061170	6145.881667	762.351563	285.309937
474.061170	6145.881667	761.154297	168.800446
474.061170	6145.881667	759.956055	153.162231
474.061170	6145.881667	758.757813	48.517395
474.061170	6145.881667	757.558594	338.249481
474.061170	6145.881667	756.359375	162.383957
474.061170	6145.881667	755.160156	31.012545
474.061170	6145.881667	753.960938	178.212357
474.061170	6145.881667	752.761719	49.778252
474.061170	6145.881667	751.561523	232.380783
474.061170	6145.881667	750.361328	240.141235
474.061170	6145.881667	749.160156	170.876587
474.061170	6145.881667	747.959961	71.999626
474.061170	6145.881667	746.758789	195.098389
474.061170	6145.881667	745.557617	190.868530
474.061170	6145.881667	744.356445	-73.737846
474.061170	6145.881667	743.154297	28.492559
474.061170	6145.881667	741.952148	-70.446648
474.061170	6145.881667	740.750000	111.489433
474.061170	6145.881667	739.547852	145.513641
474.061170	6145.881667	738.344727	217.902649
474.061170	6145.881667	737.142578	27.254398
474.061170	6145.881667	735.939453	135.007935
474.061170	6145.881667	734.735352	127.492241
474.061170	6145.881667	733.532227	270.535950
474.061170	6145.881667	732.328125	88.734138
474.061170	6145.881667	731.124023	160.807312
474.061170	6145.881667	729.918945	20.339512
474.061170	6145.881667	728.714844	169.026810
474.061170	6145.881667	727.509766	75.732635
474.061170	6145.881667	726.303711	85.657074
474.061170	6145.881667	725.098633	127.971970
474.061170	6145.881667	723.892578	170.228073
474.061170	6145.881667	722.686523	132.850189
474.061170	6145.881667	721.480469	216.262161
474.061170	6145.881667	720.274414	205.324326
474.061170	6145.881667	719.067383	135.442749
474.061170	6145.881667	717.860352	118.556076
474.061170	6145.881667	716.653320	128.135010
474.061170	6145.881667	715.445313	-91.930107
474.061170	6145.881667	714.238281	153.046860
474.061170	6145.881667	713.030273	106.586784
474.061170	6145.881667	711.821289	115.999184
474.061170	6145.881667	710.613281	240.071930
474.061170	6145.881667	709.404297	-6.453549
474.061170	6145.881667	708.195313	-82.400093
474.061170	6145.881667	706.986328	194.357346
474.061170	6145.881667	705.776367	159.459869
474.061170	6145.881667	704.566406	98.094528
474.061170	6145.881667	703.356445	-98.406601
474.061170	6145.881667	702.146484	42.868629
474.061170	6145.881667	700.935547	-115.449516
474.061170	6145.881667	699.724609	-44.764683
474.061170	6145.881667	698.513672	157.923203
474.061170	6145.881667	697.302734	2.496021
474.061170	6145.881667	696.090820	-6.220763
474.061170	6145.881667	694.878906	58.354702
474.061170	6145.881667	693.666992	-14.965003
474.061170	6145.881667	692.455078	-199.704224
474.061170	6145.881667	691.242188	-79.555183
474.061170	6145.881667	690.029297	-0.525744
474.061170	6145.881667	688.816406	72.570717
474.061170	6145.881667	687.602539	-21.380985
474.061170	6145.881667	686.389648	39.895664
474.061170	6145.881667	685.175781	159.668243
474.061170	6145.881667	683.960938	97.842033
474.061170	6145.881667	682.747070	179.424210
474.061170	6145.881667	681.532227	117.540588
474.061170	6145.881667	680.317383	114.158188
474.061170	6145.881667	679.102539	49.311333
474.061170	6145.881667	677.886719	-36.019676
474.061170	6145.881667	676.670898	51.154778
474.061170	6145.881667	675.455078	-34.218884
474.061170	6145.881667	674.239258	23.615337
474.061170	6145.881667	673.022461	46.320271
474.061170	6145.881667	671.805664	-9.901444
474.061170	6145.881667	670.588867	208.418121
474.061170	6145.881667	669.372070	277.677551
474.061170	6145.881667	668.154297	95.786636
474.061170	6145.881667	666.936523	179.557556
474.061170	6145.881667	665.718750	143.604706
474.061170	6145.881667	664.500977	75.533760
474.061170	6145.881667	663.282227	77.463379
474.061170	6145.881667	662.063477	105.603310
474.061170	6145.881667	660.844727	101.619774
474.061170	6145.881667	659.625000	193.802261
474.061170	6145.881667	658.405273	67.310829
474.061170	6145.881667	657.185547	-76.647301
474.061170	6145.881667	655.965820	3.751328
474.061170	6145.881667	654.745117	104.467033
474.061170	6145.881667	653.525391	-22.044245
474.061170	6145.881667	652.303711	-43.724300
474.061170	6145.881667	651.083008	88.849579
474.061170	6145.881667	649.861328	-52.240181
474.061170	6145.881667	648.640625	80.209671
474.061170	6145.881667	647.417969	189.291214
474.061170	6145.881667	646.196289	-62.357666
474.061170	6145.881667	644.973633	-40.598087
474.061170	6145.881667	643.750977	16.005762
474.061170	6145.881667	642.528320	-110.567345
474.061170	6145.881667	641.305664	-94.725349
474.061170	6145.881667	640.082031	28.573845
474.061170	6145.881667	638.858398	-13.785586
474.061170	6145.881667	637.634766	-207.177383
474.061170	6145.881667	636.410156	130.829147
474.061170	6145.881667	635.185547	187.074326
474.061170	6145.881667	633.960938	5.271358
474.061170	6145.881667	632.736328	64.356071
474.061170	6145.881667	631.510742	97.271790
474.061170	6145.881667	630.285156	-14.882255
474.061170	6145.881667	629.059570	67.270226
474.061170	6145.881667	627.833984	76.877007
474.061170	6145.881667	626.607422	129.925278
474.061170	6145.881667	625.380859	-173.537369
474.061170	6145.881667	624.154297	-140.800659
474.061170	6145.881667	622.927734	-24.100555
474.061170	6145.881667	621.700195	-14.641369
474.061170	6145.881667	620.472656	-248.442780
474.061170	6145.881667	619.245117	-73.984909
474.061170	6145.881667	618.016602	10.643146
474.061170	6145.881667	616.788086	17.076069
474.061170	6145.881667	615.559570	-112.498276
474.061170	6145.881667	614.331055	131.088440
474.061170	6145.881667	613.101563	-18.755873
474.061170	6145.881667	611.872070	68.521545
474.061170	6145.881667	610.642578	155.735519
474.061170	6145.881667	609.413086	-129.929001
474.061170	6145.881667	608.182617	-34.096394
474.061170	6145.881667	606.952148	157.001038
474.061170	6145.881667	605.721680	171.811935
474.061170	6145.881667	604.491211	-99.279526
474.061170	6145.881667	603.259766	-64.263008
474.061170	6145.881667	602.028320	-107.217422
474.061170	6145.881667	600.796875	-14.546639
474.061170	6145.881667	599.564453	-103.705223
474.061170	6145.881667	598.332031	-37.083534
474.061170	6145.881667	597.099609	225.592285
474.061170	6145.881667	595.867188	52.757240
474.061170	6145.881667	594.633789	-39.312820
474.061170	6145.881667	593.400391	76.143196
474.061170	6145.881667	592.166992	180.003647
474.061170	6145.881667	590.933594	4.358809
474.061170	6145.881667	589.699219	-58.905148
474.061170	6145.881667	588.464844	-81.847374
474.061170	6145.881667	587.230469	-136.468414
474.061170	6145.881667	585.995117	122.656937
474.061170	6145.881667	584.760742	-26.986416
474.061170	6145.881667	583.525391	-58.623730
474.061170	6145.881667	582.289063	33.423141
474.061170	6145.881667	581.053711	-93.153786
474.061170	6145.881667	579.817383	96.589111
474.061170	6145.881667	578.581055	-4.109337
474.061170	6145.881667	577.343750	-124.903114
474.061170	6145.881667	576.107422	127.895004
474.061170	6145.881667	574.870117	64.552788
474.061170	6145.881667	573.631836	-13.141247
474.061170	6145.881667	572.394531	35.540215
474.061170	6145.881667	571.156250	-73.723007
474.061170	6145.881667	569.917969	-7.857053
474.061170	6145.881667	568.679688	66.577988
474.061170	6145.881667	567.440430	3.245448
474.061170	6145.881667	566.202148	11.645202
474.061170	6145.881667	564.961914	94.591537
474.061170	6145.881667	563.722656	-8.883222
474.061170	6145.881667	562.482422	96.945549
474.061170	6145.881667	561.243164	36.485966
474.061170	6145.881667	560.001953	-64.079590
474.061170	6145.881667	558.761719	-135.958969
474.061170	6145.881667	557.520508	-24.504751
474.061170	6145.881667	556.279297	-125.018005
474.061170	6145.881667	555.038086	-194.002213
474.061170	6145.881667	553.795898	86.250824
474.061170	6145.881667	552.554688	286.249847
474.061170	6145.881667	551.311523	157.109756
474.061170	6145.881667	550.069336	199.657898
474.061170	6145.881667	548.826172	124.920555
474.061170	6145.881667	547.583984	104.541237
474.061170	6145.881667	546.339844	109.888687
474.061170	6145.881667	545.096680	69.502213
474.061170	6145.881667	543.852539	26.268383
474.061170	6145.881667	542.608398	54.473011
474.061170	6145.881667	541.364258	105.512970
474.061170	6145.881667	540.119141	-103.345032
474.061170	6145.881667	538.875000	-146.516098
474.061170	6145.881667	537.628906	-55.516293
474.061170	6145.881667	536.383789	72.546165
474.061170	6145.881667	535.137695	-116.162895
474.061170	6145.881667	533.892578	-162.155304
474.061170	6145.881667	532.645508	25.731579
474.061170	6145.881667	531.399414	-3.168141
474.061170	6145.881667	530.152344	-54.864441
474.061170	6145.881667	528.905273	4.619806
474.061170	6145.881667	527.658203	-58.453392
474.061170	6145.881667	526.410156	-38.881863
474.061170	6145.881667	525.163086	66.137901
474.061170	6145.881667	523.914063	14.480405
474.061170	6145.881667	522.666016	11.251127
474.061170	6145.881667	521.416992	-94.453514
474.061170	6145.881667	520.167969	-100.503181
474.061170	6145.881667	518.918945	-208.978714
474.061170	6145.881667	517.669922	-52.847729
474.061170	6145.881667	516.419922	-164.129791
474.061170	6145.881667	515.169922	-5.228834
474.061170	6145.881667	513.919922	-56.766773
474.061170	6145.881667	512.668945	-82.702698
474.061170	6145.881667	511.417969	-74.523590
474.061170	6145.881667	510.166992	158.097778
474.061170	6145.881667	508.916016	75.334328
474.061170	6145.881667	507.664063	-101.107071
474.061170	6145.881667	506.412109	12.129284
474.061170	6145.881667	505.160156	-76.219307
474.061170	6145.881667	503.907227	-28.306360
474.061170	6145.881667	502.655273	192.673126
474.061170	6145.881667	501.402344	7.899412
474.061170	6145.881667	500.148438	203.250336
474.061170	6145.881667	498.895508	-77.848099
474.061170	6145.881667	497.641602	69.250130
474.061170	6145.881667	496.387695	100.079208
474.061170	6145.881667	495.132813	-81.632698
474.061170	6145.881667	493.878906	-59.278080
474.061170	6145.881667	492.624023	206.661072
474.061170	6145.881667	491.368164	101.507744
474.061170	6145.881667	490.113281	84.173027
474.061170	6145.881667	488.857422	-238.868088
474.061170	6145.881667	487.601563	202.348022
474.061170	6145.881667	486.344727	-21.550261
474.061170	6145.881667	485.088867	207.265991
474.061170	6145.881667	483.832031	167.298004
474.061170	6145.881667	482.575195	79.276863
474.061170	6145.881667	481.317383	307.914764
474.061170	6145.881667	480.059570	157.713242
474.061170	6145.881667	478.801758	236.463638
474.061170	6145.881667	477.543945	397.107727
474.061170	6145.881667	476.285156	309.112427
474.061170	6145.881667	475.027344	192.913788
474.061170	6145.881667	473.767578	370.382721
474.061170	6145.881667	472.508789	223.156479
474.061170	6145.881667	471.249023	290.465393
474.061170	6145.881667	469.989258	179.980545
474.061170	6145.881667	468.729492	348.805481
474.061170	6145.881667	467.469727	150.907944
474.061170	6145.881667	466.208984	127.901970
474.061170	6145.881667	464.948242	262.764130
474.061170	6145.881667	463.686523	203.075134
474.061170	6145.881667	462.425781	185.669098
474.061170	6145.881667	461.164063	89.367615
474.061170	6145.881667	459.901367	108.571701
474.061170	6145.881667	458.639648	293.897583
474.061170	6145.881667	457.376953	253.885422
474.061170	6145.881667	456.114258	258.906952
474.061170	6145.881667	454.851563	-23.148718
474.061170	6145.881667	453.587891	322.326874
474.061170	6145.881667	452.324219	133.154556
474.061170	6145.881667	451.060547	183.090454
474.061170	6145.881667	449.796875	92.384697
474.061170	6145.881667	448.532227	136.621002
474.061170	6145.881667	447.267578	234.204025
474.061170	6145.881667	446.002930	-33.586010
474.061170	6145.881667	444.737305	-37.221348
474.061170	6145.881667	443.471680	209.083389
474.061170	6145.881667	442.206055	84.564247
474.061170	6145.881667	440.940430	232.384964
474.061170	6145.881667	439.673828	248.166626
474.061170	6145.881667	438.407227	176.894592
474.061170	6145.881667	437.140625	203.802689
474.061170	6145.881667	435.873047	6.231330
474.061170	6145.881667	434.605469	114.378654
474.061170	6145.881667	433.337891	345.790710
474.061170	6145.881667	432.070313	190.185364
474.061170	6145.881667	430.801758	191.527481
474.061170	6145.881667	429.533203	80.717194
474.061170	6145.881667	428.264648	238.822632
474.061170	6145.881667	426.996094	211.927505
474.061170	6145.881667	425.726563	187.760757
474.061170	6145.881667	424.457031	468.683258
474.061170	6145.881667	423.186523	164.394333
474.061170	6145.881667	421.916992	142.794159
474.061170	6145.881667	420.646484	188.252426
474.061170	6145.881667	419.375977	362.265564
474.061170	6145.881667	418.104492	88.638634
474.061170	6145.881667	416.833008	340.674652
474.061170	6145.881667	415.561523	251.451477
474.061170	6145.881667	414.290039	410.889618
474.061170	6145.881667	413.017578	176.154709
474.061170	6145.881667	411.746094	81.081818
474.061170	6145.881667	410.472656	217.728790
474.061170	6145.881667	409.200195	273.210022
474.061170	6145.881667	407.926758	381.567230
474.061170	6145.881667	406.653320	-141.067825
474.061170	6145.881667	405.379883	126.102501
474.061170	6145.881667	404.105469	16.353514
474.061170	6145.881667	402.831055	177.059143
474.061170	6145.881667	401.556641	111.642540
474.061170	6145.881667	400.282227	87.905663
474.061170	6145.881667	399.006836	211.734100
474.061170	6145.881667	397.731445	-71.563751
474.061170	6145.881667	396.456055	-28.928572
474.061170	6145.881667	395.179688	108.199158
474.061170	6145.881667	393.903320	25.041870
474.061170	6145.881667	392.626953	100.427940
474.061170	6145.881667	391.350586	92.047905
474.061170	6145.881667	390.073242	230.956116
474.061170	6145.881667	388.795898	46.783161
474.061170	6145.881667	387.518555	93.364594
474.061170	6145.881667	386.240234	11.725396
474.061170	6145.881667	384.961914	205.173889
474.061170	6145.881667	383.683594	131.371292
474.061170	6145.881667	382.405273	90.688591
474.061170	6145.881667	381.125977	102.539871
474.061170	6145.881667	379.846680	166.889755
474.061170	6145.881667	378.567383	180.915329
474.061170	6145.881667	377.287109	-44.219578
474.061170	6145.881667	376.006836	-155.728027
474.061170	6145.881667	374.726563	32.301838
474.061170	6145.881667	373.446289	-127.010330
474.061170	6145.881667	372.165039	162.916458
474.061170	6145.881667	370.883789	174.944473
474.061170	6145.881667	369.602539	-60.246700
474.061170	6145.881667	368.320313	20.405874
474.061170	6145.881667	367.039063	133.919418
474.061170	6145.881667	365.755859	-160.486725
474.061170	6145.881667	364.473633	57.514217
474.061170	6145.881667	363.190430	3.473755
474.061170	6145.881667	361.907227	65.369774
474.061170	6145.881667	360.624023	-75.366783
474.061170	6145.881667	359.340820	-100.203651
474.061170	6145.881667	358.056641	107.021217
474.061170	6145.881667	356.772461	133.787003
474.061170	6145.881667	355.487305	124.067017
474.061170	6145.881667	354.202148	196.839630
474.061170	6145.881667	352.916992	147.372177
474.061170	6145.881667	351.631836	-29.801674
474.061170	6145.881667	350.346680	257.005768
474.061170	6145.881667	349.060547	-15.204221
474.061170	6145.881667	347.774414	-152.463440
474.061170	6145.881667	346.487305	-215.672485
474.061170	6145.881667	345.200195	46.478931
474.061170	6145.881667	343.913086	-37.294605
474.061170	6145.881667	342.625977	46.752487
474.061170	6145.881667	341.338867	85.949478
474.061170	6145.881667	340.050781	-234.321915
474.061170	6145.881667	338.762695	-174.373703
474.061170	6145.881667	337.473633	-95.860008
474.061170	6145.881667	336.184570	28.786421
474.061170	6145.881667	334.895508	75.440147
474.061170	6145.881667	333.606445	201.266434
474.061170	6145.881667	332.317383	-106.443810
474.061170	6145.881667	331.027344	-183.366730
474.061170	6145.881667	329.736328	-208.744156
474.061170	6145.881667	328.446289	-229.405792
474.061170	6145.881667	327.155273	65.748596
474.061170	6145.881667	325.864258	123.138657
474.061170	6145.881667	324.573242	-43.338413
474.061170	6145.881667	323.281250	-40.059116
474.061170	6145.881667	321.989258	-23.955572
474.061170	6145.881667	320.697266	7.694481
474.061170	6145.881667	319.405273	186.863907
474.061170	6145.881667	318.112305	-69.495209
474.061170	6145.881667	316.819336	-178.319611
474.061170	6145.881667	315.526367	69.142632
474.061170	6145.881667	314.232422	15.897681
474.061170	6145.881667	312.938477	74.215843
474.061170	6145.881667	311.644531	-102.059402
474.061170	6145.881667	310.349609	-128.408096
474.061170	6145.881667	309.054688	80.186287
474.061170	6145.881667	307.759766	243.581573
474.061170	6145.881667	306.464844	155.972992
474.061170	6145.881667	305.168945	366.162262
474.061170	6145.881667	303.873047	347.324829
474.061170	6145.881667	302.577148	275.091095
474.061170	6145.881667	301.281250	645.717957
474.061170	6145.881667	299.984375	631.027710
