#X		#Y		#Wave		#Intensity
30700.935957	-3104.201000	1999.980469	-114.459763
30700.935957	-3104.201000	1999.016602	179.013016
30700.935957	-3104.201000	1998.052734	-98.949409
30700.935957	-3104.201000	1997.087891	-158.838577
30700.935957	-3104.201000	1996.123047	66.123878
30700.935957	-3104.201000	1995.158203	243.832550
30700.935957	-3104.201000	1994.193359	34.996513
30700.935957	-3104.201000	1993.228516	118.336601
30700.935957	-3104.201000	1992.262695	57.944969
30700.935957	-3104.201000	1991.297852	-118.870026
30700.935957	-3104.201000	1990.332031	209.157745
30700.935957	-3104.201000	1989.366211	91.559647
30700.935957	-3104.201000	1988.399414	43.173679
30700.935957	-3104.201000	1987.433594	-27.559971
30700.935957	-3104.201000	1986.466797	-125.571167
30700.935957	-3104.201000	1985.500977	35.975307
30700.935957	-3104.201000	1984.534180	-153.686707
30700.935957	-3104.201000	1983.567383	165.789429
30700.935957	-3104.201000	1982.599609	134.131927
30700.935957	-3104.201000	1981.632813	-60.686359
30700.935957	-3104.201000	1980.665039	3.850917
30700.935957	-3104.201000	1979.697266	-205.891495
30700.935957	-3104.201000	1978.729492	-373.672760
30700.935957	-3104.201000	1977.761719	-183.494125
30700.935957	-3104.201000	1976.792969	-136.655243
30700.935957	-3104.201000	1975.825195	-10.953377
30700.935957	-3104.201000	1974.856445	-11.242370
30700.935957	-3104.201000	1973.887695	64.853004
30700.935957	-3104.201000	1972.918945	5.159658
30700.935957	-3104.201000	1971.949219	-128.593079
30700.935957	-3104.201000	1970.980469	33.499691
30700.935957	-3104.201000	1970.010742	89.430939
30700.935957	-3104.201000	1969.041016	54.051044
30700.935957	-3104.201000	1968.071289	432.606934
30700.935957	-3104.201000	1967.101563	145.675568
30700.935957	-3104.201000	1966.130859	107.567879
30700.935957	-3104.201000	1965.161133	59.535610
30700.935957	-3104.201000	1964.190430	23.742596
30700.935957	-3104.201000	1963.219727	-130.303940
30700.935957	-3104.201000	1962.249023	18.398842
30700.935957	-3104.201000	1961.277344	169.419235
30700.935957	-3104.201000	1960.306641	-56.187351
30700.935957	-3104.201000	1959.334961	25.736219
30700.935957	-3104.201000	1958.363281	-118.757446
30700.935957	-3104.201000	1957.391602	326.961456
30700.935957	-3104.201000	1956.419922	150.337189
30700.935957	-3104.201000	1955.447266	221.994232
30700.935957	-3104.201000	1954.474609	37.917156
30700.935957	-3104.201000	1953.501953	126.612732
30700.935957	-3104.201000	1952.529297	222.568176
30700.935957	-3104.201000	1951.556641	121.882050
30700.935957	-3104.201000	1950.583984	-177.788498
30700.935957	-3104.201000	1949.610352	-89.430786
30700.935957	-3104.201000	1948.636719	47.922649
30700.935957	-3104.201000	1947.663086	-25.957775
30700.935957	-3104.201000	1946.689453	-220.147354
30700.935957	-3104.201000	1945.715820	49.442688
30700.935957	-3104.201000	1944.741211	-9.897988
30700.935957	-3104.201000	1943.767578	122.044830
30700.935957	-3104.201000	1942.792969	69.929619
30700.935957	-3104.201000	1941.818359	-232.344086
30700.935957	-3104.201000	1940.842773	-90.842369
30700.935957	-3104.201000	1939.868164	-177.411057
30700.935957	-3104.201000	1938.892578	66.820648
30700.935957	-3104.201000	1937.916992	291.291595
30700.935957	-3104.201000	1936.941406	-23.327492
30700.935957	-3104.201000	1935.965820	176.454437
30700.935957	-3104.201000	1934.990234	221.821747
30700.935957	-3104.201000	1934.013672	127.547684
30700.935957	-3104.201000	1933.037109	158.090912
30700.935957	-3104.201000	1932.060547	-56.186504
30700.935957	-3104.201000	1931.083984	265.448608
30700.935957	-3104.201000	1930.107422	205.243088
30700.935957	-3104.201000	1929.129883	-148.536041
30700.935957	-3104.201000	1928.153320	-15.557472
30700.935957	-3104.201000	1927.175781	178.440567
30700.935957	-3104.201000	1926.198242	-126.416916
30700.935957	-3104.201000	1925.219727	135.847778
30700.935957	-3104.201000	1924.242188	-44.367271
30700.935957	-3104.201000	1923.263672	-21.777319
30700.935957	-3104.201000	1922.285156	-255.757217
30700.935957	-3104.201000	1921.306641	18.326477
30700.935957	-3104.201000	1920.328125	99.333710
30700.935957	-3104.201000	1919.349609	175.376404
30700.935957	-3104.201000	1918.370117	109.748215
30700.935957	-3104.201000	1917.391602	-290.267395
30700.935957	-3104.201000	1916.412109	-89.909943
30700.935957	-3104.201000	1915.431641	188.385406
30700.935957	-3104.201000	1914.452148	259.195343
30700.935957	-3104.201000	1913.472656	-143.200348
30700.935957	-3104.201000	1912.492188	29.948662
30700.935957	-3104.201000	1911.511719	185.918274
30700.935957	-3104.201000	1910.531250	-179.832077
30700.935957	-3104.201000	1909.550781	110.053497
30700.935957	-3104.201000	1908.569336	26.987167
30700.935957	-3104.201000	1907.588867	-243.666748
30700.935957	-3104.201000	1906.607422	-83.172279
30700.935957	-3104.201000	1905.625977	108.873604
30700.935957	-3104.201000	1904.644531	-225.097092
30700.935957	-3104.201000	1903.662109	-171.949875
30700.935957	-3104.201000	1902.680664	-43.413788
30700.935957	-3104.201000	1901.698242	12.018077
30700.935957	-3104.201000	1900.715820	152.536011
30700.935957	-3104.201000	1899.733398	-6.234715
30700.935957	-3104.201000	1898.750000	-70.152084
30700.935957	-3104.201000	1897.767578	-61.138168
30700.935957	-3104.201000	1896.784180	-117.817421
30700.935957	-3104.201000	1895.800781	287.293549
30700.935957	-3104.201000	1894.817383	87.099205
30700.935957	-3104.201000	1893.833984	-103.347557
30700.935957	-3104.201000	1892.850586	179.937775
30700.935957	-3104.201000	1891.866211	11.307746
30700.935957	-3104.201000	1890.881836	-213.156448
30700.935957	-3104.201000	1889.897461	-107.388336
30700.935957	-3104.201000	1888.913086	-4.131975
30700.935957	-3104.201000	1887.927734	191.259888
30700.935957	-3104.201000	1886.943359	180.283844
30700.935957	-3104.201000	1885.958008	-226.187576
30700.935957	-3104.201000	1884.972656	-81.936348
30700.935957	-3104.201000	1883.987305	25.838297
30700.935957	-3104.201000	1883.001953	-55.599998
30700.935957	-3104.201000	1882.015625	73.850754
30700.935957	-3104.201000	1881.029297	329.244629
30700.935957	-3104.201000	1880.042969	-159.469238
30700.935957	-3104.201000	1879.056641	192.697342
30700.935957	-3104.201000	1878.070313	-12.472537
30700.935957	-3104.201000	1877.083984	97.245613
30700.935957	-3104.201000	1876.096680	-6.226241
30700.935957	-3104.201000	1875.109375	-141.177628
30700.935957	-3104.201000	1874.122070	-82.475922
30700.935957	-3104.201000	1873.134766	-6.900590
30700.935957	-3104.201000	1872.146484	-110.467400
30700.935957	-3104.201000	1871.159180	-112.426727
30700.935957	-3104.201000	1870.170898	-131.370529
30700.935957	-3104.201000	1869.182617	101.154037
30700.935957	-3104.201000	1868.194336	-195.976349
30700.935957	-3104.201000	1867.205078	-11.978924
30700.935957	-3104.201000	1866.216797	63.142414
30700.935957	-3104.201000	1865.227539	-14.062222
30700.935957	-3104.201000	1864.238281	70.592560
30700.935957	-3104.201000	1863.249023	104.436516
30700.935957	-3104.201000	1862.259766	58.516186
30700.935957	-3104.201000	1861.269531	-129.913361
30700.935957	-3104.201000	1860.279297	357.673248
30700.935957	-3104.201000	1859.290039	101.576935
30700.935957	-3104.201000	1858.298828	-279.985504
30700.935957	-3104.201000	1857.308594	-169.212097
30700.935957	-3104.201000	1856.318359	-309.429993
30700.935957	-3104.201000	1855.327148	-29.968433
30700.935957	-3104.201000	1854.335938	46.766521
30700.935957	-3104.201000	1853.344727	-9.194334
30700.935957	-3104.201000	1852.353516	262.662231
30700.935957	-3104.201000	1851.362305	-56.136948
30700.935957	-3104.201000	1850.370117	70.922363
30700.935957	-3104.201000	1849.377930	55.729187
30700.935957	-3104.201000	1848.385742	160.927567
30700.935957	-3104.201000	1847.393555	-25.383419
30700.935957	-3104.201000	1846.401367	110.979324
30700.935957	-3104.201000	1845.408203	88.330467
30700.935957	-3104.201000	1844.415039	154.692047
30700.935957	-3104.201000	1843.421875	-135.204025
30700.935957	-3104.201000	1842.428711	-93.006783
30700.935957	-3104.201000	1841.435547	47.748089
30700.935957	-3104.201000	1840.441406	22.417902
30700.935957	-3104.201000	1839.448242	-34.215710
30700.935957	-3104.201000	1838.454102	-102.920021
30700.935957	-3104.201000	1837.459961	-32.239071
30700.935957	-3104.201000	1836.464844	50.359993
30700.935957	-3104.201000	1835.470703	-148.272400
30700.935957	-3104.201000	1834.475586	126.386971
30700.935957	-3104.201000	1833.480469	136.653687
30700.935957	-3104.201000	1832.485352	-86.105721
30700.935957	-3104.201000	1831.490234	41.719475
30700.935957	-3104.201000	1830.495117	32.589565
30700.935957	-3104.201000	1829.499023	-113.427910
30700.935957	-3104.201000	1828.502930	165.301239
30700.935957	-3104.201000	1827.506836	95.954079
30700.935957	-3104.201000	1826.510742	-95.780579
30700.935957	-3104.201000	1825.513672	17.074694
30700.935957	-3104.201000	1824.517578	19.521990
30700.935957	-3104.201000	1823.520508	21.881975
30700.935957	-3104.201000	1822.523438	-256.286987
30700.935957	-3104.201000	1821.526367	220.510529
30700.935957	-3104.201000	1820.529297	-60.136322
30700.935957	-3104.201000	1819.531250	73.694794
30700.935957	-3104.201000	1818.533203	-3.382818
30700.935957	-3104.201000	1817.535156	-68.535858
30700.935957	-3104.201000	1816.537109	19.498659
30700.935957	-3104.201000	1815.539063	133.755219
30700.935957	-3104.201000	1814.540039	-1.041504
30700.935957	-3104.201000	1813.541992	89.084747
30700.935957	-3104.201000	1812.542969	217.369095
30700.935957	-3104.201000	1811.543945	-118.545372
30700.935957	-3104.201000	1810.543945	291.766907
30700.935957	-3104.201000	1809.544922	56.232006
30700.935957	-3104.201000	1808.544922	191.254349
30700.935957	-3104.201000	1807.544922	297.459778
30700.935957	-3104.201000	1806.544922	140.656174
30700.935957	-3104.201000	1805.544922	163.030365
30700.935957	-3104.201000	1804.544922	34.808258
30700.935957	-3104.201000	1803.543945	322.129700
30700.935957	-3104.201000	1802.542969	28.964643
30700.935957	-3104.201000	1801.541992	-34.972736
30700.935957	-3104.201000	1800.541016	101.545403
30700.935957	-3104.201000	1799.539063	211.654709
30700.935957	-3104.201000	1798.538086	219.036911
30700.935957	-3104.201000	1797.536133	25.907207
30700.935957	-3104.201000	1796.534180	102.298584
30700.935957	-3104.201000	1795.532227	47.401787
30700.935957	-3104.201000	1794.529297	102.102051
30700.935957	-3104.201000	1793.527344	190.074142
30700.935957	-3104.201000	1792.524414	265.989502
30700.935957	-3104.201000	1791.521484	339.395203
30700.935957	-3104.201000	1790.518555	341.198822
30700.935957	-3104.201000	1789.514648	-104.955040
30700.935957	-3104.201000	1788.511719	-7.996211
30700.935957	-3104.201000	1787.507813	-58.822456
30700.935957	-3104.201000	1786.503906	154.541504
30700.935957	-3104.201000	1785.500000	205.858734
30700.935957	-3104.201000	1784.496094	-4.732668
30700.935957	-3104.201000	1783.491211	-286.744873
30700.935957	-3104.201000	1782.486328	-21.579205
30700.935957	-3104.201000	1781.481445	41.205215
30700.935957	-3104.201000	1780.476563	153.803116
30700.935957	-3104.201000	1779.471680	87.930748
30700.935957	-3104.201000	1778.465820	-13.694022
30700.935957	-3104.201000	1777.460938	-210.440308
30700.935957	-3104.201000	1776.455078	241.497253
30700.935957	-3104.201000	1775.449219	-117.008484
30700.935957	-3104.201000	1774.442383	6.707250
30700.935957	-3104.201000	1773.436523	6.785936
30700.935957	-3104.201000	1772.429688	163.457962
30700.935957	-3104.201000	1771.422852	56.442299
30700.935957	-3104.201000	1770.416016	-34.025185
30700.935957	-3104.201000	1769.409180	36.805046
30700.935957	-3104.201000	1768.402344	90.887619
30700.935957	-3104.201000	1767.394531	163.802689
30700.935957	-3104.201000	1766.386719	6.515904
30700.935957	-3104.201000	1765.378906	-29.885281
30700.935957	-3104.201000	1764.371094	-9.485256
30700.935957	-3104.201000	1763.362305	198.045792
30700.935957	-3104.201000	1762.354492	-80.449158
30700.935957	-3104.201000	1761.345703	62.810947
30700.935957	-3104.201000	1760.336914	146.675217
30700.935957	-3104.201000	1759.328125	-56.212173
30700.935957	-3104.201000	1758.318359	240.532806
30700.935957	-3104.201000	1757.308594	-163.800903
30700.935957	-3104.201000	1756.299805	-25.970869
30700.935957	-3104.201000	1755.290039	59.603569
30700.935957	-3104.201000	1754.279297	-25.367262
30700.935957	-3104.201000	1753.269531	-134.065720
30700.935957	-3104.201000	1752.258789	-254.685196
30700.935957	-3104.201000	1751.249023	-226.362686
30700.935957	-3104.201000	1750.238281	-228.924789
30700.935957	-3104.201000	1749.226563	-163.061493
30700.935957	-3104.201000	1748.215820	-7.504827
30700.935957	-3104.201000	1747.204102	-128.640564
30700.935957	-3104.201000	1746.193359	71.502846
30700.935957	-3104.201000	1745.181641	-196.304520
30700.935957	-3104.201000	1744.168945	-95.695976
30700.935957	-3104.201000	1743.157227	-143.998077
30700.935957	-3104.201000	1742.144531	-48.400349
30700.935957	-3104.201000	1741.132813	-52.082424
30700.935957	-3104.201000	1740.120117	-8.701035
30700.935957	-3104.201000	1739.106445	102.954353
30700.935957	-3104.201000	1738.093750	-226.701431
30700.935957	-3104.201000	1737.080078	-108.214409
30700.935957	-3104.201000	1736.067383	5.408845
30700.935957	-3104.201000	1735.053711	-190.024582
30700.935957	-3104.201000	1734.040039	-46.043282
30700.935957	-3104.201000	1733.025391	62.388737
30700.935957	-3104.201000	1732.011719	17.506050
30700.935957	-3104.201000	1730.997070	-147.658478
30700.935957	-3104.201000	1729.982422	-235.146622
30700.935957	-3104.201000	1728.967773	178.918625
30700.935957	-3104.201000	1727.952148	-5.401779
30700.935957	-3104.201000	1726.937500	-72.043976
30700.935957	-3104.201000	1725.921875	-21.112823
30700.935957	-3104.201000	1724.906250	133.223557
30700.935957	-3104.201000	1723.890625	122.680183
30700.935957	-3104.201000	1722.875000	100.255272
30700.935957	-3104.201000	1721.858398	162.370544
30700.935957	-3104.201000	1720.841797	156.145477
30700.935957	-3104.201000	1719.825195	-66.497795
30700.935957	-3104.201000	1718.808594	152.741730
30700.935957	-3104.201000	1717.791992	-126.459900
30700.935957	-3104.201000	1716.774414	-151.923599
30700.935957	-3104.201000	1715.756836	156.095764
30700.935957	-3104.201000	1714.739258	34.043781
30700.935957	-3104.201000	1713.721680	-142.092865
30700.935957	-3104.201000	1712.704102	-85.839211
30700.935957	-3104.201000	1711.685547	-147.118195
30700.935957	-3104.201000	1710.667969	-133.368088
30700.935957	-3104.201000	1709.649414	42.148781
30700.935957	-3104.201000	1708.630859	-120.358696
30700.935957	-3104.201000	1707.611328	-165.661453
30700.935957	-3104.201000	1706.592773	-89.089462
30700.935957	-3104.201000	1705.573242	-52.548355
30700.935957	-3104.201000	1704.553711	-114.600258
30700.935957	-3104.201000	1703.534180	-181.430222
30700.935957	-3104.201000	1702.513672	398.411133
30700.935957	-3104.201000	1701.494141	282.073425
30700.935957	-3104.201000	1700.473633	4.009515
30700.935957	-3104.201000	1699.453125	194.353149
30700.935957	-3104.201000	1698.432617	70.729935
30700.935957	-3104.201000	1697.412109	99.218613
30700.935957	-3104.201000	1696.390625	172.035629
30700.935957	-3104.201000	1695.369141	80.891411
30700.935957	-3104.201000	1694.347656	272.790527
30700.935957	-3104.201000	1693.326172	-85.248756
30700.935957	-3104.201000	1692.304688	192.926620
30700.935957	-3104.201000	1691.282227	197.259262
30700.935957	-3104.201000	1690.260742	175.787903
30700.935957	-3104.201000	1689.238281	217.307144
30700.935957	-3104.201000	1688.214844	368.524536
30700.935957	-3104.201000	1687.192383	278.920807
30700.935957	-3104.201000	1686.168945	301.362366
30700.935957	-3104.201000	1685.146484	349.404510
30700.935957	-3104.201000	1684.123047	560.774719
30700.935957	-3104.201000	1683.099609	498.778381
30700.935957	-3104.201000	1682.075195	567.406433
30700.935957	-3104.201000	1681.051758	470.216858
30700.935957	-3104.201000	1680.027344	720.633728
30700.935957	-3104.201000	1679.002930	546.234436
30700.935957	-3104.201000	1677.978516	773.014160
30700.935957	-3104.201000	1676.953125	684.738586
30700.935957	-3104.201000	1675.928711	887.890747
30700.935957	-3104.201000	1674.903320	640.903564
30700.935957	-3104.201000	1673.877930	403.239777
30700.935957	-3104.201000	1672.852539	722.535156
30700.935957	-3104.201000	1671.826172	587.250549
30700.935957	-3104.201000	1670.800781	745.463562
30700.935957	-3104.201000	1669.774414	568.118042
30700.935957	-3104.201000	1668.748047	418.692963
30700.935957	-3104.201000	1667.721680	786.081909
30700.935957	-3104.201000	1666.694336	804.061951
30700.935957	-3104.201000	1665.667969	1210.619507
30700.935957	-3104.201000	1664.640625	735.055481
30700.935957	-3104.201000	1663.613281	878.395935
30700.935957	-3104.201000	1662.585938	735.513245
30700.935957	-3104.201000	1661.557617	748.379333
30700.935957	-3104.201000	1660.530273	1191.307739
30700.935957	-3104.201000	1659.501953	1148.129883
30700.935957	-3104.201000	1658.473633	1130.452515
30700.935957	-3104.201000	1657.444336	1242.801880
30700.935957	-3104.201000	1656.416016	1141.320435
30700.935957	-3104.201000	1655.386719	1155.915283
30700.935957	-3104.201000	1654.358398	1110.076538
30700.935957	-3104.201000	1653.328125	1581.900146
30700.935957	-3104.201000	1652.298828	1575.286865
30700.935957	-3104.201000	1651.269531	1749.640381
30700.935957	-3104.201000	1650.239258	1779.959229
30700.935957	-3104.201000	1649.208984	2005.081421
30700.935957	-3104.201000	1648.178711	2158.143066
30700.935957	-3104.201000	1647.148438	2100.034180
30700.935957	-3104.201000	1646.117188	2190.257568
30700.935957	-3104.201000	1645.086914	1805.163696
30700.935957	-3104.201000	1644.055664	2674.066895
30700.935957	-3104.201000	1643.024414	2420.971436
30700.935957	-3104.201000	1641.992188	2209.594727
30700.935957	-3104.201000	1640.960938	2718.686279
30700.935957	-3104.201000	1639.928711	2912.522949
30700.935957	-3104.201000	1638.896484	2978.872559
30700.935957	-3104.201000	1637.864258	2857.619873
30700.935957	-3104.201000	1636.832031	2710.903076
30700.935957	-3104.201000	1635.798828	2740.044922
30700.935957	-3104.201000	1634.766602	2660.408447
30700.935957	-3104.201000	1633.733398	2888.401367
30700.935957	-3104.201000	1632.699219	3106.983887
30700.935957	-3104.201000	1631.666016	2788.980713
30700.935957	-3104.201000	1630.632813	2716.130371
30700.935957	-3104.201000	1629.598633	2661.734131
30700.935957	-3104.201000	1628.564453	2318.435547
30700.935957	-3104.201000	1627.530273	2381.902100
30700.935957	-3104.201000	1626.495117	2597.755127
30700.935957	-3104.201000	1625.460938	2497.085449
30700.935957	-3104.201000	1624.425781	2329.427002
30700.935957	-3104.201000	1623.390625	2408.848877
30700.935957	-3104.201000	1622.355469	2499.753906
30700.935957	-3104.201000	1621.319336	2124.366211
30700.935957	-3104.201000	1620.284180	2365.226318
30700.935957	-3104.201000	1619.248047	2539.037842
30700.935957	-3104.201000	1618.211914	2159.178711
30700.935957	-3104.201000	1617.174805	2494.325439
30700.935957	-3104.201000	1616.138672	2545.750244
30700.935957	-3104.201000	1615.101563	2836.858398
30700.935957	-3104.201000	1614.065430	2689.955078
30700.935957	-3104.201000	1613.027344	3008.518066
30700.935957	-3104.201000	1611.990234	2688.796387
30700.935957	-3104.201000	1610.953125	2742.348633
30700.935957	-3104.201000	1609.915039	2887.966064
30700.935957	-3104.201000	1608.876953	2773.335938
30700.935957	-3104.201000	1607.838867	2810.682373
30700.935957	-3104.201000	1606.800781	3029.845703
30700.935957	-3104.201000	1605.761719	2790.956543
30700.935957	-3104.201000	1604.723633	2957.123779
30700.935957	-3104.201000	1603.684570	2874.770020
30700.935957	-3104.201000	1602.644531	2767.129639
30700.935957	-3104.201000	1601.605469	3048.166260
30700.935957	-3104.201000	1600.566406	2701.488037
30700.935957	-3104.201000	1599.526367	2874.394043
30700.935957	-3104.201000	1598.486328	2978.303955
30700.935957	-3104.201000	1597.446289	2944.332764
30700.935957	-3104.201000	1596.405273	3275.614014
30700.935957	-3104.201000	1595.365234	3423.075928
30700.935957	-3104.201000	1594.324219	3531.440674
30700.935957	-3104.201000	1593.283203	3320.664795
30700.935957	-3104.201000	1592.242188	3649.412109
30700.935957	-3104.201000	1591.200195	3268.900635
30700.935957	-3104.201000	1590.159180	3166.223877
30700.935957	-3104.201000	1589.117188	3299.877930
30700.935957	-3104.201000	1588.075195	3956.448242
30700.935957	-3104.201000	1587.032227	3434.105469
30700.935957	-3104.201000	1585.990234	3299.492188
30700.935957	-3104.201000	1584.947266	3274.971924
30700.935957	-3104.201000	1583.904297	3553.018066
30700.935957	-3104.201000	1582.861328	3677.480713
30700.935957	-3104.201000	1581.818359	3483.508057
30700.935957	-3104.201000	1580.775391	3697.355957
30700.935957	-3104.201000	1579.731445	3480.627441
30700.935957	-3104.201000	1578.687500	3557.094971
30700.935957	-3104.201000	1577.643555	3912.857666
30700.935957	-3104.201000	1576.598633	3723.812256
30700.935957	-3104.201000	1575.554688	3864.426025
30700.935957	-3104.201000	1574.509766	3492.563721
30700.935957	-3104.201000	1573.464844	3338.202393
30700.935957	-3104.201000	1572.419922	3138.228760
30700.935957	-3104.201000	1571.374023	3077.845947
30700.935957	-3104.201000	1570.329102	2708.975830
30700.935957	-3104.201000	1569.283203	2559.704834
30700.935957	-3104.201000	1568.237305	2134.071533
30700.935957	-3104.201000	1567.191406	2183.879150
30700.935957	-3104.201000	1566.144531	2112.659424
30700.935957	-3104.201000	1565.098633	1945.653564
30700.935957	-3104.201000	1564.051758	2077.878174
30700.935957	-3104.201000	1563.004883	1874.559814
30700.935957	-3104.201000	1561.957031	2002.323853
30700.935957	-3104.201000	1560.910156	1737.661255
30700.935957	-3104.201000	1559.862305	1831.356812
30700.935957	-3104.201000	1558.814453	1754.029175
30700.935957	-3104.201000	1557.766602	1628.933838
30700.935957	-3104.201000	1556.718750	1535.905151
30700.935957	-3104.201000	1555.669922	1618.520630
30700.935957	-3104.201000	1554.621094	1475.560181
30700.935957	-3104.201000	1553.573242	1720.174683
30700.935957	-3104.201000	1552.523438	1609.327881
30700.935957	-3104.201000	1551.474609	1995.231934
30700.935957	-3104.201000	1550.424805	1663.677368
30700.935957	-3104.201000	1549.375000	1662.523804
30700.935957	-3104.201000	1548.325195	1340.491821
30700.935957	-3104.201000	1547.275391	1633.245728
30700.935957	-3104.201000	1546.225586	1705.261841
30700.935957	-3104.201000	1545.174805	1781.894287
30700.935957	-3104.201000	1544.124023	1540.152588
30700.935957	-3104.201000	1543.073242	1178.089233
30700.935957	-3104.201000	1542.022461	1216.489502
30700.935957	-3104.201000	1540.970703	1370.922607
30700.935957	-3104.201000	1539.919922	1091.310547
30700.935957	-3104.201000	1538.868164	1027.803711
30700.935957	-3104.201000	1537.815430	1018.963135
30700.935957	-3104.201000	1536.763672	1110.229248
30700.935957	-3104.201000	1535.710938	879.071838
30700.935957	-3104.201000	1534.659180	548.251099
30700.935957	-3104.201000	1533.606445	560.489319
30700.935957	-3104.201000	1532.552734	457.083679
30700.935957	-3104.201000	1531.500000	278.992798
30700.935957	-3104.201000	1530.446289	348.410400
30700.935957	-3104.201000	1529.393555	297.739838
30700.935957	-3104.201000	1528.338867	70.289490
30700.935957	-3104.201000	1527.285156	-93.405571
30700.935957	-3104.201000	1526.231445	-30.169113
30700.935957	-3104.201000	1525.176758	-73.359474
30700.935957	-3104.201000	1524.122070	-200.223846
30700.935957	-3104.201000	1523.067383	-286.096436
30700.935957	-3104.201000	1522.012695	-20.645411
30700.935957	-3104.201000	1520.957031	199.544922
30700.935957	-3104.201000	1519.901367	-123.654167
30700.935957	-3104.201000	1518.845703	391.118408
30700.935957	-3104.201000	1517.790039	190.577209
30700.935957	-3104.201000	1516.734375	279.960266
30700.935957	-3104.201000	1515.677734	704.332520
30700.935957	-3104.201000	1514.621094	230.615051
30700.935957	-3104.201000	1513.564453	261.633789
30700.935957	-3104.201000	1512.507813	559.650146
30700.935957	-3104.201000	1511.450195	751.450317
30700.935957	-3104.201000	1510.393555	812.267639
30700.935957	-3104.201000	1509.335938	1004.304016
30700.935957	-3104.201000	1508.278320	1029.245117
30700.935957	-3104.201000	1507.219727	1146.963745
30700.935957	-3104.201000	1506.162109	1258.066772
30700.935957	-3104.201000	1505.103516	1441.558228
30700.935957	-3104.201000	1504.044922	1618.394531
30700.935957	-3104.201000	1502.986328	1741.178833
30700.935957	-3104.201000	1501.926758	1685.802246
30700.935957	-3104.201000	1500.868164	1969.115845
30700.935957	-3104.201000	1499.808594	1708.818848
30700.935957	-3104.201000	1498.749023	1694.673218
30700.935957	-3104.201000	1497.688477	1856.608154
30700.935957	-3104.201000	1496.628906	1750.402710
30700.935957	-3104.201000	1495.568359	1919.431396
30700.935957	-3104.201000	1494.507813	1407.984619
30700.935957	-3104.201000	1493.447266	1464.763184
30700.935957	-3104.201000	1492.386719	1280.680298
30700.935957	-3104.201000	1491.325195	1146.416260
30700.935957	-3104.201000	1490.263672	1210.583008
30700.935957	-3104.201000	1489.202148	793.127136
30700.935957	-3104.201000	1488.140625	1031.094849
30700.935957	-3104.201000	1487.079102	621.020569
30700.935957	-3104.201000	1486.016602	393.573761
30700.935957	-3104.201000	1484.954102	141.687454
30700.935957	-3104.201000	1483.891602	-15.410544
30700.935957	-3104.201000	1482.829102	-91.267891
30700.935957	-3104.201000	1481.765625	213.078568
30700.935957	-3104.201000	1480.702148	364.668427
30700.935957	-3104.201000	1479.638672	-171.262817
30700.935957	-3104.201000	1478.575195	-84.376137
30700.935957	-3104.201000	1477.511719	-186.002487
30700.935957	-3104.201000	1476.447266	56.222664
30700.935957	-3104.201000	1475.382813	-228.986481
30700.935957	-3104.201000	1474.318359	13.625040
30700.935957	-3104.201000	1473.253906	316.880493
30700.935957	-3104.201000	1472.189453	-79.480835
30700.935957	-3104.201000	1471.124023	134.287430
30700.935957	-3104.201000	1470.058594	52.257690
30700.935957	-3104.201000	1468.993164	123.460182
30700.935957	-3104.201000	1467.927734	209.997391
30700.935957	-3104.201000	1466.861328	50.216099
30700.935957	-3104.201000	1465.794922	155.560806
30700.935957	-3104.201000	1464.728516	323.628052
30700.935957	-3104.201000	1463.662109	563.504639
30700.935957	-3104.201000	1462.594727	324.917084
30700.935957	-3104.201000	1461.528320	618.086792
30700.935957	-3104.201000	1460.460938	485.388184
30700.935957	-3104.201000	1459.393555	491.820801
30700.935957	-3104.201000	1458.326172	662.330688
30700.935957	-3104.201000	1457.257813	367.725586
30700.935957	-3104.201000	1456.189453	456.566772
30700.935957	-3104.201000	1455.121094	821.616699
30700.935957	-3104.201000	1454.052734	591.723633
30700.935957	-3104.201000	1452.984375	785.786621
30700.935957	-3104.201000	1451.915039	683.378113
30700.935957	-3104.201000	1450.845703	593.257324
30700.935957	-3104.201000	1449.776367	367.186584
30700.935957	-3104.201000	1448.707031	567.189880
30700.935957	-3104.201000	1447.636719	772.350220
30700.935957	-3104.201000	1446.567383	750.688782
30700.935957	-3104.201000	1445.497070	894.732727
30700.935957	-3104.201000	1444.425781	872.414734
30700.935957	-3104.201000	1443.355469	719.059265
30700.935957	-3104.201000	1442.285156	993.751709
30700.935957	-3104.201000	1441.213867	1045.671997
30700.935957	-3104.201000	1440.142578	1065.520264
30700.935957	-3104.201000	1439.070313	1172.773926
30700.935957	-3104.201000	1437.999023	1178.102295
30700.935957	-3104.201000	1436.926758	1323.007080
30700.935957	-3104.201000	1435.854492	1372.665649
30700.935957	-3104.201000	1434.782227	1072.189453
30700.935957	-3104.201000	1433.709961	1077.692261
30700.935957	-3104.201000	1432.636719	818.361389
30700.935957	-3104.201000	1431.563477	859.418457
30700.935957	-3104.201000	1430.490234	658.558838
30700.935957	-3104.201000	1429.416992	644.290466
30700.935957	-3104.201000	1428.343750	614.781372
30700.935957	-3104.201000	1427.269531	441.073761
30700.935957	-3104.201000	1426.195313	575.792053
30700.935957	-3104.201000	1425.121094	461.820984
30700.935957	-3104.201000	1424.046875	409.557068
30700.935957	-3104.201000	1422.971680	98.728920
30700.935957	-3104.201000	1421.896484	198.459839
30700.935957	-3104.201000	1420.821289	480.062256
30700.935957	-3104.201000	1419.746094	526.643494
30700.935957	-3104.201000	1418.669922	650.163513
30700.935957	-3104.201000	1417.594727	558.174805
30700.935957	-3104.201000	1416.518555	729.365295
30700.935957	-3104.201000	1415.442383	531.149658
30700.935957	-3104.201000	1414.365234	690.189880
30700.935957	-3104.201000	1413.289063	451.651672
30700.935957	-3104.201000	1412.211914	500.648590
30700.935957	-3104.201000	1411.134766	752.721191
30700.935957	-3104.201000	1410.057617	581.738281
30700.935957	-3104.201000	1408.979492	551.677490
30700.935957	-3104.201000	1407.902344	565.465515
30700.935957	-3104.201000	1406.824219	564.329651
30700.935957	-3104.201000	1405.746094	594.627441
30700.935957	-3104.201000	1404.666992	594.745544
30700.935957	-3104.201000	1403.588867	787.204468
30700.935957	-3104.201000	1402.509766	470.610107
30700.935957	-3104.201000	1401.430664	545.074890
30700.935957	-3104.201000	1400.351563	450.090515
30700.935957	-3104.201000	1399.271484	714.528992
30700.935957	-3104.201000	1398.192383	334.869232
30700.935957	-3104.201000	1397.112305	524.596497
30700.935957	-3104.201000	1396.031250	535.142456
30700.935957	-3104.201000	1394.951172	450.396637
30700.935957	-3104.201000	1393.871094	571.032227
30700.935957	-3104.201000	1392.790039	573.721558
30700.935957	-3104.201000	1391.708984	609.599915
30700.935957	-3104.201000	1390.626953	413.345795
30700.935957	-3104.201000	1389.545898	721.541626
30700.935957	-3104.201000	1388.463867	757.924133
30700.935957	-3104.201000	1387.381836	647.037964
30700.935957	-3104.201000	1386.299805	637.604797
30700.935957	-3104.201000	1385.217773	655.328918
30700.935957	-3104.201000	1384.134766	728.823608
30700.935957	-3104.201000	1383.051758	1116.173340
30700.935957	-3104.201000	1381.968750	1053.051147
30700.935957	-3104.201000	1380.885742	1073.575073
30700.935957	-3104.201000	1379.802734	1134.247925
30700.935957	-3104.201000	1378.718750	1349.836670
30700.935957	-3104.201000	1377.634766	1183.254395
30700.935957	-3104.201000	1376.550781	1387.920044
30700.935957	-3104.201000	1375.465820	1100.491577
30700.935957	-3104.201000	1374.381836	1154.028931
30700.935957	-3104.201000	1373.296875	1124.337402
30700.935957	-3104.201000	1372.211914	1077.594971
30700.935957	-3104.201000	1371.126953	1204.306152
30700.935957	-3104.201000	1370.041016	855.453979
30700.935957	-3104.201000	1368.955078	951.410950
30700.935957	-3104.201000	1367.869141	577.193298
30700.935957	-3104.201000	1366.783203	1007.934509
30700.935957	-3104.201000	1365.697266	1127.635254
30700.935957	-3104.201000	1364.610352	1001.420227
30700.935957	-3104.201000	1363.523438	908.978943
30700.935957	-3104.201000	1362.436523	1020.356934
30700.935957	-3104.201000	1361.349609	1170.916016
30700.935957	-3104.201000	1360.261719	920.906738
30700.935957	-3104.201000	1359.174805	909.800720
30700.935957	-3104.201000	1358.086914	717.397278
30700.935957	-3104.201000	1356.998047	968.724854
30700.935957	-3104.201000	1355.910156	961.931580
30700.935957	-3104.201000	1354.821289	728.140198
30700.935957	-3104.201000	1353.732422	624.290039
30700.935957	-3104.201000	1352.643555	568.260437
30700.935957	-3104.201000	1351.554688	1009.735413
30700.935957	-3104.201000	1350.464844	1322.258057
30700.935957	-3104.201000	1349.375000	1125.553955
30700.935957	-3104.201000	1348.285156	1482.326538
30700.935957	-3104.201000	1347.195313	1173.068237
30700.935957	-3104.201000	1346.105469	1567.119263
30700.935957	-3104.201000	1345.014648	1412.183838
30700.935957	-3104.201000	1343.923828	1783.402344
30700.935957	-3104.201000	1342.833008	1472.833618
30700.935957	-3104.201000	1341.741211	1724.151001
30700.935957	-3104.201000	1340.650391	1947.608276
30700.935957	-3104.201000	1339.558594	1540.335205
30700.935957	-3104.201000	1338.466797	1704.319092
30700.935957	-3104.201000	1337.374023	1587.530762
30700.935957	-3104.201000	1336.282227	1371.060181
30700.935957	-3104.201000	1335.189453	1465.614868
30700.935957	-3104.201000	1334.096680	1418.659546
30700.935957	-3104.201000	1333.003906	1478.647583
30700.935957	-3104.201000	1331.910156	1302.132690
30700.935957	-3104.201000	1330.817383	1200.673584
30700.935957	-3104.201000	1329.723633	1356.147583
30700.935957	-3104.201000	1328.629883	1498.633545
30700.935957	-3104.201000	1327.535156	1332.299194
30700.935957	-3104.201000	1326.441406	1470.383789
30700.935957	-3104.201000	1325.346680	1392.351318
30700.935957	-3104.201000	1324.251953	1088.174927
30700.935957	-3104.201000	1323.156250	1161.710205
30700.935957	-3104.201000	1322.061523	835.200867
30700.935957	-3104.201000	1320.965820	825.870056
30700.935957	-3104.201000	1319.870117	1038.713623
30700.935957	-3104.201000	1318.774414	1059.696167
30700.935957	-3104.201000	1317.678711	1010.866394
30700.935957	-3104.201000	1316.582031	812.861938
30700.935957	-3104.201000	1315.485352	1035.720947
30700.935957	-3104.201000	1314.388672	1043.976440
30700.935957	-3104.201000	1313.291016	664.901062
30700.935957	-3104.201000	1312.194336	954.069946
30700.935957	-3104.201000	1311.096680	965.441101
30700.935957	-3104.201000	1309.999023	1112.852661
30700.935957	-3104.201000	1308.901367	1054.017090
30700.935957	-3104.201000	1307.802734	856.098572
30700.935957	-3104.201000	1306.705078	644.535889
30700.935957	-3104.201000	1305.606445	677.235596
30700.935957	-3104.201000	1304.506836	883.402832
30700.935957	-3104.201000	1303.408203	775.172913
30700.935957	-3104.201000	1302.308594	895.980408
30700.935957	-3104.201000	1301.208984	807.871338
30700.935957	-3104.201000	1300.109375	1012.601135
30700.935957	-3104.201000	1299.009766	1093.007324
30700.935957	-3104.201000	1297.909180	1160.727661
30700.935957	-3104.201000	1296.808594	1233.914795
30700.935957	-3104.201000	1295.708008	1285.504028
30700.935957	-3104.201000	1294.607422	1568.703979
30700.935957	-3104.201000	1293.506836	1756.812988
30700.935957	-3104.201000	1292.405273	1639.881348
30700.935957	-3104.201000	1291.303711	1556.143311
30700.935957	-3104.201000	1290.202148	1833.192139
30700.935957	-3104.201000	1289.099609	1872.549072
30700.935957	-3104.201000	1287.998047	1827.137451
30700.935957	-3104.201000	1286.895508	1871.566284
30700.935957	-3104.201000	1285.792969	2295.993408
30700.935957	-3104.201000	1284.689453	2055.205811
30700.935957	-3104.201000	1283.586914	2577.895752
30700.935957	-3104.201000	1282.483398	2614.873779
30700.935957	-3104.201000	1281.379883	2493.573242
30700.935957	-3104.201000	1280.276367	2315.284180
30700.935957	-3104.201000	1279.171875	1908.298096
30700.935957	-3104.201000	1278.067383	1568.898926
30700.935957	-3104.201000	1276.962891	1174.633057
30700.935957	-3104.201000	1275.858398	1031.429688
30700.935957	-3104.201000	1274.753906	1028.071411
30700.935957	-3104.201000	1273.648438	1072.873413
30700.935957	-3104.201000	1272.542969	970.164307
30700.935957	-3104.201000	1271.437500	1141.863281
30700.935957	-3104.201000	1270.331055	1089.602173
30700.935957	-3104.201000	1269.225586	1196.395264
30700.935957	-3104.201000	1268.119141	1040.883545
30700.935957	-3104.201000	1267.012695	1137.334717
30700.935957	-3104.201000	1265.906250	1098.624878
30700.935957	-3104.201000	1264.798828	1058.398071
30700.935957	-3104.201000	1263.691406	802.189087
30700.935957	-3104.201000	1262.583984	535.007202
30700.935957	-3104.201000	1261.476563	384.467133
30700.935957	-3104.201000	1260.368164	169.956863
30700.935957	-3104.201000	1259.260742	139.513245
30700.935957	-3104.201000	1258.152344	163.977310
30700.935957	-3104.201000	1257.043945	68.366203
30700.935957	-3104.201000	1255.934570	-27.013964
30700.935957	-3104.201000	1254.825195	-55.780869
30700.935957	-3104.201000	1253.716797	-151.784698
30700.935957	-3104.201000	1252.606445	-111.154793
30700.935957	-3104.201000	1251.497070	-279.046082
30700.935957	-3104.201000	1250.387695	97.648315
30700.935957	-3104.201000	1249.277344	-214.646194
30700.935957	-3104.201000	1248.166992	-153.477127
30700.935957	-3104.201000	1247.055664	-198.620239
30700.935957	-3104.201000	1245.945313	-10.906413
30700.935957	-3104.201000	1244.833984	-80.201118
30700.935957	-3104.201000	1243.722656	135.032089
30700.935957	-3104.201000	1242.611328	364.542694
30700.935957	-3104.201000	1241.499023	264.929993
30700.935957	-3104.201000	1240.387695	196.878647
30700.935957	-3104.201000	1239.275391	277.824066
30700.935957	-3104.201000	1238.162109	163.117310
30700.935957	-3104.201000	1237.049805	79.896225
30700.935957	-3104.201000	1235.936523	113.510262
30700.935957	-3104.201000	1234.823242	36.132599
30700.935957	-3104.201000	1233.709961	-5.012619
30700.935957	-3104.201000	1232.596680	-116.828194
30700.935957	-3104.201000	1231.482422	-236.617249
30700.935957	-3104.201000	1230.369141	-352.499512
30700.935957	-3104.201000	1229.253906	-6.330786
30700.935957	-3104.201000	1228.139648	-112.676064
30700.935957	-3104.201000	1227.025391	-135.166595
30700.935957	-3104.201000	1225.910156	-169.125092
30700.935957	-3104.201000	1224.794922	-175.161362
30700.935957	-3104.201000	1223.679688	11.019128
30700.935957	-3104.201000	1222.563477	-90.250175
30700.935957	-3104.201000	1221.447266	149.208176
30700.935957	-3104.201000	1220.331055	90.178955
30700.935957	-3104.201000	1219.214844	141.659866
30700.935957	-3104.201000	1218.098633	-21.747887
30700.935957	-3104.201000	1216.981445	65.398369
30700.935957	-3104.201000	1215.864258	130.497025
30700.935957	-3104.201000	1214.747070	238.938385
30700.935957	-3104.201000	1213.629883	152.433105
30700.935957	-3104.201000	1212.511719	111.306480
30700.935957	-3104.201000	1211.393555	-34.769409
30700.935957	-3104.201000	1210.275391	100.904388
30700.935957	-3104.201000	1209.157227	160.772934
30700.935957	-3104.201000	1208.038086	40.337135
30700.935957	-3104.201000	1206.918945	82.093559
30700.935957	-3104.201000	1205.799805	96.276375
30700.935957	-3104.201000	1204.680664	293.881470
30700.935957	-3104.201000	1203.560547	374.009155
30700.935957	-3104.201000	1202.441406	231.298080
30700.935957	-3104.201000	1201.321289	188.743912
30700.935957	-3104.201000	1200.200195	80.063118
30700.935957	-3104.201000	1199.080078	-47.931404
30700.935957	-3104.201000	1197.958984	-199.670120
30700.935957	-3104.201000	1196.837891	68.168465
30700.935957	-3104.201000	1195.716797	-43.220394
30700.935957	-3104.201000	1194.594727	240.708435
30700.935957	-3104.201000	1193.473633	7.639850
30700.935957	-3104.201000	1192.351563	-123.876900
30700.935957	-3104.201000	1191.229492	-112.361610
30700.935957	-3104.201000	1190.106445	-106.240128
30700.935957	-3104.201000	1188.984375	-60.893208
30700.935957	-3104.201000	1187.861328	-72.356209
30700.935957	-3104.201000	1186.738281	-31.396559
30700.935957	-3104.201000	1185.614258	-85.534157
30700.935957	-3104.201000	1184.491211	27.944817
30700.935957	-3104.201000	1183.367188	-124.124588
30700.935957	-3104.201000	1182.243164	-99.913651
30700.935957	-3104.201000	1181.119141	-70.246414
30700.935957	-3104.201000	1179.994141	-193.137329
30700.935957	-3104.201000	1178.869141	97.594238
30700.935957	-3104.201000	1177.744141	-94.815140
30700.935957	-3104.201000	1176.619141	62.470722
30700.935957	-3104.201000	1175.493164	88.831543
30700.935957	-3104.201000	1174.368164	-143.106644
30700.935957	-3104.201000	1173.242188	25.639874
30700.935957	-3104.201000	1172.115234	39.407040
30700.935957	-3104.201000	1170.989258	105.731773
30700.935957	-3104.201000	1169.862305	102.966324
30700.935957	-3104.201000	1168.735352	10.563995
30700.935957	-3104.201000	1167.608398	-22.021666
30700.935957	-3104.201000	1166.481445	33.840645
30700.935957	-3104.201000	1165.353516	188.197754
30700.935957	-3104.201000	1164.225586	66.122704
30700.935957	-3104.201000	1163.097656	4.981209
30700.935957	-3104.201000	1161.968750	11.083486
30700.935957	-3104.201000	1160.840820	-26.931549
30700.935957	-3104.201000	1159.711914	-234.133575
30700.935957	-3104.201000	1158.583008	-176.780853
30700.935957	-3104.201000	1157.453125	68.108269
30700.935957	-3104.201000	1156.324219	-4.888678
30700.935957	-3104.201000	1155.194336	-142.811050
30700.935957	-3104.201000	1154.064453	76.997559
30700.935957	-3104.201000	1152.933594	-105.934769
30700.935957	-3104.201000	1151.803711	265.462891
30700.935957	-3104.201000	1150.672852	-9.051024
30700.935957	-3104.201000	1149.541992	-5.719817
30700.935957	-3104.201000	1148.411133	183.846008
30700.935957	-3104.201000	1147.279297	-29.744019
30700.935957	-3104.201000	1146.147461	37.749687
30700.935957	-3104.201000	1145.015625	364.421783
30700.935957	-3104.201000	1143.883789	207.880630
30700.935957	-3104.201000	1142.750977	70.590767
30700.935957	-3104.201000	1141.619141	40.797756
30700.935957	-3104.201000	1140.486328	233.122986
30700.935957	-3104.201000	1139.352539	240.434265
30700.935957	-3104.201000	1138.219727	292.661682
30700.935957	-3104.201000	1137.085938	529.986389
30700.935957	-3104.201000	1135.952148	341.985382
30700.935957	-3104.201000	1134.818359	404.954803
30700.935957	-3104.201000	1133.683594	616.207825
30700.935957	-3104.201000	1132.549805	840.262085
30700.935957	-3104.201000	1131.415039	1159.557129
30700.935957	-3104.201000	1130.279297	1393.050903
30700.935957	-3104.201000	1129.144531	1706.980713
30700.935957	-3104.201000	1128.008789	1707.568481
30700.935957	-3104.201000	1126.873047	1612.302734
30700.935957	-3104.201000	1125.737305	1615.444946
30700.935957	-3104.201000	1124.601563	1713.082153
30700.935957	-3104.201000	1123.464844	1298.499146
30700.935957	-3104.201000	1122.328125	1269.698975
30700.935957	-3104.201000	1121.191406	1507.601074
30700.935957	-3104.201000	1120.054688	1379.539063
30700.935957	-3104.201000	1118.916992	1576.277466
30700.935957	-3104.201000	1117.779297	1446.402222
30700.935957	-3104.201000	1116.641602	1506.096558
30700.935957	-3104.201000	1115.503906	1228.342529
30700.935957	-3104.201000	1114.365234	1171.906250
30700.935957	-3104.201000	1113.226563	1069.569580
30700.935957	-3104.201000	1112.087891	901.467102
30700.935957	-3104.201000	1110.949219	1034.950195
30700.935957	-3104.201000	1109.809570	1089.006836
30700.935957	-3104.201000	1108.669922	865.671936
30700.935957	-3104.201000	1107.530273	985.386658
30700.935957	-3104.201000	1106.390625	857.715271
30700.935957	-3104.201000	1105.250000	955.667114
30700.935957	-3104.201000	1104.109375	826.052856
30700.935957	-3104.201000	1102.968750	780.940796
30700.935957	-3104.201000	1101.828125	1081.624023
30700.935957	-3104.201000	1100.686523	1210.441284
30700.935957	-3104.201000	1099.544922	1260.184448
30700.935957	-3104.201000	1098.403320	1354.181763
30700.935957	-3104.201000	1097.261719	1411.017578
30700.935957	-3104.201000	1096.120117	1205.787476
30700.935957	-3104.201000	1094.977539	1279.624634
30700.935957	-3104.201000	1093.834961	1465.857056
30700.935957	-3104.201000	1092.691406	1292.361694
30700.935957	-3104.201000	1091.548828	929.953735
30700.935957	-3104.201000	1090.405273	1088.097534
30700.935957	-3104.201000	1089.261719	989.965759
30700.935957	-3104.201000	1088.118164	1079.871216
30700.935957	-3104.201000	1086.973633	820.045593
30700.935957	-3104.201000	1085.829102	853.492126
30700.935957	-3104.201000	1084.684570	819.088196
30700.935957	-3104.201000	1083.540039	583.992615
30700.935957	-3104.201000	1082.395508	652.647217
30700.935957	-3104.201000	1081.250000	761.107422
30700.935957	-3104.201000	1080.104492	716.068604
30700.935957	-3104.201000	1078.958984	890.388977
30700.935957	-3104.201000	1077.812500	913.773743
30700.935957	-3104.201000	1076.666016	822.891663
30700.935957	-3104.201000	1075.519531	990.696533
30700.935957	-3104.201000	1074.373047	723.894287
30700.935957	-3104.201000	1073.226563	1160.048096
30700.935957	-3104.201000	1072.079102	798.995483
30700.935957	-3104.201000	1070.931641	759.337769
30700.935957	-3104.201000	1069.784180	961.284729
30700.935957	-3104.201000	1068.635742	931.259521
30700.935957	-3104.201000	1067.487305	1054.430298
30700.935957	-3104.201000	1066.338867	1090.696533
30700.935957	-3104.201000	1065.190430	950.439941
30700.935957	-3104.201000	1064.041992	1253.058105
30700.935957	-3104.201000	1062.892578	1248.756592
30700.935957	-3104.201000	1061.743164	1338.727905
30700.935957	-3104.201000	1060.593750	1051.604248
30700.935957	-3104.201000	1059.443359	1212.440308
30700.935957	-3104.201000	1058.292969	1206.229980
30700.935957	-3104.201000	1057.142578	944.658142
30700.935957	-3104.201000	1055.992188	916.708252
30700.935957	-3104.201000	1054.841797	631.078857
30700.935957	-3104.201000	1053.690430	530.921936
30700.935957	-3104.201000	1052.539063	720.784912
30700.935957	-3104.201000	1051.387695	760.253052
30700.935957	-3104.201000	1050.235352	621.655884
30700.935957	-3104.201000	1049.083984	635.812805
30700.935957	-3104.201000	1047.931641	719.303284
30700.935957	-3104.201000	1046.778320	598.270813
30700.935957	-3104.201000	1045.625977	545.871765
30700.935957	-3104.201000	1044.472656	709.460144
30700.935957	-3104.201000	1043.319336	790.352295
30700.935957	-3104.201000	1042.166016	588.676575
30700.935957	-3104.201000	1041.012695	514.719727
30700.935957	-3104.201000	1039.858398	637.302368
30700.935957	-3104.201000	1038.704102	699.210144
30700.935957	-3104.201000	1037.549805	515.483704
30700.935957	-3104.201000	1036.394531	466.904388
30700.935957	-3104.201000	1035.239258	652.756348
30700.935957	-3104.201000	1034.083984	769.498169
30700.935957	-3104.201000	1032.928711	893.313232
30700.935957	-3104.201000	1031.773438	745.263672
30700.935957	-3104.201000	1030.617188	782.194885
30700.935957	-3104.201000	1029.460938	808.518677
30700.935957	-3104.201000	1028.304688	767.449585
30700.935957	-3104.201000	1027.147461	960.127625
30700.935957	-3104.201000	1025.991211	696.399170
30700.935957	-3104.201000	1024.833984	577.391907
30700.935957	-3104.201000	1023.675781	479.804626
30700.935957	-3104.201000	1022.518555	610.279297
30700.935957	-3104.201000	1021.360352	779.150085
30700.935957	-3104.201000	1020.202148	536.773193
30700.935957	-3104.201000	1019.043945	712.918091
30700.935957	-3104.201000	1017.884766	375.892029
30700.935957	-3104.201000	1016.726563	286.154510
30700.935957	-3104.201000	1015.567383	577.663818
30700.935957	-3104.201000	1014.407227	416.808350
30700.935957	-3104.201000	1013.248047	430.237640
30700.935957	-3104.201000	1012.087891	435.055939
30700.935957	-3104.201000	1010.927734	421.505157
30700.935957	-3104.201000	1009.767578	655.585327
30700.935957	-3104.201000	1008.606445	343.566101
30700.935957	-3104.201000	1007.446289	333.381134
30700.935957	-3104.201000	1006.285156	540.836975
30700.935957	-3104.201000	1005.123047	264.537170
30700.935957	-3104.201000	1003.961914	209.193192
30700.935957	-3104.201000	1002.799805	542.816345
30700.935957	-3104.201000	1001.637695	504.825012
30700.935957	-3104.201000	1000.475586	584.672546
30700.935957	-3104.201000	999.312500	312.139771
30700.935957	-3104.201000	998.149414	185.248886
30700.935957	-3104.201000	996.986328	325.611420
30700.935957	-3104.201000	995.823242	26.510862
30700.935957	-3104.201000	994.659180	45.802013
30700.935957	-3104.201000	993.496094	367.816956
30700.935957	-3104.201000	992.332031	204.550171
30700.935957	-3104.201000	991.166992	153.454956
30700.935957	-3104.201000	990.002930	336.726990
30700.935957	-3104.201000	988.837891	185.266739
30700.935957	-3104.201000	987.672852	98.675217
30700.935957	-3104.201000	986.506836	11.386998
30700.935957	-3104.201000	985.341797	121.211540
30700.935957	-3104.201000	984.175781	85.927841
30700.935957	-3104.201000	983.009766	-117.487869
30700.935957	-3104.201000	981.843750	171.175674
30700.935957	-3104.201000	980.676758	258.563843
30700.935957	-3104.201000	979.509766	157.852203
30700.935957	-3104.201000	978.342773	-31.076040
30700.935957	-3104.201000	977.175781	147.953293
30700.935957	-3104.201000	976.007813	-60.330589
30700.935957	-3104.201000	974.839844	95.625046
30700.935957	-3104.201000	973.671875	-39.536861
30700.935957	-3104.201000	972.503906	-219.903824
30700.935957	-3104.201000	971.334961	-233.361923
30700.935957	-3104.201000	970.166016	22.420954
30700.935957	-3104.201000	968.997070	3.447155
30700.935957	-3104.201000	967.828125	239.908478
30700.935957	-3104.201000	966.658203	-143.987518
30700.935957	-3104.201000	965.488281	151.521088
30700.935957	-3104.201000	964.318359	-127.227417
30700.935957	-3104.201000	963.148438	-102.043205
30700.935957	-3104.201000	961.977539	227.076187
30700.935957	-3104.201000	960.806641	73.183723
30700.935957	-3104.201000	959.635742	-155.429184
30700.935957	-3104.201000	958.463867	269.985992
30700.935957	-3104.201000	957.292969	329.247772
30700.935957	-3104.201000	956.121094	124.489517
30700.935957	-3104.201000	954.948242	-72.188751
30700.935957	-3104.201000	953.776367	185.820511
30700.935957	-3104.201000	952.603516	-32.876644
30700.935957	-3104.201000	951.430664	69.366508
30700.935957	-3104.201000	950.257813	26.712423
30700.935957	-3104.201000	949.084961	349.419250
30700.935957	-3104.201000	947.911133	31.700354
30700.935957	-3104.201000	946.737305	64.882111
30700.935957	-3104.201000	945.563477	261.158173
30700.935957	-3104.201000	944.388672	320.409943
30700.935957	-3104.201000	943.213867	424.594543
30700.935957	-3104.201000	942.039063	286.843140
30700.935957	-3104.201000	940.864258	73.081764
30700.935957	-3104.201000	939.688477	-26.759291
30700.935957	-3104.201000	938.513672	274.887939
30700.935957	-3104.201000	937.337891	205.629837
30700.935957	-3104.201000	936.161133	174.121063
30700.935957	-3104.201000	934.985352	246.019165
30700.935957	-3104.201000	933.808594	201.901443
30700.935957	-3104.201000	932.631836	602.273499
30700.935957	-3104.201000	931.454102	512.630188
30700.935957	-3104.201000	930.277344	953.179626
30700.935957	-3104.201000	929.099609	699.632019
30700.935957	-3104.201000	927.921875	706.067078
30700.935957	-3104.201000	926.743164	626.780579
30700.935957	-3104.201000	925.565430	635.880432
30700.935957	-3104.201000	924.386719	647.530518
30700.935957	-3104.201000	923.208008	364.146027
30700.935957	-3104.201000	922.028320	317.978058
30700.935957	-3104.201000	920.849609	453.440674
30700.935957	-3104.201000	919.669922	454.729279
30700.935957	-3104.201000	919.474609	102.597565
30700.935957	-3104.201000	918.309570	-6.304106
30700.935957	-3104.201000	917.143555	-67.211212
30700.935957	-3104.201000	915.977539	118.873055
30700.935957	-3104.201000	914.810547	-344.903625
30700.935957	-3104.201000	913.644531	-277.048004
30700.935957	-3104.201000	912.477539	-183.961761
30700.935957	-3104.201000	911.310547	-143.699234
30700.935957	-3104.201000	910.143555	-110.920830
30700.935957	-3104.201000	908.975586	-90.654419
30700.935957	-3104.201000	907.807617	-352.075653
30700.935957	-3104.201000	906.639648	-276.261047
30700.935957	-3104.201000	905.471680	-245.652344
30700.935957	-3104.201000	904.303711	-61.599491
30700.935957	-3104.201000	903.134766	-327.483643
30700.935957	-3104.201000	901.965820	-301.633331
30700.935957	-3104.201000	900.796875	-134.988403
30700.935957	-3104.201000	899.626953	-136.631027
30700.935957	-3104.201000	898.457031	-155.755249
30700.935957	-3104.201000	897.287109	103.968468
30700.935957	-3104.201000	896.117188	215.557175
30700.935957	-3104.201000	894.947266	372.383331
30700.935957	-3104.201000	893.776367	546.822083
30700.935957	-3104.201000	892.605469	186.850708
30700.935957	-3104.201000	891.434570	554.628723
30700.935957	-3104.201000	890.262695	342.998230
30700.935957	-3104.201000	889.091797	364.767059
30700.935957	-3104.201000	887.919922	261.284302
30700.935957	-3104.201000	886.748047	235.659409
30700.935957	-3104.201000	885.575195	-25.407761
30700.935957	-3104.201000	884.403320	-3.129826
30700.935957	-3104.201000	883.230469	81.880028
30700.935957	-3104.201000	882.057617	-30.882488
30700.935957	-3104.201000	880.883789	164.513153
30700.935957	-3104.201000	879.710938	-10.572320
30700.935957	-3104.201000	878.537109	159.945816
30700.935957	-3104.201000	877.362305	-37.341419
30700.935957	-3104.201000	876.188477	-61.794685
30700.935957	-3104.201000	875.013672	23.950516
30700.935957	-3104.201000	873.839844	254.831863
30700.935957	-3104.201000	872.664063	63.183514
30700.935957	-3104.201000	871.489258	-13.270592
30700.935957	-3104.201000	870.313477	87.893326
30700.935957	-3104.201000	869.138672	359.061188
30700.935957	-3104.201000	867.962891	515.325073
30700.935957	-3104.201000	866.786133	296.978851
30700.935957	-3104.201000	865.610352	301.108856
30700.935957	-3104.201000	864.433594	230.465881
30700.935957	-3104.201000	863.256836	387.148926
30700.935957	-3104.201000	862.079102	246.900101
30700.935957	-3104.201000	860.902344	-137.704987
30700.935957	-3104.201000	859.724609	-180.229294
30700.935957	-3104.201000	858.546875	-105.375214
30700.935957	-3104.201000	857.368164	-7.970644
30700.935957	-3104.201000	856.190430	126.920288
30700.935957	-3104.201000	855.011719	184.618164
30700.935957	-3104.201000	853.833008	20.617229
30700.935957	-3104.201000	852.654297	205.657822
30700.935957	-3104.201000	851.474609	149.113541
30700.935957	-3104.201000	850.294922	13.023139
30700.935957	-3104.201000	849.115234	-359.445465
30700.935957	-3104.201000	847.935547	57.596294
30700.935957	-3104.201000	846.754883	76.342636
30700.935957	-3104.201000	845.575195	13.082543
30700.935957	-3104.201000	844.393555	-25.124311
30700.935957	-3104.201000	843.212891	-28.363472
30700.935957	-3104.201000	842.032227	30.709585
30700.935957	-3104.201000	840.850586	-19.513355
30700.935957	-3104.201000	839.668945	-149.137512
30700.935957	-3104.201000	838.486328	-112.036583
30700.935957	-3104.201000	837.304688	-114.587471
30700.935957	-3104.201000	836.122070	-0.224631
30700.935957	-3104.201000	834.939453	37.215633
30700.935957	-3104.201000	833.756836	280.904572
30700.935957	-3104.201000	832.573242	8.162161
30700.935957	-3104.201000	831.389648	326.497314
30700.935957	-3104.201000	830.206055	14.401502
30700.935957	-3104.201000	829.022461	-153.512833
30700.935957	-3104.201000	827.838867	-224.471146
30700.935957	-3104.201000	826.654297	-72.026237
30700.935957	-3104.201000	825.469727	85.441414
30700.935957	-3104.201000	824.284180	136.361526
30700.935957	-3104.201000	823.099609	36.158867
30700.935957	-3104.201000	821.914063	171.580566
30700.935957	-3104.201000	820.728516	-126.568863
30700.935957	-3104.201000	819.542969	204.785553
30700.935957	-3104.201000	818.356445	-33.553158
30700.935957	-3104.201000	817.169922	92.351868
30700.935957	-3104.201000	815.983398	59.864552
30700.935957	-3104.201000	814.796875	-205.174683
30700.935957	-3104.201000	813.609375	-49.259495
30700.935957	-3104.201000	812.422852	158.655777
30700.935957	-3104.201000	811.235352	148.909393
30700.935957	-3104.201000	810.046875	92.293037
30700.935957	-3104.201000	808.859375	161.912262
30700.935957	-3104.201000	807.670898	-112.029037
30700.935957	-3104.201000	806.482422	-39.704632
30700.935957	-3104.201000	805.293945	27.752899
30700.935957	-3104.201000	804.104492	43.406818
30700.935957	-3104.201000	802.915039	34.454075
30700.935957	-3104.201000	801.725586	-31.202906
30700.935957	-3104.201000	800.536133	160.064819
30700.935957	-3104.201000	799.345703	-167.071960
30700.935957	-3104.201000	798.155273	162.559799
30700.935957	-3104.201000	796.964844	-198.807617
30700.935957	-3104.201000	795.774414	185.151840
30700.935957	-3104.201000	794.583008	171.915680
30700.935957	-3104.201000	793.392578	245.075165
30700.935957	-3104.201000	792.200195	-21.952229
30700.935957	-3104.201000	791.008789	263.389984
30700.935957	-3104.201000	789.816406	435.330688
30700.935957	-3104.201000	788.625000	348.532654
30700.935957	-3104.201000	787.432617	426.914368
30700.935957	-3104.201000	786.239258	387.118042
30700.935957	-3104.201000	785.046875	512.388062
30700.935957	-3104.201000	783.853516	440.717285
30700.935957	-3104.201000	782.660156	317.447266
30700.935957	-3104.201000	781.465820	425.639587
30700.935957	-3104.201000	780.272461	469.856476
30700.935957	-3104.201000	779.078125	693.706177
30700.935957	-3104.201000	777.883789	696.156921
30700.935957	-3104.201000	776.688477	888.014343
30700.935957	-3104.201000	775.494141	411.113617
30700.935957	-3104.201000	774.298828	784.930420
30700.935957	-3104.201000	773.103516	679.426575
30700.935957	-3104.201000	771.907227	726.347412
30700.935957	-3104.201000	770.711914	620.972839
30700.935957	-3104.201000	769.515625	589.362610
30700.935957	-3104.201000	768.318359	884.380859
30700.935957	-3104.201000	767.122070	779.137390
30700.935957	-3104.201000	765.924805	720.608032
30700.935957	-3104.201000	764.727539	509.978760
30700.935957	-3104.201000	763.530273	691.996399
30700.935957	-3104.201000	762.333008	586.966248
30700.935957	-3104.201000	761.134766	783.641113
30700.935957	-3104.201000	759.936523	617.367004
30700.935957	-3104.201000	758.738281	782.097656
30700.935957	-3104.201000	757.540039	699.224121
30700.935957	-3104.201000	756.340820	675.200195
30700.935957	-3104.201000	755.141602	695.278137
30700.935957	-3104.201000	753.942383	570.827393
30700.935957	-3104.201000	752.742188	794.155151
30700.935957	-3104.201000	751.541992	743.163940
30700.935957	-3104.201000	750.341797	579.574707
30700.935957	-3104.201000	749.141602	690.124084
30700.935957	-3104.201000	747.941406	781.023254
30700.935957	-3104.201000	746.740234	747.104492
30700.935957	-3104.201000	745.539063	1109.373779
30700.935957	-3104.201000	744.337891	862.593018
30700.935957	-3104.201000	743.135742	1009.479065
30700.935957	-3104.201000	741.933594	1322.463623
30700.935957	-3104.201000	740.731445	586.923706
30700.935957	-3104.201000	739.529297	880.212891
30700.935957	-3104.201000	738.326172	997.459961
30700.935957	-3104.201000	737.124023	670.110657
30700.935957	-3104.201000	735.919922	904.433533
30700.935957	-3104.201000	734.716797	1385.130737
30700.935957	-3104.201000	733.513672	1240.750610
30700.935957	-3104.201000	732.309570	1335.495850
30700.935957	-3104.201000	731.105469	1486.227905
30700.935957	-3104.201000	729.900391	1385.594604
30700.935957	-3104.201000	728.696289	1475.110718
30700.935957	-3104.201000	727.491211	1157.344971
30700.935957	-3104.201000	726.286133	1000.491211
30700.935957	-3104.201000	725.080078	953.278809
30700.935957	-3104.201000	723.874023	1105.774780
30700.935957	-3104.201000	722.668945	1219.109131
30700.935957	-3104.201000	721.461914	1541.754395
30700.935957	-3104.201000	720.255859	1257.813843
30700.935957	-3104.201000	719.048828	1025.003052
30700.935957	-3104.201000	717.841797	977.143616
30700.935957	-3104.201000	716.634766	994.875793
30700.935957	-3104.201000	715.427734	718.072449
30700.935957	-3104.201000	714.219727	986.127808
30700.935957	-3104.201000	713.011719	974.248474
30700.935957	-3104.201000	711.803711	706.920471
30700.935957	-3104.201000	710.594727	1127.516235
30700.935957	-3104.201000	709.385742	1083.564941
30700.935957	-3104.201000	708.176758	898.531067
30700.935957	-3104.201000	706.967773	1296.469116
30700.935957	-3104.201000	705.758789	1320.015747
30700.935957	-3104.201000	704.548828	1192.823486
30700.935957	-3104.201000	703.338867	1082.500732
30700.935957	-3104.201000	702.127930	1151.674438
30700.935957	-3104.201000	700.917969	1266.729980
30700.935957	-3104.201000	699.707031	1172.886841
30700.935957	-3104.201000	698.496094	1137.105103
30700.935957	-3104.201000	697.285156	1401.878784
30700.935957	-3104.201000	696.073242	1326.867554
30700.935957	-3104.201000	694.861328	1142.580933
30700.935957	-3104.201000	693.649414	1360.510742
30700.935957	-3104.201000	692.436523	1343.076294
30700.935957	-3104.201000	691.224609	1439.290283
30700.935957	-3104.201000	690.011719	1210.658813
30700.935957	-3104.201000	688.798828	1333.047729
30700.935957	-3104.201000	687.584961	1351.041260
30700.935957	-3104.201000	686.372070	1506.763550
30700.935957	-3104.201000	685.158203	1541.170044
30700.935957	-3104.201000	683.943359	1403.519897
30700.935957	-3104.201000	682.729492	1684.194336
30700.935957	-3104.201000	681.514648	1589.597046
30700.935957	-3104.201000	680.299805	1477.853149
30700.935957	-3104.201000	679.084961	1501.283203
30700.935957	-3104.201000	677.869141	1642.882080
30700.935957	-3104.201000	676.653320	1653.646973
30700.935957	-3104.201000	675.437500	1381.439209
30700.935957	-3104.201000	674.221680	1572.872314
30700.935957	-3104.201000	673.004883	1563.485596
30700.935957	-3104.201000	671.789063	1457.226563
30700.935957	-3104.201000	670.571289	1652.494751
30700.935957	-3104.201000	669.354492	1700.149292
30700.935957	-3104.201000	668.136719	1749.901855
30700.935957	-3104.201000	666.919922	1485.686646
30700.935957	-3104.201000	665.701172	1696.464722
30700.935957	-3104.201000	664.483398	1745.264404
30700.935957	-3104.201000	663.264648	1629.779907
30700.935957	-3104.201000	662.045898	1651.427490
30700.935957	-3104.201000	660.827148	1998.102661
30700.935957	-3104.201000	659.608398	1941.913208
30700.935957	-3104.201000	658.388672	1875.782837
30700.935957	-3104.201000	657.168945	1932.185669
30700.935957	-3104.201000	655.949219	1665.552124
30700.935957	-3104.201000	654.728516	1827.234863
30700.935957	-3104.201000	653.507813	1986.099609
30700.935957	-3104.201000	652.287109	1694.538086
30700.935957	-3104.201000	651.066406	1809.365845
30700.935957	-3104.201000	649.844727	2087.365967
30700.935957	-3104.201000	648.623047	1862.255493
30700.935957	-3104.201000	647.401367	1742.680054
30700.935957	-3104.201000	646.179688	2098.781738
30700.935957	-3104.201000	644.957031	2156.340820
30700.935957	-3104.201000	643.734375	1937.173340
30700.935957	-3104.201000	642.511719	1888.304077
30700.935957	-3104.201000	641.289063	2072.072754
30700.935957	-3104.201000	640.065430	1808.725464
30700.935957	-3104.201000	638.841797	1926.859009
30700.935957	-3104.201000	637.618164	1893.342285
30700.935957	-3104.201000	636.393555	1893.055664
30700.935957	-3104.201000	635.168945	1647.647583
30700.935957	-3104.201000	633.944336	1948.907471
30700.935957	-3104.201000	632.719727	1949.856812
30700.935957	-3104.201000	631.494141	1691.445557
30700.935957	-3104.201000	630.269531	1708.454468
30700.935957	-3104.201000	629.042969	1823.325439
30700.935957	-3104.201000	627.817383	1765.225098
30700.935957	-3104.201000	626.590820	1539.039795
30700.935957	-3104.201000	625.365234	1489.817139
30700.935957	-3104.201000	624.137695	1416.256958
30700.935957	-3104.201000	622.911133	1617.680542
30700.935957	-3104.201000	621.683594	1227.343262
30700.935957	-3104.201000	620.456055	1652.882568
30700.935957	-3104.201000	619.228516	1400.682617
30700.935957	-3104.201000	618.000977	1617.074707
30700.935957	-3104.201000	616.772461	1522.031372
30700.935957	-3104.201000	615.543945	1857.051147
30700.935957	-3104.201000	614.314453	2296.707764
30700.935957	-3104.201000	613.085938	2499.145752
30700.935957	-3104.201000	611.856445	2622.221191
30700.935957	-3104.201000	610.626953	2204.872314
30700.935957	-3104.201000	609.397461	1789.680786
30700.935957	-3104.201000	608.166992	1488.883545
30700.935957	-3104.201000	606.936523	1498.208496
30700.935957	-3104.201000	605.706055	1571.577881
30700.935957	-3104.201000	604.474609	1472.653564
30700.935957	-3104.201000	603.244141	1588.136719
30700.935957	-3104.201000	602.012695	1569.551270
30700.935957	-3104.201000	600.780273	1312.039917
30700.935957	-3104.201000	599.548828	1264.094971
30700.935957	-3104.201000	598.316406	1334.961670
30700.935957	-3104.201000	597.083984	1295.746460
30700.935957	-3104.201000	595.851563	1384.835327
30700.935957	-3104.201000	594.618164	1328.128784
30700.935957	-3104.201000	593.384766	1297.250122
30700.935957	-3104.201000	592.151367	937.320068
30700.935957	-3104.201000	590.917969	1155.758301
30700.935957	-3104.201000	589.683594	1209.427368
30700.935957	-3104.201000	588.449219	915.186646
30700.935957	-3104.201000	587.214844	1006.171021
30700.935957	-3104.201000	585.979492	830.252258
30700.935957	-3104.201000	584.745117	1041.744019
30700.935957	-3104.201000	583.509766	786.639526
30700.935957	-3104.201000	582.273438	1023.397339
30700.935957	-3104.201000	581.038086	945.917358
30700.935957	-3104.201000	579.801758	1253.076050
30700.935957	-3104.201000	578.565430	1001.353394
30700.935957	-3104.201000	577.329102	1245.852051
30700.935957	-3104.201000	576.091797	1021.973450
30700.935957	-3104.201000	574.854492	1047.148071
30700.935957	-3104.201000	573.617188	988.854004
30700.935957	-3104.201000	572.378906	1025.142578
30700.935957	-3104.201000	571.141602	835.641846
30700.935957	-3104.201000	569.903320	940.035217
30700.935957	-3104.201000	568.664063	842.390259
30700.935957	-3104.201000	567.425781	1019.551758
30700.935957	-3104.201000	566.186523	966.287781
30700.935957	-3104.201000	564.947266	884.258484
30700.935957	-3104.201000	563.708008	1008.114685
30700.935957	-3104.201000	562.467773	799.838318
30700.935957	-3104.201000	561.227539	631.594421
30700.935957	-3104.201000	559.987305	773.364380
30700.935957	-3104.201000	558.747070	725.318787
30700.935957	-3104.201000	557.505859	684.058289
30700.935957	-3104.201000	556.264648	533.626465
30700.935957	-3104.201000	555.023438	685.854492
30700.935957	-3104.201000	553.781250	314.825104
30700.935957	-3104.201000	552.539063	963.151123
30700.935957	-3104.201000	551.296875	437.914215
30700.935957	-3104.201000	550.054688	872.565125
30700.935957	-3104.201000	548.811523	597.557129
30700.935957	-3104.201000	547.569336	353.139069
30700.935957	-3104.201000	546.325195	890.624084
30700.935957	-3104.201000	545.082031	555.921631
30700.935957	-3104.201000	543.837891	391.133270
30700.935957	-3104.201000	542.593750	181.300262
30700.935957	-3104.201000	541.349609	219.200241
30700.935957	-3104.201000	540.105469	573.132446
30700.935957	-3104.201000	538.860352	329.611908
30700.935957	-3104.201000	537.615234	326.620453
30700.935957	-3104.201000	536.369141	153.547989
30700.935957	-3104.201000	535.124023	242.136032
30700.935957	-3104.201000	533.877930	441.269318
30700.935957	-3104.201000	532.631836	-22.290176
30700.935957	-3104.201000	531.384766	294.231995
30700.935957	-3104.201000	530.138672	219.309311
30700.935957	-3104.201000	528.891602	-164.399017
30700.935957	-3104.201000	527.643555	2.996502
30700.935957	-3104.201000	526.396484	403.304260
30700.935957	-3104.201000	525.148438	257.056000
30700.935957	-3104.201000	523.900391	162.501404
30700.935957	-3104.201000	522.652344	147.852798
30700.935957	-3104.201000	521.403320	8.345104
30700.935957	-3104.201000	520.154297	-30.085960
30700.935957	-3104.201000	518.905273	154.793518
30700.935957	-3104.201000	517.656250	59.674496
30700.935957	-3104.201000	516.406250	194.832733
30700.935957	-3104.201000	515.156250	209.968109
30700.935957	-3104.201000	513.906250	-155.656097
30700.935957	-3104.201000	512.655273	44.925220
30700.935957	-3104.201000	511.404297	-102.273376
30700.935957	-3104.201000	510.153320	-282.355743
30700.935957	-3104.201000	508.902344	-276.957001
30700.935957	-3104.201000	507.650391	-109.688408
30700.935957	-3104.201000	506.398438	-313.324249
30700.935957	-3104.201000	505.146484	215.101852
30700.935957	-3104.201000	503.893555	-124.675728
30700.935957	-3104.201000	502.641602	-175.845764
30700.935957	-3104.201000	501.388672	108.246338
30700.935957	-3104.201000	500.134766	-170.435104
30700.935957	-3104.201000	498.881836	26.796024
30700.935957	-3104.201000	497.627930	-265.812042
30700.935957	-3104.201000	496.374023	-162.373734
30700.935957	-3104.201000	495.119141	6.587255
30700.935957	-3104.201000	493.865234	-203.827377
30700.935957	-3104.201000	492.610352	-18.492594
30700.935957	-3104.201000	491.355469	-27.478266
30700.935957	-3104.201000	490.099609	206.927979
30700.935957	-3104.201000	488.843750	-169.365494
30700.935957	-3104.201000	487.587891	62.735634
30700.935957	-3104.201000	486.332031	-95.756477
30700.935957	-3104.201000	485.075195	56.831238
30700.935957	-3104.201000	483.818359	99.558739
30700.935957	-3104.201000	482.561523	4.455326
30700.935957	-3104.201000	481.304688	33.319664
30700.935957	-3104.201000	480.046875	139.326447
30700.935957	-3104.201000	478.789063	151.960449
30700.935957	-3104.201000	477.531250	-159.892334
30700.935957	-3104.201000	476.272461	350.253052
30700.935957	-3104.201000	475.013672	230.077744
30700.935957	-3104.201000	473.754883	170.744461
30700.935957	-3104.201000	472.496094	162.886353
30700.935957	-3104.201000	471.236328	311.413635
30700.935957	-3104.201000	469.976563	355.058868
30700.935957	-3104.201000	468.716797	-118.797585
30700.935957	-3104.201000	467.456055	102.326324
30700.935957	-3104.201000	466.196289	274.575562
30700.935957	-3104.201000	464.935547	344.342072
30700.935957	-3104.201000	463.673828	85.722290
30700.935957	-3104.201000	462.413086	246.623123
30700.935957	-3104.201000	461.151367	274.842529
30700.935957	-3104.201000	459.889648	226.373245
30700.935957	-3104.201000	458.626953	217.617661
30700.935957	-3104.201000	457.364258	148.510834
30700.935957	-3104.201000	456.101563	407.628937
30700.935957	-3104.201000	454.838867	443.485291
30700.935957	-3104.201000	453.575195	79.449837
30700.935957	-3104.201000	452.312500	-30.821789
30700.935957	-3104.201000	451.047852	-61.915718
30700.935957	-3104.201000	449.784180	-109.093582
30700.935957	-3104.201000	448.519531	-12.076763
30700.935957	-3104.201000	447.254883	13.022098
30700.935957	-3104.201000	445.990234	296.048798
30700.935957	-3104.201000	444.725586	-78.055687
30700.935957	-3104.201000	443.459961	114.559868
30700.935957	-3104.201000	442.194336	-138.428894
30700.935957	-3104.201000	440.927734	-238.062363
30700.935957	-3104.201000	439.662109	-279.518921
30700.935957	-3104.201000	438.395508	71.119766
30700.935957	-3104.201000	437.127930	-11.986172
30700.935957	-3104.201000	435.861328	11.705012
30700.935957	-3104.201000	434.593750	167.565125
30700.935957	-3104.201000	433.326172	22.141424
30700.935957	-3104.201000	432.058594	-97.676666
30700.935957	-3104.201000	430.790039	81.405273
30700.935957	-3104.201000	429.521484	-269.931335
30700.935957	-3104.201000	428.252930	-113.998619
30700.935957	-3104.201000	426.984375	-467.437714
30700.935957	-3104.201000	425.714844	-367.115692
30700.935957	-3104.201000	424.445313	-549.174927
30700.935957	-3104.201000	423.174805	53.054688
30700.935957	-3104.201000	421.905273	67.478302
30700.935957	-3104.201000	420.634766	-10.711017
30700.935957	-3104.201000	419.364258	-58.913330
30700.935957	-3104.201000	418.092773	-121.111084
30700.935957	-3104.201000	416.822266	221.023102
30700.935957	-3104.201000	415.550781	126.130730
30700.935957	-3104.201000	414.278320	-188.386719
30700.935957	-3104.201000	413.006836	92.891251
30700.935957	-3104.201000	411.734375	135.951569
30700.935957	-3104.201000	410.461914	409.570770
30700.935957	-3104.201000	409.188477	82.667526
30700.935957	-3104.201000	407.916016	288.631744
30700.935957	-3104.201000	406.642578	-43.409733
30700.935957	-3104.201000	405.368164	-32.060413
30700.935957	-3104.201000	404.094727	299.414917
30700.935957	-3104.201000	402.820313	95.381546
30700.935957	-3104.201000	401.545898	257.430756
30700.935957	-3104.201000	400.270508	-5.182723
30700.935957	-3104.201000	398.996094	422.963013
30700.935957	-3104.201000	397.720703	-13.535376
30700.935957	-3104.201000	396.444336	102.182587
30700.935957	-3104.201000	395.168945	309.271332
30700.935957	-3104.201000	393.892578	15.954651
30700.935957	-3104.201000	392.616211	202.976166
30700.935957	-3104.201000	391.339844	-262.117249
30700.935957	-3104.201000	390.062500	-95.304840
30700.935957	-3104.201000	388.785156	247.577499
30700.935957	-3104.201000	387.507813	209.883850
30700.935957	-3104.201000	386.229492	515.955383
30700.935957	-3104.201000	384.951172	255.337555
30700.935957	-3104.201000	383.672852	106.247955
30700.935957	-3104.201000	382.394531	24.898392
30700.935957	-3104.201000	381.115234	422.304138
30700.935957	-3104.201000	379.835938	149.877243
30700.935957	-3104.201000	378.556641	289.397614
30700.935957	-3104.201000	377.277344	188.603958
30700.935957	-3104.201000	375.997070	99.990837
30700.935957	-3104.201000	374.716797	195.598694
30700.935957	-3104.201000	373.435547	14.094561
30700.935957	-3104.201000	372.155273	174.909271
30700.935957	-3104.201000	370.874023	108.982498
30700.935957	-3104.201000	369.591797	178.589554
30700.935957	-3104.201000	368.310547	108.611847
30700.935957	-3104.201000	367.028320	242.673859
30700.935957	-3104.201000	365.746094	218.623093
30700.935957	-3104.201000	364.463867	233.447937
30700.935957	-3104.201000	363.180664	117.509178
30700.935957	-3104.201000	361.897461	200.534119
30700.935957	-3104.201000	360.614258	207.606552
30700.935957	-3104.201000	359.330078	216.418518
30700.935957	-3104.201000	358.045898	128.532425
30700.935957	-3104.201000	356.761719	131.476501
30700.935957	-3104.201000	355.477539	133.594452
30700.935957	-3104.201000	354.192383	310.758423
30700.935957	-3104.201000	352.907227	322.181732
30700.935957	-3104.201000	351.622070	442.112793
30700.935957	-3104.201000	350.336914	391.578217
30700.935957	-3104.201000	349.050781	277.846497
30700.935957	-3104.201000	347.764648	617.092957
30700.935957	-3104.201000	346.477539	200.807587
30700.935957	-3104.201000	345.191406	54.600201
30700.935957	-3104.201000	343.904297	56.988602
30700.935957	-3104.201000	342.616211	451.894592
30700.935957	-3104.201000	341.329102	-49.959991
30700.935957	-3104.201000	340.041016	-4.455594
30700.935957	-3104.201000	338.752930	446.596954
30700.935957	-3104.201000	337.463867	-63.091125
30700.935957	-3104.201000	336.175781	33.209965
30700.935957	-3104.201000	334.886719	237.869095
30700.935957	-3104.201000	333.596680	-192.186432
30700.935957	-3104.201000	332.307617	-199.452988
30700.935957	-3104.201000	331.017578	-44.292816
30700.935957	-3104.201000	329.727539	-364.453705
30700.935957	-3104.201000	328.436523	-23.958174
30700.935957	-3104.201000	327.146484	-54.211308
30700.935957	-3104.201000	325.855469	-277.974213
30700.935957	-3104.201000	324.563477	160.080353
30700.935957	-3104.201000	323.272461	-496.344452
30700.935957	-3104.201000	321.980469	-248.170395
30700.935957	-3104.201000	320.688477	-164.632019
30700.935957	-3104.201000	319.395508	-375.598389
30700.935957	-3104.201000	318.103516	-394.415070
30700.935957	-3104.201000	316.810547	21.289272
30700.935957	-3104.201000	315.516602	-171.690445
30700.935957	-3104.201000	314.223633	-89.351921
30700.935957	-3104.201000	312.929688	58.561192
30700.935957	-3104.201000	311.635742	253.790405
30700.935957	-3104.201000	310.340820	257.494049
30700.935957	-3104.201000	309.045898	-250.201462
30700.935957	-3104.201000	307.750977	-64.603455
30700.935957	-3104.201000	306.456055	455.182098
30700.935957	-3104.201000	305.160156	498.843140
30700.935957	-3104.201000	303.865234	391.115295
30700.935957	-3104.201000	302.568359	550.303162
30700.935957	-3104.201000	301.272461	260.640564
30700.935957	-3104.201000	299.975586	1059.902954
30700.935957	-3104.201000	298.678711	1323.226685
