#X		#Y		#Wave		#Intensity
12177.073404	-194.361667	1999.980469	-72.054657
12177.073404	-194.361667	1999.016602	-65.106277
12177.073404	-194.361667	1998.052734	-127.658165
12177.073404	-194.361667	1997.087891	-61.347961
12177.073404	-194.361667	1996.123047	217.996429
12177.073404	-194.361667	1995.158203	90.958115
12177.073404	-194.361667	1994.193359	107.603523
12177.073404	-194.361667	1993.228516	-115.970703
12177.073404	-194.361667	1992.262695	-22.570478
12177.073404	-194.361667	1991.297852	-238.634048
12177.073404	-194.361667	1990.332031	-33.891464
12177.073404	-194.361667	1989.366211	148.497070
12177.073404	-194.361667	1988.399414	16.614090
12177.073404	-194.361667	1987.433594	-117.693649
12177.073404	-194.361667	1986.466797	-81.313652
12177.073404	-194.361667	1985.500977	21.816576
12177.073404	-194.361667	1984.534180	129.852386
12177.073404	-194.361667	1983.567383	-21.678190
12177.073404	-194.361667	1982.599609	128.340286
12177.073404	-194.361667	1981.632813	31.233776
12177.073404	-194.361667	1980.665039	181.199493
12177.073404	-194.361667	1979.697266	224.914658
12177.073404	-194.361667	1978.729492	-20.298225
12177.073404	-194.361667	1977.761719	48.147949
12177.073404	-194.361667	1976.792969	143.729767
12177.073404	-194.361667	1975.825195	197.336273
12177.073404	-194.361667	1974.856445	93.009285
12177.073404	-194.361667	1973.887695	314.395447
12177.073404	-194.361667	1972.918945	118.850174
12177.073404	-194.361667	1971.949219	-54.412716
12177.073404	-194.361667	1970.980469	115.147766
12177.073404	-194.361667	1970.010742	417.786316
12177.073404	-194.361667	1969.041016	30.180550
12177.073404	-194.361667	1968.071289	-118.217621
12177.073404	-194.361667	1967.101563	115.366959
12177.073404	-194.361667	1966.130859	139.490753
12177.073404	-194.361667	1965.161133	161.166901
12177.073404	-194.361667	1964.190430	205.018356
12177.073404	-194.361667	1963.219727	179.939148
12177.073404	-194.361667	1962.249023	179.509888
12177.073404	-194.361667	1961.277344	102.806541
12177.073404	-194.361667	1960.306641	70.453156
12177.073404	-194.361667	1959.334961	-114.401855
12177.073404	-194.361667	1958.363281	-109.757332
12177.073404	-194.361667	1957.391602	135.927155
12177.073404	-194.361667	1956.419922	103.692963
12177.073404	-194.361667	1955.447266	199.334763
12177.073404	-194.361667	1954.474609	-108.138710
12177.073404	-194.361667	1953.501953	-17.353167
12177.073404	-194.361667	1952.529297	110.282448
12177.073404	-194.361667	1951.556641	19.262472
12177.073404	-194.361667	1950.583984	-29.941238
12177.073404	-194.361667	1949.610352	129.632980
12177.073404	-194.361667	1948.636719	-71.741844
12177.073404	-194.361667	1947.663086	-125.725777
12177.073404	-194.361667	1946.689453	-253.290421
12177.073404	-194.361667	1945.715820	75.637497
12177.073404	-194.361667	1944.741211	-22.419802
12177.073404	-194.361667	1943.767578	-71.351456
12177.073404	-194.361667	1942.792969	-392.462646
12177.073404	-194.361667	1941.818359	-100.419212
12177.073404	-194.361667	1940.842773	-65.872734
12177.073404	-194.361667	1939.868164	-144.058395
12177.073404	-194.361667	1938.892578	8.172874
12177.073404	-194.361667	1937.916992	18.265368
12177.073404	-194.361667	1936.941406	1.434729
12177.073404	-194.361667	1935.965820	16.479582
12177.073404	-194.361667	1934.990234	38.893848
12177.073404	-194.361667	1934.013672	159.260376
12177.073404	-194.361667	1933.037109	76.432388
12177.073404	-194.361667	1932.060547	128.272873
12177.073404	-194.361667	1931.083984	104.264946
12177.073404	-194.361667	1930.107422	43.593803
12177.073404	-194.361667	1929.129883	-85.519951
12177.073404	-194.361667	1928.153320	78.918015
12177.073404	-194.361667	1927.175781	-84.335373
12177.073404	-194.361667	1926.198242	136.319855
12177.073404	-194.361667	1925.219727	19.607237
12177.073404	-194.361667	1924.242188	122.906570
12177.073404	-194.361667	1923.263672	52.712242
12177.073404	-194.361667	1922.285156	131.584976
12177.073404	-194.361667	1921.306641	12.613147
12177.073404	-194.361667	1920.328125	-86.755493
12177.073404	-194.361667	1919.349609	-107.935509
12177.073404	-194.361667	1918.370117	-158.381042
12177.073404	-194.361667	1917.391602	23.075352
12177.073404	-194.361667	1916.412109	92.234909
12177.073404	-194.361667	1915.431641	183.345184
12177.073404	-194.361667	1914.452148	96.376152
12177.073404	-194.361667	1913.472656	-41.756214
12177.073404	-194.361667	1912.492188	-38.395638
12177.073404	-194.361667	1911.511719	-127.657593
12177.073404	-194.361667	1910.531250	-46.249737
12177.073404	-194.361667	1909.550781	32.708145
12177.073404	-194.361667	1908.569336	157.944626
12177.073404	-194.361667	1907.588867	5.439079
12177.073404	-194.361667	1906.607422	135.535049
12177.073404	-194.361667	1905.625977	177.931320
12177.073404	-194.361667	1904.644531	-98.621811
12177.073404	-194.361667	1903.662109	223.765381
12177.073404	-194.361667	1902.680664	51.984184
12177.073404	-194.361667	1901.698242	123.611626
12177.073404	-194.361667	1900.715820	15.189156
12177.073404	-194.361667	1899.733398	-132.102310
12177.073404	-194.361667	1898.750000	-109.091805
12177.073404	-194.361667	1897.767578	1.453632
12177.073404	-194.361667	1896.784180	-92.245369
12177.073404	-194.361667	1895.800781	96.047867
12177.073404	-194.361667	1894.817383	-0.051217
12177.073404	-194.361667	1893.833984	20.516167
12177.073404	-194.361667	1892.850586	-114.391396
12177.073404	-194.361667	1891.866211	-20.938854
12177.073404	-194.361667	1890.881836	-180.067337
12177.073404	-194.361667	1889.897461	42.044632
12177.073404	-194.361667	1888.913086	-17.507092
12177.073404	-194.361667	1887.927734	-225.082779
12177.073404	-194.361667	1886.943359	-15.219197
12177.073404	-194.361667	1885.958008	-6.799188
12177.073404	-194.361667	1884.972656	30.722414
12177.073404	-194.361667	1883.987305	-82.133736
12177.073404	-194.361667	1883.001953	11.150078
12177.073404	-194.361667	1882.015625	-11.971992
12177.073404	-194.361667	1881.029297	37.624306
12177.073404	-194.361667	1880.042969	36.304340
12177.073404	-194.361667	1879.056641	66.475471
12177.073404	-194.361667	1878.070313	-0.269392
12177.073404	-194.361667	1877.083984	-137.236771
12177.073404	-194.361667	1876.096680	-78.019424
12177.073404	-194.361667	1875.109375	216.009827
12177.073404	-194.361667	1874.122070	120.197792
12177.073404	-194.361667	1873.134766	130.895187
12177.073404	-194.361667	1872.146484	330.313873
12177.073404	-194.361667	1871.159180	-99.364021
12177.073404	-194.361667	1870.170898	-20.947371
12177.073404	-194.361667	1869.182617	45.332706
12177.073404	-194.361667	1868.194336	-93.950424
12177.073404	-194.361667	1867.205078	-112.328156
12177.073404	-194.361667	1866.216797	-125.880898
12177.073404	-194.361667	1865.227539	58.706364
12177.073404	-194.361667	1864.238281	-104.711487
12177.073404	-194.361667	1863.249023	-144.892136
12177.073404	-194.361667	1862.259766	-235.798340
12177.073404	-194.361667	1861.269531	-106.953773
12177.073404	-194.361667	1860.279297	113.560974
12177.073404	-194.361667	1859.290039	263.969116
12177.073404	-194.361667	1858.298828	170.542007
12177.073404	-194.361667	1857.308594	-29.041229
12177.073404	-194.361667	1856.318359	56.093170
12177.073404	-194.361667	1855.327148	-61.442867
12177.073404	-194.361667	1854.335938	190.004608
12177.073404	-194.361667	1853.344727	270.140808
12177.073404	-194.361667	1852.353516	-102.986206
12177.073404	-194.361667	1851.362305	-140.985687
12177.073404	-194.361667	1850.370117	-89.845413
12177.073404	-194.361667	1849.377930	-43.574387
12177.073404	-194.361667	1848.385742	207.395935
12177.073404	-194.361667	1847.393555	60.853828
12177.073404	-194.361667	1846.401367	1.018216
12177.073404	-194.361667	1845.408203	124.134567
12177.073404	-194.361667	1844.415039	1.652069
12177.073404	-194.361667	1843.421875	25.978161
12177.073404	-194.361667	1842.428711	180.187271
12177.073404	-194.361667	1841.435547	286.185852
12177.073404	-194.361667	1840.441406	149.176224
12177.073404	-194.361667	1839.448242	14.583486
12177.073404	-194.361667	1838.454102	-95.958481
12177.073404	-194.361667	1837.459961	50.711742
12177.073404	-194.361667	1836.464844	-254.559128
12177.073404	-194.361667	1835.470703	96.249046
12177.073404	-194.361667	1834.475586	127.346054
12177.073404	-194.361667	1833.480469	268.879791
12177.073404	-194.361667	1832.485352	74.090790
12177.073404	-194.361667	1831.490234	6.588685
12177.073404	-194.361667	1830.495117	224.746811
12177.073404	-194.361667	1829.499023	-46.875477
12177.073404	-194.361667	1828.502930	27.123903
12177.073404	-194.361667	1827.506836	41.061661
12177.073404	-194.361667	1826.510742	172.489868
12177.073404	-194.361667	1825.513672	104.744087
12177.073404	-194.361667	1824.517578	41.771301
12177.073404	-194.361667	1823.520508	74.668068
12177.073404	-194.361667	1822.523438	-5.163216
12177.073404	-194.361667	1821.526367	250.508286
12177.073404	-194.361667	1820.529297	29.192682
12177.073404	-194.361667	1819.531250	-7.629198
12177.073404	-194.361667	1818.533203	-15.748075
12177.073404	-194.361667	1817.535156	107.793465
12177.073404	-194.361667	1816.537109	-12.993440
12177.073404	-194.361667	1815.539063	201.354507
12177.073404	-194.361667	1814.540039	104.411644
12177.073404	-194.361667	1813.541992	84.024628
12177.073404	-194.361667	1812.542969	73.154182
12177.073404	-194.361667	1811.543945	150.734634
12177.073404	-194.361667	1810.543945	127.772758
12177.073404	-194.361667	1809.544922	-120.010284
12177.073404	-194.361667	1808.544922	167.760849
12177.073404	-194.361667	1807.544922	-44.208744
12177.073404	-194.361667	1806.544922	104.703506
12177.073404	-194.361667	1805.544922	136.417023
12177.073404	-194.361667	1804.544922	60.552456
12177.073404	-194.361667	1803.543945	-58.344734
12177.073404	-194.361667	1802.542969	185.718979
12177.073404	-194.361667	1801.541992	-12.077146
12177.073404	-194.361667	1800.541016	-16.506008
12177.073404	-194.361667	1799.539063	-52.031124
12177.073404	-194.361667	1798.538086	146.243927
12177.073404	-194.361667	1797.536133	-63.593830
12177.073404	-194.361667	1796.534180	241.809906
12177.073404	-194.361667	1795.532227	81.980141
12177.073404	-194.361667	1794.529297	-139.857452
12177.073404	-194.361667	1793.527344	167.565338
12177.073404	-194.361667	1792.524414	269.816376
12177.073404	-194.361667	1791.521484	119.352875
12177.073404	-194.361667	1790.518555	199.990921
12177.073404	-194.361667	1789.514648	104.243027
12177.073404	-194.361667	1788.511719	191.856598
12177.073404	-194.361667	1787.507813	253.167465
12177.073404	-194.361667	1786.503906	9.639082
12177.073404	-194.361667	1785.500000	137.468445
12177.073404	-194.361667	1784.496094	-60.871071
12177.073404	-194.361667	1783.491211	-18.887821
12177.073404	-194.361667	1782.486328	91.998177
12177.073404	-194.361667	1781.481445	124.276932
12177.073404	-194.361667	1780.476563	58.967743
12177.073404	-194.361667	1779.471680	102.981537
12177.073404	-194.361667	1778.465820	9.022581
12177.073404	-194.361667	1777.460938	102.793022
12177.073404	-194.361667	1776.455078	153.675171
12177.073404	-194.361667	1775.449219	-14.114712
12177.073404	-194.361667	1774.442383	103.125458
12177.073404	-194.361667	1773.436523	16.007610
12177.073404	-194.361667	1772.429688	133.048309
12177.073404	-194.361667	1771.422852	14.937762
12177.073404	-194.361667	1770.416016	-122.191307
12177.073404	-194.361667	1769.409180	-14.910299
12177.073404	-194.361667	1768.402344	170.553162
12177.073404	-194.361667	1767.394531	272.835297
12177.073404	-194.361667	1766.386719	0.260555
12177.073404	-194.361667	1765.378906	90.527092
12177.073404	-194.361667	1764.371094	-13.729376
12177.073404	-194.361667	1763.362305	40.790218
12177.073404	-194.361667	1762.354492	40.709248
12177.073404	-194.361667	1761.345703	68.980339
12177.073404	-194.361667	1760.336914	16.614925
12177.073404	-194.361667	1759.328125	127.628647
12177.073404	-194.361667	1758.318359	174.575165
12177.073404	-194.361667	1757.308594	17.802103
12177.073404	-194.361667	1756.299805	-209.998886
12177.073404	-194.361667	1755.290039	-9.400360
12177.073404	-194.361667	1754.279297	-121.325325
12177.073404	-194.361667	1753.269531	-84.222275
12177.073404	-194.361667	1752.258789	203.522354
12177.073404	-194.361667	1751.249023	306.616608
12177.073404	-194.361667	1750.238281	2.880820
12177.073404	-194.361667	1749.226563	1.784637
12177.073404	-194.361667	1748.215820	-91.564026
12177.073404	-194.361667	1747.204102	32.456535
12177.073404	-194.361667	1746.193359	-37.387257
12177.073404	-194.361667	1745.181641	-173.431961
12177.073404	-194.361667	1744.168945	122.714005
12177.073404	-194.361667	1743.157227	111.693474
12177.073404	-194.361667	1742.144531	-182.724045
12177.073404	-194.361667	1741.132813	150.803802
12177.073404	-194.361667	1740.120117	-157.819931
12177.073404	-194.361667	1739.106445	45.629379
12177.073404	-194.361667	1738.093750	79.073647
12177.073404	-194.361667	1737.080078	100.628418
12177.073404	-194.361667	1736.067383	11.269609
12177.073404	-194.361667	1735.053711	-146.515411
12177.073404	-194.361667	1734.040039	35.148220
12177.073404	-194.361667	1733.025391	-136.878708
12177.073404	-194.361667	1732.011719	-151.022034
12177.073404	-194.361667	1730.997070	-19.167955
12177.073404	-194.361667	1729.982422	-130.061401
12177.073404	-194.361667	1728.967773	1.591918
12177.073404	-194.361667	1727.952148	-215.378754
12177.073404	-194.361667	1726.937500	-39.173943
12177.073404	-194.361667	1725.921875	-202.061279
12177.073404	-194.361667	1724.906250	-164.924988
12177.073404	-194.361667	1723.890625	-78.464867
12177.073404	-194.361667	1722.875000	-10.927611
12177.073404	-194.361667	1721.858398	-54.038963
12177.073404	-194.361667	1720.841797	-242.999252
12177.073404	-194.361667	1719.825195	-93.401794
12177.073404	-194.361667	1718.808594	-164.890701
12177.073404	-194.361667	1717.791992	-67.208687
12177.073404	-194.361667	1716.774414	32.707283
12177.073404	-194.361667	1715.756836	-27.234341
12177.073404	-194.361667	1714.739258	-28.499889
12177.073404	-194.361667	1713.721680	21.831038
12177.073404	-194.361667	1712.704102	55.640762
12177.073404	-194.361667	1711.685547	183.258682
12177.073404	-194.361667	1710.667969	-22.504787
12177.073404	-194.361667	1709.649414	-71.045097
12177.073404	-194.361667	1708.630859	-82.093948
12177.073404	-194.361667	1707.611328	33.452282
12177.073404	-194.361667	1706.592773	-80.931435
12177.073404	-194.361667	1705.573242	172.783844
12177.073404	-194.361667	1704.553711	112.198692
12177.073404	-194.361667	1703.534180	-4.677514
12177.073404	-194.361667	1702.513672	-137.986511
12177.073404	-194.361667	1701.494141	91.864464
12177.073404	-194.361667	1700.473633	134.154816
12177.073404	-194.361667	1699.453125	7.738373
12177.073404	-194.361667	1698.432617	227.870651
12177.073404	-194.361667	1697.412109	59.224129
12177.073404	-194.361667	1696.390625	166.778885
12177.073404	-194.361667	1695.369141	119.774742
12177.073404	-194.361667	1694.347656	156.965286
12177.073404	-194.361667	1693.326172	292.337494
12177.073404	-194.361667	1692.304688	107.169373
12177.073404	-194.361667	1691.282227	207.299164
12177.073404	-194.361667	1690.260742	150.697830
12177.073404	-194.361667	1689.238281	241.320465
12177.073404	-194.361667	1688.214844	289.775085
12177.073404	-194.361667	1687.192383	195.630524
12177.073404	-194.361667	1686.168945	85.105385
12177.073404	-194.361667	1685.146484	196.481613
12177.073404	-194.361667	1684.123047	275.056702
12177.073404	-194.361667	1683.099609	271.830933
12177.073404	-194.361667	1682.075195	119.140266
12177.073404	-194.361667	1681.051758	344.576630
12177.073404	-194.361667	1680.027344	191.833664
12177.073404	-194.361667	1679.002930	389.064209
12177.073404	-194.361667	1677.978516	446.213348
12177.073404	-194.361667	1676.953125	498.618835
12177.073404	-194.361667	1675.928711	296.810516
12177.073404	-194.361667	1674.903320	596.250305
12177.073404	-194.361667	1673.877930	524.927063
12177.073404	-194.361667	1672.852539	544.472595
12177.073404	-194.361667	1671.826172	517.358154
12177.073404	-194.361667	1670.800781	725.501770
12177.073404	-194.361667	1669.774414	775.137451
12177.073404	-194.361667	1668.748047	629.112732
12177.073404	-194.361667	1667.721680	783.435242
12177.073404	-194.361667	1666.694336	853.849731
12177.073404	-194.361667	1665.667969	854.393677
12177.073404	-194.361667	1664.640625	915.385681
12177.073404	-194.361667	1663.613281	941.422546
12177.073404	-194.361667	1662.585938	1074.405518
12177.073404	-194.361667	1661.557617	1135.199341
12177.073404	-194.361667	1660.530273	800.701111
12177.073404	-194.361667	1659.501953	931.195068
12177.073404	-194.361667	1658.473633	829.197083
12177.073404	-194.361667	1657.444336	710.929260
12177.073404	-194.361667	1656.416016	934.198059
12177.073404	-194.361667	1655.386719	1268.831543
12177.073404	-194.361667	1654.358398	1322.321899
12177.073404	-194.361667	1653.328125	983.346008
12177.073404	-194.361667	1652.298828	969.480713
12177.073404	-194.361667	1651.269531	1029.866943
12177.073404	-194.361667	1650.239258	1113.397583
12177.073404	-194.361667	1649.208984	1333.753662
12177.073404	-194.361667	1648.178711	1301.162964
12177.073404	-194.361667	1647.148438	1273.202271
12177.073404	-194.361667	1646.117188	1377.383667
12177.073404	-194.361667	1645.086914	1425.879272
12177.073404	-194.361667	1644.055664	1451.145874
12177.073404	-194.361667	1643.024414	1402.225830
12177.073404	-194.361667	1641.992188	1564.135010
12177.073404	-194.361667	1640.960938	1369.241211
12177.073404	-194.361667	1639.928711	1871.514526
12177.073404	-194.361667	1638.896484	1671.960327
12177.073404	-194.361667	1637.864258	1532.663818
12177.073404	-194.361667	1636.832031	1715.145386
12177.073404	-194.361667	1635.798828	1728.594604
12177.073404	-194.361667	1634.766602	1718.900635
12177.073404	-194.361667	1633.733398	1706.873535
12177.073404	-194.361667	1632.699219	1687.891235
12177.073404	-194.361667	1631.666016	1729.044067
12177.073404	-194.361667	1630.632813	1652.261841
12177.073404	-194.361667	1629.598633	1767.345581
12177.073404	-194.361667	1628.564453	1947.088013
12177.073404	-194.361667	1627.530273	1911.869141
12177.073404	-194.361667	1626.495117	1714.935059
12177.073404	-194.361667	1625.460938	2081.661621
12177.073404	-194.361667	1624.425781	2157.258789
12177.073404	-194.361667	1623.390625	2018.107422
12177.073404	-194.361667	1622.355469	2301.442871
12177.073404	-194.361667	1621.319336	2183.075928
12177.073404	-194.361667	1620.284180	2191.680908
12177.073404	-194.361667	1619.248047	2490.958252
12177.073404	-194.361667	1618.211914	2651.728516
12177.073404	-194.361667	1617.174805	2604.876465
12177.073404	-194.361667	1616.138672	2719.459229
12177.073404	-194.361667	1615.101563	2684.152100
12177.073404	-194.361667	1614.065430	2874.746582
12177.073404	-194.361667	1613.027344	3072.165283
12177.073404	-194.361667	1611.990234	2884.776611
12177.073404	-194.361667	1610.953125	2814.949951
12177.073404	-194.361667	1609.915039	3334.715088
12177.073404	-194.361667	1608.876953	3402.991455
12177.073404	-194.361667	1607.838867	3876.424805
12177.073404	-194.361667	1606.800781	3995.232666
12177.073404	-194.361667	1605.761719	4109.395996
12177.073404	-194.361667	1604.723633	4343.182129
12177.073404	-194.361667	1603.684570	4512.474609
12177.073404	-194.361667	1602.644531	4656.408691
12177.073404	-194.361667	1601.605469	4800.316895
12177.073404	-194.361667	1600.566406	4879.819824
12177.073404	-194.361667	1599.526367	5212.137695
12177.073404	-194.361667	1598.486328	5224.916016
12177.073404	-194.361667	1597.446289	5191.761719
12177.073404	-194.361667	1596.405273	5121.877930
12177.073404	-194.361667	1595.365234	5456.280273
12177.073404	-194.361667	1594.324219	5521.902832
12177.073404	-194.361667	1593.283203	5426.819336
12177.073404	-194.361667	1592.242188	5299.668945
12177.073404	-194.361667	1591.200195	5326.342773
12177.073404	-194.361667	1590.159180	5424.177246
12177.073404	-194.361667	1589.117188	5480.701172
12177.073404	-194.361667	1588.075195	5638.150879
12177.073404	-194.361667	1587.032227	5538.731934
12177.073404	-194.361667	1585.990234	5611.347656
12177.073404	-194.361667	1584.947266	5463.905762
12177.073404	-194.361667	1583.904297	5470.105957
12177.073404	-194.361667	1582.861328	5249.498047
12177.073404	-194.361667	1581.818359	5347.448730
12177.073404	-194.361667	1580.775391	5349.202148
12177.073404	-194.361667	1579.731445	5215.873535
12177.073404	-194.361667	1578.687500	5018.531738
12177.073404	-194.361667	1577.643555	4851.066895
12177.073404	-194.361667	1576.598633	4919.428711
12177.073404	-194.361667	1575.554688	4877.986816
12177.073404	-194.361667	1574.509766	4902.937988
12177.073404	-194.361667	1573.464844	4534.512207
12177.073404	-194.361667	1572.419922	4360.658691
12177.073404	-194.361667	1571.374023	4253.215332
12177.073404	-194.361667	1570.329102	3636.105469
12177.073404	-194.361667	1569.283203	3691.216309
12177.073404	-194.361667	1568.237305	3634.387939
12177.073404	-194.361667	1567.191406	3095.581787
12177.073404	-194.361667	1566.144531	2881.378174
12177.073404	-194.361667	1565.098633	2448.088867
12177.073404	-194.361667	1564.051758	2722.821533
12177.073404	-194.361667	1563.004883	2613.990723
12177.073404	-194.361667	1561.957031	2354.614014
12177.073404	-194.361667	1560.910156	1890.031494
12177.073404	-194.361667	1559.862305	2137.498535
12177.073404	-194.361667	1558.814453	2056.462402
12177.073404	-194.361667	1557.766602	2205.853027
12177.073404	-194.361667	1556.718750	1835.378906
12177.073404	-194.361667	1555.669922	1734.102661
12177.073404	-194.361667	1554.621094	1530.365601
12177.073404	-194.361667	1553.573242	1714.174683
12177.073404	-194.361667	1552.523438	1528.863770
12177.073404	-194.361667	1551.474609	1494.044067
12177.073404	-194.361667	1550.424805	1459.294189
12177.073404	-194.361667	1549.375000	1629.552490
12177.073404	-194.361667	1548.325195	1572.159790
12177.073404	-194.361667	1547.275391	1173.442993
12177.073404	-194.361667	1546.225586	1168.639282
12177.073404	-194.361667	1545.174805	1370.942871
12177.073404	-194.361667	1544.124023	1166.057861
12177.073404	-194.361667	1543.073242	1209.223145
12177.073404	-194.361667	1542.022461	1191.052856
12177.073404	-194.361667	1540.970703	1291.169312
12177.073404	-194.361667	1539.919922	952.650452
12177.073404	-194.361667	1538.868164	1257.451294
12177.073404	-194.361667	1537.815430	955.561157
12177.073404	-194.361667	1536.763672	971.899231
12177.073404	-194.361667	1535.710938	1156.368164
12177.073404	-194.361667	1534.659180	952.558899
12177.073404	-194.361667	1533.606445	1096.251343
12177.073404	-194.361667	1532.552734	1062.913208
12177.073404	-194.361667	1531.500000	1065.988403
12177.073404	-194.361667	1530.446289	919.386108
12177.073404	-194.361667	1529.393555	1065.567505
12177.073404	-194.361667	1528.338867	966.810913
12177.073404	-194.361667	1527.285156	1099.478027
12177.073404	-194.361667	1526.231445	1363.672485
12177.073404	-194.361667	1525.176758	1115.568604
12177.073404	-194.361667	1524.122070	1384.351074
12177.073404	-194.361667	1523.067383	1465.055542
12177.073404	-194.361667	1522.012695	1631.897705
12177.073404	-194.361667	1520.957031	1377.485718
12177.073404	-194.361667	1519.901367	1272.716675
12177.073404	-194.361667	1518.845703	1641.253296
12177.073404	-194.361667	1517.790039	1683.785767
12177.073404	-194.361667	1516.734375	1572.502197
12177.073404	-194.361667	1515.677734	1601.630249
12177.073404	-194.361667	1514.621094	1642.150635
12177.073404	-194.361667	1513.564453	1470.146118
12177.073404	-194.361667	1512.507813	1642.019409
12177.073404	-194.361667	1511.450195	1743.828857
12177.073404	-194.361667	1510.393555	1545.063354
12177.073404	-194.361667	1509.335938	1922.756714
12177.073404	-194.361667	1508.278320	1660.955566
12177.073404	-194.361667	1507.219727	1683.991577
12177.073404	-194.361667	1506.162109	1664.208740
12177.073404	-194.361667	1505.103516	1504.518433
12177.073404	-194.361667	1504.044922	1552.702881
12177.073404	-194.361667	1502.986328	1483.589111
12177.073404	-194.361667	1501.926758	1513.897827
12177.073404	-194.361667	1500.868164	1097.536499
12177.073404	-194.361667	1499.808594	1471.015015
12177.073404	-194.361667	1498.749023	1000.894592
12177.073404	-194.361667	1497.688477	1142.173950
12177.073404	-194.361667	1496.628906	920.515320
12177.073404	-194.361667	1495.568359	863.597534
12177.073404	-194.361667	1494.507813	723.418762
12177.073404	-194.361667	1493.447266	369.344757
12177.073404	-194.361667	1492.386719	416.512634
12177.073404	-194.361667	1491.325195	396.191223
12177.073404	-194.361667	1490.263672	351.216278
12177.073404	-194.361667	1489.202148	220.808899
12177.073404	-194.361667	1488.140625	254.885513
12177.073404	-194.361667	1487.079102	-23.772238
12177.073404	-194.361667	1486.016602	98.306099
12177.073404	-194.361667	1484.954102	15.725256
12177.073404	-194.361667	1483.891602	-12.733153
12177.073404	-194.361667	1482.829102	-229.967209
12177.073404	-194.361667	1481.765625	-40.066608
12177.073404	-194.361667	1480.702148	-77.167320
12177.073404	-194.361667	1479.638672	155.549362
12177.073404	-194.361667	1478.575195	-0.429936
12177.073404	-194.361667	1477.511719	-136.026749
12177.073404	-194.361667	1476.447266	-145.654541
12177.073404	-194.361667	1475.382813	-9.223252
12177.073404	-194.361667	1474.318359	-43.316597
12177.073404	-194.361667	1473.253906	-72.856163
12177.073404	-194.361667	1472.189453	7.820417
12177.073404	-194.361667	1471.124023	312.624420
12177.073404	-194.361667	1470.058594	240.629669
12177.073404	-194.361667	1468.993164	202.521973
12177.073404	-194.361667	1467.927734	180.479279
12177.073404	-194.361667	1466.861328	214.008957
12177.073404	-194.361667	1465.794922	124.797668
12177.073404	-194.361667	1464.728516	329.171783
12177.073404	-194.361667	1463.662109	412.461548
12177.073404	-194.361667	1462.594727	431.030243
12177.073404	-194.361667	1461.528320	563.788757
12177.073404	-194.361667	1460.460938	289.238831
12177.073404	-194.361667	1459.393555	268.418030
12177.073404	-194.361667	1458.326172	193.961197
12177.073404	-194.361667	1457.257813	-4.027655
12177.073404	-194.361667	1456.189453	355.758148
12177.073404	-194.361667	1455.121094	476.426147
12177.073404	-194.361667	1454.052734	450.199097
12177.073404	-194.361667	1452.984375	538.209900
12177.073404	-194.361667	1451.915039	264.098267
12177.073404	-194.361667	1450.845703	431.644806
12177.073404	-194.361667	1449.776367	424.693390
12177.073404	-194.361667	1448.707031	597.947144
12177.073404	-194.361667	1447.636719	678.501282
12177.073404	-194.361667	1446.567383	540.234131
12177.073404	-194.361667	1445.497070	682.156311
12177.073404	-194.361667	1444.425781	437.568939
12177.073404	-194.361667	1443.355469	362.416138
12177.073404	-194.361667	1442.285156	263.140869
12177.073404	-194.361667	1441.213867	246.413040
12177.073404	-194.361667	1440.142578	685.646912
12177.073404	-194.361667	1439.070313	728.713867
12177.073404	-194.361667	1437.999023	850.289185
12177.073404	-194.361667	1436.926758	668.646973
12177.073404	-194.361667	1435.854492	651.029053
12177.073404	-194.361667	1434.782227	668.904114
12177.073404	-194.361667	1433.709961	551.766296
12177.073404	-194.361667	1432.636719	549.915222
12177.073404	-194.361667	1431.563477	751.955627
12177.073404	-194.361667	1430.490234	733.086548
12177.073404	-194.361667	1429.416992	594.593140
12177.073404	-194.361667	1428.343750	605.744812
12177.073404	-194.361667	1427.269531	592.745972
12177.073404	-194.361667	1426.195313	513.790588
12177.073404	-194.361667	1425.121094	679.989868
12177.073404	-194.361667	1424.046875	597.531189
12177.073404	-194.361667	1422.971680	505.705292
12177.073404	-194.361667	1421.896484	665.160767
12177.073404	-194.361667	1420.821289	469.100555
12177.073404	-194.361667	1419.746094	389.456146
12177.073404	-194.361667	1418.669922	329.233521
12177.073404	-194.361667	1417.594727	270.220947
12177.073404	-194.361667	1416.518555	174.106552
12177.073404	-194.361667	1415.442383	140.682724
12177.073404	-194.361667	1414.365234	62.916851
12177.073404	-194.361667	1413.289063	1.926290
12177.073404	-194.361667	1412.211914	117.562164
12177.073404	-194.361667	1411.134766	112.477699
12177.073404	-194.361667	1410.057617	-27.926989
12177.073404	-194.361667	1408.979492	-191.846115
12177.073404	-194.361667	1407.902344	142.330704
12177.073404	-194.361667	1406.824219	283.590363
12177.073404	-194.361667	1405.746094	310.855072
12177.073404	-194.361667	1404.666992	111.309891
12177.073404	-194.361667	1403.588867	237.212723
12177.073404	-194.361667	1402.509766	444.482971
12177.073404	-194.361667	1401.430664	481.710327
12177.073404	-194.361667	1400.351563	553.214722
12177.073404	-194.361667	1399.271484	560.650452
12177.073404	-194.361667	1398.192383	710.895508
12177.073404	-194.361667	1397.112305	534.639771
12177.073404	-194.361667	1396.031250	847.199585
12177.073404	-194.361667	1394.951172	825.422913
12177.073404	-194.361667	1393.871094	819.415405
12177.073404	-194.361667	1392.790039	958.388611
12177.073404	-194.361667	1391.708984	804.782776
12177.073404	-194.361667	1390.626953	866.987244
12177.073404	-194.361667	1389.545898	1350.891968
12177.073404	-194.361667	1388.463867	1226.481445
12177.073404	-194.361667	1387.381836	1372.513672
12177.073404	-194.361667	1386.299805	1680.724731
12177.073404	-194.361667	1385.217773	1634.938232
12177.073404	-194.361667	1384.134766	1780.313721
12177.073404	-194.361667	1383.051758	2054.075684
12177.073404	-194.361667	1381.968750	2088.837158
12177.073404	-194.361667	1380.885742	2183.663574
12177.073404	-194.361667	1379.802734	2081.213135
12177.073404	-194.361667	1378.718750	2271.708008
12177.073404	-194.361667	1377.634766	2408.682861
12177.073404	-194.361667	1376.550781	2203.218994
12177.073404	-194.361667	1375.465820	2385.395020
12177.073404	-194.361667	1374.381836	2194.325928
12177.073404	-194.361667	1373.296875	2404.487549
12177.073404	-194.361667	1372.211914	2283.849365
12177.073404	-194.361667	1371.126953	2215.010254
12177.073404	-194.361667	1370.041016	2628.558594
12177.073404	-194.361667	1368.955078	2201.487305
12177.073404	-194.361667	1367.869141	2678.487061
12177.073404	-194.361667	1366.783203	2535.129639
12177.073404	-194.361667	1365.697266	2513.349854
12177.073404	-194.361667	1364.610352	2693.853760
12177.073404	-194.361667	1363.523438	2740.914795
12177.073404	-194.361667	1362.436523	2807.959961
12177.073404	-194.361667	1361.349609	3357.883545
12177.073404	-194.361667	1360.261719	2789.366211
12177.073404	-194.361667	1359.174805	3094.024658
12177.073404	-194.361667	1358.086914	3314.793945
12177.073404	-194.361667	1356.998047	3379.214600
12177.073404	-194.361667	1355.910156	3193.826660
12177.073404	-194.361667	1354.821289	3342.561768
12177.073404	-194.361667	1353.732422	3313.809326
12177.073404	-194.361667	1352.643555	2833.858154
12177.073404	-194.361667	1351.554688	2697.556885
12177.073404	-194.361667	1350.464844	2639.887939
12177.073404	-194.361667	1349.375000	2465.981201
12177.073404	-194.361667	1348.285156	2226.681396
12177.073404	-194.361667	1347.195313	2087.644287
12177.073404	-194.361667	1346.105469	1989.292847
12177.073404	-194.361667	1345.014648	1809.020264
12177.073404	-194.361667	1343.923828	1900.463257
12177.073404	-194.361667	1342.833008	2033.466919
12177.073404	-194.361667	1341.741211	1850.471436
12177.073404	-194.361667	1340.650391	1737.857910
12177.073404	-194.361667	1339.558594	1776.921631
12177.073404	-194.361667	1338.466797	1893.592163
12177.073404	-194.361667	1337.374023	1529.501099
12177.073404	-194.361667	1336.282227	1520.888550
12177.073404	-194.361667	1335.189453	1679.030762
12177.073404	-194.361667	1334.096680	1608.104736
12177.073404	-194.361667	1333.003906	1578.184204
12177.073404	-194.361667	1331.910156	1706.457886
12177.073404	-194.361667	1330.817383	1426.055420
12177.073404	-194.361667	1329.723633	1417.132935
12177.073404	-194.361667	1328.629883	1321.134644
12177.073404	-194.361667	1327.535156	1527.503540
12177.073404	-194.361667	1326.441406	1494.312256
12177.073404	-194.361667	1325.346680	1425.756226
12177.073404	-194.361667	1324.251953	1263.072510
12177.073404	-194.361667	1323.156250	1488.798096
12177.073404	-194.361667	1322.061523	1587.631958
12177.073404	-194.361667	1320.965820	1510.369629
12177.073404	-194.361667	1319.870117	1388.140625
12177.073404	-194.361667	1318.774414	1359.000488
12177.073404	-194.361667	1317.678711	1492.304077
12177.073404	-194.361667	1316.582031	1343.487061
12177.073404	-194.361667	1315.485352	1216.461670
12177.073404	-194.361667	1314.388672	1516.684204
12177.073404	-194.361667	1313.291016	1358.586670
12177.073404	-194.361667	1312.194336	1325.495728
12177.073404	-194.361667	1311.096680	1402.674927
12177.073404	-194.361667	1309.999023	1464.266602
12177.073404	-194.361667	1308.901367	1529.478882
12177.073404	-194.361667	1307.802734	1594.068359
12177.073404	-194.361667	1306.705078	1563.646240
12177.073404	-194.361667	1305.606445	1622.209106
12177.073404	-194.361667	1304.506836	1770.533569
12177.073404	-194.361667	1303.408203	2138.394531
12177.073404	-194.361667	1302.308594	1969.667603
12177.073404	-194.361667	1301.208984	1959.133545
12177.073404	-194.361667	1300.109375	2135.107666
12177.073404	-194.361667	1299.009766	2113.460449
12177.073404	-194.361667	1297.909180	2046.640137
12177.073404	-194.361667	1296.808594	1855.667358
12177.073404	-194.361667	1295.708008	1789.714966
12177.073404	-194.361667	1294.607422	1664.561401
12177.073404	-194.361667	1293.506836	1391.598389
12177.073404	-194.361667	1292.405273	1384.864258
12177.073404	-194.361667	1291.303711	1244.072876
12177.073404	-194.361667	1290.202148	1176.582642
12177.073404	-194.361667	1289.099609	900.816895
12177.073404	-194.361667	1287.998047	935.809021
12177.073404	-194.361667	1286.895508	904.893066
12177.073404	-194.361667	1285.792969	809.757080
12177.073404	-194.361667	1284.689453	561.752380
12177.073404	-194.361667	1283.586914	391.224396
12177.073404	-194.361667	1282.483398	588.113037
12177.073404	-194.361667	1281.379883	363.684235
12177.073404	-194.361667	1280.276367	296.659790
12177.073404	-194.361667	1279.171875	327.824768
12177.073404	-194.361667	1278.067383	277.511444
12177.073404	-194.361667	1276.962891	136.642700
12177.073404	-194.361667	1275.858398	84.315254
12177.073404	-194.361667	1274.753906	154.268417
12177.073404	-194.361667	1273.648438	99.006203
12177.073404	-194.361667	1272.542969	87.837257
12177.073404	-194.361667	1271.437500	195.037003
12177.073404	-194.361667	1270.331055	-2.338693
12177.073404	-194.361667	1269.225586	-10.832062
12177.073404	-194.361667	1268.119141	-140.351898
12177.073404	-194.361667	1267.012695	-70.731331
12177.073404	-194.361667	1265.906250	-141.455658
12177.073404	-194.361667	1264.798828	39.429539
12177.073404	-194.361667	1263.691406	63.858650
12177.073404	-194.361667	1262.583984	-192.277664
12177.073404	-194.361667	1261.476563	299.854614
12177.073404	-194.361667	1260.368164	42.660217
12177.073404	-194.361667	1259.260742	95.204849
12177.073404	-194.361667	1258.152344	269.649506
12177.073404	-194.361667	1257.043945	167.274109
12177.073404	-194.361667	1255.934570	404.814514
12177.073404	-194.361667	1254.825195	205.951050
12177.073404	-194.361667	1253.716797	84.390228
12177.073404	-194.361667	1252.606445	317.582886
12177.073404	-194.361667	1251.497070	220.014801
12177.073404	-194.361667	1250.387695	217.123093
12177.073404	-194.361667	1249.277344	226.509933
12177.073404	-194.361667	1248.166992	228.210007
12177.073404	-194.361667	1247.055664	105.655586
12177.073404	-194.361667	1245.945313	259.130707
12177.073404	-194.361667	1244.833984	259.665924
12177.073404	-194.361667	1243.722656	161.363266
12177.073404	-194.361667	1242.611328	186.150482
12177.073404	-194.361667	1241.499023	363.180664
12177.073404	-194.361667	1240.387695	371.131287
12177.073404	-194.361667	1239.275391	-21.909386
12177.073404	-194.361667	1238.162109	206.903503
12177.073404	-194.361667	1237.049805	300.892883
12177.073404	-194.361667	1235.936523	257.516235
12177.073404	-194.361667	1234.823242	114.942863
12177.073404	-194.361667	1233.709961	25.496113
12177.073404	-194.361667	1232.596680	211.586212
12177.073404	-194.361667	1231.482422	25.959053
12177.073404	-194.361667	1230.369141	78.505905
12177.073404	-194.361667	1229.253906	-11.308142
12177.073404	-194.361667	1228.139648	-49.477299
12177.073404	-194.361667	1227.025391	-113.009560
12177.073404	-194.361667	1225.910156	-92.938309
12177.073404	-194.361667	1224.794922	-115.249489
12177.073404	-194.361667	1223.679688	-28.183249
12177.073404	-194.361667	1222.563477	32.019032
12177.073404	-194.361667	1221.447266	-69.713554
12177.073404	-194.361667	1220.331055	26.835896
12177.073404	-194.361667	1219.214844	-4.316871
12177.073404	-194.361667	1218.098633	238.689590
12177.073404	-194.361667	1216.981445	282.109009
12177.073404	-194.361667	1215.864258	272.343140
12177.073404	-194.361667	1214.747070	234.512253
12177.073404	-194.361667	1213.629883	416.251251
12177.073404	-194.361667	1212.511719	285.327515
12177.073404	-194.361667	1211.393555	390.138916
12177.073404	-194.361667	1210.275391	455.113403
12177.073404	-194.361667	1209.157227	432.947388
12177.073404	-194.361667	1208.038086	402.929688
12177.073404	-194.361667	1206.918945	187.385025
12177.073404	-194.361667	1205.799805	263.457153
12177.073404	-194.361667	1204.680664	131.576889
12177.073404	-194.361667	1203.560547	116.506638
12177.073404	-194.361667	1202.441406	282.438904
12177.073404	-194.361667	1201.321289	158.558441
12177.073404	-194.361667	1200.200195	315.821442
12177.073404	-194.361667	1199.080078	231.500641
12177.073404	-194.361667	1197.958984	1.606839
12177.073404	-194.361667	1196.837891	310.679840
12177.073404	-194.361667	1195.716797	291.620239
12177.073404	-194.361667	1194.594727	184.184464
12177.073404	-194.361667	1193.473633	514.674744
12177.073404	-194.361667	1192.351563	199.421021
12177.073404	-194.361667	1191.229492	204.451553
12177.073404	-194.361667	1190.106445	169.395721
12177.073404	-194.361667	1188.984375	225.276642
12177.073404	-194.361667	1187.861328	116.255219
12177.073404	-194.361667	1186.738281	78.242561
12177.073404	-194.361667	1185.614258	282.185364
12177.073404	-194.361667	1184.491211	308.936096
12177.073404	-194.361667	1183.367188	177.341003
12177.073404	-194.361667	1182.243164	90.478317
12177.073404	-194.361667	1181.119141	145.395187
12177.073404	-194.361667	1179.994141	-29.669813
12177.073404	-194.361667	1178.869141	-97.724281
12177.073404	-194.361667	1177.744141	-83.237648
12177.073404	-194.361667	1176.619141	-52.278961
12177.073404	-194.361667	1175.493164	-105.720100
12177.073404	-194.361667	1174.368164	-152.244141
12177.073404	-194.361667	1173.242188	-239.831497
12177.073404	-194.361667	1172.115234	-26.987841
12177.073404	-194.361667	1170.989258	43.247555
12177.073404	-194.361667	1169.862305	-118.931129
12177.073404	-194.361667	1168.735352	54.968861
12177.073404	-194.361667	1167.608398	19.507437
12177.073404	-194.361667	1166.481445	-131.136322
12177.073404	-194.361667	1165.353516	-34.383419
12177.073404	-194.361667	1164.225586	-237.085648
12177.073404	-194.361667	1163.097656	-175.059021
12177.073404	-194.361667	1161.968750	-200.948288
12177.073404	-194.361667	1160.840820	-306.225586
12177.073404	-194.361667	1159.711914	-151.146561
12177.073404	-194.361667	1158.583008	-250.049149
12177.073404	-194.361667	1157.453125	-259.919952
12177.073404	-194.361667	1156.324219	-58.114620
12177.073404	-194.361667	1155.194336	-137.461334
12177.073404	-194.361667	1154.064453	83.315453
12177.073404	-194.361667	1152.933594	-106.868698
12177.073404	-194.361667	1151.803711	-36.945187
12177.073404	-194.361667	1150.672852	202.346313
12177.073404	-194.361667	1149.541992	2.329425
12177.073404	-194.361667	1148.411133	-91.413368
12177.073404	-194.361667	1147.279297	-97.344612
12177.073404	-194.361667	1146.147461	196.974686
12177.073404	-194.361667	1145.015625	127.806725
12177.073404	-194.361667	1143.883789	126.402985
12177.073404	-194.361667	1142.750977	19.275354
12177.073404	-194.361667	1141.619141	171.817520
12177.073404	-194.361667	1140.486328	126.966797
12177.073404	-194.361667	1139.352539	144.728439
12177.073404	-194.361667	1138.219727	248.307007
12177.073404	-194.361667	1137.085938	247.968643
12177.073404	-194.361667	1135.952148	333.161621
12177.073404	-194.361667	1134.818359	73.366959
12177.073404	-194.361667	1133.683594	217.955597
12177.073404	-194.361667	1132.549805	78.855270
12177.073404	-194.361667	1131.415039	80.518188
12177.073404	-194.361667	1130.279297	152.679153
12177.073404	-194.361667	1129.144531	459.036743
12177.073404	-194.361667	1128.008789	287.468628
12177.073404	-194.361667	1126.873047	362.412872
12177.073404	-194.361667	1125.737305	136.324127
12177.073404	-194.361667	1124.601563	42.786064
12177.073404	-194.361667	1123.464844	261.290283
12177.073404	-194.361667	1122.328125	38.869766
12177.073404	-194.361667	1121.191406	95.373779
12177.073404	-194.361667	1120.054688	-34.738037
12177.073404	-194.361667	1118.916992	12.552124
12177.073404	-194.361667	1117.779297	-192.916855
12177.073404	-194.361667	1116.641602	-54.324982
12177.073404	-194.361667	1115.503906	-135.891281
12177.073404	-194.361667	1114.365234	37.501457
12177.073404	-194.361667	1113.226563	-43.298840
12177.073404	-194.361667	1112.087891	-20.576622
12177.073404	-194.361667	1110.949219	-117.809700
12177.073404	-194.361667	1109.809570	129.544754
12177.073404	-194.361667	1108.669922	-221.056717
12177.073404	-194.361667	1107.530273	-133.122131
12177.073404	-194.361667	1106.390625	-134.448624
12177.073404	-194.361667	1105.250000	-8.853917
12177.073404	-194.361667	1104.109375	-97.503250
12177.073404	-194.361667	1102.968750	-22.759150
12177.073404	-194.361667	1101.828125	6.789330
12177.073404	-194.361667	1100.686523	32.667995
12177.073404	-194.361667	1099.544922	-44.692425
12177.073404	-194.361667	1098.403320	-116.466919
12177.073404	-194.361667	1097.261719	-72.599983
12177.073404	-194.361667	1096.120117	199.166016
12177.073404	-194.361667	1094.977539	114.848846
12177.073404	-194.361667	1093.834961	15.667641
12177.073404	-194.361667	1092.691406	100.570702
12177.073404	-194.361667	1091.548828	55.150211
12177.073404	-194.361667	1090.405273	285.100739
12177.073404	-194.361667	1089.261719	183.555725
12177.073404	-194.361667	1088.118164	252.301224
12177.073404	-194.361667	1086.973633	123.770638
12177.073404	-194.361667	1085.829102	135.867157
12177.073404	-194.361667	1084.684570	179.211792
12177.073404	-194.361667	1083.540039	217.157990
12177.073404	-194.361667	1082.395508	104.816017
12177.073404	-194.361667	1081.250000	113.107315
12177.073404	-194.361667	1080.104492	106.801628
12177.073404	-194.361667	1078.958984	-95.722183
12177.073404	-194.361667	1077.812500	144.555771
12177.073404	-194.361667	1076.666016	97.109550
12177.073404	-194.361667	1075.519531	165.829758
12177.073404	-194.361667	1074.373047	181.666580
12177.073404	-194.361667	1073.226563	103.661018
12177.073404	-194.361667	1072.079102	141.420593
12177.073404	-194.361667	1070.931641	188.766373
12177.073404	-194.361667	1069.784180	-64.697113
12177.073404	-194.361667	1068.635742	312.037872
12177.073404	-194.361667	1067.487305	305.055298
12177.073404	-194.361667	1066.338867	222.927475
12177.073404	-194.361667	1065.190430	293.047028
12177.073404	-194.361667	1064.041992	149.958908
12177.073404	-194.361667	1062.892578	359.488983
12177.073404	-194.361667	1061.743164	472.517487
12177.073404	-194.361667	1060.593750	495.988770
12177.073404	-194.361667	1059.443359	385.150452
12177.073404	-194.361667	1058.292969	524.629028
12177.073404	-194.361667	1057.142578	69.459702
12177.073404	-194.361667	1055.992188	488.946320
12177.073404	-194.361667	1054.841797	238.209122
12177.073404	-194.361667	1053.690430	246.551056
12177.073404	-194.361667	1052.539063	641.297180
12177.073404	-194.361667	1051.387695	508.113708
12177.073404	-194.361667	1050.235352	410.237946
12177.073404	-194.361667	1049.083984	525.336121
12177.073404	-194.361667	1047.931641	515.587952
12177.073404	-194.361667	1046.778320	473.367340
12177.073404	-194.361667	1045.625977	627.778503
12177.073404	-194.361667	1044.472656	644.659790
12177.073404	-194.361667	1043.319336	664.646545
12177.073404	-194.361667	1042.166016	466.572784
12177.073404	-194.361667	1041.012695	545.940735
12177.073404	-194.361667	1039.858398	415.161163
12177.073404	-194.361667	1038.704102	508.233673
12177.073404	-194.361667	1037.549805	558.350891
12177.073404	-194.361667	1036.394531	544.969299
12177.073404	-194.361667	1035.239258	455.664032
12177.073404	-194.361667	1034.083984	80.889351
12177.073404	-194.361667	1032.928711	307.854492
12177.073404	-194.361667	1031.773438	205.315552
12177.073404	-194.361667	1030.617188	441.029541
12177.073404	-194.361667	1029.460938	461.170471
12177.073404	-194.361667	1028.304688	280.448608
12177.073404	-194.361667	1027.147461	184.081680
12177.073404	-194.361667	1025.991211	134.642700
12177.073404	-194.361667	1024.833984	146.257339
12177.073404	-194.361667	1023.675781	267.597595
12177.073404	-194.361667	1022.518555	121.353966
12177.073404	-194.361667	1021.360352	212.973129
12177.073404	-194.361667	1020.202148	98.335670
12177.073404	-194.361667	1019.043945	193.797363
12177.073404	-194.361667	1017.884766	102.037498
12177.073404	-194.361667	1016.726563	-8.785061
12177.073404	-194.361667	1015.567383	318.985809
12177.073404	-194.361667	1014.407227	-211.015991
12177.073404	-194.361667	1013.248047	126.733040
12177.073404	-194.361667	1012.087891	-8.062491
12177.073404	-194.361667	1010.927734	-119.779327
12177.073404	-194.361667	1009.767578	-142.809708
12177.073404	-194.361667	1008.606445	70.225479
12177.073404	-194.361667	1007.446289	90.405891
12177.073404	-194.361667	1006.285156	1.215946
12177.073404	-194.361667	1005.123047	-85.668388
12177.073404	-194.361667	1003.961914	199.577026
12177.073404	-194.361667	1002.799805	97.474380
12177.073404	-194.361667	1001.637695	190.596603
12177.073404	-194.361667	1000.475586	181.419632
12177.073404	-194.361667	999.312500	-150.674835
12177.073404	-194.361667	998.149414	13.106972
12177.073404	-194.361667	996.986328	-61.270687
12177.073404	-194.361667	995.823242	-67.712700
12177.073404	-194.361667	994.659180	32.067688
12177.073404	-194.361667	993.496094	-86.596634
12177.073404	-194.361667	992.332031	-76.859146
12177.073404	-194.361667	991.166992	-92.436386
12177.073404	-194.361667	990.002930	-13.264704
12177.073404	-194.361667	988.837891	5.616402
12177.073404	-194.361667	987.672852	-93.687279
12177.073404	-194.361667	986.506836	159.152695
12177.073404	-194.361667	985.341797	267.167175
12177.073404	-194.361667	984.175781	29.273306
12177.073404	-194.361667	983.009766	64.029243
12177.073404	-194.361667	981.843750	269.707886
12177.073404	-194.361667	980.676758	373.000702
12177.073404	-194.361667	979.509766	49.473831
12177.073404	-194.361667	978.342773	132.741943
12177.073404	-194.361667	977.175781	199.409973
12177.073404	-194.361667	976.007813	347.494446
12177.073404	-194.361667	974.839844	301.441559
12177.073404	-194.361667	973.671875	265.070068
12177.073404	-194.361667	972.503906	357.946869
12177.073404	-194.361667	971.334961	397.055084
12177.073404	-194.361667	970.166016	338.579407
12177.073404	-194.361667	968.997070	564.306335
12177.073404	-194.361667	967.828125	441.435638
12177.073404	-194.361667	966.658203	459.657318
12177.073404	-194.361667	965.488281	670.118042
12177.073404	-194.361667	964.318359	371.698242
12177.073404	-194.361667	963.148438	689.848511
12177.073404	-194.361667	961.977539	507.459930
12177.073404	-194.361667	960.806641	667.644226
12177.073404	-194.361667	959.635742	601.665466
12177.073404	-194.361667	958.463867	668.905945
12177.073404	-194.361667	957.292969	756.102600
12177.073404	-194.361667	956.121094	630.357178
12177.073404	-194.361667	954.948242	836.476624
12177.073404	-194.361667	953.776367	564.569336
12177.073404	-194.361667	952.603516	446.782684
12177.073404	-194.361667	951.430664	433.007996
12177.073404	-194.361667	950.257813	617.653992
12177.073404	-194.361667	949.084961	611.054077
12177.073404	-194.361667	947.911133	690.447571
12177.073404	-194.361667	946.737305	585.250305
12177.073404	-194.361667	945.563477	294.815338
12177.073404	-194.361667	944.388672	355.370117
12177.073404	-194.361667	943.213867	228.553268
12177.073404	-194.361667	942.039063	338.890656
12177.073404	-194.361667	940.864258	343.963806
12177.073404	-194.361667	939.688477	334.496124
12177.073404	-194.361667	938.513672	228.928848
12177.073404	-194.361667	937.337891	394.381165
12177.073404	-194.361667	936.161133	118.490196
12177.073404	-194.361667	934.985352	176.052811
12177.073404	-194.361667	933.808594	398.803253
12177.073404	-194.361667	932.631836	262.050354
12177.073404	-194.361667	931.454102	271.382568
12177.073404	-194.361667	930.277344	335.822601
12177.073404	-194.361667	929.099609	105.545868
12177.073404	-194.361667	927.921875	373.543945
12177.073404	-194.361667	926.743164	102.542824
12177.073404	-194.361667	925.565430	327.286163
12177.073404	-194.361667	924.386719	223.892487
12177.073404	-194.361667	923.208008	302.450165
12177.073404	-194.361667	922.028320	409.659698
12177.073404	-194.361667	920.849609	399.550079
12177.073404	-194.361667	919.669922	401.708405
12177.073404	-194.361667	919.474609	396.941711
12177.073404	-194.361667	918.309570	178.658676
12177.073404	-194.361667	917.143555	228.261337
12177.073404	-194.361667	915.977539	280.205383
12177.073404	-194.361667	914.810547	4.627686
12177.073404	-194.361667	913.644531	274.014526
12177.073404	-194.361667	912.477539	156.191940
12177.073404	-194.361667	911.310547	-16.555250
12177.073404	-194.361667	910.143555	154.667923
12177.073404	-194.361667	908.975586	27.309692
12177.073404	-194.361667	907.807617	76.646217
12177.073404	-194.361667	906.639648	159.352676
12177.073404	-194.361667	905.471680	-51.531441
12177.073404	-194.361667	904.303711	124.169037
12177.073404	-194.361667	903.134766	104.166893
12177.073404	-194.361667	901.965820	265.407318
12177.073404	-194.361667	900.796875	266.796936
12177.073404	-194.361667	899.626953	442.195923
12177.073404	-194.361667	898.457031	-68.954414
12177.073404	-194.361667	897.287109	297.038696
12177.073404	-194.361667	896.117188	357.893402
12177.073404	-194.361667	894.947266	290.069031
12177.073404	-194.361667	893.776367	310.370026
12177.073404	-194.361667	892.605469	194.919373
12177.073404	-194.361667	891.434570	217.569992
12177.073404	-194.361667	890.262695	368.718018
12177.073404	-194.361667	889.091797	279.439392
12177.073404	-194.361667	887.919922	149.733063
12177.073404	-194.361667	886.748047	150.886169
12177.073404	-194.361667	885.575195	173.423676
12177.073404	-194.361667	884.403320	112.712685
12177.073404	-194.361667	883.230469	125.702148
12177.073404	-194.361667	882.057617	-132.279694
12177.073404	-194.361667	880.883789	-69.379829
12177.073404	-194.361667	879.710938	95.631233
12177.073404	-194.361667	878.537109	30.158375
12177.073404	-194.361667	877.362305	249.668655
12177.073404	-194.361667	876.188477	141.418991
12177.073404	-194.361667	875.013672	109.159882
12177.073404	-194.361667	873.839844	38.922668
12177.073404	-194.361667	872.664063	170.390472
12177.073404	-194.361667	871.489258	195.032120
12177.073404	-194.361667	870.313477	-147.989899
12177.073404	-194.361667	869.138672	71.129288
12177.073404	-194.361667	867.962891	-134.246719
12177.073404	-194.361667	866.786133	238.827606
12177.073404	-194.361667	865.610352	14.512703
12177.073404	-194.361667	864.433594	-24.908020
12177.073404	-194.361667	863.256836	129.928009
12177.073404	-194.361667	862.079102	-49.267132
12177.073404	-194.361667	860.902344	145.737381
12177.073404	-194.361667	859.724609	177.292236
12177.073404	-194.361667	858.546875	17.093029
12177.073404	-194.361667	857.368164	103.065666
12177.073404	-194.361667	856.190430	151.132416
12177.073404	-194.361667	855.011719	-172.224304
12177.073404	-194.361667	853.833008	27.218483
12177.073404	-194.361667	852.654297	-28.807589
12177.073404	-194.361667	851.474609	26.291283
12177.073404	-194.361667	850.294922	17.536892
12177.073404	-194.361667	849.115234	46.584698
12177.073404	-194.361667	847.935547	-92.138367
12177.073404	-194.361667	846.754883	-223.728989
12177.073404	-194.361667	845.575195	-241.918106
12177.073404	-194.361667	844.393555	-172.745163
12177.073404	-194.361667	843.212891	-28.069820
12177.073404	-194.361667	842.032227	-55.761234
12177.073404	-194.361667	840.850586	-76.371254
12177.073404	-194.361667	839.668945	-21.488396
12177.073404	-194.361667	838.486328	47.515160
12177.073404	-194.361667	837.304688	-74.541626
12177.073404	-194.361667	836.122070	-73.953072
12177.073404	-194.361667	834.939453	-167.666077
12177.073404	-194.361667	833.756836	40.321404
12177.073404	-194.361667	832.573242	-124.086487
12177.073404	-194.361667	831.389648	-163.576904
12177.073404	-194.361667	830.206055	-337.315735
12177.073404	-194.361667	829.022461	-138.923065
12177.073404	-194.361667	827.838867	-168.997406
12177.073404	-194.361667	826.654297	-135.513611
12177.073404	-194.361667	825.469727	-73.811165
12177.073404	-194.361667	824.284180	-108.613953
12177.073404	-194.361667	823.099609	124.767212
12177.073404	-194.361667	821.914063	52.287762
12177.073404	-194.361667	820.728516	-17.820469
12177.073404	-194.361667	819.542969	-207.808411
12177.073404	-194.361667	818.356445	-169.728165
12177.073404	-194.361667	817.169922	-155.173096
12177.073404	-194.361667	815.983398	-255.760345
12177.073404	-194.361667	814.796875	-107.316093
12177.073404	-194.361667	813.609375	-315.923706
12177.073404	-194.361667	812.422852	-61.882195
12177.073404	-194.361667	811.235352	-218.785126
12177.073404	-194.361667	810.046875	32.766872
12177.073404	-194.361667	808.859375	-119.415794
12177.073404	-194.361667	807.670898	94.454117
12177.073404	-194.361667	806.482422	-121.028282
12177.073404	-194.361667	805.293945	-148.817108
12177.073404	-194.361667	804.104492	-75.782967
12177.073404	-194.361667	802.915039	-98.900047
12177.073404	-194.361667	801.725586	206.104065
12177.073404	-194.361667	800.536133	-65.463043
12177.073404	-194.361667	799.345703	-123.737663
12177.073404	-194.361667	798.155273	-22.723272
12177.073404	-194.361667	796.964844	-8.405285
12177.073404	-194.361667	795.774414	94.864677
12177.073404	-194.361667	794.583008	160.629974
12177.073404	-194.361667	793.392578	-56.821327
12177.073404	-194.361667	792.200195	327.147797
12177.073404	-194.361667	791.008789	112.072044
12177.073404	-194.361667	789.816406	149.672913
12177.073404	-194.361667	788.625000	119.434769
12177.073404	-194.361667	787.432617	294.934570
12177.073404	-194.361667	786.239258	-50.892239
12177.073404	-194.361667	785.046875	45.093025
12177.073404	-194.361667	783.853516	-57.568882
12177.073404	-194.361667	782.660156	129.459412
12177.073404	-194.361667	781.465820	222.980896
12177.073404	-194.361667	780.272461	171.682190
12177.073404	-194.361667	779.078125	227.781693
12177.073404	-194.361667	777.883789	237.165619
12177.073404	-194.361667	776.688477	59.851761
12177.073404	-194.361667	775.494141	78.575607
12177.073404	-194.361667	774.298828	-59.001163
12177.073404	-194.361667	773.103516	155.611191
12177.073404	-194.361667	771.907227	-47.232658
12177.073404	-194.361667	770.711914	41.383488
12177.073404	-194.361667	769.515625	27.403454
12177.073404	-194.361667	768.318359	18.078032
12177.073404	-194.361667	767.122070	76.302979
12177.073404	-194.361667	765.924805	13.373602
12177.073404	-194.361667	764.727539	41.276764
12177.073404	-194.361667	763.530273	178.580658
12177.073404	-194.361667	762.333008	10.881802
12177.073404	-194.361667	761.134766	92.254456
12177.073404	-194.361667	759.936523	61.894489
12177.073404	-194.361667	758.738281	1.292943
12177.073404	-194.361667	757.540039	22.103935
12177.073404	-194.361667	756.340820	145.205399
12177.073404	-194.361667	755.141602	65.982674
12177.073404	-194.361667	753.942383	147.156296
12177.073404	-194.361667	752.742188	33.078770
12177.073404	-194.361667	751.541992	-29.852818
12177.073404	-194.361667	750.341797	97.703148
12177.073404	-194.361667	749.141602	92.812889
12177.073404	-194.361667	747.941406	-46.761097
12177.073404	-194.361667	746.740234	-14.508174
12177.073404	-194.361667	745.539063	-7.814388
12177.073404	-194.361667	744.337891	117.203857
12177.073404	-194.361667	743.135742	14.795435
12177.073404	-194.361667	741.933594	193.071411
12177.073404	-194.361667	740.731445	72.103844
12177.073404	-194.361667	739.529297	250.259735
12177.073404	-194.361667	738.326172	333.283020
12177.073404	-194.361667	737.124023	318.917633
12177.073404	-194.361667	735.919922	411.125244
12177.073404	-194.361667	734.716797	744.201599
12177.073404	-194.361667	733.513672	822.348694
12177.073404	-194.361667	732.309570	634.149170
12177.073404	-194.361667	731.105469	647.426147
12177.073404	-194.361667	729.900391	593.553406
12177.073404	-194.361667	728.696289	629.936157
12177.073404	-194.361667	727.491211	502.013489
12177.073404	-194.361667	726.286133	404.195435
12177.073404	-194.361667	725.080078	220.829330
12177.073404	-194.361667	723.874023	16.709036
12177.073404	-194.361667	722.668945	374.408813
12177.073404	-194.361667	721.461914	147.188599
12177.073404	-194.361667	720.255859	134.945297
12177.073404	-194.361667	719.048828	57.998611
12177.073404	-194.361667	717.841797	140.439392
12177.073404	-194.361667	716.634766	40.388550
12177.073404	-194.361667	715.427734	-135.833771
12177.073404	-194.361667	714.219727	43.482906
12177.073404	-194.361667	713.011719	-1.160349
12177.073404	-194.361667	711.803711	-96.569366
12177.073404	-194.361667	710.594727	-161.972183
12177.073404	-194.361667	709.385742	-77.450691
12177.073404	-194.361667	708.176758	-152.097794
12177.073404	-194.361667	706.967773	10.726984
12177.073404	-194.361667	705.758789	-220.691360
12177.073404	-194.361667	704.548828	91.825325
12177.073404	-194.361667	703.338867	5.594669
12177.073404	-194.361667	702.127930	87.533066
12177.073404	-194.361667	700.917969	-185.254181
12177.073404	-194.361667	699.707031	-107.961525
12177.073404	-194.361667	698.496094	19.921160
12177.073404	-194.361667	697.285156	143.122269
12177.073404	-194.361667	696.073242	-14.486789
12177.073404	-194.361667	694.861328	-160.551102
12177.073404	-194.361667	693.649414	135.048386
12177.073404	-194.361667	692.436523	-91.522072
12177.073404	-194.361667	691.224609	153.309006
12177.073404	-194.361667	690.011719	-43.336678
12177.073404	-194.361667	688.798828	19.773842
12177.073404	-194.361667	687.584961	18.495270
12177.073404	-194.361667	686.372070	-28.750174
12177.073404	-194.361667	685.158203	-140.310638
12177.073404	-194.361667	683.943359	-31.407900
12177.073404	-194.361667	682.729492	3.959487
12177.073404	-194.361667	681.514648	147.166916
12177.073404	-194.361667	680.299805	40.152626
12177.073404	-194.361667	679.084961	213.067963
12177.073404	-194.361667	677.869141	138.148392
12177.073404	-194.361667	676.653320	72.408401
12177.073404	-194.361667	675.437500	-80.458641
12177.073404	-194.361667	674.221680	275.628326
12177.073404	-194.361667	673.004883	296.918396
12177.073404	-194.361667	671.789063	127.985733
12177.073404	-194.361667	670.571289	82.808952
12177.073404	-194.361667	669.354492	138.408524
12177.073404	-194.361667	668.136719	184.798172
12177.073404	-194.361667	666.919922	86.905762
12177.073404	-194.361667	665.701172	34.808357
12177.073404	-194.361667	664.483398	-72.216476
12177.073404	-194.361667	663.264648	113.651527
12177.073404	-194.361667	662.045898	123.271912
12177.073404	-194.361667	660.827148	208.337158
12177.073404	-194.361667	659.608398	233.891357
12177.073404	-194.361667	658.388672	206.828003
12177.073404	-194.361667	657.168945	188.894440
12177.073404	-194.361667	655.949219	61.255882
12177.073404	-194.361667	654.728516	155.260880
12177.073404	-194.361667	653.507813	32.203747
12177.073404	-194.361667	652.287109	128.411804
12177.073404	-194.361667	651.066406	185.740738
12177.073404	-194.361667	649.844727	14.745111
12177.073404	-194.361667	648.623047	247.761353
12177.073404	-194.361667	647.401367	1.480118
12177.073404	-194.361667	646.179688	83.789330
12177.073404	-194.361667	644.957031	58.840244
12177.073404	-194.361667	643.734375	113.692032
12177.073404	-194.361667	642.511719	355.447510
12177.073404	-194.361667	641.289063	68.263199
12177.073404	-194.361667	640.065430	314.439758
12177.073404	-194.361667	638.841797	380.495422
12177.073404	-194.361667	637.618164	61.533077
12177.073404	-194.361667	636.393555	234.612137
12177.073404	-194.361667	635.168945	371.165985
12177.073404	-194.361667	633.944336	172.999664
12177.073404	-194.361667	632.719727	154.702377
12177.073404	-194.361667	631.494141	179.625549
12177.073404	-194.361667	630.269531	90.770584
12177.073404	-194.361667	629.042969	286.250519
12177.073404	-194.361667	627.817383	81.394508
12177.073404	-194.361667	626.590820	-34.724903
12177.073404	-194.361667	625.365234	115.144821
12177.073404	-194.361667	624.137695	262.657623
12177.073404	-194.361667	622.911133	-64.785843
12177.073404	-194.361667	621.683594	19.063660
12177.073404	-194.361667	620.456055	-126.527176
12177.073404	-194.361667	619.228516	16.308336
12177.073404	-194.361667	618.000977	333.874390
12177.073404	-194.361667	616.772461	124.711861
12177.073404	-194.361667	615.543945	-18.566799
12177.073404	-194.361667	614.314453	183.053894
12177.073404	-194.361667	613.085938	289.309204
12177.073404	-194.361667	611.856445	134.709061
12177.073404	-194.361667	610.626953	274.914856
12177.073404	-194.361667	609.397461	290.373413
12177.073404	-194.361667	608.166992	348.874634
12177.073404	-194.361667	606.936523	239.666901
12177.073404	-194.361667	605.706055	89.717583
12177.073404	-194.361667	604.474609	37.215012
12177.073404	-194.361667	603.244141	254.195450
12177.073404	-194.361667	602.012695	99.785965
12177.073404	-194.361667	600.780273	169.517456
12177.073404	-194.361667	599.548828	266.371521
12177.073404	-194.361667	598.316406	-46.338200
12177.073404	-194.361667	597.083984	7.530274
12177.073404	-194.361667	595.851563	4.832113
12177.073404	-194.361667	594.618164	-36.307774
12177.073404	-194.361667	593.384766	-305.752228
12177.073404	-194.361667	592.151367	-177.306198
12177.073404	-194.361667	590.917969	-82.809853
12177.073404	-194.361667	589.683594	-51.612843
12177.073404	-194.361667	588.449219	-31.721529
12177.073404	-194.361667	587.214844	-86.358841
12177.073404	-194.361667	585.979492	-19.057032
12177.073404	-194.361667	584.745117	73.049385
12177.073404	-194.361667	583.509766	-119.230789
12177.073404	-194.361667	582.273438	-20.370451
12177.073404	-194.361667	581.038086	-63.660362
12177.073404	-194.361667	579.801758	-82.119812
12177.073404	-194.361667	578.565430	-98.310814
12177.073404	-194.361667	577.329102	-170.846878
12177.073404	-194.361667	576.091797	-29.230906
12177.073404	-194.361667	574.854492	-52.162609
12177.073404	-194.361667	573.617188	-2.984020
12177.073404	-194.361667	572.378906	-188.069107
12177.073404	-194.361667	571.141602	-186.152084
12177.073404	-194.361667	569.903320	-64.900543
12177.073404	-194.361667	568.664063	-288.089111
12177.073404	-194.361667	567.425781	-40.815388
12177.073404	-194.361667	566.186523	44.363476
12177.073404	-194.361667	564.947266	-180.915421
12177.073404	-194.361667	563.708008	-111.457001
12177.073404	-194.361667	562.467773	20.944908
12177.073404	-194.361667	561.227539	92.608047
12177.073404	-194.361667	559.987305	195.723557
12177.073404	-194.361667	558.747070	-249.485229
12177.073404	-194.361667	557.505859	49.152794
12177.073404	-194.361667	556.264648	-74.597496
12177.073404	-194.361667	555.023438	80.190376
12177.073404	-194.361667	553.781250	140.631836
12177.073404	-194.361667	552.539063	100.056145
12177.073404	-194.361667	551.296875	43.810650
12177.073404	-194.361667	550.054688	97.555138
12177.073404	-194.361667	548.811523	140.081833
12177.073404	-194.361667	547.569336	222.985886
12177.073404	-194.361667	546.325195	-55.137554
12177.073404	-194.361667	545.082031	-158.251633
12177.073404	-194.361667	543.837891	-43.885780
12177.073404	-194.361667	542.593750	153.369064
12177.073404	-194.361667	541.349609	83.958740
12177.073404	-194.361667	540.105469	294.594666
12177.073404	-194.361667	538.860352	435.744843
12177.073404	-194.361667	537.615234	256.690216
12177.073404	-194.361667	536.369141	326.211365
12177.073404	-194.361667	535.124023	84.650818
12177.073404	-194.361667	533.877930	149.761520
12177.073404	-194.361667	532.631836	295.408234
12177.073404	-194.361667	531.384766	33.966198
12177.073404	-194.361667	530.138672	54.413372
12177.073404	-194.361667	528.891602	166.541855
12177.073404	-194.361667	527.643555	97.606827
12177.073404	-194.361667	526.396484	-56.183552
12177.073404	-194.361667	525.148438	-281.371094
12177.073404	-194.361667	523.900391	239.619431
12177.073404	-194.361667	522.652344	52.492218
12177.073404	-194.361667	521.403320	-65.310249
12177.073404	-194.361667	520.154297	-93.742188
12177.073404	-194.361667	518.905273	-253.803696
12177.073404	-194.361667	517.656250	23.566616
12177.073404	-194.361667	516.406250	-33.773788
12177.073404	-194.361667	515.156250	134.204941
12177.073404	-194.361667	513.906250	-7.808033
12177.073404	-194.361667	512.655273	4.096422
12177.073404	-194.361667	511.404297	-93.189774
12177.073404	-194.361667	510.153320	74.775291
12177.073404	-194.361667	508.902344	-51.390736
12177.073404	-194.361667	507.650391	103.185974
12177.073404	-194.361667	506.398438	41.705582
12177.073404	-194.361667	505.146484	113.868538
12177.073404	-194.361667	503.893555	270.615936
12177.073404	-194.361667	502.641602	-115.712227
12177.073404	-194.361667	501.388672	-10.110055
12177.073404	-194.361667	500.134766	-211.524811
12177.073404	-194.361667	498.881836	29.768953
12177.073404	-194.361667	497.627930	-147.063858
12177.073404	-194.361667	496.374023	-70.360970
12177.073404	-194.361667	495.119141	128.573181
12177.073404	-194.361667	493.865234	82.998665
12177.073404	-194.361667	492.610352	-0.310423
12177.073404	-194.361667	491.355469	154.102692
12177.073404	-194.361667	490.099609	184.098267
12177.073404	-194.361667	488.843750	191.889679
12177.073404	-194.361667	487.587891	332.873444
12177.073404	-194.361667	486.332031	-18.887001
12177.073404	-194.361667	485.075195	219.722076
12177.073404	-194.361667	483.818359	289.634308
12177.073404	-194.361667	482.561523	312.940155
12177.073404	-194.361667	481.304688	189.885117
12177.073404	-194.361667	480.046875	355.077667
12177.073404	-194.361667	478.789063	158.909912
12177.073404	-194.361667	477.531250	160.037216
12177.073404	-194.361667	476.272461	338.389862
12177.073404	-194.361667	475.013672	131.235535
12177.073404	-194.361667	473.754883	628.374756
12177.073404	-194.361667	472.496094	255.147842
12177.073404	-194.361667	471.236328	220.734467
12177.073404	-194.361667	469.976563	427.532684
12177.073404	-194.361667	468.716797	280.187103
12177.073404	-194.361667	467.456055	389.475494
12177.073404	-194.361667	466.196289	496.462036
12177.073404	-194.361667	464.935547	567.976318
12177.073404	-194.361667	463.673828	464.759949
12177.073404	-194.361667	462.413086	328.378723
12177.073404	-194.361667	461.151367	603.011108
12177.073404	-194.361667	459.889648	477.577606
12177.073404	-194.361667	458.626953	374.212769
12177.073404	-194.361667	457.364258	716.900269
12177.073404	-194.361667	456.101563	465.443054
12177.073404	-194.361667	454.838867	860.768982
12177.073404	-194.361667	453.575195	1037.344727
12177.073404	-194.361667	452.312500	931.321411
12177.073404	-194.361667	451.047852	875.971375
12177.073404	-194.361667	449.784180	977.121643
12177.073404	-194.361667	448.519531	1036.211060
12177.073404	-194.361667	447.254883	801.944824
12177.073404	-194.361667	445.990234	1101.023560
12177.073404	-194.361667	444.725586	954.710266
12177.073404	-194.361667	443.459961	887.617493
12177.073404	-194.361667	442.194336	679.428345
12177.073404	-194.361667	440.927734	596.682190
12177.073404	-194.361667	439.662109	830.836670
12177.073404	-194.361667	438.395508	675.092346
12177.073404	-194.361667	437.127930	739.290527
12177.073404	-194.361667	435.861328	779.056641
12177.073404	-194.361667	434.593750	400.636627
12177.073404	-194.361667	433.326172	519.194031
12177.073404	-194.361667	432.058594	509.936523
12177.073404	-194.361667	430.790039	458.666595
12177.073404	-194.361667	429.521484	631.344360
12177.073404	-194.361667	428.252930	755.338562
12177.073404	-194.361667	426.984375	542.875183
12177.073404	-194.361667	425.714844	593.780029
12177.073404	-194.361667	424.445313	820.037170
12177.073404	-194.361667	423.174805	578.240723
12177.073404	-194.361667	421.905273	621.574707
12177.073404	-194.361667	420.634766	767.687317
12177.073404	-194.361667	419.364258	832.200745
12177.073404	-194.361667	418.092773	819.536682
12177.073404	-194.361667	416.822266	1065.285278
12177.073404	-194.361667	415.550781	562.840759
12177.073404	-194.361667	414.278320	906.360352
12177.073404	-194.361667	413.006836	784.674805
12177.073404	-194.361667	411.734375	840.075989
12177.073404	-194.361667	410.461914	818.317139
12177.073404	-194.361667	409.188477	796.079712
12177.073404	-194.361667	407.916016	913.509155
12177.073404	-194.361667	406.642578	715.107483
12177.073404	-194.361667	405.368164	721.999329
12177.073404	-194.361667	404.094727	864.022583
12177.073404	-194.361667	402.820313	898.199890
12177.073404	-194.361667	401.545898	601.476563
12177.073404	-194.361667	400.270508	750.391052
12177.073404	-194.361667	398.996094	695.283020
12177.073404	-194.361667	397.720703	683.254517
12177.073404	-194.361667	396.444336	644.319031
12177.073404	-194.361667	395.168945	960.875244
12177.073404	-194.361667	393.892578	819.992310
12177.073404	-194.361667	392.616211	704.638672
12177.073404	-194.361667	391.339844	728.318542
12177.073404	-194.361667	390.062500	818.859741
12177.073404	-194.361667	388.785156	644.446655
12177.073404	-194.361667	387.507813	763.860962
12177.073404	-194.361667	386.229492	768.890808
12177.073404	-194.361667	384.951172	882.085815
12177.073404	-194.361667	383.672852	826.393005
12177.073404	-194.361667	382.394531	669.482300
12177.073404	-194.361667	381.115234	858.229370
12177.073404	-194.361667	379.835938	838.852051
12177.073404	-194.361667	378.556641	528.658081
12177.073404	-194.361667	377.277344	622.708496
12177.073404	-194.361667	375.997070	364.955200
12177.073404	-194.361667	374.716797	615.699402
12177.073404	-194.361667	373.435547	571.256042
12177.073404	-194.361667	372.155273	632.306335
12177.073404	-194.361667	370.874023	550.632751
12177.073404	-194.361667	369.591797	637.389893
12177.073404	-194.361667	368.310547	505.327789
12177.073404	-194.361667	367.028320	695.967957
12177.073404	-194.361667	365.746094	345.968384
12177.073404	-194.361667	364.463867	312.056671
12177.073404	-194.361667	363.180664	470.085541
12177.073404	-194.361667	361.897461	552.678467
12177.073404	-194.361667	360.614258	564.189575
12177.073404	-194.361667	359.330078	411.202911
12177.073404	-194.361667	358.045898	350.027344
12177.073404	-194.361667	356.761719	330.631714
12177.073404	-194.361667	355.477539	424.565979
12177.073404	-194.361667	354.192383	243.265060
12177.073404	-194.361667	352.907227	472.427856
12177.073404	-194.361667	351.622070	452.389709
12177.073404	-194.361667	350.336914	302.532043
12177.073404	-194.361667	349.050781	83.545052
12177.073404	-194.361667	347.764648	157.440811
12177.073404	-194.361667	346.477539	19.010019
12177.073404	-194.361667	345.191406	132.081589
12177.073404	-194.361667	343.904297	190.919235
12177.073404	-194.361667	342.616211	30.914068
12177.073404	-194.361667	341.329102	61.472881
12177.073404	-194.361667	340.041016	-68.371376
12177.073404	-194.361667	338.752930	342.679291
12177.073404	-194.361667	337.463867	69.492081
12177.073404	-194.361667	336.175781	40.605556
12177.073404	-194.361667	334.886719	69.675575
12177.073404	-194.361667	333.596680	-61.793179
12177.073404	-194.361667	332.307617	-130.958221
12177.073404	-194.361667	331.017578	125.621887
12177.073404	-194.361667	329.727539	-42.085842
12177.073404	-194.361667	328.436523	81.146339
12177.073404	-194.361667	327.146484	43.785000
12177.073404	-194.361667	325.855469	-108.939644
12177.073404	-194.361667	324.563477	-158.971832
12177.073404	-194.361667	323.272461	-37.211353
12177.073404	-194.361667	321.980469	-91.461227
12177.073404	-194.361667	320.688477	21.457893
12177.073404	-194.361667	319.395508	16.531370
12177.073404	-194.361667	318.103516	-216.045364
12177.073404	-194.361667	316.810547	-61.885807
12177.073404	-194.361667	315.516602	17.350178
12177.073404	-194.361667	314.223633	-335.933197
12177.073404	-194.361667	312.929688	-121.942078
12177.073404	-194.361667	311.635742	120.403442
12177.073404	-194.361667	310.340820	125.965546
12177.073404	-194.361667	309.045898	-210.595200
12177.073404	-194.361667	307.750977	-144.250153
12177.073404	-194.361667	306.456055	85.726990
12177.073404	-194.361667	305.160156	7.742226
12177.073404	-194.361667	303.865234	67.498886
12177.073404	-194.361667	302.568359	-127.050682
12177.073404	-194.361667	301.272461	394.428284
12177.073404	-194.361667	299.975586	429.224091
12177.073404	-194.361667	298.678711	549.476318
