#X		#Y		#Wave		#Intensity
11787.111702	1454.640000	1999.980469	-174.702454
11787.111702	1454.640000	1999.016602	-291.315430
11787.111702	1454.640000	1998.052734	17.090223
11787.111702	1454.640000	1997.087891	-16.854595
11787.111702	1454.640000	1996.123047	-83.251877
11787.111702	1454.640000	1995.158203	135.004730
11787.111702	1454.640000	1994.193359	82.972633
11787.111702	1454.640000	1993.228516	-6.419802
11787.111702	1454.640000	1992.262695	-24.203598
11787.111702	1454.640000	1991.297852	108.786118
11787.111702	1454.640000	1990.332031	-10.925815
11787.111702	1454.640000	1989.366211	-135.754883
11787.111702	1454.640000	1988.399414	80.672821
11787.111702	1454.640000	1987.433594	-98.949173
11787.111702	1454.640000	1986.466797	119.468277
11787.111702	1454.640000	1985.500977	-43.169785
11787.111702	1454.640000	1984.534180	152.535324
11787.111702	1454.640000	1983.567383	-287.239471
11787.111702	1454.640000	1982.599609	256.534241
11787.111702	1454.640000	1981.632813	-35.188602
11787.111702	1454.640000	1980.665039	-314.612701
11787.111702	1454.640000	1979.697266	87.591553
11787.111702	1454.640000	1978.729492	-24.145164
11787.111702	1454.640000	1977.761719	63.998402
11787.111702	1454.640000	1976.792969	102.596024
11787.111702	1454.640000	1975.825195	-100.829636
11787.111702	1454.640000	1974.856445	14.004541
11787.111702	1454.640000	1973.887695	49.715618
11787.111702	1454.640000	1972.918945	124.755226
11787.111702	1454.640000	1971.949219	98.531975
11787.111702	1454.640000	1970.980469	-80.676704
11787.111702	1454.640000	1970.010742	55.623486
11787.111702	1454.640000	1969.041016	26.620117
11787.111702	1454.640000	1968.071289	162.633530
11787.111702	1454.640000	1967.101563	126.021095
11787.111702	1454.640000	1966.130859	10.491028
11787.111702	1454.640000	1965.161133	-181.442093
11787.111702	1454.640000	1964.190430	163.434952
11787.111702	1454.640000	1963.219727	136.323547
11787.111702	1454.640000	1962.249023	301.143188
11787.111702	1454.640000	1961.277344	81.878563
11787.111702	1454.640000	1960.306641	175.126801
11787.111702	1454.640000	1959.334961	135.410416
11787.111702	1454.640000	1958.363281	53.821491
11787.111702	1454.640000	1957.391602	193.533005
11787.111702	1454.640000	1956.419922	136.417084
11787.111702	1454.640000	1955.447266	69.424385
11787.111702	1454.640000	1954.474609	140.041534
11787.111702	1454.640000	1953.501953	276.927551
11787.111702	1454.640000	1952.529297	126.233582
11787.111702	1454.640000	1951.556641	145.046249
11787.111702	1454.640000	1950.583984	13.977478
11787.111702	1454.640000	1949.610352	79.363945
11787.111702	1454.640000	1948.636719	26.830864
11787.111702	1454.640000	1947.663086	-87.094009
11787.111702	1454.640000	1946.689453	189.214691
11787.111702	1454.640000	1945.715820	-25.385338
11787.111702	1454.640000	1944.741211	22.570972
11787.111702	1454.640000	1943.767578	330.484161
11787.111702	1454.640000	1942.792969	64.371880
11787.111702	1454.640000	1941.818359	31.271276
11787.111702	1454.640000	1940.842773	-107.265053
11787.111702	1454.640000	1939.868164	-42.332642
11787.111702	1454.640000	1938.892578	74.015366
11787.111702	1454.640000	1937.916992	163.343384
11787.111702	1454.640000	1936.941406	73.785927
11787.111702	1454.640000	1935.965820	170.387634
11787.111702	1454.640000	1934.990234	83.273155
11787.111702	1454.640000	1934.013672	89.213310
11787.111702	1454.640000	1933.037109	80.448120
11787.111702	1454.640000	1932.060547	-315.024872
11787.111702	1454.640000	1931.083984	-147.553848
11787.111702	1454.640000	1930.107422	-131.840607
11787.111702	1454.640000	1929.129883	123.574821
11787.111702	1454.640000	1928.153320	78.073235
11787.111702	1454.640000	1927.175781	61.922768
11787.111702	1454.640000	1926.198242	-12.902439
11787.111702	1454.640000	1925.219727	-112.145752
11787.111702	1454.640000	1924.242188	135.665283
11787.111702	1454.640000	1923.263672	207.460693
11787.111702	1454.640000	1922.285156	-219.125381
11787.111702	1454.640000	1921.306641	260.593536
11787.111702	1454.640000	1920.328125	29.514847
11787.111702	1454.640000	1919.349609	-284.489532
11787.111702	1454.640000	1918.370117	-259.063599
11787.111702	1454.640000	1917.391602	-221.442291
11787.111702	1454.640000	1916.412109	-193.592316
11787.111702	1454.640000	1915.431641	-65.721939
11787.111702	1454.640000	1914.452148	113.332253
11787.111702	1454.640000	1913.472656	119.168205
11787.111702	1454.640000	1912.492188	273.747131
11787.111702	1454.640000	1911.511719	11.394145
11787.111702	1454.640000	1910.531250	78.201530
11787.111702	1454.640000	1909.550781	-227.867340
11787.111702	1454.640000	1908.569336	-117.167755
11787.111702	1454.640000	1907.588867	-186.771027
11787.111702	1454.640000	1906.607422	-219.806198
11787.111702	1454.640000	1905.625977	251.258591
11787.111702	1454.640000	1904.644531	40.439285
11787.111702	1454.640000	1903.662109	-301.740631
11787.111702	1454.640000	1902.680664	25.510590
11787.111702	1454.640000	1901.698242	-75.619774
11787.111702	1454.640000	1900.715820	61.722210
11787.111702	1454.640000	1899.733398	-80.705475
11787.111702	1454.640000	1898.750000	-21.217297
11787.111702	1454.640000	1897.767578	-63.863598
11787.111702	1454.640000	1896.784180	119.607346
11787.111702	1454.640000	1895.800781	300.588348
11787.111702	1454.640000	1894.817383	151.011078
11787.111702	1454.640000	1893.833984	205.596237
11787.111702	1454.640000	1892.850586	-19.191334
11787.111702	1454.640000	1891.866211	-47.152534
11787.111702	1454.640000	1890.881836	-41.093964
11787.111702	1454.640000	1889.897461	-66.591881
11787.111702	1454.640000	1888.913086	-257.132721
11787.111702	1454.640000	1887.927734	-260.716644
11787.111702	1454.640000	1886.943359	12.337914
11787.111702	1454.640000	1885.958008	147.013153
11787.111702	1454.640000	1884.972656	80.320648
11787.111702	1454.640000	1883.987305	164.023834
11787.111702	1454.640000	1883.001953	36.757278
11787.111702	1454.640000	1882.015625	-46.817146
11787.111702	1454.640000	1881.029297	-91.570801
11787.111702	1454.640000	1880.042969	-145.990311
11787.111702	1454.640000	1879.056641	-161.616974
11787.111702	1454.640000	1878.070313	-133.622986
11787.111702	1454.640000	1877.083984	-25.707901
11787.111702	1454.640000	1876.096680	-155.135651
11787.111702	1454.640000	1875.109375	-3.662534
11787.111702	1454.640000	1874.122070	-72.515488
11787.111702	1454.640000	1873.134766	-20.327715
11787.111702	1454.640000	1872.146484	128.636826
11787.111702	1454.640000	1871.159180	103.361847
11787.111702	1454.640000	1870.170898	109.546394
11787.111702	1454.640000	1869.182617	-109.171432
11787.111702	1454.640000	1868.194336	30.043850
11787.111702	1454.640000	1867.205078	79.766136
11787.111702	1454.640000	1866.216797	11.041529
11787.111702	1454.640000	1865.227539	-4.491490
11787.111702	1454.640000	1864.238281	1.728930
11787.111702	1454.640000	1863.249023	-47.610222
11787.111702	1454.640000	1862.259766	-99.345406
11787.111702	1454.640000	1861.269531	-117.254333
11787.111702	1454.640000	1860.279297	7.285349
11787.111702	1454.640000	1859.290039	-70.980988
11787.111702	1454.640000	1858.298828	77.638016
11787.111702	1454.640000	1857.308594	59.707691
11787.111702	1454.640000	1856.318359	179.292099
11787.111702	1454.640000	1855.327148	178.228699
11787.111702	1454.640000	1854.335938	215.747238
11787.111702	1454.640000	1853.344727	-36.082592
11787.111702	1454.640000	1852.353516	278.680023
11787.111702	1454.640000	1851.362305	26.923185
11787.111702	1454.640000	1850.370117	189.730377
11787.111702	1454.640000	1849.377930	-37.834686
11787.111702	1454.640000	1848.385742	-19.618341
11787.111702	1454.640000	1847.393555	-23.091906
11787.111702	1454.640000	1846.401367	-166.232559
11787.111702	1454.640000	1845.408203	-15.617009
11787.111702	1454.640000	1844.415039	91.607521
11787.111702	1454.640000	1843.421875	239.694290
11787.111702	1454.640000	1842.428711	-76.665916
11787.111702	1454.640000	1841.435547	206.090698
11787.111702	1454.640000	1840.441406	135.162796
11787.111702	1454.640000	1839.448242	109.940208
11787.111702	1454.640000	1838.454102	22.203653
11787.111702	1454.640000	1837.459961	283.042267
11787.111702	1454.640000	1836.464844	-28.239876
11787.111702	1454.640000	1835.470703	11.411204
11787.111702	1454.640000	1834.475586	130.313248
11787.111702	1454.640000	1833.480469	-173.606689
11787.111702	1454.640000	1832.485352	53.324581
11787.111702	1454.640000	1831.490234	-188.071304
11787.111702	1454.640000	1830.495117	17.132721
11787.111702	1454.640000	1829.499023	265.445709
11787.111702	1454.640000	1828.502930	156.077972
11787.111702	1454.640000	1827.506836	291.462524
11787.111702	1454.640000	1826.510742	-9.821255
11787.111702	1454.640000	1825.513672	175.866486
11787.111702	1454.640000	1824.517578	-221.244095
11787.111702	1454.640000	1823.520508	57.871372
11787.111702	1454.640000	1822.523438	264.946838
11787.111702	1454.640000	1821.526367	320.932800
11787.111702	1454.640000	1820.529297	5.467369
11787.111702	1454.640000	1819.531250	15.910899
11787.111702	1454.640000	1818.533203	43.093128
11787.111702	1454.640000	1817.535156	120.527115
11787.111702	1454.640000	1816.537109	214.665375
11787.111702	1454.640000	1815.539063	-21.617687
11787.111702	1454.640000	1814.540039	-90.299683
11787.111702	1454.640000	1813.541992	154.498550
11787.111702	1454.640000	1812.542969	188.629044
11787.111702	1454.640000	1811.543945	-9.316561
11787.111702	1454.640000	1810.543945	163.484818
11787.111702	1454.640000	1809.544922	149.678238
11787.111702	1454.640000	1808.544922	121.498291
11787.111702	1454.640000	1807.544922	133.931320
11787.111702	1454.640000	1806.544922	-111.777161
11787.111702	1454.640000	1805.544922	175.407471
11787.111702	1454.640000	1804.544922	-89.396187
11787.111702	1454.640000	1803.543945	-48.410164
11787.111702	1454.640000	1802.542969	97.598145
11787.111702	1454.640000	1801.541992	269.780579
11787.111702	1454.640000	1800.541016	83.788918
11787.111702	1454.640000	1799.539063	26.711618
11787.111702	1454.640000	1798.538086	10.182773
11787.111702	1454.640000	1797.536133	153.469543
11787.111702	1454.640000	1796.534180	136.845810
11787.111702	1454.640000	1795.532227	172.654831
11787.111702	1454.640000	1794.529297	198.873550
11787.111702	1454.640000	1793.527344	110.611076
11787.111702	1454.640000	1792.524414	255.925262
11787.111702	1454.640000	1791.521484	303.435913
11787.111702	1454.640000	1790.518555	53.060555
11787.111702	1454.640000	1789.514648	117.182213
11787.111702	1454.640000	1788.511719	228.873322
11787.111702	1454.640000	1787.507813	-57.195324
11787.111702	1454.640000	1786.503906	416.279877
11787.111702	1454.640000	1785.500000	396.796600
11787.111702	1454.640000	1784.496094	60.748985
11787.111702	1454.640000	1783.491211	195.914383
11787.111702	1454.640000	1782.486328	-66.311584
11787.111702	1454.640000	1781.481445	239.992615
11787.111702	1454.640000	1780.476563	87.158630
11787.111702	1454.640000	1779.471680	-10.977931
11787.111702	1454.640000	1778.465820	354.428497
11787.111702	1454.640000	1777.460938	89.812698
11787.111702	1454.640000	1776.455078	205.453995
11787.111702	1454.640000	1775.449219	-9.237947
11787.111702	1454.640000	1774.442383	115.781502
11787.111702	1454.640000	1773.436523	195.584259
11787.111702	1454.640000	1772.429688	85.345787
11787.111702	1454.640000	1771.422852	29.702547
11787.111702	1454.640000	1770.416016	121.193336
11787.111702	1454.640000	1769.409180	-140.998505
11787.111702	1454.640000	1768.402344	147.322113
11787.111702	1454.640000	1767.394531	32.201508
11787.111702	1454.640000	1766.386719	-11.772410
11787.111702	1454.640000	1765.378906	39.072014
11787.111702	1454.640000	1764.371094	106.441620
11787.111702	1454.640000	1763.362305	138.177521
11787.111702	1454.640000	1762.354492	39.501198
11787.111702	1454.640000	1761.345703	177.761032
11787.111702	1454.640000	1760.336914	-1.540653
11787.111702	1454.640000	1759.328125	302.375275
11787.111702	1454.640000	1758.318359	177.480606
11787.111702	1454.640000	1757.308594	116.508270
11787.111702	1454.640000	1756.299805	8.164088
11787.111702	1454.640000	1755.290039	89.151398
11787.111702	1454.640000	1754.279297	70.665276
11787.111702	1454.640000	1753.269531	186.992630
11787.111702	1454.640000	1752.258789	170.752533
11787.111702	1454.640000	1751.249023	-108.049110
11787.111702	1454.640000	1750.238281	-25.019962
11787.111702	1454.640000	1749.226563	157.212845
11787.111702	1454.640000	1748.215820	55.684807
11787.111702	1454.640000	1747.204102	355.887634
11787.111702	1454.640000	1746.193359	62.868736
11787.111702	1454.640000	1745.181641	-52.921345
11787.111702	1454.640000	1744.168945	-112.037445
11787.111702	1454.640000	1743.157227	256.234222
11787.111702	1454.640000	1742.144531	67.119278
11787.111702	1454.640000	1741.132813	184.894241
11787.111702	1454.640000	1740.120117	-65.604111
11787.111702	1454.640000	1739.106445	-233.479370
11787.111702	1454.640000	1738.093750	-247.991821
11787.111702	1454.640000	1737.080078	-125.750244
11787.111702	1454.640000	1736.067383	-161.610413
11787.111702	1454.640000	1735.053711	-30.109030
11787.111702	1454.640000	1734.040039	-125.017624
11787.111702	1454.640000	1733.025391	-50.250141
11787.111702	1454.640000	1732.011719	38.578308
11787.111702	1454.640000	1730.997070	4.803730
11787.111702	1454.640000	1729.982422	-21.944784
11787.111702	1454.640000	1728.967773	-48.735420
11787.111702	1454.640000	1727.952148	-103.828018
11787.111702	1454.640000	1726.937500	-123.635979
11787.111702	1454.640000	1725.921875	-336.501465
11787.111702	1454.640000	1724.906250	-339.892700
11787.111702	1454.640000	1723.890625	-103.342743
11787.111702	1454.640000	1722.875000	-36.306389
11787.111702	1454.640000	1721.858398	47.108646
11787.111702	1454.640000	1720.841797	-50.624283
11787.111702	1454.640000	1719.825195	-89.594757
11787.111702	1454.640000	1718.808594	-180.314209
11787.111702	1454.640000	1717.791992	1.569202
11787.111702	1454.640000	1716.774414	-192.626633
11787.111702	1454.640000	1715.756836	-86.092125
11787.111702	1454.640000	1714.739258	-97.090645
11787.111702	1454.640000	1713.721680	-49.422638
11787.111702	1454.640000	1712.704102	-88.697144
11787.111702	1454.640000	1711.685547	83.262932
11787.111702	1454.640000	1710.667969	-167.350677
11787.111702	1454.640000	1709.649414	44.352966
11787.111702	1454.640000	1708.630859	58.853733
11787.111702	1454.640000	1707.611328	-116.702667
11787.111702	1454.640000	1706.592773	-81.165123
11787.111702	1454.640000	1705.573242	-36.314892
11787.111702	1454.640000	1704.553711	-97.021492
11787.111702	1454.640000	1703.534180	-171.813797
11787.111702	1454.640000	1702.513672	-2.913439
11787.111702	1454.640000	1701.494141	65.135826
11787.111702	1454.640000	1700.473633	147.161774
11787.111702	1454.640000	1699.453125	-89.408020
11787.111702	1454.640000	1698.432617	-110.502747
11787.111702	1454.640000	1697.412109	-164.411011
11787.111702	1454.640000	1696.390625	107.016487
11787.111702	1454.640000	1695.369141	230.857910
11787.111702	1454.640000	1694.347656	64.471207
11787.111702	1454.640000	1693.326172	-34.051334
11787.111702	1454.640000	1692.304688	31.148239
11787.111702	1454.640000	1691.282227	-212.403992
11787.111702	1454.640000	1690.260742	46.780430
11787.111702	1454.640000	1689.238281	-222.473450
11787.111702	1454.640000	1688.214844	-68.649529
11787.111702	1454.640000	1687.192383	-43.432987
11787.111702	1454.640000	1686.168945	79.848732
11787.111702	1454.640000	1685.146484	114.293831
11787.111702	1454.640000	1684.123047	237.424332
11787.111702	1454.640000	1683.099609	73.281868
11787.111702	1454.640000	1682.075195	-58.158501
11787.111702	1454.640000	1681.051758	81.164604
11787.111702	1454.640000	1680.027344	155.054260
11787.111702	1454.640000	1679.002930	128.560043
11787.111702	1454.640000	1677.978516	106.706017
11787.111702	1454.640000	1676.953125	28.849964
11787.111702	1454.640000	1675.928711	247.127808
11787.111702	1454.640000	1674.903320	462.951752
11787.111702	1454.640000	1673.877930	254.449661
11787.111702	1454.640000	1672.852539	456.145660
11787.111702	1454.640000	1671.826172	191.741165
11787.111702	1454.640000	1670.800781	500.470062
11787.111702	1454.640000	1669.774414	98.687683
11787.111702	1454.640000	1668.748047	237.264252
11787.111702	1454.640000	1667.721680	117.337204
11787.111702	1454.640000	1666.694336	109.152802
11787.111702	1454.640000	1665.667969	124.226433
11787.111702	1454.640000	1664.640625	420.801910
11787.111702	1454.640000	1663.613281	238.013306
11787.111702	1454.640000	1662.585938	287.861298
11787.111702	1454.640000	1661.557617	105.115585
11787.111702	1454.640000	1660.530273	350.223389
11787.111702	1454.640000	1659.501953	397.623688
11787.111702	1454.640000	1658.473633	135.880325
11787.111702	1454.640000	1657.444336	417.942627
11787.111702	1454.640000	1656.416016	325.849762
11787.111702	1454.640000	1655.386719	282.546448
11787.111702	1454.640000	1654.358398	378.583679
11787.111702	1454.640000	1653.328125	425.798035
11787.111702	1454.640000	1652.298828	528.696228
11787.111702	1454.640000	1651.269531	687.241333
11787.111702	1454.640000	1650.239258	339.835663
11787.111702	1454.640000	1649.208984	528.482666
11787.111702	1454.640000	1648.178711	512.917603
11787.111702	1454.640000	1647.148438	457.920532
11787.111702	1454.640000	1646.117188	377.421173
11787.111702	1454.640000	1645.086914	728.146423
11787.111702	1454.640000	1644.055664	483.040955
11787.111702	1454.640000	1643.024414	828.948120
11787.111702	1454.640000	1641.992188	813.268311
11787.111702	1454.640000	1640.960938	732.732483
11787.111702	1454.640000	1639.928711	696.218689
11787.111702	1454.640000	1638.896484	1136.718994
11787.111702	1454.640000	1637.864258	820.003540
11787.111702	1454.640000	1636.832031	1151.510742
11787.111702	1454.640000	1635.798828	832.584473
11787.111702	1454.640000	1634.766602	638.731018
11787.111702	1454.640000	1633.733398	599.935913
11787.111702	1454.640000	1632.699219	864.133667
11787.111702	1454.640000	1631.666016	1192.983032
11787.111702	1454.640000	1630.632813	862.796387
11787.111702	1454.640000	1629.598633	604.388367
11787.111702	1454.640000	1628.564453	752.830933
11787.111702	1454.640000	1627.530273	1238.572266
11787.111702	1454.640000	1626.495117	1167.370117
11787.111702	1454.640000	1625.460938	920.668518
11787.111702	1454.640000	1624.425781	941.939270
11787.111702	1454.640000	1623.390625	965.516113
11787.111702	1454.640000	1622.355469	1037.567993
11787.111702	1454.640000	1621.319336	1123.440552
11787.111702	1454.640000	1620.284180	1080.077637
11787.111702	1454.640000	1619.248047	965.218994
11787.111702	1454.640000	1618.211914	1224.080933
11787.111702	1454.640000	1617.174805	1480.542725
11787.111702	1454.640000	1616.138672	1471.770508
11787.111702	1454.640000	1615.101563	1442.261963
11787.111702	1454.640000	1614.065430	1539.548462
11787.111702	1454.640000	1613.027344	1519.279541
11787.111702	1454.640000	1611.990234	1261.741089
11787.111702	1454.640000	1610.953125	1432.761475
11787.111702	1454.640000	1609.915039	1320.456421
11787.111702	1454.640000	1608.876953	1661.819336
11787.111702	1454.640000	1607.838867	1478.189087
11787.111702	1454.640000	1606.800781	1715.853760
11787.111702	1454.640000	1605.761719	1543.827393
11787.111702	1454.640000	1604.723633	1680.199585
11787.111702	1454.640000	1603.684570	1476.089600
11787.111702	1454.640000	1602.644531	1336.474976
11787.111702	1454.640000	1601.605469	1507.364990
11787.111702	1454.640000	1600.566406	1400.041504
11787.111702	1454.640000	1599.526367	1458.274780
11787.111702	1454.640000	1598.486328	1532.598999
11787.111702	1454.640000	1597.446289	1593.138184
11787.111702	1454.640000	1596.405273	1440.043457
11787.111702	1454.640000	1595.365234	1516.714478
11787.111702	1454.640000	1594.324219	1823.009155
11787.111702	1454.640000	1593.283203	1477.204102
11787.111702	1454.640000	1592.242188	1494.237427
11787.111702	1454.640000	1591.200195	1807.336792
11787.111702	1454.640000	1590.159180	1711.938477
11787.111702	1454.640000	1589.117188	1396.381470
11787.111702	1454.640000	1588.075195	1528.232788
11787.111702	1454.640000	1587.032227	1398.649902
11787.111702	1454.640000	1585.990234	1227.893066
11787.111702	1454.640000	1584.947266	1302.506470
11787.111702	1454.640000	1583.904297	1427.549438
11787.111702	1454.640000	1582.861328	1520.507080
11787.111702	1454.640000	1581.818359	1416.456543
11787.111702	1454.640000	1580.775391	1149.867432
11787.111702	1454.640000	1579.731445	1345.998779
11787.111702	1454.640000	1578.687500	1143.720215
11787.111702	1454.640000	1577.643555	1110.958252
11787.111702	1454.640000	1576.598633	1188.107056
11787.111702	1454.640000	1575.554688	1164.595947
11787.111702	1454.640000	1574.509766	1317.296265
11787.111702	1454.640000	1573.464844	1335.034058
11787.111702	1454.640000	1572.419922	1256.769409
11787.111702	1454.640000	1571.374023	984.236450
11787.111702	1454.640000	1570.329102	1139.340332
11787.111702	1454.640000	1569.283203	1196.156128
11787.111702	1454.640000	1568.237305	1054.203125
11787.111702	1454.640000	1567.191406	1239.058472
11787.111702	1454.640000	1566.144531	1293.696655
11787.111702	1454.640000	1565.098633	985.262756
11787.111702	1454.640000	1564.051758	907.611450
11787.111702	1454.640000	1563.004883	811.787292
11787.111702	1454.640000	1561.957031	926.032654
11787.111702	1454.640000	1560.910156	898.818298
11787.111702	1454.640000	1559.862305	1188.796265
11787.111702	1454.640000	1558.814453	1230.088989
11787.111702	1454.640000	1557.766602	1082.138550
11787.111702	1454.640000	1556.718750	1150.922363
11787.111702	1454.640000	1555.669922	998.610901
11787.111702	1454.640000	1554.621094	876.052856
11787.111702	1454.640000	1553.573242	1047.575195
11787.111702	1454.640000	1552.523438	1116.563110
11787.111702	1454.640000	1551.474609	916.804871
11787.111702	1454.640000	1550.424805	646.588257
11787.111702	1454.640000	1549.375000	825.113159
11787.111702	1454.640000	1548.325195	696.304199
11787.111702	1454.640000	1547.275391	617.689392
11787.111702	1454.640000	1546.225586	596.066284
11787.111702	1454.640000	1545.174805	654.152893
11787.111702	1454.640000	1544.124023	525.760071
11787.111702	1454.640000	1543.073242	699.970581
11787.111702	1454.640000	1542.022461	610.421875
11787.111702	1454.640000	1540.970703	618.734375
11787.111702	1454.640000	1539.919922	643.032349
11787.111702	1454.640000	1538.868164	531.044678
11787.111702	1454.640000	1537.815430	612.299561
11787.111702	1454.640000	1536.763672	534.588623
11787.111702	1454.640000	1535.710938	495.594391
11787.111702	1454.640000	1534.659180	465.778076
11787.111702	1454.640000	1533.606445	476.916138
11787.111702	1454.640000	1532.552734	519.905884
11787.111702	1454.640000	1531.500000	426.798065
11787.111702	1454.640000	1530.446289	846.582336
11787.111702	1454.640000	1529.393555	676.482971
11787.111702	1454.640000	1528.338867	261.583435
11787.111702	1454.640000	1527.285156	459.176453
11787.111702	1454.640000	1526.231445	520.750488
11787.111702	1454.640000	1525.176758	240.112701
11787.111702	1454.640000	1524.122070	544.357605
11787.111702	1454.640000	1523.067383	347.831543
11787.111702	1454.640000	1522.012695	305.513489
11787.111702	1454.640000	1520.957031	179.494125
11787.111702	1454.640000	1519.901367	295.910614
11787.111702	1454.640000	1518.845703	-40.431820
11787.111702	1454.640000	1517.790039	248.188019
11787.111702	1454.640000	1516.734375	124.899574
11787.111702	1454.640000	1515.677734	103.565353
11787.111702	1454.640000	1514.621094	380.943146
11787.111702	1454.640000	1513.564453	291.898712
11787.111702	1454.640000	1512.507813	74.086761
11787.111702	1454.640000	1511.450195	80.276443
11787.111702	1454.640000	1510.393555	303.558014
11787.111702	1454.640000	1509.335938	375.424316
11787.111702	1454.640000	1508.278320	70.019295
11787.111702	1454.640000	1507.219727	128.538177
11787.111702	1454.640000	1506.162109	49.353653
11787.111702	1454.640000	1505.103516	148.691711
11787.111702	1454.640000	1504.044922	-52.192772
11787.111702	1454.640000	1502.986328	-92.633377
11787.111702	1454.640000	1501.926758	-130.704025
11787.111702	1454.640000	1500.868164	115.642868
11787.111702	1454.640000	1499.808594	-30.543633
11787.111702	1454.640000	1498.749023	-32.222012
11787.111702	1454.640000	1497.688477	-101.452187
11787.111702	1454.640000	1496.628906	-26.263536
11787.111702	1454.640000	1495.568359	-458.184387
11787.111702	1454.640000	1494.507813	-182.173630
11787.111702	1454.640000	1493.447266	-12.076654
11787.111702	1454.640000	1492.386719	-256.459534
11787.111702	1454.640000	1491.325195	-196.576981
11787.111702	1454.640000	1490.263672	-6.003556
11787.111702	1454.640000	1489.202148	-24.791687
11787.111702	1454.640000	1488.140625	-88.489914
11787.111702	1454.640000	1487.079102	68.495796
11787.111702	1454.640000	1486.016602	-3.989233
11787.111702	1454.640000	1484.954102	135.128372
11787.111702	1454.640000	1483.891602	13.384008
11787.111702	1454.640000	1482.829102	-150.932999
11787.111702	1454.640000	1481.765625	31.159733
11787.111702	1454.640000	1480.702148	87.407036
11787.111702	1454.640000	1479.638672	-188.874466
11787.111702	1454.640000	1478.575195	267.524414
11787.111702	1454.640000	1477.511719	178.014053
11787.111702	1454.640000	1476.447266	405.225708
11787.111702	1454.640000	1475.382813	264.237671
11787.111702	1454.640000	1474.318359	300.794220
11787.111702	1454.640000	1473.253906	312.842834
11787.111702	1454.640000	1472.189453	120.565285
11787.111702	1454.640000	1471.124023	-22.027798
11787.111702	1454.640000	1470.058594	131.631561
11787.111702	1454.640000	1468.993164	312.088409
11787.111702	1454.640000	1467.927734	270.864380
11787.111702	1454.640000	1466.861328	314.816132
11787.111702	1454.640000	1465.794922	551.468262
11787.111702	1454.640000	1464.728516	396.031738
11787.111702	1454.640000	1463.662109	375.461823
11787.111702	1454.640000	1462.594727	226.824463
11787.111702	1454.640000	1461.528320	343.376617
11787.111702	1454.640000	1460.460938	302.826538
11787.111702	1454.640000	1459.393555	436.303589
11787.111702	1454.640000	1458.326172	378.514862
11787.111702	1454.640000	1457.257813	166.532700
11787.111702	1454.640000	1456.189453	243.226410
11787.111702	1454.640000	1455.121094	247.863556
11787.111702	1454.640000	1454.052734	439.619934
11787.111702	1454.640000	1452.984375	350.261169
11787.111702	1454.640000	1451.915039	265.412811
11787.111702	1454.640000	1450.845703	480.115448
11787.111702	1454.640000	1449.776367	683.173767
11787.111702	1454.640000	1448.707031	428.540802
11787.111702	1454.640000	1447.636719	351.488983
11787.111702	1454.640000	1446.567383	652.373840
11787.111702	1454.640000	1445.497070	674.556641
11787.111702	1454.640000	1444.425781	355.865845
11787.111702	1454.640000	1443.355469	600.748047
11787.111702	1454.640000	1442.285156	734.979736
11787.111702	1454.640000	1441.213867	513.658081
11787.111702	1454.640000	1440.142578	551.640930
11787.111702	1454.640000	1439.070313	547.646790
11787.111702	1454.640000	1437.999023	559.318481
11787.111702	1454.640000	1436.926758	848.432983
11787.111702	1454.640000	1435.854492	532.000122
11787.111702	1454.640000	1434.782227	1023.048950
11787.111702	1454.640000	1433.709961	515.528564
11787.111702	1454.640000	1432.636719	886.683289
11787.111702	1454.640000	1431.563477	649.327209
11787.111702	1454.640000	1430.490234	589.249207
11787.111702	1454.640000	1429.416992	593.357239
11787.111702	1454.640000	1428.343750	660.869873
11787.111702	1454.640000	1427.269531	494.906860
11787.111702	1454.640000	1426.195313	412.768097
11787.111702	1454.640000	1425.121094	257.607605
11787.111702	1454.640000	1424.046875	371.274719
11787.111702	1454.640000	1422.971680	599.284180
11787.111702	1454.640000	1421.896484	519.642456
11787.111702	1454.640000	1420.821289	385.415588
11787.111702	1454.640000	1419.746094	547.460754
11787.111702	1454.640000	1418.669922	584.855530
11787.111702	1454.640000	1417.594727	716.215515
11787.111702	1454.640000	1416.518555	431.989044
11787.111702	1454.640000	1415.442383	661.691772
11787.111702	1454.640000	1414.365234	604.788330
11787.111702	1454.640000	1413.289063	522.414978
11787.111702	1454.640000	1412.211914	323.415344
11787.111702	1454.640000	1411.134766	243.767563
11787.111702	1454.640000	1410.057617	385.426331
11787.111702	1454.640000	1408.979492	375.712158
11787.111702	1454.640000	1407.902344	364.572815
11787.111702	1454.640000	1406.824219	583.923218
11787.111702	1454.640000	1405.746094	921.199890
11787.111702	1454.640000	1404.666992	700.213928
11787.111702	1454.640000	1403.588867	453.023682
11787.111702	1454.640000	1402.509766	528.095520
11787.111702	1454.640000	1401.430664	430.062866
11787.111702	1454.640000	1400.351563	626.663574
11787.111702	1454.640000	1399.271484	714.486389
11787.111702	1454.640000	1398.192383	688.428650
11787.111702	1454.640000	1397.112305	693.379456
11787.111702	1454.640000	1396.031250	734.268250
11787.111702	1454.640000	1394.951172	626.944946
11787.111702	1454.640000	1393.871094	350.930054
11787.111702	1454.640000	1392.790039	464.144958
11787.111702	1454.640000	1391.708984	492.487854
11787.111702	1454.640000	1390.626953	407.393860
11787.111702	1454.640000	1389.545898	322.344696
11787.111702	1454.640000	1388.463867	678.935913
11787.111702	1454.640000	1387.381836	630.733276
11787.111702	1454.640000	1386.299805	647.492126
11787.111702	1454.640000	1385.217773	350.489166
11787.111702	1454.640000	1384.134766	525.537048
11787.111702	1454.640000	1383.051758	671.716797
11787.111702	1454.640000	1381.968750	468.930145
11787.111702	1454.640000	1380.885742	747.879639
11787.111702	1454.640000	1379.802734	561.490540
11787.111702	1454.640000	1378.718750	521.015259
11787.111702	1454.640000	1377.634766	370.975647
11787.111702	1454.640000	1376.550781	910.574341
11787.111702	1454.640000	1375.465820	718.237793
11787.111702	1454.640000	1374.381836	761.732361
11787.111702	1454.640000	1373.296875	839.855103
11787.111702	1454.640000	1372.211914	707.793396
11787.111702	1454.640000	1371.126953	686.468689
11787.111702	1454.640000	1370.041016	735.688477
11787.111702	1454.640000	1368.955078	300.312073
11787.111702	1454.640000	1367.869141	740.180481
11787.111702	1454.640000	1366.783203	848.170105
11787.111702	1454.640000	1365.697266	752.207947
11787.111702	1454.640000	1364.610352	647.940002
11787.111702	1454.640000	1363.523438	378.029633
11787.111702	1454.640000	1362.436523	615.790588
11787.111702	1454.640000	1361.349609	663.558228
11787.111702	1454.640000	1360.261719	394.470825
11787.111702	1454.640000	1359.174805	547.626587
11787.111702	1454.640000	1358.086914	815.914429
11787.111702	1454.640000	1356.998047	806.009521
11787.111702	1454.640000	1355.910156	743.029236
11787.111702	1454.640000	1354.821289	699.794373
11787.111702	1454.640000	1353.732422	676.284119
11787.111702	1454.640000	1352.643555	534.878540
11787.111702	1454.640000	1351.554688	778.834778
11787.111702	1454.640000	1350.464844	428.026184
11787.111702	1454.640000	1349.375000	686.007690
11787.111702	1454.640000	1348.285156	623.614502
11787.111702	1454.640000	1347.195313	673.998291
11787.111702	1454.640000	1346.105469	553.605408
11787.111702	1454.640000	1345.014648	683.510742
11787.111702	1454.640000	1343.923828	502.511169
11787.111702	1454.640000	1342.833008	421.033600
11787.111702	1454.640000	1341.741211	686.555359
11787.111702	1454.640000	1340.650391	981.652710
11787.111702	1454.640000	1339.558594	677.831970
11787.111702	1454.640000	1338.466797	729.346619
11787.111702	1454.640000	1337.374023	301.381195
11787.111702	1454.640000	1336.282227	566.669800
11787.111702	1454.640000	1335.189453	475.547150
11787.111702	1454.640000	1334.096680	623.883789
11787.111702	1454.640000	1333.003906	881.048035
11787.111702	1454.640000	1331.910156	532.097717
11787.111702	1454.640000	1330.817383	791.160889
11787.111702	1454.640000	1329.723633	778.291565
11787.111702	1454.640000	1328.629883	668.703674
11787.111702	1454.640000	1327.535156	448.517853
11787.111702	1454.640000	1326.441406	670.627197
11787.111702	1454.640000	1325.346680	615.191711
11787.111702	1454.640000	1324.251953	747.055969
11787.111702	1454.640000	1323.156250	961.000793
11787.111702	1454.640000	1322.061523	629.825256
11787.111702	1454.640000	1320.965820	677.343994
11787.111702	1454.640000	1319.870117	434.967773
11787.111702	1454.640000	1318.774414	822.809021
11787.111702	1454.640000	1317.678711	621.558289
11787.111702	1454.640000	1316.582031	629.690063
11787.111702	1454.640000	1315.485352	819.931396
11787.111702	1454.640000	1314.388672	766.492310
11787.111702	1454.640000	1313.291016	472.117004
11787.111702	1454.640000	1312.194336	562.808716
11787.111702	1454.640000	1311.096680	600.724670
11787.111702	1454.640000	1309.999023	565.640442
11787.111702	1454.640000	1308.901367	303.389099
11787.111702	1454.640000	1307.802734	255.156464
11787.111702	1454.640000	1306.705078	388.421906
11787.111702	1454.640000	1305.606445	616.804016
11787.111702	1454.640000	1304.506836	362.889862
11787.111702	1454.640000	1303.408203	350.424255
11787.111702	1454.640000	1302.308594	414.479095
11787.111702	1454.640000	1301.208984	482.440948
11787.111702	1454.640000	1300.109375	642.412415
11787.111702	1454.640000	1299.009766	490.494263
11787.111702	1454.640000	1297.909180	492.403717
11787.111702	1454.640000	1296.808594	585.812439
11787.111702	1454.640000	1295.708008	436.479309
11787.111702	1454.640000	1294.607422	431.042053
11787.111702	1454.640000	1293.506836	491.728363
11787.111702	1454.640000	1292.405273	356.759583
11787.111702	1454.640000	1291.303711	181.422409
11787.111702	1454.640000	1290.202148	94.184677
11787.111702	1454.640000	1289.099609	35.123314
11787.111702	1454.640000	1287.998047	118.068192
11787.111702	1454.640000	1286.895508	224.910370
11787.111702	1454.640000	1285.792969	175.752792
11787.111702	1454.640000	1284.689453	142.428345
11787.111702	1454.640000	1283.586914	156.157318
11787.111702	1454.640000	1282.483398	262.887604
11787.111702	1454.640000	1281.379883	69.235710
11787.111702	1454.640000	1280.276367	227.898056
11787.111702	1454.640000	1279.171875	143.174377
11787.111702	1454.640000	1278.067383	26.829607
11787.111702	1454.640000	1276.962891	41.733940
11787.111702	1454.640000	1275.858398	-80.105690
11787.111702	1454.640000	1274.753906	-23.645235
11787.111702	1454.640000	1273.648438	240.059662
11787.111702	1454.640000	1272.542969	79.430099
11787.111702	1454.640000	1271.437500	68.982773
11787.111702	1454.640000	1270.331055	-18.197285
11787.111702	1454.640000	1269.225586	25.105923
11787.111702	1454.640000	1268.119141	146.914902
11787.111702	1454.640000	1267.012695	277.099915
11787.111702	1454.640000	1265.906250	149.142517
11787.111702	1454.640000	1264.798828	172.709793
11787.111702	1454.640000	1263.691406	103.373184
11787.111702	1454.640000	1262.583984	275.366180
11787.111702	1454.640000	1261.476563	212.127380
11787.111702	1454.640000	1260.368164	144.259460
11787.111702	1454.640000	1259.260742	240.917755
11787.111702	1454.640000	1258.152344	200.390549
11787.111702	1454.640000	1257.043945	80.010941
11787.111702	1454.640000	1255.934570	126.176552
11787.111702	1454.640000	1254.825195	-16.187716
11787.111702	1454.640000	1253.716797	199.559814
11787.111702	1454.640000	1252.606445	189.912582
11787.111702	1454.640000	1251.497070	133.369614
11787.111702	1454.640000	1250.387695	2.664490
11787.111702	1454.640000	1249.277344	-46.576630
11787.111702	1454.640000	1248.166992	67.116081
11787.111702	1454.640000	1247.055664	-42.805050
11787.111702	1454.640000	1245.945313	15.405184
11787.111702	1454.640000	1244.833984	27.466721
11787.111702	1454.640000	1243.722656	-85.115433
11787.111702	1454.640000	1242.611328	137.919632
11787.111702	1454.640000	1241.499023	184.569138
11787.111702	1454.640000	1240.387695	28.527605
11787.111702	1454.640000	1239.275391	25.104753
11787.111702	1454.640000	1238.162109	133.495071
11787.111702	1454.640000	1237.049805	203.994675
11787.111702	1454.640000	1235.936523	144.182800
11787.111702	1454.640000	1234.823242	91.767670
11787.111702	1454.640000	1233.709961	68.869576
11787.111702	1454.640000	1232.596680	58.884235
11787.111702	1454.640000	1231.482422	-95.745872
11787.111702	1454.640000	1230.369141	66.144691
11787.111702	1454.640000	1229.253906	9.980593
11787.111702	1454.640000	1228.139648	45.236023
11787.111702	1454.640000	1227.025391	99.941360
11787.111702	1454.640000	1225.910156	107.835907
11787.111702	1454.640000	1224.794922	77.223747
11787.111702	1454.640000	1223.679688	-86.526718
11787.111702	1454.640000	1222.563477	-98.191856
11787.111702	1454.640000	1221.447266	-23.905020
11787.111702	1454.640000	1220.331055	-118.026306
11787.111702	1454.640000	1219.214844	-32.454880
11787.111702	1454.640000	1218.098633	-47.154346
11787.111702	1454.640000	1216.981445	35.977745
11787.111702	1454.640000	1215.864258	-153.723068
11787.111702	1454.640000	1214.747070	-233.708664
11787.111702	1454.640000	1213.629883	-192.272705
11787.111702	1454.640000	1212.511719	-98.873360
11787.111702	1454.640000	1211.393555	-157.850754
11787.111702	1454.640000	1210.275391	-157.971222
11787.111702	1454.640000	1209.157227	-31.188530
11787.111702	1454.640000	1208.038086	70.662102
11787.111702	1454.640000	1206.918945	6.648861
11787.111702	1454.640000	1205.799805	-138.365616
11787.111702	1454.640000	1204.680664	103.289879
11787.111702	1454.640000	1203.560547	82.576942
11787.111702	1454.640000	1202.441406	-66.160027
11787.111702	1454.640000	1201.321289	-40.309738
11787.111702	1454.640000	1200.200195	-270.560394
11787.111702	1454.640000	1199.080078	-246.440475
11787.111702	1454.640000	1197.958984	-226.887650
11787.111702	1454.640000	1196.837891	-213.950592
11787.111702	1454.640000	1195.716797	-94.315483
11787.111702	1454.640000	1194.594727	-33.813900
11787.111702	1454.640000	1193.473633	-221.122360
11787.111702	1454.640000	1192.351563	-39.284336
11787.111702	1454.640000	1191.229492	-19.574881
11787.111702	1454.640000	1190.106445	-258.323761
11787.111702	1454.640000	1188.984375	-133.009872
11787.111702	1454.640000	1187.861328	-163.524658
11787.111702	1454.640000	1186.738281	-113.600006
11787.111702	1454.640000	1185.614258	-143.413452
11787.111702	1454.640000	1184.491211	-125.879158
11787.111702	1454.640000	1183.367188	-111.156372
11787.111702	1454.640000	1182.243164	-195.824478
11787.111702	1454.640000	1181.119141	138.252731
11787.111702	1454.640000	1179.994141	-268.852448
11787.111702	1454.640000	1178.869141	-99.654831
11787.111702	1454.640000	1177.744141	-104.574799
11787.111702	1454.640000	1176.619141	-147.130432
11787.111702	1454.640000	1175.493164	-132.694885
11787.111702	1454.640000	1174.368164	-132.829956
11787.111702	1454.640000	1173.242188	-143.422134
11787.111702	1454.640000	1172.115234	-140.634109
11787.111702	1454.640000	1170.989258	-225.078186
11787.111702	1454.640000	1169.862305	-48.689926
11787.111702	1454.640000	1168.735352	-119.518822
11787.111702	1454.640000	1167.608398	-266.694214
11787.111702	1454.640000	1166.481445	-4.952852
11787.111702	1454.640000	1165.353516	53.511475
11787.111702	1454.640000	1164.225586	-19.467726
11787.111702	1454.640000	1163.097656	59.839619
11787.111702	1454.640000	1161.968750	-138.381500
11787.111702	1454.640000	1160.840820	76.095383
11787.111702	1454.640000	1159.711914	-6.447286
11787.111702	1454.640000	1158.583008	91.529358
11787.111702	1454.640000	1157.453125	-43.334766
11787.111702	1454.640000	1156.324219	38.278992
11787.111702	1454.640000	1155.194336	13.885172
11787.111702	1454.640000	1154.064453	-83.525978
11787.111702	1454.640000	1152.933594	-72.287369
11787.111702	1454.640000	1151.803711	-103.611160
11787.111702	1454.640000	1150.672852	-86.996864
11787.111702	1454.640000	1149.541992	136.993271
11787.111702	1454.640000	1148.411133	-76.279732
11787.111702	1454.640000	1147.279297	149.936966
11787.111702	1454.640000	1146.147461	-4.752734
11787.111702	1454.640000	1145.015625	42.336460
11787.111702	1454.640000	1143.883789	-59.034977
11787.111702	1454.640000	1142.750977	71.495956
11787.111702	1454.640000	1141.619141	102.976852
11787.111702	1454.640000	1140.486328	49.513821
11787.111702	1454.640000	1139.352539	3.937524
11787.111702	1454.640000	1138.219727	39.386715
11787.111702	1454.640000	1137.085938	-29.886303
11787.111702	1454.640000	1135.952148	-30.490936
11787.111702	1454.640000	1134.818359	122.574562
11787.111702	1454.640000	1133.683594	102.548820
11787.111702	1454.640000	1132.549805	173.962753
11787.111702	1454.640000	1131.415039	148.546707
11787.111702	1454.640000	1130.279297	407.313019
11787.111702	1454.640000	1129.144531	402.266602
11787.111702	1454.640000	1128.008789	337.937286
11787.111702	1454.640000	1126.873047	532.656555
11787.111702	1454.640000	1125.737305	274.793488
11787.111702	1454.640000	1124.601563	403.592041
11787.111702	1454.640000	1123.464844	414.188843
11787.111702	1454.640000	1122.328125	339.009460
11787.111702	1454.640000	1121.191406	547.588867
11787.111702	1454.640000	1120.054688	252.837219
11787.111702	1454.640000	1118.916992	413.289337
11787.111702	1454.640000	1117.779297	415.353424
11787.111702	1454.640000	1116.641602	459.968842
11787.111702	1454.640000	1115.503906	361.182434
11787.111702	1454.640000	1114.365234	535.148010
11787.111702	1454.640000	1113.226563	287.065063
11787.111702	1454.640000	1112.087891	493.773346
11787.111702	1454.640000	1110.949219	216.505264
11787.111702	1454.640000	1109.809570	230.312927
11787.111702	1454.640000	1108.669922	329.933105
11787.111702	1454.640000	1107.530273	207.947861
11787.111702	1454.640000	1106.390625	329.952881
11787.111702	1454.640000	1105.250000	311.461975
11787.111702	1454.640000	1104.109375	248.886993
11787.111702	1454.640000	1102.968750	259.370544
11787.111702	1454.640000	1101.828125	283.064026
11787.111702	1454.640000	1100.686523	213.689102
11787.111702	1454.640000	1099.544922	272.942017
11787.111702	1454.640000	1098.403320	275.379486
11787.111702	1454.640000	1097.261719	405.342377
11787.111702	1454.640000	1096.120117	325.473358
11787.111702	1454.640000	1094.977539	287.390259
11787.111702	1454.640000	1093.834961	247.395187
11787.111702	1454.640000	1092.691406	383.037598
11787.111702	1454.640000	1091.548828	342.063507
11787.111702	1454.640000	1090.405273	160.652756
11787.111702	1454.640000	1089.261719	278.443573
11787.111702	1454.640000	1088.118164	355.011292
11787.111702	1454.640000	1086.973633	414.029114
11787.111702	1454.640000	1085.829102	252.676498
11787.111702	1454.640000	1084.684570	201.780731
11787.111702	1454.640000	1083.540039	98.036301
11787.111702	1454.640000	1082.395508	-57.582039
11787.111702	1454.640000	1081.250000	383.823303
11787.111702	1454.640000	1080.104492	142.777771
11787.111702	1454.640000	1078.958984	216.266922
11787.111702	1454.640000	1077.812500	145.154999
11787.111702	1454.640000	1076.666016	176.078964
11787.111702	1454.640000	1075.519531	231.996048
11787.111702	1454.640000	1074.373047	325.553894
11787.111702	1454.640000	1073.226563	258.958801
11787.111702	1454.640000	1072.079102	133.650909
11787.111702	1454.640000	1070.931641	152.966736
11787.111702	1454.640000	1069.784180	231.158447
11787.111702	1454.640000	1068.635742	-128.592682
11787.111702	1454.640000	1067.487305	239.703323
11787.111702	1454.640000	1066.338867	141.066254
11787.111702	1454.640000	1065.190430	378.037354
11787.111702	1454.640000	1064.041992	103.064171
11787.111702	1454.640000	1062.892578	482.225159
11787.111702	1454.640000	1061.743164	303.508698
11787.111702	1454.640000	1060.593750	294.857391
11787.111702	1454.640000	1059.443359	416.316406
11787.111702	1454.640000	1058.292969	424.438721
11787.111702	1454.640000	1057.142578	205.500977
11787.111702	1454.640000	1055.992188	402.610901
11787.111702	1454.640000	1054.841797	51.954304
11787.111702	1454.640000	1053.690430	215.369110
11787.111702	1454.640000	1052.539063	196.662476
11787.111702	1454.640000	1051.387695	286.691132
11787.111702	1454.640000	1050.235352	178.004791
11787.111702	1454.640000	1049.083984	220.668045
11787.111702	1454.640000	1047.931641	95.614906
11787.111702	1454.640000	1046.778320	176.781097
11787.111702	1454.640000	1045.625977	228.992294
11787.111702	1454.640000	1044.472656	142.281799
11787.111702	1454.640000	1043.319336	321.734528
11787.111702	1454.640000	1042.166016	57.719013
11787.111702	1454.640000	1041.012695	22.047129
11787.111702	1454.640000	1039.858398	168.590439
11787.111702	1454.640000	1038.704102	194.606918
11787.111702	1454.640000	1037.549805	206.999283
11787.111702	1454.640000	1036.394531	103.598953
11787.111702	1454.640000	1035.239258	108.420860
11787.111702	1454.640000	1034.083984	64.620689
11787.111702	1454.640000	1032.928711	-64.151779
11787.111702	1454.640000	1031.773438	158.993515
11787.111702	1454.640000	1030.617188	50.491268
11787.111702	1454.640000	1029.460938	50.534435
11787.111702	1454.640000	1028.304688	68.265991
11787.111702	1454.640000	1027.147461	276.500427
11787.111702	1454.640000	1025.991211	87.943932
11787.111702	1454.640000	1024.833984	246.405685
11787.111702	1454.640000	1023.675781	228.921158
11787.111702	1454.640000	1022.518555	42.355972
11787.111702	1454.640000	1021.360352	39.442905
11787.111702	1454.640000	1020.202148	-186.569061
11787.111702	1454.640000	1019.043945	169.578293
11787.111702	1454.640000	1017.884766	154.714798
11787.111702	1454.640000	1016.726563	96.403755
11787.111702	1454.640000	1015.567383	245.514282
11787.111702	1454.640000	1014.407227	-77.565590
11787.111702	1454.640000	1013.248047	102.465958
11787.111702	1454.640000	1012.087891	-47.928425
11787.111702	1454.640000	1010.927734	-21.189857
11787.111702	1454.640000	1009.767578	99.764130
11787.111702	1454.640000	1008.606445	87.849007
11787.111702	1454.640000	1007.446289	141.609192
11787.111702	1454.640000	1006.285156	272.515717
11787.111702	1454.640000	1005.123047	-31.595078
11787.111702	1454.640000	1003.961914	327.803833
11787.111702	1454.640000	1002.799805	246.428406
11787.111702	1454.640000	1001.637695	281.661102
11787.111702	1454.640000	1000.475586	41.829498
11787.111702	1454.640000	999.312500	-221.845520
11787.111702	1454.640000	998.149414	-145.539032
11787.111702	1454.640000	996.986328	228.742569
11787.111702	1454.640000	995.823242	217.079849
11787.111702	1454.640000	994.659180	23.724770
11787.111702	1454.640000	993.496094	134.170837
11787.111702	1454.640000	992.332031	-76.173218
11787.111702	1454.640000	991.166992	-54.629280
11787.111702	1454.640000	990.002930	73.155708
11787.111702	1454.640000	988.837891	76.388161
11787.111702	1454.640000	987.672852	185.558319
11787.111702	1454.640000	986.506836	-28.743176
11787.111702	1454.640000	985.341797	-4.724537
11787.111702	1454.640000	984.175781	137.750092
11787.111702	1454.640000	983.009766	6.298997
11787.111702	1454.640000	981.843750	-87.923035
11787.111702	1454.640000	980.676758	81.843414
11787.111702	1454.640000	979.509766	49.380817
11787.111702	1454.640000	978.342773	396.143738
11787.111702	1454.640000	977.175781	155.109177
11787.111702	1454.640000	976.007813	118.513054
11787.111702	1454.640000	974.839844	19.063700
11787.111702	1454.640000	973.671875	-31.094870
11787.111702	1454.640000	972.503906	88.928429
11787.111702	1454.640000	971.334961	79.755127
11787.111702	1454.640000	970.166016	66.246979
11787.111702	1454.640000	968.997070	-17.739117
11787.111702	1454.640000	967.828125	63.941833
11787.111702	1454.640000	966.658203	-29.052618
11787.111702	1454.640000	965.488281	26.296608
11787.111702	1454.640000	964.318359	38.253628
11787.111702	1454.640000	963.148438	54.045456
11787.111702	1454.640000	961.977539	56.745564
11787.111702	1454.640000	960.806641	10.028388
11787.111702	1454.640000	959.635742	34.824055
11787.111702	1454.640000	958.463867	-233.243256
11787.111702	1454.640000	957.292969	21.022741
11787.111702	1454.640000	956.121094	48.800610
11787.111702	1454.640000	954.948242	222.222565
11787.111702	1454.640000	953.776367	87.525978
11787.111702	1454.640000	952.603516	93.195000
11787.111702	1454.640000	951.430664	-7.553824
11787.111702	1454.640000	950.257813	-39.897804
11787.111702	1454.640000	949.084961	113.377335
11787.111702	1454.640000	947.911133	57.481529
11787.111702	1454.640000	946.737305	-31.904730
11787.111702	1454.640000	945.563477	-319.364044
11787.111702	1454.640000	944.388672	-39.787144
11787.111702	1454.640000	943.213867	-25.575510
11787.111702	1454.640000	942.039063	-123.438721
11787.111702	1454.640000	940.864258	281.900970
11787.111702	1454.640000	939.688477	-77.687500
11787.111702	1454.640000	938.513672	70.294434
11787.111702	1454.640000	937.337891	-1.268241
11787.111702	1454.640000	936.161133	169.400192
11787.111702	1454.640000	934.985352	111.268059
11787.111702	1454.640000	933.808594	124.736862
11787.111702	1454.640000	932.631836	-194.000061
11787.111702	1454.640000	931.454102	-59.161751
11787.111702	1454.640000	930.277344	-71.353043
11787.111702	1454.640000	929.099609	132.776672
11787.111702	1454.640000	927.921875	43.307453
11787.111702	1454.640000	926.743164	157.287781
11787.111702	1454.640000	925.565430	-168.965210
11787.111702	1454.640000	924.386719	174.038605
11787.111702	1454.640000	923.208008	220.986740
11787.111702	1454.640000	922.028320	10.630739
11787.111702	1454.640000	920.849609	227.342484
11787.111702	1454.640000	919.669922	233.500641
11787.111702	1454.640000	919.474609	61.773880
11787.111702	1454.640000	918.309570	3.160627
11787.111702	1454.640000	917.143555	-6.588333
11787.111702	1454.640000	915.977539	68.476273
11787.111702	1454.640000	914.810547	-182.856049
11787.111702	1454.640000	913.644531	51.486855
11787.111702	1454.640000	912.477539	-61.047157
11787.111702	1454.640000	911.310547	75.570305
11787.111702	1454.640000	910.143555	-306.549194
11787.111702	1454.640000	908.975586	58.527321
11787.111702	1454.640000	907.807617	25.618292
11787.111702	1454.640000	906.639648	-107.364929
11787.111702	1454.640000	905.471680	-53.013927
11787.111702	1454.640000	904.303711	134.690063
11787.111702	1454.640000	903.134766	63.296139
11787.111702	1454.640000	901.965820	-74.741493
11787.111702	1454.640000	900.796875	-120.444130
11787.111702	1454.640000	899.626953	154.242172
11787.111702	1454.640000	898.457031	-73.432480
11787.111702	1454.640000	897.287109	-229.287262
11787.111702	1454.640000	896.117188	-70.031006
11787.111702	1454.640000	894.947266	-15.843242
11787.111702	1454.640000	893.776367	99.769371
11787.111702	1454.640000	892.605469	46.379192
11787.111702	1454.640000	891.434570	41.631859
11787.111702	1454.640000	890.262695	-272.731293
11787.111702	1454.640000	889.091797	65.385559
11787.111702	1454.640000	887.919922	-149.112213
11787.111702	1454.640000	886.748047	-409.559479
11787.111702	1454.640000	885.575195	-153.444443
11787.111702	1454.640000	884.403320	-140.282608
11787.111702	1454.640000	883.230469	-109.237007
11787.111702	1454.640000	882.057617	-269.846649
11787.111702	1454.640000	880.883789	-44.641731
11787.111702	1454.640000	879.710938	-131.140732
11787.111702	1454.640000	878.537109	-13.318252
11787.111702	1454.640000	877.362305	114.668488
11787.111702	1454.640000	876.188477	-35.634483
11787.111702	1454.640000	875.013672	-147.595398
11787.111702	1454.640000	873.839844	250.777069
11787.111702	1454.640000	872.664063	-159.665680
11787.111702	1454.640000	871.489258	11.551148
11787.111702	1454.640000	870.313477	243.895172
11787.111702	1454.640000	869.138672	40.185894
11787.111702	1454.640000	867.962891	193.403580
11787.111702	1454.640000	866.786133	81.527664
11787.111702	1454.640000	865.610352	-9.928984
11787.111702	1454.640000	864.433594	-75.875793
11787.111702	1454.640000	863.256836	-141.801010
11787.111702	1454.640000	862.079102	217.526657
11787.111702	1454.640000	860.902344	-49.557693
11787.111702	1454.640000	859.724609	77.977859
11787.111702	1454.640000	858.546875	256.348206
11787.111702	1454.640000	857.368164	58.105804
11787.111702	1454.640000	856.190430	-132.435638
11787.111702	1454.640000	855.011719	-208.458191
11787.111702	1454.640000	853.833008	-27.652248
11787.111702	1454.640000	852.654297	-68.088242
11787.111702	1454.640000	851.474609	82.108513
11787.111702	1454.640000	850.294922	6.082583
11787.111702	1454.640000	849.115234	-161.378098
11787.111702	1454.640000	847.935547	36.985096
11787.111702	1454.640000	846.754883	-82.171944
11787.111702	1454.640000	845.575195	-0.713243
11787.111702	1454.640000	844.393555	-165.515594
11787.111702	1454.640000	843.212891	-122.152763
11787.111702	1454.640000	842.032227	-223.448410
11787.111702	1454.640000	840.850586	7.626330
11787.111702	1454.640000	839.668945	-80.983215
11787.111702	1454.640000	838.486328	63.736145
11787.111702	1454.640000	837.304688	-247.973114
11787.111702	1454.640000	836.122070	-227.501404
11787.111702	1454.640000	834.939453	46.379818
11787.111702	1454.640000	833.756836	23.690804
11787.111702	1454.640000	832.573242	-57.259434
11787.111702	1454.640000	831.389648	26.440262
11787.111702	1454.640000	830.206055	127.820869
11787.111702	1454.640000	829.022461	165.856720
11787.111702	1454.640000	827.838867	267.144196
11787.111702	1454.640000	826.654297	135.567444
11787.111702	1454.640000	825.469727	145.718262
11787.111702	1454.640000	824.284180	135.621384
11787.111702	1454.640000	823.099609	-140.039185
11787.111702	1454.640000	821.914063	29.427856
11787.111702	1454.640000	820.728516	-144.996979
11787.111702	1454.640000	819.542969	138.111771
11787.111702	1454.640000	818.356445	-142.417603
11787.111702	1454.640000	817.169922	-248.521530
11787.111702	1454.640000	815.983398	24.292786
11787.111702	1454.640000	814.796875	4.033761
11787.111702	1454.640000	813.609375	122.640007
11787.111702	1454.640000	812.422852	26.607206
11787.111702	1454.640000	811.235352	-107.254471
11787.111702	1454.640000	810.046875	81.911964
11787.111702	1454.640000	808.859375	-205.829376
11787.111702	1454.640000	807.670898	-4.143030
11787.111702	1454.640000	806.482422	-42.124599
11787.111702	1454.640000	805.293945	-75.064537
11787.111702	1454.640000	804.104492	2.905287
11787.111702	1454.640000	802.915039	206.833832
11787.111702	1454.640000	801.725586	4.992166
11787.111702	1454.640000	800.536133	208.796829
11787.111702	1454.640000	799.345703	-15.664413
11787.111702	1454.640000	798.155273	-111.629662
11787.111702	1454.640000	796.964844	102.085205
11787.111702	1454.640000	795.774414	-97.107193
11787.111702	1454.640000	794.583008	-79.812546
11787.111702	1454.640000	793.392578	12.929120
11787.111702	1454.640000	792.200195	-17.642759
11787.111702	1454.640000	791.008789	-20.563490
11787.111702	1454.640000	789.816406	-156.769714
11787.111702	1454.640000	788.625000	59.002419
11787.111702	1454.640000	787.432617	-94.806885
11787.111702	1454.640000	786.239258	118.308655
11787.111702	1454.640000	785.046875	110.216507
11787.111702	1454.640000	783.853516	39.308895
11787.111702	1454.640000	782.660156	-64.243874
11787.111702	1454.640000	781.465820	75.771545
11787.111702	1454.640000	780.272461	42.487442
11787.111702	1454.640000	779.078125	69.425720
11787.111702	1454.640000	777.883789	161.564377
11787.111702	1454.640000	776.688477	138.237762
11787.111702	1454.640000	775.494141	19.574406
11787.111702	1454.640000	774.298828	56.409504
11787.111702	1454.640000	773.103516	-114.896049
11787.111702	1454.640000	771.907227	-63.067612
11787.111702	1454.640000	770.711914	16.270647
11787.111702	1454.640000	769.515625	190.758362
11787.111702	1454.640000	768.318359	69.544342
11787.111702	1454.640000	767.122070	0.939115
11787.111702	1454.640000	765.924805	97.596817
11787.111702	1454.640000	764.727539	-23.626375
11787.111702	1454.640000	763.530273	52.900833
11787.111702	1454.640000	762.333008	279.507965
11787.111702	1454.640000	761.134766	103.173492
11787.111702	1454.640000	759.936523	149.501770
11787.111702	1454.640000	758.738281	-1.799751
11787.111702	1454.640000	757.540039	279.490051
11787.111702	1454.640000	756.340820	173.147385
11787.111702	1454.640000	755.141602	201.773773
11787.111702	1454.640000	753.942383	50.432152
11787.111702	1454.640000	752.742188	76.494308
11787.111702	1454.640000	751.541992	-112.305298
11787.111702	1454.640000	750.341797	105.985909
11787.111702	1454.640000	749.141602	116.913261
11787.111702	1454.640000	747.941406	217.655914
11787.111702	1454.640000	746.740234	138.624542
11787.111702	1454.640000	745.539063	104.495193
11787.111702	1454.640000	744.337891	132.701889
11787.111702	1454.640000	743.135742	83.535080
11787.111702	1454.640000	741.933594	59.277370
11787.111702	1454.640000	740.731445	144.680176
11787.111702	1454.640000	739.529297	87.922653
11787.111702	1454.640000	738.326172	168.206238
11787.111702	1454.640000	737.124023	211.031693
11787.111702	1454.640000	735.919922	71.951546
11787.111702	1454.640000	734.716797	231.735458
11787.111702	1454.640000	733.513672	50.276230
11787.111702	1454.640000	732.309570	354.287842
11787.111702	1454.640000	731.105469	426.649933
11787.111702	1454.640000	729.900391	274.974823
11787.111702	1454.640000	728.696289	558.689636
11787.111702	1454.640000	727.491211	48.761677
11787.111702	1454.640000	726.286133	232.826645
11787.111702	1454.640000	725.080078	523.674438
11787.111702	1454.640000	723.874023	250.064850
11787.111702	1454.640000	722.668945	-110.472542
11787.111702	1454.640000	721.461914	-128.011673
11787.111702	1454.640000	720.255859	-167.960037
11787.111702	1454.640000	719.048828	-222.848969
11787.111702	1454.640000	717.841797	69.877518
11787.111702	1454.640000	716.634766	-34.807396
11787.111702	1454.640000	715.427734	83.888809
11787.111702	1454.640000	714.219727	83.359192
11787.111702	1454.640000	713.011719	-150.456268
11787.111702	1454.640000	711.803711	146.617783
11787.111702	1454.640000	710.594727	-337.722015
11787.111702	1454.640000	709.385742	-23.495453
11787.111702	1454.640000	708.176758	156.669113
11787.111702	1454.640000	706.967773	-218.495285
11787.111702	1454.640000	705.758789	105.235565
11787.111702	1454.640000	704.548828	57.145996
11787.111702	1454.640000	703.338867	85.799500
11787.111702	1454.640000	702.127930	-68.878098
11787.111702	1454.640000	700.917969	4.229189
11787.111702	1454.640000	699.707031	153.982147
11787.111702	1454.640000	698.496094	-45.353352
11787.111702	1454.640000	697.285156	67.101288
11787.111702	1454.640000	696.073242	107.703331
11787.111702	1454.640000	694.861328	-52.117088
11787.111702	1454.640000	693.649414	42.763767
11787.111702	1454.640000	692.436523	55.953045
11787.111702	1454.640000	691.224609	-215.184311
11787.111702	1454.640000	690.011719	94.471497
11787.111702	1454.640000	688.798828	314.984711
11787.111702	1454.640000	687.584961	313.017944
11787.111702	1454.640000	686.372070	217.134903
11787.111702	1454.640000	685.158203	-4.703222
11787.111702	1454.640000	683.943359	-159.861038
11787.111702	1454.640000	682.729492	131.710846
11787.111702	1454.640000	681.514648	220.746780
11787.111702	1454.640000	680.299805	97.505806
11787.111702	1454.640000	679.084961	267.771973
11787.111702	1454.640000	677.869141	-62.714287
11787.111702	1454.640000	676.653320	124.634392
11787.111702	1454.640000	675.437500	203.373581
11787.111702	1454.640000	674.221680	-65.486053
11787.111702	1454.640000	673.004883	91.968613
11787.111702	1454.640000	671.789063	256.676727
11787.111702	1454.640000	670.571289	174.951889
11787.111702	1454.640000	669.354492	88.265617
11787.111702	1454.640000	668.136719	213.271149
11787.111702	1454.640000	666.919922	212.622986
11787.111702	1454.640000	665.701172	54.408512
11787.111702	1454.640000	664.483398	56.113667
11787.111702	1454.640000	663.264648	-107.060844
11787.111702	1454.640000	662.045898	115.875526
11787.111702	1454.640000	660.827148	358.319336
11787.111702	1454.640000	659.608398	256.430908
11787.111702	1454.640000	658.388672	260.199005
11787.111702	1454.640000	657.168945	308.126160
11787.111702	1454.640000	655.949219	252.780960
11787.111702	1454.640000	654.728516	-18.756134
11787.111702	1454.640000	653.507813	245.089905
11787.111702	1454.640000	652.287109	86.467735
11787.111702	1454.640000	651.066406	340.223267
11787.111702	1454.640000	649.844727	230.591187
11787.111702	1454.640000	648.623047	152.833298
11787.111702	1454.640000	647.401367	217.319031
11787.111702	1454.640000	646.179688	107.577003
11787.111702	1454.640000	644.957031	110.606369
11787.111702	1454.640000	643.734375	241.046204
11787.111702	1454.640000	642.511719	371.363647
11787.111702	1454.640000	641.289063	102.128403
11787.111702	1454.640000	640.065430	28.937147
11787.111702	1454.640000	638.841797	141.868683
11787.111702	1454.640000	637.618164	159.178329
11787.111702	1454.640000	636.393555	215.587646
11787.111702	1454.640000	635.168945	39.356304
11787.111702	1454.640000	633.944336	117.663506
11787.111702	1454.640000	632.719727	225.235321
11787.111702	1454.640000	631.494141	281.322479
11787.111702	1454.640000	630.269531	4.691615
11787.111702	1454.640000	629.042969	138.922897
11787.111702	1454.640000	627.817383	16.333742
11787.111702	1454.640000	626.590820	138.160278
11787.111702	1454.640000	625.365234	61.931309
11787.111702	1454.640000	624.137695	2.772423
11787.111702	1454.640000	622.911133	60.830750
11787.111702	1454.640000	621.683594	131.014023
11787.111702	1454.640000	620.456055	205.990906
11787.111702	1454.640000	619.228516	70.937881
11787.111702	1454.640000	618.000977	133.576355
11787.111702	1454.640000	616.772461	147.326630
11787.111702	1454.640000	615.543945	261.039276
11787.111702	1454.640000	614.314453	72.197067
11787.111702	1454.640000	613.085938	63.836700
11787.111702	1454.640000	611.856445	40.795982
11787.111702	1454.640000	610.626953	-150.480515
11787.111702	1454.640000	609.397461	-134.579880
11787.111702	1454.640000	608.166992	-101.686455
11787.111702	1454.640000	606.936523	-134.628937
11787.111702	1454.640000	605.706055	-131.076416
11787.111702	1454.640000	604.474609	-334.548248
11787.111702	1454.640000	603.244141	-70.567535
11787.111702	1454.640000	602.012695	103.195213
11787.111702	1454.640000	600.780273	-46.808983
11787.111702	1454.640000	599.548828	-48.385201
11787.111702	1454.640000	598.316406	-108.386726
11787.111702	1454.640000	597.083984	69.914787
11787.111702	1454.640000	595.851563	-128.759964
11787.111702	1454.640000	594.618164	-77.021339
11787.111702	1454.640000	593.384766	20.829840
11787.111702	1454.640000	592.151367	-197.271835
11787.111702	1454.640000	590.917969	0.081891
11787.111702	1454.640000	589.683594	-77.136429
11787.111702	1454.640000	588.449219	86.034294
11787.111702	1454.640000	587.214844	-202.454727
11787.111702	1454.640000	585.979492	-41.829189
11787.111702	1454.640000	584.745117	-97.277107
11787.111702	1454.640000	583.509766	55.912106
11787.111702	1454.640000	582.273438	0.394722
11787.111702	1454.640000	581.038086	-312.189941
11787.111702	1454.640000	579.801758	-236.737854
11787.111702	1454.640000	578.565430	-66.807236
11787.111702	1454.640000	577.329102	-83.592293
11787.111702	1454.640000	576.091797	-105.246597
11787.111702	1454.640000	574.854492	-105.115402
11787.111702	1454.640000	573.617188	219.542648
11787.111702	1454.640000	572.378906	4.038774
11787.111702	1454.640000	571.141602	-119.393631
11787.111702	1454.640000	569.903320	-109.673279
11787.111702	1454.640000	568.664063	-179.840134
11787.111702	1454.640000	567.425781	-249.991745
11787.111702	1454.640000	566.186523	-46.797916
11787.111702	1454.640000	564.947266	291.723419
11787.111702	1454.640000	563.708008	405.219818
11787.111702	1454.640000	562.467773	11.001403
11787.111702	1454.640000	561.227539	-122.042511
11787.111702	1454.640000	559.987305	153.318634
11787.111702	1454.640000	558.747070	-131.919968
11787.111702	1454.640000	557.505859	-151.367188
11787.111702	1454.640000	556.264648	-35.588814
11787.111702	1454.640000	555.023438	-84.037910
11787.111702	1454.640000	553.781250	-64.893730
11787.111702	1454.640000	552.539063	-60.242580
11787.111702	1454.640000	551.296875	137.418488
11787.111702	1454.640000	550.054688	-178.810944
11787.111702	1454.640000	548.811523	103.187698
11787.111702	1454.640000	547.569336	86.080551
11787.111702	1454.640000	546.325195	88.257423
11787.111702	1454.640000	545.082031	121.766838
11787.111702	1454.640000	543.837891	111.885872
11787.111702	1454.640000	542.593750	-95.538361
11787.111702	1454.640000	541.349609	77.686363
11787.111702	1454.640000	540.105469	111.170219
11787.111702	1454.640000	538.860352	-134.637375
11787.111702	1454.640000	537.615234	14.419166
11787.111702	1454.640000	536.369141	-236.071121
11787.111702	1454.640000	535.124023	81.373970
11787.111702	1454.640000	533.877930	25.833101
11787.111702	1454.640000	532.631836	-262.961151
11787.111702	1454.640000	531.384766	73.533226
11787.111702	1454.640000	530.138672	32.474041
11787.111702	1454.640000	528.891602	166.888077
11787.111702	1454.640000	527.643555	-66.398064
11787.111702	1454.640000	526.396484	-32.904488
11787.111702	1454.640000	525.148438	24.599588
11787.111702	1454.640000	523.900391	103.699890
11787.111702	1454.640000	522.652344	-182.155136
11787.111702	1454.640000	521.403320	237.820389
11787.111702	1454.640000	520.154297	7.272499
11787.111702	1454.640000	518.905273	69.548920
11787.111702	1454.640000	517.656250	426.860565
11787.111702	1454.640000	516.406250	304.369019
11787.111702	1454.640000	515.156250	148.371490
11787.111702	1454.640000	513.906250	-53.099091
11787.111702	1454.640000	512.655273	52.306240
11787.111702	1454.640000	511.404297	172.053314
11787.111702	1454.640000	510.153320	-101.140526
11787.111702	1454.640000	508.902344	-84.390083
11787.111702	1454.640000	507.650391	4.198242
11787.111702	1454.640000	506.398438	-24.560471
11787.111702	1454.640000	505.146484	11.329095
11787.111702	1454.640000	503.893555	114.211449
11787.111702	1454.640000	502.641602	164.419281
11787.111702	1454.640000	501.388672	166.763382
11787.111702	1454.640000	500.134766	176.279724
11787.111702	1454.640000	498.881836	240.790894
11787.111702	1454.640000	497.627930	44.698219
11787.111702	1454.640000	496.374023	25.551325
11787.111702	1454.640000	495.119141	92.428383
11787.111702	1454.640000	493.865234	54.157391
11787.111702	1454.640000	492.610352	290.570862
11787.111702	1454.640000	491.355469	111.361511
11787.111702	1454.640000	490.099609	-22.422304
11787.111702	1454.640000	488.843750	447.738037
11787.111702	1454.640000	487.587891	423.685883
11787.111702	1454.640000	486.332031	573.798645
11787.111702	1454.640000	485.075195	611.707153
11787.111702	1454.640000	483.818359	520.789795
11787.111702	1454.640000	482.561523	618.252747
11787.111702	1454.640000	481.304688	470.103546
11787.111702	1454.640000	480.046875	512.650146
11787.111702	1454.640000	478.789063	486.039886
11787.111702	1454.640000	477.531250	571.370850
11787.111702	1454.640000	476.272461	682.816528
11787.111702	1454.640000	475.013672	670.339294
11787.111702	1454.640000	473.754883	667.337402
11787.111702	1454.640000	472.496094	699.985413
11787.111702	1454.640000	471.236328	523.134521
11787.111702	1454.640000	469.976563	567.565979
11787.111702	1454.640000	468.716797	778.419434
11787.111702	1454.640000	467.456055	442.110870
11787.111702	1454.640000	466.196289	719.320374
11787.111702	1454.640000	464.935547	865.573853
11787.111702	1454.640000	463.673828	735.971985
11787.111702	1454.640000	462.413086	608.709167
11787.111702	1454.640000	461.151367	714.207764
11787.111702	1454.640000	459.889648	829.050354
11787.111702	1454.640000	458.626953	711.008301
11787.111702	1454.640000	457.364258	880.161987
11787.111702	1454.640000	456.101563	890.078491
11787.111702	1454.640000	454.838867	807.302368
11787.111702	1454.640000	453.575195	1049.453979
11787.111702	1454.640000	452.312500	1001.958923
11787.111702	1454.640000	451.047852	923.482727
11787.111702	1454.640000	449.784180	1013.217285
11787.111702	1454.640000	448.519531	1093.246338
11787.111702	1454.640000	447.254883	1054.551270
11787.111702	1454.640000	445.990234	1010.934387
11787.111702	1454.640000	444.725586	1066.627319
11787.111702	1454.640000	443.459961	1008.383789
11787.111702	1454.640000	442.194336	997.296936
11787.111702	1454.640000	440.927734	1201.408569
11787.111702	1454.640000	439.662109	1206.363770
11787.111702	1454.640000	438.395508	1149.522461
11787.111702	1454.640000	437.127930	1319.553223
11787.111702	1454.640000	435.861328	1363.864868
11787.111702	1454.640000	434.593750	1083.861938
11787.111702	1454.640000	433.326172	1101.581665
11787.111702	1454.640000	432.058594	1123.697754
11787.111702	1454.640000	430.790039	1289.623169
11787.111702	1454.640000	429.521484	1318.080444
11787.111702	1454.640000	428.252930	1228.042725
11787.111702	1454.640000	426.984375	1243.944702
11787.111702	1454.640000	425.714844	1556.961548
11787.111702	1454.640000	424.445313	1345.332642
11787.111702	1454.640000	423.174805	1359.945313
11787.111702	1454.640000	421.905273	1315.122070
11787.111702	1454.640000	420.634766	1390.170166
11787.111702	1454.640000	419.364258	1132.121338
11787.111702	1454.640000	418.092773	1074.128296
11787.111702	1454.640000	416.822266	1348.096558
11787.111702	1454.640000	415.550781	1413.964355
11787.111702	1454.640000	414.278320	1384.968994
11787.111702	1454.640000	413.006836	1270.601196
11787.111702	1454.640000	411.734375	1494.895264
11787.111702	1454.640000	410.461914	1558.324951
11787.111702	1454.640000	409.188477	1074.794067
11787.111702	1454.640000	407.916016	1304.136597
11787.111702	1454.640000	406.642578	1407.940796
11787.111702	1454.640000	405.368164	1372.144043
11787.111702	1454.640000	404.094727	1290.950195
11787.111702	1454.640000	402.820313	1272.528198
11787.111702	1454.640000	401.545898	1333.290527
11787.111702	1454.640000	400.270508	1383.800415
11787.111702	1454.640000	398.996094	1266.584961
11787.111702	1454.640000	397.720703	1106.243408
11787.111702	1454.640000	396.444336	1424.376099
11787.111702	1454.640000	395.168945	1454.893677
11787.111702	1454.640000	393.892578	1197.912231
11787.111702	1454.640000	392.616211	1219.486816
11787.111702	1454.640000	391.339844	1028.774292
11787.111702	1454.640000	390.062500	1146.891357
11787.111702	1454.640000	388.785156	1141.874634
11787.111702	1454.640000	387.507813	999.695190
11787.111702	1454.640000	386.229492	1205.896729
11787.111702	1454.640000	384.951172	984.059021
11787.111702	1454.640000	383.672852	1002.597290
11787.111702	1454.640000	382.394531	1151.151733
11787.111702	1454.640000	381.115234	1096.806152
11787.111702	1454.640000	379.835938	1127.861328
11787.111702	1454.640000	378.556641	1035.750854
11787.111702	1454.640000	377.277344	1401.309082
11787.111702	1454.640000	375.997070	866.151550
11787.111702	1454.640000	374.716797	858.800110
11787.111702	1454.640000	373.435547	1002.031433
11787.111702	1454.640000	372.155273	816.104980
11787.111702	1454.640000	370.874023	1234.522217
11787.111702	1454.640000	369.591797	757.634888
11787.111702	1454.640000	368.310547	690.861389
11787.111702	1454.640000	367.028320	512.465332
11787.111702	1454.640000	365.746094	795.158142
11787.111702	1454.640000	364.463867	762.769897
11787.111702	1454.640000	363.180664	1006.494873
11787.111702	1454.640000	361.897461	703.945618
11787.111702	1454.640000	360.614258	649.426025
11787.111702	1454.640000	359.330078	662.894104
11787.111702	1454.640000	358.045898	655.596497
11787.111702	1454.640000	356.761719	499.136566
11787.111702	1454.640000	355.477539	692.870422
11787.111702	1454.640000	354.192383	681.264832
11787.111702	1454.640000	352.907227	741.984436
11787.111702	1454.640000	351.622070	508.842926
11787.111702	1454.640000	350.336914	541.465393
11787.111702	1454.640000	349.050781	420.023621
11787.111702	1454.640000	347.764648	296.078979
11787.111702	1454.640000	346.477539	577.197266
11787.111702	1454.640000	345.191406	166.139542
11787.111702	1454.640000	343.904297	348.581238
11787.111702	1454.640000	342.616211	348.778320
11787.111702	1454.640000	341.329102	334.523956
11787.111702	1454.640000	340.041016	135.721069
11787.111702	1454.640000	338.752930	171.289658
11787.111702	1454.640000	337.463867	-205.748337
11787.111702	1454.640000	336.175781	0.342419
11787.111702	1454.640000	334.886719	61.165791
11787.111702	1454.640000	333.596680	48.799316
11787.111702	1454.640000	332.307617	-27.316013
11787.111702	1454.640000	331.017578	155.582169
11787.111702	1454.640000	329.727539	-25.261215
11787.111702	1454.640000	328.436523	-35.596428
11787.111702	1454.640000	327.146484	124.585442
11787.111702	1454.640000	325.855469	-25.693710
11787.111702	1454.640000	324.563477	191.428772
11787.111702	1454.640000	323.272461	279.239838
11787.111702	1454.640000	321.980469	119.186371
11787.111702	1454.640000	320.688477	-42.683422
11787.111702	1454.640000	319.395508	-88.312225
11787.111702	1454.640000	318.103516	-152.103882
11787.111702	1454.640000	316.810547	-11.864175
11787.111702	1454.640000	315.516602	-270.395874
11787.111702	1454.640000	314.223633	-155.709061
11787.111702	1454.640000	312.929688	-48.328712
11787.111702	1454.640000	311.635742	-263.199951
11787.111702	1454.640000	310.340820	-205.282990
11787.111702	1454.640000	309.045898	-233.552795
11787.111702	1454.640000	307.750977	-109.668480
11787.111702	1454.640000	306.456055	143.013718
11787.111702	1454.640000	305.160156	-35.730064
11787.111702	1454.640000	303.865234	226.580765
11787.111702	1454.640000	302.568359	281.538666
11787.111702	1454.640000	301.272461	788.572876
11787.111702	1454.640000	299.975586	702.136597
11787.111702	1454.640000	298.678711	778.347046
