#X		#Y		#Wave		#Intensity
11201.648936	2913.385000	1999.980469	14.546076
11201.648936	2913.385000	1999.016602	-51.532223
11201.648936	2913.385000	1998.052734	24.394686
11201.648936	2913.385000	1997.087891	-63.438663
11201.648936	2913.385000	1996.123047	71.577820
11201.648936	2913.385000	1995.158203	-93.368370
11201.648936	2913.385000	1994.193359	-57.799786
11201.648936	2913.385000	1993.228516	-34.786911
11201.648936	2913.385000	1992.262695	64.816612
11201.648936	2913.385000	1991.297852	122.147697
11201.648936	2913.385000	1990.332031	70.417953
11201.648936	2913.385000	1989.366211	179.404068
11201.648936	2913.385000	1988.399414	-115.048279
11201.648936	2913.385000	1987.433594	109.916412
11201.648936	2913.385000	1986.466797	-38.766090
11201.648936	2913.385000	1985.500977	44.906582
11201.648936	2913.385000	1984.534180	-101.484001
11201.648936	2913.385000	1983.567383	-52.674465
11201.648936	2913.385000	1982.599609	193.702103
11201.648936	2913.385000	1981.632813	128.557938
11201.648936	2913.385000	1980.665039	73.212593
11201.648936	2913.385000	1979.697266	-31.613304
11201.648936	2913.385000	1978.729492	140.072037
11201.648936	2913.385000	1977.761719	94.330673
11201.648936	2913.385000	1976.792969	-161.310394
11201.648936	2913.385000	1975.825195	79.129234
11201.648936	2913.385000	1974.856445	163.934326
11201.648936	2913.385000	1973.887695	56.188927
11201.648936	2913.385000	1972.918945	-31.864576
11201.648936	2913.385000	1971.949219	52.671146
11201.648936	2913.385000	1970.980469	-18.241541
11201.648936	2913.385000	1970.010742	-86.735039
11201.648936	2913.385000	1969.041016	189.803116
11201.648936	2913.385000	1968.071289	195.091537
11201.648936	2913.385000	1967.101563	121.467903
11201.648936	2913.385000	1966.130859	45.347328
11201.648936	2913.385000	1965.161133	-72.674576
11201.648936	2913.385000	1964.190430	-42.956951
11201.648936	2913.385000	1963.219727	-136.408783
11201.648936	2913.385000	1962.249023	70.440125
11201.648936	2913.385000	1961.277344	104.881264
11201.648936	2913.385000	1960.306641	-60.053936
11201.648936	2913.385000	1959.334961	48.114407
11201.648936	2913.385000	1958.363281	84.864983
11201.648936	2913.385000	1957.391602	67.456772
11201.648936	2913.385000	1956.419922	-104.892326
11201.648936	2913.385000	1955.447266	44.838123
11201.648936	2913.385000	1954.474609	248.553513
11201.648936	2913.385000	1953.501953	105.652260
11201.648936	2913.385000	1952.529297	36.484879
11201.648936	2913.385000	1951.556641	63.121552
11201.648936	2913.385000	1950.583984	40.599216
11201.648936	2913.385000	1949.610352	-23.689135
11201.648936	2913.385000	1948.636719	-14.319659
11201.648936	2913.385000	1947.663086	56.392872
11201.648936	2913.385000	1946.689453	190.869965
11201.648936	2913.385000	1945.715820	-10.898557
11201.648936	2913.385000	1944.741211	-33.514172
11201.648936	2913.385000	1943.767578	71.417007
11201.648936	2913.385000	1942.792969	-41.977531
11201.648936	2913.385000	1941.818359	38.367477
11201.648936	2913.385000	1940.842773	72.087639
11201.648936	2913.385000	1939.868164	83.727165
11201.648936	2913.385000	1938.892578	16.929871
11201.648936	2913.385000	1937.916992	138.814621
11201.648936	2913.385000	1936.941406	79.364990
11201.648936	2913.385000	1935.965820	230.570374
11201.648936	2913.385000	1934.990234	195.603699
11201.648936	2913.385000	1934.013672	197.369781
11201.648936	2913.385000	1933.037109	69.392601
11201.648936	2913.385000	1932.060547	88.308853
11201.648936	2913.385000	1931.083984	6.889953
11201.648936	2913.385000	1930.107422	-67.160080
11201.648936	2913.385000	1929.129883	8.028213
11201.648936	2913.385000	1928.153320	75.855125
11201.648936	2913.385000	1927.175781	53.185631
11201.648936	2913.385000	1926.198242	167.431152
11201.648936	2913.385000	1925.219727	49.431728
11201.648936	2913.385000	1924.242188	75.666595
11201.648936	2913.385000	1923.263672	162.979141
11201.648936	2913.385000	1922.285156	49.946651
11201.648936	2913.385000	1921.306641	68.853889
11201.648936	2913.385000	1920.328125	41.363518
11201.648936	2913.385000	1919.349609	-71.563019
11201.648936	2913.385000	1918.370117	-8.683488
11201.648936	2913.385000	1917.391602	-16.596128
11201.648936	2913.385000	1916.412109	-46.459610
11201.648936	2913.385000	1915.431641	57.878845
11201.648936	2913.385000	1914.452148	-132.960388
11201.648936	2913.385000	1913.472656	64.050919
11201.648936	2913.385000	1912.492188	-63.303120
11201.648936	2913.385000	1911.511719	26.373709
11201.648936	2913.385000	1910.531250	-64.343132
11201.648936	2913.385000	1909.550781	-118.460228
11201.648936	2913.385000	1908.569336	-48.285324
11201.648936	2913.385000	1907.588867	-0.047998
11201.648936	2913.385000	1906.607422	-168.587616
11201.648936	2913.385000	1905.625977	-25.352909
11201.648936	2913.385000	1904.644531	93.493164
11201.648936	2913.385000	1903.662109	-150.397232
11201.648936	2913.385000	1902.680664	-29.114264
11201.648936	2913.385000	1901.698242	6.966582
11201.648936	2913.385000	1900.715820	203.617111
11201.648936	2913.385000	1899.733398	-108.171463
11201.648936	2913.385000	1898.750000	13.058671
11201.648936	2913.385000	1897.767578	-16.497744
11201.648936	2913.385000	1896.784180	-84.929054
11201.648936	2913.385000	1895.800781	162.657471
11201.648936	2913.385000	1894.817383	193.878952
11201.648936	2913.385000	1893.833984	-90.760818
11201.648936	2913.385000	1892.850586	47.406998
11201.648936	2913.385000	1891.866211	98.096985
11201.648936	2913.385000	1890.881836	-132.908630
11201.648936	2913.385000	1889.897461	-38.479137
11201.648936	2913.385000	1888.913086	-48.452625
11201.648936	2913.385000	1887.927734	-24.435810
11201.648936	2913.385000	1886.943359	-99.903343
11201.648936	2913.385000	1885.958008	-73.437630
11201.648936	2913.385000	1884.972656	52.477776
11201.648936	2913.385000	1883.987305	83.776207
11201.648936	2913.385000	1883.001953	-91.028938
11201.648936	2913.385000	1882.015625	10.606004
11201.648936	2913.385000	1881.029297	49.192478
11201.648936	2913.385000	1880.042969	-86.706337
11201.648936	2913.385000	1879.056641	-48.098583
11201.648936	2913.385000	1878.070313	-65.212128
11201.648936	2913.385000	1877.083984	46.053280
11201.648936	2913.385000	1876.096680	181.499069
11201.648936	2913.385000	1875.109375	86.899284
11201.648936	2913.385000	1874.122070	202.936157
11201.648936	2913.385000	1873.134766	59.978428
11201.648936	2913.385000	1872.146484	33.225010
11201.648936	2913.385000	1871.159180	-92.701591
11201.648936	2913.385000	1870.170898	-141.173721
11201.648936	2913.385000	1869.182617	-63.868629
11201.648936	2913.385000	1868.194336	-68.797485
11201.648936	2913.385000	1867.205078	32.646786
11201.648936	2913.385000	1866.216797	-66.552078
11201.648936	2913.385000	1865.227539	-18.303509
11201.648936	2913.385000	1864.238281	-47.385418
11201.648936	2913.385000	1863.249023	-103.025810
11201.648936	2913.385000	1862.259766	80.459404
11201.648936	2913.385000	1861.269531	121.407753
11201.648936	2913.385000	1860.279297	147.855743
11201.648936	2913.385000	1859.290039	31.878935
11201.648936	2913.385000	1858.298828	84.879517
11201.648936	2913.385000	1857.308594	-33.456837
11201.648936	2913.385000	1856.318359	7.472992
11201.648936	2913.385000	1855.327148	-11.915381
11201.648936	2913.385000	1854.335938	48.282681
11201.648936	2913.385000	1853.344727	-21.744875
11201.648936	2913.385000	1852.353516	45.657677
11201.648936	2913.385000	1851.362305	38.315975
11201.648936	2913.385000	1850.370117	26.151464
11201.648936	2913.385000	1849.377930	-89.612877
11201.648936	2913.385000	1848.385742	143.941360
11201.648936	2913.385000	1847.393555	4.103669
11201.648936	2913.385000	1846.401367	68.984825
11201.648936	2913.385000	1845.408203	-44.318958
11201.648936	2913.385000	1844.415039	73.486595
11201.648936	2913.385000	1843.421875	-6.100038
11201.648936	2913.385000	1842.428711	123.667648
11201.648936	2913.385000	1841.435547	145.121140
11201.648936	2913.385000	1840.441406	-66.748886
11201.648936	2913.385000	1839.448242	173.545227
11201.648936	2913.385000	1838.454102	67.516640
11201.648936	2913.385000	1837.459961	88.920631
11201.648936	2913.385000	1836.464844	26.184355
11201.648936	2913.385000	1835.470703	-118.239609
11201.648936	2913.385000	1834.475586	-36.789360
11201.648936	2913.385000	1833.480469	8.585342
11201.648936	2913.385000	1832.485352	1.092918
11201.648936	2913.385000	1831.490234	108.844139
11201.648936	2913.385000	1830.495117	48.489815
11201.648936	2913.385000	1829.499023	136.957016
11201.648936	2913.385000	1828.502930	124.582191
11201.648936	2913.385000	1827.506836	-12.570779
11201.648936	2913.385000	1826.510742	32.625492
11201.648936	2913.385000	1825.513672	41.807980
11201.648936	2913.385000	1824.517578	-30.561628
11201.648936	2913.385000	1823.520508	-83.744980
11201.648936	2913.385000	1822.523438	-33.853767
11201.648936	2913.385000	1821.526367	95.086067
11201.648936	2913.385000	1820.529297	46.640392
11201.648936	2913.385000	1819.531250	29.332804
11201.648936	2913.385000	1818.533203	43.149345
11201.648936	2913.385000	1817.535156	9.040654
11201.648936	2913.385000	1816.537109	235.906601
11201.648936	2913.385000	1815.539063	31.759346
11201.648936	2913.385000	1814.540039	-31.122717
11201.648936	2913.385000	1813.541992	-0.677816
11201.648936	2913.385000	1812.542969	77.580032
11201.648936	2913.385000	1811.543945	2.687813
11201.648936	2913.385000	1810.543945	164.569351
11201.648936	2913.385000	1809.544922	101.590324
11201.648936	2913.385000	1808.544922	-4.426547
11201.648936	2913.385000	1807.544922	-208.433411
11201.648936	2913.385000	1806.544922	-87.374100
11201.648936	2913.385000	1805.544922	7.327062
11201.648936	2913.385000	1804.544922	133.019211
11201.648936	2913.385000	1803.543945	-61.425758
11201.648936	2913.385000	1802.542969	33.125126
11201.648936	2913.385000	1801.541992	168.196793
11201.648936	2913.385000	1800.541016	231.572968
11201.648936	2913.385000	1799.539063	1.329549
11201.648936	2913.385000	1798.538086	131.461807
11201.648936	2913.385000	1797.536133	42.019417
11201.648936	2913.385000	1796.534180	-28.340021
11201.648936	2913.385000	1795.532227	8.612560
11201.648936	2913.385000	1794.529297	-45.093948
11201.648936	2913.385000	1793.527344	158.656189
11201.648936	2913.385000	1792.524414	38.134026
11201.648936	2913.385000	1791.521484	144.012009
11201.648936	2913.385000	1790.518555	-55.160439
11201.648936	2913.385000	1789.514648	29.181543
11201.648936	2913.385000	1788.511719	75.348404
11201.648936	2913.385000	1787.507813	-40.467224
11201.648936	2913.385000	1786.503906	93.709053
11201.648936	2913.385000	1785.500000	89.735275
11201.648936	2913.385000	1784.496094	97.623772
11201.648936	2913.385000	1783.491211	107.847466
11201.648936	2913.385000	1782.486328	18.109423
11201.648936	2913.385000	1781.481445	175.735489
11201.648936	2913.385000	1780.476563	93.073952
11201.648936	2913.385000	1779.471680	-46.661633
11201.648936	2913.385000	1778.465820	32.315952
11201.648936	2913.385000	1777.460938	256.206696
11201.648936	2913.385000	1776.455078	90.256180
11201.648936	2913.385000	1775.449219	109.641464
11201.648936	2913.385000	1774.442383	10.206269
11201.648936	2913.385000	1773.436523	-117.730927
11201.648936	2913.385000	1772.429688	103.385765
11201.648936	2913.385000	1771.422852	86.970856
11201.648936	2913.385000	1770.416016	58.652008
11201.648936	2913.385000	1769.409180	115.732697
11201.648936	2913.385000	1768.402344	-12.321510
11201.648936	2913.385000	1767.394531	73.126839
11201.648936	2913.385000	1766.386719	229.652649
11201.648936	2913.385000	1765.378906	32.743977
11201.648936	2913.385000	1764.371094	-204.439224
11201.648936	2913.385000	1763.362305	-83.643440
11201.648936	2913.385000	1762.354492	-24.557013
11201.648936	2913.385000	1761.345703	62.893677
11201.648936	2913.385000	1760.336914	31.811178
11201.648936	2913.385000	1759.328125	31.486330
11201.648936	2913.385000	1758.318359	45.320919
11201.648936	2913.385000	1757.308594	-0.088222
11201.648936	2913.385000	1756.299805	-7.647976
11201.648936	2913.385000	1755.290039	178.826141
11201.648936	2913.385000	1754.279297	168.768417
11201.648936	2913.385000	1753.269531	47.472824
11201.648936	2913.385000	1752.258789	221.857971
11201.648936	2913.385000	1751.249023	128.884003
11201.648936	2913.385000	1750.238281	-68.145836
11201.648936	2913.385000	1749.226563	80.009430
11201.648936	2913.385000	1748.215820	-48.485653
11201.648936	2913.385000	1747.204102	-80.090797
11201.648936	2913.385000	1746.193359	-14.854155
11201.648936	2913.385000	1745.181641	111.726318
11201.648936	2913.385000	1744.168945	91.770554
11201.648936	2913.385000	1743.157227	97.753143
11201.648936	2913.385000	1742.144531	16.325315
11201.648936	2913.385000	1741.132813	-60.394596
11201.648936	2913.385000	1740.120117	-134.777008
11201.648936	2913.385000	1739.106445	-136.035950
11201.648936	2913.385000	1738.093750	117.452110
11201.648936	2913.385000	1737.080078	71.232513
11201.648936	2913.385000	1736.067383	93.377213
11201.648936	2913.385000	1735.053711	35.294670
11201.648936	2913.385000	1734.040039	5.473550
11201.648936	2913.385000	1733.025391	69.887970
11201.648936	2913.385000	1732.011719	-4.797923
11201.648936	2913.385000	1730.997070	-183.173065
11201.648936	2913.385000	1729.982422	62.474064
11201.648936	2913.385000	1728.967773	128.990219
11201.648936	2913.385000	1727.952148	-115.388924
11201.648936	2913.385000	1726.937500	-8.940170
11201.648936	2913.385000	1725.921875	22.095787
11201.648936	2913.385000	1724.906250	-24.588797
11201.648936	2913.385000	1723.890625	79.279625
11201.648936	2913.385000	1722.875000	39.563484
11201.648936	2913.385000	1721.858398	28.033371
11201.648936	2913.385000	1720.841797	155.199127
11201.648936	2913.385000	1719.825195	-9.264278
11201.648936	2913.385000	1718.808594	-13.870389
11201.648936	2913.385000	1717.791992	120.137794
11201.648936	2913.385000	1716.774414	0.272883
11201.648936	2913.385000	1715.756836	-93.751900
11201.648936	2913.385000	1714.739258	-79.742027
11201.648936	2913.385000	1713.721680	21.105408
11201.648936	2913.385000	1712.704102	42.038658
11201.648936	2913.385000	1711.685547	69.953941
11201.648936	2913.385000	1710.667969	62.612122
11201.648936	2913.385000	1709.649414	142.044678
11201.648936	2913.385000	1708.630859	-114.094391
11201.648936	2913.385000	1707.611328	-30.065245
11201.648936	2913.385000	1706.592773	-89.166229
11201.648936	2913.385000	1705.573242	-35.746052
11201.648936	2913.385000	1704.553711	209.841675
11201.648936	2913.385000	1703.534180	52.145061
11201.648936	2913.385000	1702.513672	30.376440
11201.648936	2913.385000	1701.494141	130.411728
11201.648936	2913.385000	1700.473633	-1.550295
11201.648936	2913.385000	1699.453125	46.833282
11201.648936	2913.385000	1698.432617	-113.249741
11201.648936	2913.385000	1697.412109	-139.868393
11201.648936	2913.385000	1696.390625	149.472656
11201.648936	2913.385000	1695.369141	-261.083679
11201.648936	2913.385000	1694.347656	49.142586
11201.648936	2913.385000	1693.326172	136.965286
11201.648936	2913.385000	1692.304688	215.357407
11201.648936	2913.385000	1691.282227	43.454762
11201.648936	2913.385000	1690.260742	-20.868752
11201.648936	2913.385000	1689.238281	246.721603
11201.648936	2913.385000	1688.214844	16.354008
11201.648936	2913.385000	1687.192383	50.085224
11201.648936	2913.385000	1686.168945	20.679478
11201.648936	2913.385000	1685.146484	215.485672
11201.648936	2913.385000	1684.123047	-157.314117
11201.648936	2913.385000	1683.099609	18.688154
11201.648936	2913.385000	1682.075195	87.193489
11201.648936	2913.385000	1681.051758	73.951485
11201.648936	2913.385000	1680.027344	93.339264
11201.648936	2913.385000	1679.002930	101.017014
11201.648936	2913.385000	1677.978516	320.924591
11201.648936	2913.385000	1676.953125	-37.678516
11201.648936	2913.385000	1675.928711	-69.728920
11201.648936	2913.385000	1674.903320	222.238113
11201.648936	2913.385000	1673.877930	290.297028
11201.648936	2913.385000	1672.852539	139.238297
11201.648936	2913.385000	1671.826172	216.530243
11201.648936	2913.385000	1670.800781	293.764954
11201.648936	2913.385000	1669.774414	-31.993544
11201.648936	2913.385000	1668.748047	289.686798
11201.648936	2913.385000	1667.721680	147.911957
11201.648936	2913.385000	1666.694336	8.479188
11201.648936	2913.385000	1665.667969	6.382257
11201.648936	2913.385000	1664.640625	160.142975
11201.648936	2913.385000	1663.613281	327.771667
11201.648936	2913.385000	1662.585938	167.353821
11201.648936	2913.385000	1661.557617	146.487366
11201.648936	2913.385000	1660.530273	137.231781
11201.648936	2913.385000	1659.501953	286.012970
11201.648936	2913.385000	1658.473633	227.862854
11201.648936	2913.385000	1657.444336	383.476044
11201.648936	2913.385000	1656.416016	318.304779
11201.648936	2913.385000	1655.386719	290.288422
11201.648936	2913.385000	1654.358398	157.760223
11201.648936	2913.385000	1653.328125	245.818268
11201.648936	2913.385000	1652.298828	350.074524
11201.648936	2913.385000	1651.269531	526.213745
11201.648936	2913.385000	1650.239258	293.845398
11201.648936	2913.385000	1649.208984	404.910919
11201.648936	2913.385000	1648.178711	325.702820
11201.648936	2913.385000	1647.148438	394.927734
11201.648936	2913.385000	1646.117188	403.810303
11201.648936	2913.385000	1645.086914	382.537689
11201.648936	2913.385000	1644.055664	198.999039
11201.648936	2913.385000	1643.024414	249.562653
11201.648936	2913.385000	1641.992188	325.566406
11201.648936	2913.385000	1640.960938	417.743439
11201.648936	2913.385000	1639.928711	280.573700
11201.648936	2913.385000	1638.896484	324.051483
11201.648936	2913.385000	1637.864258	392.962524
11201.648936	2913.385000	1636.832031	364.612122
11201.648936	2913.385000	1635.798828	461.218018
11201.648936	2913.385000	1634.766602	361.106262
11201.648936	2913.385000	1633.733398	462.270355
11201.648936	2913.385000	1632.699219	406.096527
11201.648936	2913.385000	1631.666016	555.744080
11201.648936	2913.385000	1630.632813	672.952087
11201.648936	2913.385000	1629.598633	635.222473
11201.648936	2913.385000	1628.564453	465.762604
11201.648936	2913.385000	1627.530273	629.087708
11201.648936	2913.385000	1626.495117	478.146912
11201.648936	2913.385000	1625.460938	604.428650
11201.648936	2913.385000	1624.425781	656.746460
11201.648936	2913.385000	1623.390625	503.549011
11201.648936	2913.385000	1622.355469	548.923828
11201.648936	2913.385000	1621.319336	488.099335
11201.648936	2913.385000	1620.284180	568.055176
11201.648936	2913.385000	1619.248047	719.484802
11201.648936	2913.385000	1618.211914	771.664978
11201.648936	2913.385000	1617.174805	583.973511
11201.648936	2913.385000	1616.138672	523.170410
11201.648936	2913.385000	1615.101563	835.827942
11201.648936	2913.385000	1614.065430	685.105652
11201.648936	2913.385000	1613.027344	734.900146
11201.648936	2913.385000	1611.990234	757.034790
11201.648936	2913.385000	1610.953125	956.523132
11201.648936	2913.385000	1609.915039	686.114929
11201.648936	2913.385000	1608.876953	758.890869
11201.648936	2913.385000	1607.838867	629.053589
11201.648936	2913.385000	1606.800781	842.213196
11201.648936	2913.385000	1605.761719	855.079529
11201.648936	2913.385000	1604.723633	904.762085
11201.648936	2913.385000	1603.684570	632.378296
11201.648936	2913.385000	1602.644531	868.364319
11201.648936	2913.385000	1601.605469	975.503540
11201.648936	2913.385000	1600.566406	898.688354
11201.648936	2913.385000	1599.526367	702.378784
11201.648936	2913.385000	1598.486328	1007.128845
11201.648936	2913.385000	1597.446289	898.196106
11201.648936	2913.385000	1596.405273	1083.343140
11201.648936	2913.385000	1595.365234	997.420593
11201.648936	2913.385000	1594.324219	1079.160278
11201.648936	2913.385000	1593.283203	938.182556
11201.648936	2913.385000	1592.242188	1086.487061
11201.648936	2913.385000	1591.200195	927.216614
11201.648936	2913.385000	1590.159180	935.523315
11201.648936	2913.385000	1589.117188	989.712280
11201.648936	2913.385000	1588.075195	846.644165
11201.648936	2913.385000	1587.032227	1033.848267
11201.648936	2913.385000	1585.990234	927.537476
11201.648936	2913.385000	1584.947266	759.385925
11201.648936	2913.385000	1583.904297	786.115662
11201.648936	2913.385000	1582.861328	1087.811279
11201.648936	2913.385000	1581.818359	791.483154
11201.648936	2913.385000	1580.775391	886.954163
11201.648936	2913.385000	1579.731445	801.488220
11201.648936	2913.385000	1578.687500	782.471130
11201.648936	2913.385000	1577.643555	706.252258
11201.648936	2913.385000	1576.598633	630.076904
11201.648936	2913.385000	1575.554688	693.537292
11201.648936	2913.385000	1574.509766	745.549377
11201.648936	2913.385000	1573.464844	607.715637
11201.648936	2913.385000	1572.419922	538.564087
11201.648936	2913.385000	1571.374023	791.837341
11201.648936	2913.385000	1570.329102	702.149719
11201.648936	2913.385000	1569.283203	532.520996
11201.648936	2913.385000	1568.237305	625.765381
11201.648936	2913.385000	1567.191406	545.368958
11201.648936	2913.385000	1566.144531	590.650513
11201.648936	2913.385000	1565.098633	480.656799
11201.648936	2913.385000	1564.051758	446.072845
11201.648936	2913.385000	1563.004883	598.721619
11201.648936	2913.385000	1561.957031	434.084137
11201.648936	2913.385000	1560.910156	358.540955
11201.648936	2913.385000	1559.862305	433.627869
11201.648936	2913.385000	1558.814453	609.080811
11201.648936	2913.385000	1557.766602	399.078033
11201.648936	2913.385000	1556.718750	547.169006
11201.648936	2913.385000	1555.669922	407.989349
11201.648936	2913.385000	1554.621094	348.669250
11201.648936	2913.385000	1553.573242	334.987427
11201.648936	2913.385000	1552.523438	485.372986
11201.648936	2913.385000	1551.474609	225.720200
11201.648936	2913.385000	1550.424805	282.762726
11201.648936	2913.385000	1549.375000	451.390442
11201.648936	2913.385000	1548.325195	467.460358
11201.648936	2913.385000	1547.275391	342.443756
11201.648936	2913.385000	1546.225586	303.987671
11201.648936	2913.385000	1545.174805	367.962372
11201.648936	2913.385000	1544.124023	286.366913
11201.648936	2913.385000	1543.073242	377.689148
11201.648936	2913.385000	1542.022461	423.538025
11201.648936	2913.385000	1540.970703	230.697021
11201.648936	2913.385000	1539.919922	242.544159
11201.648936	2913.385000	1538.868164	356.684998
11201.648936	2913.385000	1537.815430	270.876068
11201.648936	2913.385000	1536.763672	375.963806
11201.648936	2913.385000	1535.710938	287.999390
11201.648936	2913.385000	1534.659180	322.738251
11201.648936	2913.385000	1533.606445	268.961212
11201.648936	2913.385000	1532.552734	331.004822
11201.648936	2913.385000	1531.500000	315.917267
11201.648936	2913.385000	1530.446289	282.723755
11201.648936	2913.385000	1529.393555	127.098190
11201.648936	2913.385000	1528.338867	153.011551
11201.648936	2913.385000	1527.285156	174.432358
11201.648936	2913.385000	1526.231445	252.571259
11201.648936	2913.385000	1525.176758	138.055161
11201.648936	2913.385000	1524.122070	98.418358
11201.648936	2913.385000	1523.067383	74.707230
11201.648936	2913.385000	1522.012695	216.425156
11201.648936	2913.385000	1520.957031	432.874023
11201.648936	2913.385000	1519.901367	40.152359
11201.648936	2913.385000	1518.845703	342.684448
11201.648936	2913.385000	1517.790039	24.937540
11201.648936	2913.385000	1516.734375	230.144485
11201.648936	2913.385000	1515.677734	132.122986
11201.648936	2913.385000	1514.621094	138.254562
11201.648936	2913.385000	1513.564453	53.967346
11201.648936	2913.385000	1512.507813	189.115280
11201.648936	2913.385000	1511.450195	145.651031
11201.648936	2913.385000	1510.393555	341.867798
11201.648936	2913.385000	1509.335938	151.604187
11201.648936	2913.385000	1508.278320	318.475677
11201.648936	2913.385000	1507.219727	31.260355
11201.648936	2913.385000	1506.162109	137.220673
11201.648936	2913.385000	1505.103516	-25.530907
11201.648936	2913.385000	1504.044922	118.890404
11201.648936	2913.385000	1502.986328	256.540619
11201.648936	2913.385000	1501.926758	-54.917110
11201.648936	2913.385000	1500.868164	-117.987564
11201.648936	2913.385000	1499.808594	4.009636
11201.648936	2913.385000	1498.749023	-95.019531
11201.648936	2913.385000	1497.688477	42.826523
11201.648936	2913.385000	1496.628906	-112.415428
11201.648936	2913.385000	1495.568359	7.467654
11201.648936	2913.385000	1494.507813	-217.450546
11201.648936	2913.385000	1493.447266	-2.834731
11201.648936	2913.385000	1492.386719	27.028294
11201.648936	2913.385000	1491.325195	-82.707611
11201.648936	2913.385000	1490.263672	73.388412
11201.648936	2913.385000	1489.202148	-180.280014
11201.648936	2913.385000	1488.140625	-62.367863
11201.648936	2913.385000	1487.079102	-228.008652
11201.648936	2913.385000	1486.016602	-110.009171
11201.648936	2913.385000	1484.954102	70.999573
11201.648936	2913.385000	1483.891602	-101.126671
11201.648936	2913.385000	1482.829102	-108.958931
11201.648936	2913.385000	1481.765625	150.821213
11201.648936	2913.385000	1480.702148	37.417461
11201.648936	2913.385000	1479.638672	70.213844
11201.648936	2913.385000	1478.575195	-76.660484
11201.648936	2913.385000	1477.511719	-147.069550
11201.648936	2913.385000	1476.447266	70.101242
11201.648936	2913.385000	1475.382813	-24.914473
11201.648936	2913.385000	1474.318359	19.490948
11201.648936	2913.385000	1473.253906	61.609703
11201.648936	2913.385000	1472.189453	168.850204
11201.648936	2913.385000	1471.124023	22.696474
11201.648936	2913.385000	1470.058594	-24.849638
11201.648936	2913.385000	1468.993164	31.156382
11201.648936	2913.385000	1467.927734	21.938351
11201.648936	2913.385000	1466.861328	17.293036
11201.648936	2913.385000	1465.794922	-54.378597
11201.648936	2913.385000	1464.728516	109.144325
11201.648936	2913.385000	1463.662109	-100.715202
11201.648936	2913.385000	1462.594727	53.420887
11201.648936	2913.385000	1461.528320	0.121198
11201.648936	2913.385000	1460.460938	40.338047
11201.648936	2913.385000	1459.393555	67.928024
11201.648936	2913.385000	1458.326172	164.510391
11201.648936	2913.385000	1457.257813	77.574852
11201.648936	2913.385000	1456.189453	56.339104
11201.648936	2913.385000	1455.121094	-63.475075
11201.648936	2913.385000	1454.052734	70.813087
11201.648936	2913.385000	1452.984375	131.436096
11201.648936	2913.385000	1451.915039	123.040207
11201.648936	2913.385000	1450.845703	151.882797
11201.648936	2913.385000	1449.776367	237.403381
11201.648936	2913.385000	1448.707031	73.577629
11201.648936	2913.385000	1447.636719	39.767845
11201.648936	2913.385000	1446.567383	219.106094
11201.648936	2913.385000	1445.497070	91.765251
11201.648936	2913.385000	1444.425781	253.268005
11201.648936	2913.385000	1443.355469	277.038971
11201.648936	2913.385000	1442.285156	128.799957
11201.648936	2913.385000	1441.213867	-33.336384
11201.648936	2913.385000	1440.142578	176.633682
11201.648936	2913.385000	1439.070313	94.137398
11201.648936	2913.385000	1437.999023	117.506882
11201.648936	2913.385000	1436.926758	173.504883
11201.648936	2913.385000	1435.854492	84.107475
11201.648936	2913.385000	1434.782227	154.990433
11201.648936	2913.385000	1433.709961	124.932053
11201.648936	2913.385000	1432.636719	143.565033
11201.648936	2913.385000	1431.563477	297.341705
11201.648936	2913.385000	1430.490234	118.364609
11201.648936	2913.385000	1429.416992	-119.118294
11201.648936	2913.385000	1428.343750	46.221092
11201.648936	2913.385000	1427.269531	156.580215
11201.648936	2913.385000	1426.195313	-135.197342
11201.648936	2913.385000	1425.121094	-121.752266
11201.648936	2913.385000	1424.046875	72.041328
11201.648936	2913.385000	1422.971680	-52.986027
11201.648936	2913.385000	1421.896484	48.840969
11201.648936	2913.385000	1420.821289	-50.472885
11201.648936	2913.385000	1419.746094	11.353555
11201.648936	2913.385000	1418.669922	-43.011055
11201.648936	2913.385000	1417.594727	-4.158177
11201.648936	2913.385000	1416.518555	132.945938
11201.648936	2913.385000	1415.442383	100.567970
11201.648936	2913.385000	1414.365234	122.606293
11201.648936	2913.385000	1413.289063	77.813614
11201.648936	2913.385000	1412.211914	-52.337318
11201.648936	2913.385000	1411.134766	42.064396
11201.648936	2913.385000	1410.057617	-8.525339
11201.648936	2913.385000	1408.979492	-12.883612
11201.648936	2913.385000	1407.902344	255.729874
11201.648936	2913.385000	1406.824219	73.637115
11201.648936	2913.385000	1405.746094	149.279907
11201.648936	2913.385000	1404.666992	120.834541
11201.648936	2913.385000	1403.588867	273.459686
11201.648936	2913.385000	1402.509766	220.761078
11201.648936	2913.385000	1401.430664	252.161652
11201.648936	2913.385000	1400.351563	148.492264
11201.648936	2913.385000	1399.271484	46.552521
11201.648936	2913.385000	1398.192383	21.367641
11201.648936	2913.385000	1397.112305	201.114258
11201.648936	2913.385000	1396.031250	103.817734
11201.648936	2913.385000	1394.951172	19.875902
11201.648936	2913.385000	1393.871094	1.785753
11201.648936	2913.385000	1392.790039	0.210532
11201.648936	2913.385000	1391.708984	99.774712
11201.648936	2913.385000	1390.626953	163.131897
11201.648936	2913.385000	1389.545898	37.465393
11201.648936	2913.385000	1388.463867	170.488953
11201.648936	2913.385000	1387.381836	106.145134
11201.648936	2913.385000	1386.299805	125.679764
11201.648936	2913.385000	1385.217773	42.032982
11201.648936	2913.385000	1384.134766	138.331390
11201.648936	2913.385000	1383.051758	0.465507
11201.648936	2913.385000	1381.968750	76.730949
11201.648936	2913.385000	1380.885742	51.476044
11201.648936	2913.385000	1379.802734	-72.913773
11201.648936	2913.385000	1378.718750	-107.180771
11201.648936	2913.385000	1377.634766	1.665841
11201.648936	2913.385000	1376.550781	91.501717
11201.648936	2913.385000	1375.465820	98.631622
11201.648936	2913.385000	1374.381836	142.732208
11201.648936	2913.385000	1373.296875	17.427057
11201.648936	2913.385000	1372.211914	34.653904
11201.648936	2913.385000	1371.126953	223.886032
11201.648936	2913.385000	1370.041016	109.486092
11201.648936	2913.385000	1368.955078	95.321320
11201.648936	2913.385000	1367.869141	176.639404
11201.648936	2913.385000	1366.783203	196.199722
11201.648936	2913.385000	1365.697266	32.712868
11201.648936	2913.385000	1364.610352	184.772217
11201.648936	2913.385000	1363.523438	-65.184990
11201.648936	2913.385000	1362.436523	-41.440407
11201.648936	2913.385000	1361.349609	-84.215111
11201.648936	2913.385000	1360.261719	-8.643049
11201.648936	2913.385000	1359.174805	-7.258234
11201.648936	2913.385000	1358.086914	-32.712887
11201.648936	2913.385000	1356.998047	-85.633224
11201.648936	2913.385000	1355.910156	98.972771
11201.648936	2913.385000	1354.821289	65.720772
11201.648936	2913.385000	1353.732422	65.441010
11201.648936	2913.385000	1352.643555	232.250259
11201.648936	2913.385000	1351.554688	-30.778654
11201.648936	2913.385000	1350.464844	138.122116
11201.648936	2913.385000	1349.375000	105.113647
11201.648936	2913.385000	1348.285156	123.544136
11201.648936	2913.385000	1347.195313	205.712952
11201.648936	2913.385000	1346.105469	347.418457
11201.648936	2913.385000	1345.014648	208.240311
11201.648936	2913.385000	1343.923828	40.040436
11201.648936	2913.385000	1342.833008	162.159225
11201.648936	2913.385000	1341.741211	244.839508
11201.648936	2913.385000	1340.650391	283.866760
11201.648936	2913.385000	1339.558594	288.741760
11201.648936	2913.385000	1338.466797	285.110443
11201.648936	2913.385000	1337.374023	108.254845
11201.648936	2913.385000	1336.282227	233.749100
11201.648936	2913.385000	1335.189453	222.265320
11201.648936	2913.385000	1334.096680	158.469666
11201.648936	2913.385000	1333.003906	379.891937
11201.648936	2913.385000	1331.910156	189.356400
11201.648936	2913.385000	1330.817383	143.311707
11201.648936	2913.385000	1329.723633	261.810272
11201.648936	2913.385000	1328.629883	202.849121
11201.648936	2913.385000	1327.535156	156.961639
11201.648936	2913.385000	1326.441406	133.766068
11201.648936	2913.385000	1325.346680	166.264343
11201.648936	2913.385000	1324.251953	345.268707
11201.648936	2913.385000	1323.156250	268.148712
11201.648936	2913.385000	1322.061523	340.668671
11201.648936	2913.385000	1320.965820	161.757645
11201.648936	2913.385000	1319.870117	172.367355
11201.648936	2913.385000	1318.774414	217.794128
11201.648936	2913.385000	1317.678711	208.160492
11201.648936	2913.385000	1316.582031	263.373322
11201.648936	2913.385000	1315.485352	272.951538
11201.648936	2913.385000	1314.388672	274.910217
11201.648936	2913.385000	1313.291016	267.807678
11201.648936	2913.385000	1312.194336	236.551132
11201.648936	2913.385000	1311.096680	187.954071
11201.648936	2913.385000	1309.999023	355.027405
11201.648936	2913.385000	1308.901367	112.627022
11201.648936	2913.385000	1307.802734	69.772385
11201.648936	2913.385000	1306.705078	29.614412
11201.648936	2913.385000	1305.606445	158.208176
11201.648936	2913.385000	1304.506836	76.572784
11201.648936	2913.385000	1303.408203	170.406784
11201.648936	2913.385000	1302.308594	260.200012
11201.648936	2913.385000	1301.208984	326.232666
11201.648936	2913.385000	1300.109375	190.483597
11201.648936	2913.385000	1299.009766	340.507996
11201.648936	2913.385000	1297.909180	179.449539
11201.648936	2913.385000	1296.808594	164.449600
11201.648936	2913.385000	1295.708008	101.964638
11201.648936	2913.385000	1294.607422	250.029236
11201.648936	2913.385000	1293.506836	118.912384
11201.648936	2913.385000	1292.405273	27.773575
11201.648936	2913.385000	1291.303711	75.414139
11201.648936	2913.385000	1290.202148	-13.505345
11201.648936	2913.385000	1289.099609	52.634655
11201.648936	2913.385000	1287.998047	-18.459352
11201.648936	2913.385000	1286.895508	120.038246
11201.648936	2913.385000	1285.792969	-24.615299
11201.648936	2913.385000	1284.689453	149.096130
11201.648936	2913.385000	1283.586914	-72.696350
11201.648936	2913.385000	1282.483398	-151.302689
11201.648936	2913.385000	1281.379883	-79.189354
11201.648936	2913.385000	1280.276367	-18.204596
11201.648936	2913.385000	1279.171875	-118.921028
11201.648936	2913.385000	1278.067383	64.257278
11201.648936	2913.385000	1276.962891	50.656906
11201.648936	2913.385000	1275.858398	-14.997136
11201.648936	2913.385000	1274.753906	-14.622417
11201.648936	2913.385000	1273.648438	-61.143028
11201.648936	2913.385000	1272.542969	-74.615479
11201.648936	2913.385000	1271.437500	-7.421204
11201.648936	2913.385000	1270.331055	66.554825
11201.648936	2913.385000	1269.225586	152.606232
11201.648936	2913.385000	1268.119141	-9.402546
11201.648936	2913.385000	1267.012695	101.752159
11201.648936	2913.385000	1265.906250	152.989700
11201.648936	2913.385000	1264.798828	180.463272
11201.648936	2913.385000	1263.691406	165.997070
11201.648936	2913.385000	1262.583984	99.613960
11201.648936	2913.385000	1261.476563	-12.240338
11201.648936	2913.385000	1260.368164	123.997581
11201.648936	2913.385000	1259.260742	168.467758
11201.648936	2913.385000	1258.152344	177.086655
11201.648936	2913.385000	1257.043945	88.278008
11201.648936	2913.385000	1255.934570	81.730263
11201.648936	2913.385000	1254.825195	113.200150
11201.648936	2913.385000	1253.716797	-58.718765
11201.648936	2913.385000	1252.606445	-119.635658
11201.648936	2913.385000	1251.497070	13.213765
11201.648936	2913.385000	1250.387695	-35.041569
11201.648936	2913.385000	1249.277344	10.046631
11201.648936	2913.385000	1248.166992	5.990876
11201.648936	2913.385000	1247.055664	7.743382
11201.648936	2913.385000	1245.945313	36.939060
11201.648936	2913.385000	1244.833984	-82.767090
11201.648936	2913.385000	1243.722656	-11.645788
11201.648936	2913.385000	1242.611328	-12.751298
11201.648936	2913.385000	1241.499023	-26.726093
11201.648936	2913.385000	1240.387695	-37.028095
11201.648936	2913.385000	1239.275391	-52.112587
11201.648936	2913.385000	1238.162109	-102.201790
11201.648936	2913.385000	1237.049805	-54.446018
11201.648936	2913.385000	1235.936523	-89.672607
11201.648936	2913.385000	1234.823242	1.055699
11201.648936	2913.385000	1233.709961	-30.670811
11201.648936	2913.385000	1232.596680	-69.492332
11201.648936	2913.385000	1231.482422	-32.677273
11201.648936	2913.385000	1230.369141	-18.733397
11201.648936	2913.385000	1229.253906	-126.243172
11201.648936	2913.385000	1228.139648	-82.955276
11201.648936	2913.385000	1227.025391	0.680256
11201.648936	2913.385000	1225.910156	8.616692
11201.648936	2913.385000	1224.794922	-94.370804
11201.648936	2913.385000	1223.679688	-66.846237
11201.648936	2913.385000	1222.563477	-169.522339
11201.648936	2913.385000	1221.447266	-58.395439
11201.648936	2913.385000	1220.331055	24.677515
11201.648936	2913.385000	1219.214844	-56.923134
11201.648936	2913.385000	1218.098633	-95.200829
11201.648936	2913.385000	1216.981445	-74.879066
11201.648936	2913.385000	1215.864258	-33.314472
11201.648936	2913.385000	1214.747070	31.536390
11201.648936	2913.385000	1213.629883	-3.950026
11201.648936	2913.385000	1212.511719	-82.987457
11201.648936	2913.385000	1211.393555	-26.861225
11201.648936	2913.385000	1210.275391	70.368614
11201.648936	2913.385000	1209.157227	-58.195892
11201.648936	2913.385000	1208.038086	42.743217
11201.648936	2913.385000	1206.918945	-61.851284
11201.648936	2913.385000	1205.799805	-19.231834
11201.648936	2913.385000	1204.680664	12.082538
11201.648936	2913.385000	1203.560547	70.576286
11201.648936	2913.385000	1202.441406	-34.431862
11201.648936	2913.385000	1201.321289	-15.692256
11201.648936	2913.385000	1200.200195	171.713547
11201.648936	2913.385000	1199.080078	-114.731575
11201.648936	2913.385000	1197.958984	-60.754612
11201.648936	2913.385000	1196.837891	-31.494219
11201.648936	2913.385000	1195.716797	45.872391
11201.648936	2913.385000	1194.594727	-11.276845
11201.648936	2913.385000	1193.473633	39.719791
11201.648936	2913.385000	1192.351563	10.815884
11201.648936	2913.385000	1191.229492	136.298630
11201.648936	2913.385000	1190.106445	34.517590
11201.648936	2913.385000	1188.984375	92.859230
11201.648936	2913.385000	1187.861328	126.295586
11201.648936	2913.385000	1186.738281	67.515289
11201.648936	2913.385000	1185.614258	186.286819
11201.648936	2913.385000	1184.491211	236.744797
11201.648936	2913.385000	1183.367188	8.076977
11201.648936	2913.385000	1182.243164	48.059967
11201.648936	2913.385000	1181.119141	216.214844
11201.648936	2913.385000	1179.994141	42.179150
11201.648936	2913.385000	1178.869141	62.459042
11201.648936	2913.385000	1177.744141	184.283630
11201.648936	2913.385000	1176.619141	171.357605
11201.648936	2913.385000	1175.493164	26.790113
11201.648936	2913.385000	1174.368164	97.849968
11201.648936	2913.385000	1173.242188	78.759758
11201.648936	2913.385000	1172.115234	89.434105
11201.648936	2913.385000	1170.989258	10.462242
11201.648936	2913.385000	1169.862305	143.093033
11201.648936	2913.385000	1168.735352	187.823059
11201.648936	2913.385000	1167.608398	196.417618
11201.648936	2913.385000	1166.481445	98.324608
11201.648936	2913.385000	1165.353516	97.763367
11201.648936	2913.385000	1164.225586	124.194481
11201.648936	2913.385000	1163.097656	-7.217341
11201.648936	2913.385000	1161.968750	7.520636
11201.648936	2913.385000	1160.840820	30.501997
11201.648936	2913.385000	1159.711914	-68.195656
11201.648936	2913.385000	1158.583008	74.577827
11201.648936	2913.385000	1157.453125	-5.633112
11201.648936	2913.385000	1156.324219	19.666672
11201.648936	2913.385000	1155.194336	-132.740311
11201.648936	2913.385000	1154.064453	-92.249695
11201.648936	2913.385000	1152.933594	-65.667709
11201.648936	2913.385000	1151.803711	-175.714813
11201.648936	2913.385000	1150.672852	-22.356720
11201.648936	2913.385000	1149.541992	56.140945
11201.648936	2913.385000	1148.411133	-127.555107
11201.648936	2913.385000	1147.279297	-71.468994
11201.648936	2913.385000	1146.147461	51.152309
11201.648936	2913.385000	1145.015625	-120.190483
11201.648936	2913.385000	1143.883789	-90.317940
11201.648936	2913.385000	1142.750977	-83.342163
11201.648936	2913.385000	1141.619141	-51.855156
11201.648936	2913.385000	1140.486328	3.825359
11201.648936	2913.385000	1139.352539	94.115074
11201.648936	2913.385000	1138.219727	50.348930
11201.648936	2913.385000	1137.085938	-57.781185
11201.648936	2913.385000	1135.952148	-20.785627
11201.648936	2913.385000	1134.818359	174.275818
11201.648936	2913.385000	1133.683594	200.596512
11201.648936	2913.385000	1132.549805	126.544922
11201.648936	2913.385000	1131.415039	172.561676
11201.648936	2913.385000	1130.279297	281.250031
11201.648936	2913.385000	1129.144531	319.006927
11201.648936	2913.385000	1128.008789	215.636124
11201.648936	2913.385000	1126.873047	234.833618
11201.648936	2913.385000	1125.737305	323.408783
11201.648936	2913.385000	1124.601563	354.909302
11201.648936	2913.385000	1123.464844	406.120117
11201.648936	2913.385000	1122.328125	332.014709
11201.648936	2913.385000	1121.191406	348.230560
11201.648936	2913.385000	1120.054688	338.953094
11201.648936	2913.385000	1118.916992	426.336304
11201.648936	2913.385000	1117.779297	349.037323
11201.648936	2913.385000	1116.641602	330.349060
11201.648936	2913.385000	1115.503906	338.218597
11201.648936	2913.385000	1114.365234	327.199219
11201.648936	2913.385000	1113.226563	318.180725
11201.648936	2913.385000	1112.087891	271.791840
11201.648936	2913.385000	1110.949219	220.472931
11201.648936	2913.385000	1109.809570	265.416809
11201.648936	2913.385000	1108.669922	262.465515
11201.648936	2913.385000	1107.530273	268.347473
11201.648936	2913.385000	1106.390625	125.951294
11201.648936	2913.385000	1105.250000	180.062408
11201.648936	2913.385000	1104.109375	344.270142
11201.648936	2913.385000	1102.968750	278.131989
11201.648936	2913.385000	1101.828125	203.276810
11201.648936	2913.385000	1100.686523	395.918671
11201.648936	2913.385000	1099.544922	177.019104
11201.648936	2913.385000	1098.403320	362.786011
11201.648936	2913.385000	1097.261719	316.186188
11201.648936	2913.385000	1096.120117	411.537903
11201.648936	2913.385000	1094.977539	302.744568
11201.648936	2913.385000	1093.834961	155.598907
11201.648936	2913.385000	1092.691406	100.369514
11201.648936	2913.385000	1091.548828	257.839417
11201.648936	2913.385000	1090.405273	93.094620
11201.648936	2913.385000	1089.261719	213.465103
11201.648936	2913.385000	1088.118164	158.003586
11201.648936	2913.385000	1086.973633	299.574219
11201.648936	2913.385000	1085.829102	205.742447
11201.648936	2913.385000	1084.684570	131.186996
11201.648936	2913.385000	1083.540039	125.811203
11201.648936	2913.385000	1082.395508	166.892395
11201.648936	2913.385000	1081.250000	124.299461
11201.648936	2913.385000	1080.104492	204.251373
11201.648936	2913.385000	1078.958984	107.757935
11201.648936	2913.385000	1077.812500	65.477951
11201.648936	2913.385000	1076.666016	183.616852
11201.648936	2913.385000	1075.519531	240.758667
11201.648936	2913.385000	1074.373047	88.173943
11201.648936	2913.385000	1073.226563	327.326599
11201.648936	2913.385000	1072.079102	71.318642
11201.648936	2913.385000	1070.931641	136.599869
11201.648936	2913.385000	1069.784180	211.385147
11201.648936	2913.385000	1068.635742	239.420013
11201.648936	2913.385000	1067.487305	231.556671
11201.648936	2913.385000	1066.338867	158.400665
11201.648936	2913.385000	1065.190430	187.637604
11201.648936	2913.385000	1064.041992	282.646484
11201.648936	2913.385000	1062.892578	153.704895
11201.648936	2913.385000	1061.743164	254.035355
11201.648936	2913.385000	1060.593750	334.358643
11201.648936	2913.385000	1059.443359	160.853683
11201.648936	2913.385000	1058.292969	195.698135
11201.648936	2913.385000	1057.142578	195.667511
11201.648936	2913.385000	1055.992188	126.805870
11201.648936	2913.385000	1054.841797	129.043976
11201.648936	2913.385000	1053.690430	187.586945
11201.648936	2913.385000	1052.539063	90.932968
11201.648936	2913.385000	1051.387695	116.020653
11201.648936	2913.385000	1050.235352	195.446625
11201.648936	2913.385000	1049.083984	69.854904
11201.648936	2913.385000	1047.931641	-83.420784
11201.648936	2913.385000	1046.778320	287.322723
11201.648936	2913.385000	1045.625977	332.435730
11201.648936	2913.385000	1044.472656	44.423634
11201.648936	2913.385000	1043.319336	-16.894762
11201.648936	2913.385000	1042.166016	236.316635
11201.648936	2913.385000	1041.012695	97.124390
11201.648936	2913.385000	1039.858398	169.762573
11201.648936	2913.385000	1038.704102	108.704422
11201.648936	2913.385000	1037.549805	267.924713
11201.648936	2913.385000	1036.394531	245.625198
11201.648936	2913.385000	1035.239258	202.751877
11201.648936	2913.385000	1034.083984	282.249268
11201.648936	2913.385000	1032.928711	250.862686
11201.648936	2913.385000	1031.773438	255.433121
11201.648936	2913.385000	1030.617188	174.063568
11201.648936	2913.385000	1029.460938	212.968750
11201.648936	2913.385000	1028.304688	196.117615
11201.648936	2913.385000	1027.147461	253.365021
11201.648936	2913.385000	1025.991211	316.041870
11201.648936	2913.385000	1024.833984	302.087128
11201.648936	2913.385000	1023.675781	112.102516
11201.648936	2913.385000	1022.518555	47.038223
11201.648936	2913.385000	1021.360352	182.165115
11201.648936	2913.385000	1020.202148	292.518494
11201.648936	2913.385000	1019.043945	-50.340874
11201.648936	2913.385000	1017.884766	177.812759
11201.648936	2913.385000	1016.726563	-2.462690
11201.648936	2913.385000	1015.567383	158.702026
11201.648936	2913.385000	1014.407227	72.219170
11201.648936	2913.385000	1013.248047	157.777679
11201.648936	2913.385000	1012.087891	240.000565
11201.648936	2913.385000	1010.927734	-93.651855
11201.648936	2913.385000	1009.767578	-144.235001
11201.648936	2913.385000	1008.606445	-49.248898
11201.648936	2913.385000	1007.446289	-4.095131
11201.648936	2913.385000	1006.285156	69.527748
11201.648936	2913.385000	1005.123047	90.447060
11201.648936	2913.385000	1003.961914	-25.392933
11201.648936	2913.385000	1002.799805	26.445805
11201.648936	2913.385000	1001.637695	165.656250
11201.648936	2913.385000	1000.475586	103.557014
11201.648936	2913.385000	999.312500	67.889114
11201.648936	2913.385000	998.149414	16.539940
11201.648936	2913.385000	996.986328	-152.160172
11201.648936	2913.385000	995.823242	-92.808594
11201.648936	2913.385000	994.659180	58.869759
11201.648936	2913.385000	993.496094	219.057892
11201.648936	2913.385000	992.332031	61.381889
11201.648936	2913.385000	991.166992	13.277500
11201.648936	2913.385000	990.002930	67.665176
11201.648936	2913.385000	988.837891	23.210903
11201.648936	2913.385000	987.672852	94.097229
11201.648936	2913.385000	986.506836	131.109848
11201.648936	2913.385000	985.341797	-22.762249
11201.648936	2913.385000	984.175781	46.525661
11201.648936	2913.385000	983.009766	10.927705
11201.648936	2913.385000	981.843750	26.427559
11201.648936	2913.385000	980.676758	-12.118875
11201.648936	2913.385000	979.509766	-47.118729
11201.648936	2913.385000	978.342773	-57.236763
11201.648936	2913.385000	977.175781	21.927702
11201.648936	2913.385000	976.007813	3.095724
11201.648936	2913.385000	974.839844	-57.039162
11201.648936	2913.385000	973.671875	55.545792
11201.648936	2913.385000	972.503906	60.145794
11201.648936	2913.385000	971.334961	-88.384384
11201.648936	2913.385000	970.166016	106.411575
11201.648936	2913.385000	968.997070	-6.743390
11201.648936	2913.385000	967.828125	18.826794
11201.648936	2913.385000	966.658203	44.292255
11201.648936	2913.385000	965.488281	63.024422
11201.648936	2913.385000	964.318359	-9.618021
11201.648936	2913.385000	963.148438	79.299789
11201.648936	2913.385000	961.977539	59.435215
11201.648936	2913.385000	960.806641	2.483000
11201.648936	2913.385000	959.635742	47.714916
11201.648936	2913.385000	958.463867	-133.061340
11201.648936	2913.385000	957.292969	-44.086288
11201.648936	2913.385000	956.121094	164.084259
11201.648936	2913.385000	954.948242	29.932985
11201.648936	2913.385000	953.776367	31.778017
11201.648936	2913.385000	952.603516	91.788086
11201.648936	2913.385000	951.430664	80.070168
11201.648936	2913.385000	950.257813	141.287643
11201.648936	2913.385000	949.084961	155.036484
11201.648936	2913.385000	947.911133	226.065674
11201.648936	2913.385000	946.737305	66.694145
11201.648936	2913.385000	945.563477	151.094070
11201.648936	2913.385000	944.388672	38.541721
11201.648936	2913.385000	943.213867	282.179321
11201.648936	2913.385000	942.039063	242.319641
11201.648936	2913.385000	940.864258	49.919033
11201.648936	2913.385000	939.688477	178.536896
11201.648936	2913.385000	938.513672	178.690964
11201.648936	2913.385000	937.337891	245.144302
11201.648936	2913.385000	936.161133	77.085625
11201.648936	2913.385000	934.985352	192.202652
11201.648936	2913.385000	933.808594	-0.216237
11201.648936	2913.385000	932.631836	57.358017
11201.648936	2913.385000	931.454102	393.458374
11201.648936	2913.385000	930.277344	128.179840
11201.648936	2913.385000	929.099609	243.100769
11201.648936	2913.385000	927.921875	201.064697
11201.648936	2913.385000	926.743164	152.428741
11201.648936	2913.385000	925.565430	207.647400
11201.648936	2913.385000	924.386719	236.332092
11201.648936	2913.385000	923.208008	4.324464
11201.648936	2913.385000	922.028320	218.541153
11201.648936	2913.385000	920.849609	187.549011
11201.648936	2913.385000	919.669922	189.179138
11201.648936	2913.385000	919.474609	165.662994
11201.648936	2913.385000	918.309570	37.532120
11201.648936	2913.385000	917.143555	172.066238
11201.648936	2913.385000	915.977539	114.573799
11201.648936	2913.385000	914.810547	145.337601
11201.648936	2913.385000	913.644531	43.743908
11201.648936	2913.385000	912.477539	-51.201519
11201.648936	2913.385000	911.310547	36.869373
11201.648936	2913.385000	910.143555	60.974380
11201.648936	2913.385000	908.975586	-106.665779
11201.648936	2913.385000	907.807617	43.031330
11201.648936	2913.385000	906.639648	119.963852
11201.648936	2913.385000	905.471680	166.024094
11201.648936	2913.385000	904.303711	60.121429
11201.648936	2913.385000	903.134766	-10.520041
11201.648936	2913.385000	901.965820	-4.102543
11201.648936	2913.385000	900.796875	-83.519440
11201.648936	2913.385000	899.626953	-50.700951
11201.648936	2913.385000	898.457031	85.483711
11201.648936	2913.385000	897.287109	19.273983
11201.648936	2913.385000	896.117188	-11.735218
11201.648936	2913.385000	894.947266	91.363510
11201.648936	2913.385000	893.776367	-12.190178
11201.648936	2913.385000	892.605469	-54.178566
11201.648936	2913.385000	891.434570	-225.780685
11201.648936	2913.385000	890.262695	-89.794991
11201.648936	2913.385000	889.091797	-120.778381
11201.648936	2913.385000	887.919922	91.968941
11201.648936	2913.385000	886.748047	-15.881705
11201.648936	2913.385000	885.575195	-13.952525
11201.648936	2913.385000	884.403320	-66.889259
11201.648936	2913.385000	883.230469	9.632331
11201.648936	2913.385000	882.057617	92.698631
11201.648936	2913.385000	880.883789	-69.888771
11201.648936	2913.385000	879.710938	-54.818584
11201.648936	2913.385000	878.537109	-68.255363
11201.648936	2913.385000	877.362305	91.451393
11201.648936	2913.385000	876.188477	-51.299099
11201.648936	2913.385000	875.013672	-45.022034
11201.648936	2913.385000	873.839844	86.095383
11201.648936	2913.385000	872.664063	-36.867180
11201.648936	2913.385000	871.489258	-10.903236
11201.648936	2913.385000	870.313477	-50.621761
11201.648936	2913.385000	869.138672	102.261230
11201.648936	2913.385000	867.962891	-57.814426
11201.648936	2913.385000	866.786133	121.254379
11201.648936	2913.385000	865.610352	-5.958323
11201.648936	2913.385000	864.433594	98.671844
11201.648936	2913.385000	863.256836	-100.636421
11201.648936	2913.385000	862.079102	60.796757
11201.648936	2913.385000	860.902344	-48.827137
11201.648936	2913.385000	859.724609	57.900902
11201.648936	2913.385000	858.546875	61.910500
11201.648936	2913.385000	857.368164	13.501145
11201.648936	2913.385000	856.190430	41.533009
11201.648936	2913.385000	855.011719	-205.523422
11201.648936	2913.385000	853.833008	-164.365952
11201.648936	2913.385000	852.654297	-3.204034
11201.648936	2913.385000	851.474609	79.345299
11201.648936	2913.385000	850.294922	-119.535423
11201.648936	2913.385000	849.115234	-143.864731
11201.648936	2913.385000	847.935547	-159.464844
11201.648936	2913.385000	846.754883	-96.579803
11201.648936	2913.385000	845.575195	-57.698570
11201.648936	2913.385000	844.393555	-101.640160
11201.648936	2913.385000	843.212891	-108.529388
11201.648936	2913.385000	842.032227	30.521555
11201.648936	2913.385000	840.850586	134.669968
11201.648936	2913.385000	839.668945	90.716057
11201.648936	2913.385000	838.486328	53.309296
11201.648936	2913.385000	837.304688	74.677528
11201.648936	2913.385000	836.122070	45.988876
11201.648936	2913.385000	834.939453	19.484922
11201.648936	2913.385000	833.756836	-30.936415
11201.648936	2913.385000	832.573242	-24.798529
11201.648936	2913.385000	831.389648	24.818384
11201.648936	2913.385000	830.206055	74.412323
11201.648936	2913.385000	829.022461	-165.064117
11201.648936	2913.385000	827.838867	-43.753571
11201.648936	2913.385000	826.654297	-59.354755
11201.648936	2913.385000	825.469727	96.631218
11201.648936	2913.385000	824.284180	67.973396
11201.648936	2913.385000	823.099609	32.810246
11201.648936	2913.385000	821.914063	-52.263947
11201.648936	2913.385000	820.728516	-187.219528
11201.648936	2913.385000	819.542969	-53.079540
11201.648936	2913.385000	818.356445	67.987526
11201.648936	2913.385000	817.169922	-17.035563
11201.648936	2913.385000	815.983398	-43.481426
11201.648936	2913.385000	814.796875	-4.882385
11201.648936	2913.385000	813.609375	-24.823961
11201.648936	2913.385000	812.422852	11.580869
11201.648936	2913.385000	811.235352	-62.527313
11201.648936	2913.385000	810.046875	-8.806830
11201.648936	2913.385000	808.859375	-76.391663
11201.648936	2913.385000	807.670898	-96.316544
11201.648936	2913.385000	806.482422	-85.930748
11201.648936	2913.385000	805.293945	-99.361374
11201.648936	2913.385000	804.104492	203.136581
11201.648936	2913.385000	802.915039	10.078081
11201.648936	2913.385000	801.725586	-50.963280
11201.648936	2913.385000	800.536133	-6.020372
11201.648936	2913.385000	799.345703	-136.229584
11201.648936	2913.385000	798.155273	-128.045166
11201.648936	2913.385000	796.964844	-16.132339
11201.648936	2913.385000	795.774414	-51.202194
11201.648936	2913.385000	794.583008	-68.980507
11201.648936	2913.385000	793.392578	-63.000134
11201.648936	2913.385000	792.200195	195.624420
11201.648936	2913.385000	791.008789	147.561493
11201.648936	2913.385000	789.816406	-14.888359
11201.648936	2913.385000	788.625000	57.950520
11201.648936	2913.385000	787.432617	5.611055
11201.648936	2913.385000	786.239258	67.616959
11201.648936	2913.385000	785.046875	-23.538687
11201.648936	2913.385000	783.853516	-108.194099
11201.648936	2913.385000	782.660156	-78.563782
11201.648936	2913.385000	781.465820	-18.776934
11201.648936	2913.385000	780.272461	-51.687111
11201.648936	2913.385000	779.078125	16.670130
11201.648936	2913.385000	777.883789	93.606186
11201.648936	2913.385000	776.688477	88.665642
11201.648936	2913.385000	775.494141	12.662949
11201.648936	2913.385000	774.298828	100.288559
11201.648936	2913.385000	773.103516	47.971569
11201.648936	2913.385000	771.907227	68.828773
11201.648936	2913.385000	770.711914	246.715698
11201.648936	2913.385000	769.515625	282.558563
11201.648936	2913.385000	768.318359	245.260910
11201.648936	2913.385000	767.122070	126.266182
11201.648936	2913.385000	765.924805	-16.334902
11201.648936	2913.385000	764.727539	88.261292
11201.648936	2913.385000	763.530273	147.679520
11201.648936	2913.385000	762.333008	103.946861
11201.648936	2913.385000	761.134766	75.255234
11201.648936	2913.385000	759.936523	35.826248
11201.648936	2913.385000	758.738281	54.366688
11201.648936	2913.385000	757.540039	186.647781
11201.648936	2913.385000	756.340820	-11.621543
11201.648936	2913.385000	755.141602	264.343872
11201.648936	2913.385000	753.942383	72.548622
11201.648936	2913.385000	752.742188	232.542923
11201.648936	2913.385000	751.541992	137.295074
11201.648936	2913.385000	750.341797	187.848221
11201.648936	2913.385000	749.141602	114.053200
11201.648936	2913.385000	747.941406	230.989304
11201.648936	2913.385000	746.740234	152.900543
11201.648936	2913.385000	745.539063	119.810394
11201.648936	2913.385000	744.337891	161.670746
11201.648936	2913.385000	743.135742	68.610809
11201.648936	2913.385000	741.933594	-30.849318
11201.648936	2913.385000	740.731445	128.676804
11201.648936	2913.385000	739.529297	178.992630
11201.648936	2913.385000	738.326172	220.713608
11201.648936	2913.385000	737.124023	157.595245
11201.648936	2913.385000	735.919922	199.267685
11201.648936	2913.385000	734.716797	328.559204
11201.648936	2913.385000	733.513672	496.253235
11201.648936	2913.385000	732.309570	300.558929
11201.648936	2913.385000	731.105469	260.899353
11201.648936	2913.385000	729.900391	193.467026
11201.648936	2913.385000	728.696289	23.527895
11201.648936	2913.385000	727.491211	267.882813
11201.648936	2913.385000	726.286133	85.149689
11201.648936	2913.385000	725.080078	64.685570
11201.648936	2913.385000	723.874023	84.753456
11201.648936	2913.385000	722.668945	162.394730
11201.648936	2913.385000	721.461914	-28.780062
11201.648936	2913.385000	720.255859	-74.881035
11201.648936	2913.385000	719.048828	77.305000
11201.648936	2913.385000	717.841797	120.687630
11201.648936	2913.385000	716.634766	44.679173
11201.648936	2913.385000	715.427734	-1.489191
11201.648936	2913.385000	714.219727	3.467120
11201.648936	2913.385000	713.011719	42.475834
11201.648936	2913.385000	711.803711	0.524478
11201.648936	2913.385000	710.594727	84.178833
11201.648936	2913.385000	709.385742	-79.141617
11201.648936	2913.385000	708.176758	27.854380
11201.648936	2913.385000	706.967773	-1.392038
11201.648936	2913.385000	705.758789	24.656960
11201.648936	2913.385000	704.548828	86.824394
11201.648936	2913.385000	703.338867	49.002022
11201.648936	2913.385000	702.127930	-5.838726
11201.648936	2913.385000	700.917969	-137.198593
11201.648936	2913.385000	699.707031	-22.030012
11201.648936	2913.385000	698.496094	101.561317
11201.648936	2913.385000	697.285156	-95.667519
11201.648936	2913.385000	696.073242	12.966715
11201.648936	2913.385000	694.861328	108.788086
11201.648936	2913.385000	693.649414	17.736794
11201.648936	2913.385000	692.436523	124.071701
11201.648936	2913.385000	691.224609	103.020966
11201.648936	2913.385000	690.011719	39.520992
11201.648936	2913.385000	688.798828	-9.134799
11201.648936	2913.385000	687.584961	12.178597
11201.648936	2913.385000	686.372070	75.855545
11201.648936	2913.385000	685.158203	139.475357
11201.648936	2913.385000	683.943359	1.714011
11201.648936	2913.385000	682.729492	103.400124
11201.648936	2913.385000	681.514648	-4.700115
11201.648936	2913.385000	680.299805	128.651245
11201.648936	2913.385000	679.084961	48.055576
11201.648936	2913.385000	677.869141	122.001991
11201.648936	2913.385000	676.653320	128.156769
11201.648936	2913.385000	675.437500	7.312686
11201.648936	2913.385000	674.221680	-33.117802
11201.648936	2913.385000	673.004883	85.075523
11201.648936	2913.385000	671.789063	-6.172303
11201.648936	2913.385000	670.571289	238.758881
11201.648936	2913.385000	669.354492	179.160248
11201.648936	2913.385000	668.136719	180.841934
11201.648936	2913.385000	666.919922	417.029755
11201.648936	2913.385000	665.701172	296.069122
11201.648936	2913.385000	664.483398	280.730621
11201.648936	2913.385000	663.264648	284.369049
11201.648936	2913.385000	662.045898	222.526108
11201.648936	2913.385000	660.827148	112.128899
11201.648936	2913.385000	659.608398	337.281372
11201.648936	2913.385000	658.388672	62.270618
11201.648936	2913.385000	657.168945	55.236088
11201.648936	2913.385000	655.949219	143.074188
11201.648936	2913.385000	654.728516	150.716995
11201.648936	2913.385000	653.507813	242.644867
11201.648936	2913.385000	652.287109	92.123848
11201.648936	2913.385000	651.066406	116.527931
11201.648936	2913.385000	649.844727	18.695866
11201.648936	2913.385000	648.623047	-1.196084
11201.648936	2913.385000	647.401367	27.320326
11201.648936	2913.385000	646.179688	70.527794
11201.648936	2913.385000	644.957031	8.434437
11201.648936	2913.385000	643.734375	-28.412745
11201.648936	2913.385000	642.511719	65.172295
11201.648936	2913.385000	641.289063	171.305298
11201.648936	2913.385000	640.065430	60.731594
11201.648936	2913.385000	638.841797	9.046185
11201.648936	2913.385000	637.618164	192.803802
11201.648936	2913.385000	636.393555	168.366409
11201.648936	2913.385000	635.168945	76.660675
11201.648936	2913.385000	633.944336	129.923935
11201.648936	2913.385000	632.719727	92.809608
11201.648936	2913.385000	631.494141	13.674215
11201.648936	2913.385000	630.269531	47.918671
11201.648936	2913.385000	629.042969	155.582092
11201.648936	2913.385000	627.817383	143.539627
11201.648936	2913.385000	626.590820	154.549072
11201.648936	2913.385000	625.365234	35.455460
11201.648936	2913.385000	624.137695	174.353760
11201.648936	2913.385000	622.911133	155.891434
11201.648936	2913.385000	621.683594	74.505806
11201.648936	2913.385000	620.456055	133.557037
11201.648936	2913.385000	619.228516	190.454483
11201.648936	2913.385000	618.000977	2.161173
11201.648936	2913.385000	616.772461	-137.908447
11201.648936	2913.385000	615.543945	-70.618706
11201.648936	2913.385000	614.314453	-47.362812
11201.648936	2913.385000	613.085938	28.187233
11201.648936	2913.385000	611.856445	-103.529129
11201.648936	2913.385000	610.626953	-172.447388
11201.648936	2913.385000	609.397461	-69.820229
11201.648936	2913.385000	608.166992	-107.407669
11201.648936	2913.385000	606.936523	-59.273502
11201.648936	2913.385000	605.706055	-76.002937
11201.648936	2913.385000	604.474609	-34.230530
11201.648936	2913.385000	603.244141	-107.445213
11201.648936	2913.385000	602.012695	74.243309
11201.648936	2913.385000	600.780273	-111.831268
11201.648936	2913.385000	599.548828	-5.465326
11201.648936	2913.385000	598.316406	36.093613
11201.648936	2913.385000	597.083984	123.532967
11201.648936	2913.385000	595.851563	64.804222
11201.648936	2913.385000	594.618164	95.799049
11201.648936	2913.385000	593.384766	18.265034
11201.648936	2913.385000	592.151367	-88.465477
11201.648936	2913.385000	590.917969	-99.251045
11201.648936	2913.385000	589.683594	-22.494953
11201.648936	2913.385000	588.449219	68.792664
11201.648936	2913.385000	587.214844	9.962731
11201.648936	2913.385000	585.979492	94.897568
11201.648936	2913.385000	584.745117	-1.462786
11201.648936	2913.385000	583.509766	214.596603
11201.648936	2913.385000	582.273438	276.447662
11201.648936	2913.385000	581.038086	221.667221
11201.648936	2913.385000	579.801758	121.091766
11201.648936	2913.385000	578.565430	230.710358
11201.648936	2913.385000	577.329102	115.563423
11201.648936	2913.385000	576.091797	123.162567
11201.648936	2913.385000	574.854492	286.705933
11201.648936	2913.385000	573.617188	208.973221
11201.648936	2913.385000	572.378906	89.673256
11201.648936	2913.385000	571.141602	-81.552322
11201.648936	2913.385000	569.903320	36.090202
11201.648936	2913.385000	568.664063	-116.403198
11201.648936	2913.385000	567.425781	9.460777
11201.648936	2913.385000	566.186523	129.018234
11201.648936	2913.385000	564.947266	-44.220020
11201.648936	2913.385000	563.708008	19.216141
11201.648936	2913.385000	562.467773	115.804977
11201.648936	2913.385000	561.227539	50.505569
11201.648936	2913.385000	559.987305	122.117165
11201.648936	2913.385000	558.747070	17.403864
11201.648936	2913.385000	557.505859	-105.946671
11201.648936	2913.385000	556.264648	38.150188
11201.648936	2913.385000	555.023438	93.049835
11201.648936	2913.385000	553.781250	81.600067
11201.648936	2913.385000	552.539063	-41.729218
11201.648936	2913.385000	551.296875	83.520401
11201.648936	2913.385000	550.054688	-188.881134
11201.648936	2913.385000	548.811523	-86.460129
11201.648936	2913.385000	547.569336	104.908974
11201.648936	2913.385000	546.325195	10.596661
11201.648936	2913.385000	545.082031	98.383606
11201.648936	2913.385000	543.837891	26.838840
11201.648936	2913.385000	542.593750	19.422548
11201.648936	2913.385000	541.349609	-126.534828
11201.648936	2913.385000	540.105469	-150.478241
11201.648936	2913.385000	538.860352	34.315407
11201.648936	2913.385000	537.615234	-132.254242
11201.648936	2913.385000	536.369141	-13.677968
11201.648936	2913.385000	535.124023	-163.665604
11201.648936	2913.385000	533.877930	-195.899292
11201.648936	2913.385000	532.631836	-147.612228
11201.648936	2913.385000	531.384766	59.575832
11201.648936	2913.385000	530.138672	74.748039
11201.648936	2913.385000	528.891602	106.406700
11201.648936	2913.385000	527.643555	72.030579
11201.648936	2913.385000	526.396484	-32.457352
11201.648936	2913.385000	525.148438	-23.507969
11201.648936	2913.385000	523.900391	-47.554714
11201.648936	2913.385000	522.652344	70.608643
11201.648936	2913.385000	521.403320	69.197121
11201.648936	2913.385000	520.154297	-197.977173
11201.648936	2913.385000	518.905273	-32.513218
11201.648936	2913.385000	517.656250	56.678417
11201.648936	2913.385000	516.406250	-45.645847
11201.648936	2913.385000	515.156250	51.724968
11201.648936	2913.385000	513.906250	-36.166142
11201.648936	2913.385000	512.655273	-128.145370
11201.648936	2913.385000	511.404297	-37.018406
11201.648936	2913.385000	510.153320	-48.768696
11201.648936	2913.385000	508.902344	-9.118979
11201.648936	2913.385000	507.650391	24.335857
11201.648936	2913.385000	506.398438	-32.664066
11201.648936	2913.385000	505.146484	-15.675565
11201.648936	2913.385000	503.893555	42.381168
11201.648936	2913.385000	502.641602	-24.882671
11201.648936	2913.385000	501.388672	90.629196
11201.648936	2913.385000	500.134766	-11.543536
11201.648936	2913.385000	498.881836	-17.207710
11201.648936	2913.385000	497.627930	-14.674428
11201.648936	2913.385000	496.374023	88.380165
11201.648936	2913.385000	495.119141	33.427174
11201.648936	2913.385000	493.865234	122.047325
11201.648936	2913.385000	492.610352	3.524017
11201.648936	2913.385000	491.355469	258.129211
11201.648936	2913.385000	490.099609	219.528091
11201.648936	2913.385000	488.843750	174.780655
11201.648936	2913.385000	487.587891	74.724991
11201.648936	2913.385000	486.332031	251.200119
11201.648936	2913.385000	485.075195	104.035088
11201.648936	2913.385000	483.818359	288.578735
11201.648936	2913.385000	482.561523	123.010727
11201.648936	2913.385000	481.304688	90.509735
11201.648936	2913.385000	480.046875	328.068542
11201.648936	2913.385000	478.789063	88.891312
11201.648936	2913.385000	477.531250	127.926979
11201.648936	2913.385000	476.272461	211.899567
11201.648936	2913.385000	475.013672	220.173187
11201.648936	2913.385000	473.754883	285.641907
11201.648936	2913.385000	472.496094	177.368729
11201.648936	2913.385000	471.236328	199.852661
11201.648936	2913.385000	469.976563	267.229095
11201.648936	2913.385000	468.716797	305.952332
11201.648936	2913.385000	467.456055	307.871735
11201.648936	2913.385000	466.196289	313.837830
11201.648936	2913.385000	464.935547	211.600647
11201.648936	2913.385000	463.673828	380.714691
11201.648936	2913.385000	462.413086	390.609528
11201.648936	2913.385000	461.151367	463.670471
11201.648936	2913.385000	459.889648	171.682861
11201.648936	2913.385000	458.626953	422.002960
11201.648936	2913.385000	457.364258	397.025360
11201.648936	2913.385000	456.101563	345.512085
11201.648936	2913.385000	454.838867	253.218201
11201.648936	2913.385000	453.575195	299.394958
11201.648936	2913.385000	452.312500	282.365265
11201.648936	2913.385000	451.047852	285.625397
11201.648936	2913.385000	449.784180	465.896515
11201.648936	2913.385000	448.519531	403.849243
11201.648936	2913.385000	447.254883	423.131500
11201.648936	2913.385000	445.990234	334.517151
11201.648936	2913.385000	444.725586	329.234039
11201.648936	2913.385000	443.459961	244.565140
11201.648936	2913.385000	442.194336	365.148438
11201.648936	2913.385000	440.927734	304.700104
11201.648936	2913.385000	439.662109	325.456177
11201.648936	2913.385000	438.395508	498.451385
11201.648936	2913.385000	437.127930	386.914459
11201.648936	2913.385000	435.861328	427.607819
11201.648936	2913.385000	434.593750	397.104340
11201.648936	2913.385000	433.326172	465.943848
11201.648936	2913.385000	432.058594	358.078339
11201.648936	2913.385000	430.790039	402.279785
11201.648936	2913.385000	429.521484	328.675690
11201.648936	2913.385000	428.252930	374.604370
11201.648936	2913.385000	426.984375	462.938049
11201.648936	2913.385000	425.714844	356.472992
11201.648936	2913.385000	424.445313	298.528870
11201.648936	2913.385000	423.174805	349.845581
11201.648936	2913.385000	421.905273	554.925476
11201.648936	2913.385000	420.634766	587.576294
11201.648936	2913.385000	419.364258	312.243530
11201.648936	2913.385000	418.092773	607.711670
11201.648936	2913.385000	416.822266	463.649353
11201.648936	2913.385000	415.550781	266.819550
11201.648936	2913.385000	414.278320	369.265991
11201.648936	2913.385000	413.006836	414.812012
11201.648936	2913.385000	411.734375	458.072418
11201.648936	2913.385000	410.461914	379.762756
11201.648936	2913.385000	409.188477	477.083832
11201.648936	2913.385000	407.916016	351.807770
11201.648936	2913.385000	406.642578	581.910339
11201.648936	2913.385000	405.368164	431.858337
11201.648936	2913.385000	404.094727	509.804382
11201.648936	2913.385000	402.820313	490.488800
11201.648936	2913.385000	401.545898	571.806519
11201.648936	2913.385000	400.270508	424.696411
11201.648936	2913.385000	398.996094	499.290314
11201.648936	2913.385000	397.720703	395.970184
11201.648936	2913.385000	396.444336	328.637573
11201.648936	2913.385000	395.168945	460.615540
11201.648936	2913.385000	393.892578	451.025787
11201.648936	2913.385000	392.616211	441.052246
11201.648936	2913.385000	391.339844	468.973053
11201.648936	2913.385000	390.062500	389.674683
11201.648936	2913.385000	388.785156	418.759979
11201.648936	2913.385000	387.507813	254.060898
11201.648936	2913.385000	386.229492	304.408295
11201.648936	2913.385000	384.951172	458.946014
11201.648936	2913.385000	383.672852	468.031464
11201.648936	2913.385000	382.394531	225.099762
11201.648936	2913.385000	381.115234	408.233917
11201.648936	2913.385000	379.835938	363.490051
11201.648936	2913.385000	378.556641	404.692871
11201.648936	2913.385000	377.277344	196.033066
11201.648936	2913.385000	375.997070	81.345482
11201.648936	2913.385000	374.716797	390.127777
11201.648936	2913.385000	373.435547	298.346893
11201.648936	2913.385000	372.155273	210.016693
11201.648936	2913.385000	370.874023	267.667389
11201.648936	2913.385000	369.591797	210.172516
11201.648936	2913.385000	368.310547	75.765343
11201.648936	2913.385000	367.028320	315.991516
11201.648936	2913.385000	365.746094	176.176422
11201.648936	2913.385000	364.463867	246.320313
11201.648936	2913.385000	363.180664	105.070366
11201.648936	2913.385000	361.897461	167.630173
11201.648936	2913.385000	360.614258	223.350296
11201.648936	2913.385000	359.330078	39.697067
11201.648936	2913.385000	358.045898	163.872498
11201.648936	2913.385000	356.761719	96.806877
11201.648936	2913.385000	355.477539	153.066757
11201.648936	2913.385000	354.192383	196.352249
11201.648936	2913.385000	352.907227	150.591629
11201.648936	2913.385000	351.622070	252.014053
11201.648936	2913.385000	350.336914	100.255486
11201.648936	2913.385000	349.050781	215.630234
11201.648936	2913.385000	347.764648	219.899445
11201.648936	2913.385000	346.477539	15.084779
11201.648936	2913.385000	345.191406	-76.731621
11201.648936	2913.385000	343.904297	192.169785
11201.648936	2913.385000	342.616211	90.035461
11201.648936	2913.385000	341.329102	86.709709
11201.648936	2913.385000	340.041016	94.135742
11201.648936	2913.385000	338.752930	-59.460598
11201.648936	2913.385000	337.463867	244.986954
11201.648936	2913.385000	336.175781	34.959549
11201.648936	2913.385000	334.886719	-2.689478
11201.648936	2913.385000	333.596680	-141.500412
11201.648936	2913.385000	332.307617	-44.187237
11201.648936	2913.385000	331.017578	-82.027573
11201.648936	2913.385000	329.727539	-81.429863
11201.648936	2913.385000	328.436523	-18.571928
11201.648936	2913.385000	327.146484	8.881293
11201.648936	2913.385000	325.855469	-182.522339
11201.648936	2913.385000	324.563477	-34.778347
11201.648936	2913.385000	323.272461	-56.033035
11201.648936	2913.385000	321.980469	-198.507538
11201.648936	2913.385000	320.688477	129.269836
11201.648936	2913.385000	319.395508	-24.686146
11201.648936	2913.385000	318.103516	-154.453918
11201.648936	2913.385000	316.810547	48.237976
11201.648936	2913.385000	315.516602	-21.671194
11201.648936	2913.385000	314.223633	53.760746
11201.648936	2913.385000	312.929688	135.079712
11201.648936	2913.385000	311.635742	-4.355750
11201.648936	2913.385000	310.340820	-18.645973
11201.648936	2913.385000	309.045898	76.241730
11201.648936	2913.385000	307.750977	258.333893
11201.648936	2913.385000	306.456055	-8.807588
11201.648936	2913.385000	305.160156	121.022507
11201.648936	2913.385000	303.865234	-59.204510
11201.648936	2913.385000	302.568359	234.572250
11201.648936	2913.385000	301.272461	188.482849
11201.648936	2913.385000	299.975586	239.086090
11201.648936	2913.385000	298.678711	336.741211
