#X		#Y		#Wave		#Intensity
11893.464362	2855.515000	1999.980469	124.053604
11893.464362	2855.515000	1999.016602	-11.892260
11893.464362	2855.515000	1998.052734	73.371017
11893.464362	2855.515000	1997.087891	-143.936920
11893.464362	2855.515000	1996.123047	-93.782501
11893.464362	2855.515000	1995.158203	25.513689
11893.464362	2855.515000	1994.193359	-16.419828
11893.464362	2855.515000	1993.228516	85.097130
11893.464362	2855.515000	1992.262695	-1.770006
11893.464362	2855.515000	1991.297852	176.076538
11893.464362	2855.515000	1990.332031	76.494202
11893.464362	2855.515000	1989.366211	38.639339
11893.464362	2855.515000	1988.399414	47.641159
11893.464362	2855.515000	1987.433594	-101.831207
11893.464362	2855.515000	1986.466797	-127.748253
11893.464362	2855.515000	1985.500977	-129.084900
11893.464362	2855.515000	1984.534180	-6.957967
11893.464362	2855.515000	1983.567383	-55.568031
11893.464362	2855.515000	1982.599609	73.633560
11893.464362	2855.515000	1981.632813	-74.079254
11893.464362	2855.515000	1980.665039	114.098083
11893.464362	2855.515000	1979.697266	-186.954681
11893.464362	2855.515000	1978.729492	15.740090
11893.464362	2855.515000	1977.761719	92.324051
11893.464362	2855.515000	1976.792969	-75.615372
11893.464362	2855.515000	1975.825195	92.046410
11893.464362	2855.515000	1974.856445	-120.467117
11893.464362	2855.515000	1973.887695	-19.682198
11893.464362	2855.515000	1972.918945	-76.902901
11893.464362	2855.515000	1971.949219	-20.753635
11893.464362	2855.515000	1970.980469	67.333244
11893.464362	2855.515000	1970.010742	-71.508072
11893.464362	2855.515000	1969.041016	181.520538
11893.464362	2855.515000	1968.071289	-68.360939
11893.464362	2855.515000	1967.101563	16.861330
11893.464362	2855.515000	1966.130859	101.972153
11893.464362	2855.515000	1965.161133	-66.713142
11893.464362	2855.515000	1964.190430	-50.718040
11893.464362	2855.515000	1963.219727	41.524231
11893.464362	2855.515000	1962.249023	49.970535
11893.464362	2855.515000	1961.277344	97.726288
11893.464362	2855.515000	1960.306641	-2.240468
11893.464362	2855.515000	1959.334961	146.255737
11893.464362	2855.515000	1958.363281	169.188950
11893.464362	2855.515000	1957.391602	93.685600
11893.464362	2855.515000	1956.419922	52.582092
11893.464362	2855.515000	1955.447266	144.197968
11893.464362	2855.515000	1954.474609	53.842186
11893.464362	2855.515000	1953.501953	39.655643
11893.464362	2855.515000	1952.529297	64.744003
11893.464362	2855.515000	1951.556641	99.607414
11893.464362	2855.515000	1950.583984	85.294785
11893.464362	2855.515000	1949.610352	-96.036064
11893.464362	2855.515000	1948.636719	-14.626994
11893.464362	2855.515000	1947.663086	-16.744692
11893.464362	2855.515000	1946.689453	42.463257
11893.464362	2855.515000	1945.715820	207.134369
11893.464362	2855.515000	1944.741211	163.176056
11893.464362	2855.515000	1943.767578	43.167240
11893.464362	2855.515000	1942.792969	75.229507
11893.464362	2855.515000	1941.818359	28.791748
11893.464362	2855.515000	1940.842773	112.280609
11893.464362	2855.515000	1939.868164	82.967415
11893.464362	2855.515000	1938.892578	-120.352806
11893.464362	2855.515000	1937.916992	88.018272
11893.464362	2855.515000	1936.941406	-61.368195
11893.464362	2855.515000	1935.965820	-2.524585
11893.464362	2855.515000	1934.990234	122.399963
11893.464362	2855.515000	1934.013672	-48.988636
11893.464362	2855.515000	1933.037109	2.435552
11893.464362	2855.515000	1932.060547	230.045731
11893.464362	2855.515000	1931.083984	63.592976
11893.464362	2855.515000	1930.107422	110.044167
11893.464362	2855.515000	1929.129883	254.312576
11893.464362	2855.515000	1928.153320	34.120522
11893.464362	2855.515000	1927.175781	34.070820
11893.464362	2855.515000	1926.198242	26.681776
11893.464362	2855.515000	1925.219727	97.507133
11893.464362	2855.515000	1924.242188	38.780804
11893.464362	2855.515000	1923.263672	119.343712
11893.464362	2855.515000	1922.285156	70.401550
11893.464362	2855.515000	1921.306641	62.997993
11893.464362	2855.515000	1920.328125	-68.944397
11893.464362	2855.515000	1919.349609	192.248856
11893.464362	2855.515000	1918.370117	-83.692963
11893.464362	2855.515000	1917.391602	38.292931
11893.464362	2855.515000	1916.412109	-32.539677
11893.464362	2855.515000	1915.431641	-208.251785
11893.464362	2855.515000	1914.452148	-47.277760
11893.464362	2855.515000	1913.472656	1.455266
11893.464362	2855.515000	1912.492188	-127.825539
11893.464362	2855.515000	1911.511719	45.243359
11893.464362	2855.515000	1910.531250	72.007065
11893.464362	2855.515000	1909.550781	28.092880
11893.464362	2855.515000	1908.569336	-144.936172
11893.464362	2855.515000	1907.588867	-230.196381
11893.464362	2855.515000	1906.607422	-8.531812
11893.464362	2855.515000	1905.625977	-152.217789
11893.464362	2855.515000	1904.644531	-40.199413
11893.464362	2855.515000	1903.662109	71.782539
11893.464362	2855.515000	1902.680664	74.209251
11893.464362	2855.515000	1901.698242	-10.958706
11893.464362	2855.515000	1900.715820	27.989510
11893.464362	2855.515000	1899.733398	-71.719429
11893.464362	2855.515000	1898.750000	6.151165
11893.464362	2855.515000	1897.767578	-44.870846
11893.464362	2855.515000	1896.784180	-166.367889
11893.464362	2855.515000	1895.800781	-8.291361
11893.464362	2855.515000	1894.817383	-0.937161
11893.464362	2855.515000	1893.833984	28.289429
11893.464362	2855.515000	1892.850586	42.937206
11893.464362	2855.515000	1891.866211	-68.711327
11893.464362	2855.515000	1890.881836	123.231155
11893.464362	2855.515000	1889.897461	-22.366297
11893.464362	2855.515000	1888.913086	-12.546744
11893.464362	2855.515000	1887.927734	-99.804092
11893.464362	2855.515000	1886.943359	21.659658
11893.464362	2855.515000	1885.958008	-55.853168
11893.464362	2855.515000	1884.972656	-143.032547
11893.464362	2855.515000	1883.987305	-74.962631
11893.464362	2855.515000	1883.001953	-86.927795
11893.464362	2855.515000	1882.015625	-16.459095
11893.464362	2855.515000	1881.029297	68.532707
11893.464362	2855.515000	1880.042969	-144.573715
11893.464362	2855.515000	1879.056641	-115.304970
11893.464362	2855.515000	1878.070313	-40.016781
11893.464362	2855.515000	1877.083984	3.762258
11893.464362	2855.515000	1876.096680	45.107494
11893.464362	2855.515000	1875.109375	-0.717134
11893.464362	2855.515000	1874.122070	-0.528335
11893.464362	2855.515000	1873.134766	84.368889
11893.464362	2855.515000	1872.146484	278.125061
11893.464362	2855.515000	1871.159180	-19.298164
11893.464362	2855.515000	1870.170898	-108.590652
11893.464362	2855.515000	1869.182617	14.968479
11893.464362	2855.515000	1868.194336	85.288048
11893.464362	2855.515000	1867.205078	54.050762
11893.464362	2855.515000	1866.216797	-32.764198
11893.464362	2855.515000	1865.227539	-124.379929
11893.464362	2855.515000	1864.238281	-95.155685
11893.464362	2855.515000	1863.249023	-65.943428
11893.464362	2855.515000	1862.259766	-75.385155
11893.464362	2855.515000	1861.269531	84.206680
11893.464362	2855.515000	1860.279297	91.637840
11893.464362	2855.515000	1859.290039	14.582238
11893.464362	2855.515000	1858.298828	12.366030
11893.464362	2855.515000	1857.308594	-91.194244
11893.464362	2855.515000	1856.318359	-62.032154
11893.464362	2855.515000	1855.327148	29.825939
11893.464362	2855.515000	1854.335938	-39.927509
11893.464362	2855.515000	1853.344727	-66.258774
11893.464362	2855.515000	1852.353516	15.893214
11893.464362	2855.515000	1851.362305	42.574871
11893.464362	2855.515000	1850.370117	-41.607391
11893.464362	2855.515000	1849.377930	88.661926
11893.464362	2855.515000	1848.385742	144.201691
11893.464362	2855.515000	1847.393555	2.226276
11893.464362	2855.515000	1846.401367	137.208832
11893.464362	2855.515000	1845.408203	53.050671
11893.464362	2855.515000	1844.415039	12.243065
11893.464362	2855.515000	1843.421875	77.330467
11893.464362	2855.515000	1842.428711	2.828997
11893.464362	2855.515000	1841.435547	67.873917
11893.464362	2855.515000	1840.441406	-23.454830
11893.464362	2855.515000	1839.448242	156.977310
11893.464362	2855.515000	1838.454102	5.534791
11893.464362	2855.515000	1837.459961	70.485344
11893.464362	2855.515000	1836.464844	34.454765
11893.464362	2855.515000	1835.470703	-6.380325
11893.464362	2855.515000	1834.475586	-1.566679
11893.464362	2855.515000	1833.480469	-27.995714
11893.464362	2855.515000	1832.485352	-8.798774
11893.464362	2855.515000	1831.490234	-80.867943
11893.464362	2855.515000	1830.495117	-121.716393
11893.464362	2855.515000	1829.499023	118.262062
11893.464362	2855.515000	1828.502930	-109.823936
11893.464362	2855.515000	1827.506836	36.453857
11893.464362	2855.515000	1826.510742	-16.447031
11893.464362	2855.515000	1825.513672	57.769955
11893.464362	2855.515000	1824.517578	50.409695
11893.464362	2855.515000	1823.520508	146.126297
11893.464362	2855.515000	1822.523438	117.139854
11893.464362	2855.515000	1821.526367	128.886429
11893.464362	2855.515000	1820.529297	214.889969
11893.464362	2855.515000	1819.531250	-58.517906
11893.464362	2855.515000	1818.533203	130.441574
11893.464362	2855.515000	1817.535156	175.619507
11893.464362	2855.515000	1816.537109	-112.056808
11893.464362	2855.515000	1815.539063	98.284264
11893.464362	2855.515000	1814.540039	248.686157
11893.464362	2855.515000	1813.541992	207.568451
11893.464362	2855.515000	1812.542969	168.833908
11893.464362	2855.515000	1811.543945	39.189194
11893.464362	2855.515000	1810.543945	175.040939
11893.464362	2855.515000	1809.544922	105.174202
11893.464362	2855.515000	1808.544922	-69.886414
11893.464362	2855.515000	1807.544922	149.491669
11893.464362	2855.515000	1806.544922	120.217239
11893.464362	2855.515000	1805.544922	-57.215981
11893.464362	2855.515000	1804.544922	42.508026
11893.464362	2855.515000	1803.543945	87.229362
11893.464362	2855.515000	1802.542969	36.384445
11893.464362	2855.515000	1801.541992	-0.144292
11893.464362	2855.515000	1800.541016	128.023636
11893.464362	2855.515000	1799.539063	60.404030
11893.464362	2855.515000	1798.538086	30.962219
11893.464362	2855.515000	1797.536133	220.990875
11893.464362	2855.515000	1796.534180	76.971558
11893.464362	2855.515000	1795.532227	111.841400
11893.464362	2855.515000	1794.529297	-17.859503
11893.464362	2855.515000	1793.527344	55.095249
11893.464362	2855.515000	1792.524414	139.907257
11893.464362	2855.515000	1791.521484	41.157825
11893.464362	2855.515000	1790.518555	63.927708
11893.464362	2855.515000	1789.514648	174.792999
11893.464362	2855.515000	1788.511719	252.241196
11893.464362	2855.515000	1787.507813	79.592720
11893.464362	2855.515000	1786.503906	104.582428
11893.464362	2855.515000	1785.500000	27.172913
11893.464362	2855.515000	1784.496094	54.473282
11893.464362	2855.515000	1783.491211	238.772369
11893.464362	2855.515000	1782.486328	180.306137
11893.464362	2855.515000	1781.481445	-23.263557
11893.464362	2855.515000	1780.476563	-48.435017
11893.464362	2855.515000	1779.471680	23.851089
11893.464362	2855.515000	1778.465820	100.825851
11893.464362	2855.515000	1777.460938	-83.706055
11893.464362	2855.515000	1776.455078	242.698227
11893.464362	2855.515000	1775.449219	181.678253
11893.464362	2855.515000	1774.442383	96.887856
11893.464362	2855.515000	1773.436523	116.592957
11893.464362	2855.515000	1772.429688	62.640450
11893.464362	2855.515000	1771.422852	-64.924652
11893.464362	2855.515000	1770.416016	70.989258
11893.464362	2855.515000	1769.409180	-54.232235
11893.464362	2855.515000	1768.402344	26.979061
11893.464362	2855.515000	1767.394531	48.812912
11893.464362	2855.515000	1766.386719	70.599686
11893.464362	2855.515000	1765.378906	118.424210
11893.464362	2855.515000	1764.371094	135.369354
11893.464362	2855.515000	1763.362305	10.039806
11893.464362	2855.515000	1762.354492	-53.658974
11893.464362	2855.515000	1761.345703	5.839911
11893.464362	2855.515000	1760.336914	141.086823
11893.464362	2855.515000	1759.328125	96.227173
11893.464362	2855.515000	1758.318359	60.813740
11893.464362	2855.515000	1757.308594	-93.013138
11893.464362	2855.515000	1756.299805	-102.413742
11893.464362	2855.515000	1755.290039	-73.984665
11893.464362	2855.515000	1754.279297	-31.412598
11893.464362	2855.515000	1753.269531	53.694000
11893.464362	2855.515000	1752.258789	70.125069
11893.464362	2855.515000	1751.249023	121.987152
11893.464362	2855.515000	1750.238281	72.110085
11893.464362	2855.515000	1749.226563	50.576748
11893.464362	2855.515000	1748.215820	140.107224
11893.464362	2855.515000	1747.204102	-80.022575
11893.464362	2855.515000	1746.193359	-26.025005
11893.464362	2855.515000	1745.181641	-42.961205
11893.464362	2855.515000	1744.168945	86.501747
11893.464362	2855.515000	1743.157227	-102.915665
11893.464362	2855.515000	1742.144531	-105.787453
11893.464362	2855.515000	1741.132813	75.425385
11893.464362	2855.515000	1740.120117	22.877222
11893.464362	2855.515000	1739.106445	-55.650761
11893.464362	2855.515000	1738.093750	7.364109
11893.464362	2855.515000	1737.080078	-64.136909
11893.464362	2855.515000	1736.067383	-107.347794
11893.464362	2855.515000	1735.053711	-195.385025
11893.464362	2855.515000	1734.040039	-94.839645
11893.464362	2855.515000	1733.025391	57.476105
11893.464362	2855.515000	1732.011719	-101.357971
11893.464362	2855.515000	1730.997070	22.547228
11893.464362	2855.515000	1729.982422	54.498287
11893.464362	2855.515000	1728.967773	-66.687279
11893.464362	2855.515000	1727.952148	-110.164619
11893.464362	2855.515000	1726.937500	-0.637715
11893.464362	2855.515000	1725.921875	59.374008
11893.464362	2855.515000	1724.906250	-193.668350
11893.464362	2855.515000	1723.890625	-23.136700
11893.464362	2855.515000	1722.875000	-36.198833
11893.464362	2855.515000	1721.858398	-14.018861
11893.464362	2855.515000	1720.841797	-45.971443
11893.464362	2855.515000	1719.825195	4.336185
11893.464362	2855.515000	1718.808594	21.676687
11893.464362	2855.515000	1717.791992	-92.637230
11893.464362	2855.515000	1716.774414	89.115921
11893.464362	2855.515000	1715.756836	-1.755688
11893.464362	2855.515000	1714.739258	-149.001831
11893.464362	2855.515000	1713.721680	-7.379126
11893.464362	2855.515000	1712.704102	-93.597282
11893.464362	2855.515000	1711.685547	-41.322636
11893.464362	2855.515000	1710.667969	-120.534317
11893.464362	2855.515000	1709.649414	222.625183
11893.464362	2855.515000	1708.630859	82.316826
11893.464362	2855.515000	1707.611328	47.575363
11893.464362	2855.515000	1706.592773	188.707108
11893.464362	2855.515000	1705.573242	-104.038101
11893.464362	2855.515000	1704.553711	278.457916
11893.464362	2855.515000	1703.534180	-96.298714
11893.464362	2855.515000	1702.513672	180.519608
11893.464362	2855.515000	1701.494141	-60.594906
11893.464362	2855.515000	1700.473633	-18.212048
11893.464362	2855.515000	1699.453125	164.645920
11893.464362	2855.515000	1698.432617	185.826981
11893.464362	2855.515000	1697.412109	162.483810
11893.464362	2855.515000	1696.390625	188.267075
11893.464362	2855.515000	1695.369141	-22.359995
11893.464362	2855.515000	1694.347656	-29.375572
11893.464362	2855.515000	1693.326172	92.246086
11893.464362	2855.515000	1692.304688	255.889130
11893.464362	2855.515000	1691.282227	3.183614
11893.464362	2855.515000	1690.260742	-29.676376
11893.464362	2855.515000	1689.238281	196.911652
11893.464362	2855.515000	1688.214844	28.401110
11893.464362	2855.515000	1687.192383	238.472626
11893.464362	2855.515000	1686.168945	90.985352
11893.464362	2855.515000	1685.146484	-35.447361
11893.464362	2855.515000	1684.123047	38.972046
11893.464362	2855.515000	1683.099609	188.049973
11893.464362	2855.515000	1682.075195	164.289322
11893.464362	2855.515000	1681.051758	121.843689
11893.464362	2855.515000	1680.027344	212.391327
11893.464362	2855.515000	1679.002930	197.889130
11893.464362	2855.515000	1677.978516	223.020142
11893.464362	2855.515000	1676.953125	255.106522
11893.464362	2855.515000	1675.928711	217.207382
11893.464362	2855.515000	1674.903320	246.900177
11893.464362	2855.515000	1673.877930	253.246460
11893.464362	2855.515000	1672.852539	299.183167
11893.464362	2855.515000	1671.826172	79.459160
11893.464362	2855.515000	1670.800781	123.033188
11893.464362	2855.515000	1669.774414	208.484467
11893.464362	2855.515000	1668.748047	317.165680
11893.464362	2855.515000	1667.721680	172.015762
11893.464362	2855.515000	1666.694336	266.645782
11893.464362	2855.515000	1665.667969	435.694397
11893.464362	2855.515000	1664.640625	292.861725
11893.464362	2855.515000	1663.613281	182.632431
11893.464362	2855.515000	1662.585938	284.081207
11893.464362	2855.515000	1661.557617	176.175491
11893.464362	2855.515000	1660.530273	303.122467
11893.464362	2855.515000	1659.501953	230.084076
11893.464362	2855.515000	1658.473633	303.474731
11893.464362	2855.515000	1657.444336	146.771545
11893.464362	2855.515000	1656.416016	224.761002
11893.464362	2855.515000	1655.386719	356.120514
11893.464362	2855.515000	1654.358398	315.569214
11893.464362	2855.515000	1653.328125	402.707367
11893.464362	2855.515000	1652.298828	471.230652
11893.464362	2855.515000	1651.269531	602.378906
11893.464362	2855.515000	1650.239258	376.098907
11893.464362	2855.515000	1649.208984	312.296448
11893.464362	2855.515000	1648.178711	206.751358
11893.464362	2855.515000	1647.148438	381.853821
11893.464362	2855.515000	1646.117188	264.711731
11893.464362	2855.515000	1645.086914	323.797363
11893.464362	2855.515000	1644.055664	364.300629
11893.464362	2855.515000	1643.024414	416.364685
11893.464362	2855.515000	1641.992188	373.398224
11893.464362	2855.515000	1640.960938	654.750488
11893.464362	2855.515000	1639.928711	366.238373
11893.464362	2855.515000	1638.896484	492.316498
11893.464362	2855.515000	1637.864258	345.153412
11893.464362	2855.515000	1636.832031	371.640320
11893.464362	2855.515000	1635.798828	386.532532
11893.464362	2855.515000	1634.766602	681.384460
11893.464362	2855.515000	1633.733398	446.360565
11893.464362	2855.515000	1632.699219	537.530701
11893.464362	2855.515000	1631.666016	452.923035
11893.464362	2855.515000	1630.632813	458.511566
11893.464362	2855.515000	1629.598633	468.710846
11893.464362	2855.515000	1628.564453	559.790100
11893.464362	2855.515000	1627.530273	625.414856
11893.464362	2855.515000	1626.495117	691.006592
11893.464362	2855.515000	1625.460938	454.002472
11893.464362	2855.515000	1624.425781	549.619751
11893.464362	2855.515000	1623.390625	760.641235
11893.464362	2855.515000	1622.355469	798.452271
11893.464362	2855.515000	1621.319336	806.240845
11893.464362	2855.515000	1620.284180	760.960815
11893.464362	2855.515000	1619.248047	667.247375
11893.464362	2855.515000	1618.211914	776.552246
11893.464362	2855.515000	1617.174805	740.524475
11893.464362	2855.515000	1616.138672	787.525085
11893.464362	2855.515000	1615.101563	774.570068
11893.464362	2855.515000	1614.065430	722.449219
11893.464362	2855.515000	1613.027344	787.863159
11893.464362	2855.515000	1611.990234	639.002075
11893.464362	2855.515000	1610.953125	759.707214
11893.464362	2855.515000	1609.915039	891.882446
11893.464362	2855.515000	1608.876953	865.137817
11893.464362	2855.515000	1607.838867	891.359558
11893.464362	2855.515000	1606.800781	862.340271
11893.464362	2855.515000	1605.761719	867.854004
11893.464362	2855.515000	1604.723633	1032.132568
11893.464362	2855.515000	1603.684570	1003.127014
11893.464362	2855.515000	1602.644531	994.835754
11893.464362	2855.515000	1601.605469	924.481995
11893.464362	2855.515000	1600.566406	1051.877930
11893.464362	2855.515000	1599.526367	1101.080688
11893.464362	2855.515000	1598.486328	1035.375000
11893.464362	2855.515000	1597.446289	1096.077881
11893.464362	2855.515000	1596.405273	867.322876
11893.464362	2855.515000	1595.365234	1178.405029
11893.464362	2855.515000	1594.324219	947.457092
11893.464362	2855.515000	1593.283203	1047.212891
11893.464362	2855.515000	1592.242188	1268.601685
11893.464362	2855.515000	1591.200195	1221.409302
11893.464362	2855.515000	1590.159180	974.638977
11893.464362	2855.515000	1589.117188	1003.261230
11893.464362	2855.515000	1588.075195	951.615356
11893.464362	2855.515000	1587.032227	776.174927
11893.464362	2855.515000	1585.990234	944.729675
11893.464362	2855.515000	1584.947266	897.764404
11893.464362	2855.515000	1583.904297	1215.232422
11893.464362	2855.515000	1582.861328	971.220032
11893.464362	2855.515000	1581.818359	983.904663
11893.464362	2855.515000	1580.775391	1069.900146
11893.464362	2855.515000	1579.731445	1169.620483
11893.464362	2855.515000	1578.687500	1196.059814
11893.464362	2855.515000	1577.643555	1130.949341
11893.464362	2855.515000	1576.598633	965.183655
11893.464362	2855.515000	1575.554688	1252.576416
11893.464362	2855.515000	1574.509766	1263.059204
11893.464362	2855.515000	1573.464844	1106.591797
11893.464362	2855.515000	1572.419922	1108.004761
11893.464362	2855.515000	1571.374023	979.114807
11893.464362	2855.515000	1570.329102	1131.479614
11893.464362	2855.515000	1569.283203	1055.258301
11893.464362	2855.515000	1568.237305	883.123596
11893.464362	2855.515000	1567.191406	1115.461670
11893.464362	2855.515000	1566.144531	1110.180176
11893.464362	2855.515000	1565.098633	869.714233
11893.464362	2855.515000	1564.051758	880.527283
11893.464362	2855.515000	1563.004883	893.651001
11893.464362	2855.515000	1561.957031	715.078125
11893.464362	2855.515000	1560.910156	853.798340
11893.464362	2855.515000	1559.862305	780.316101
11893.464362	2855.515000	1558.814453	809.542053
11893.464362	2855.515000	1557.766602	973.343750
11893.464362	2855.515000	1556.718750	870.340881
11893.464362	2855.515000	1555.669922	719.536072
11893.464362	2855.515000	1554.621094	912.989136
11893.464362	2855.515000	1553.573242	985.630859
11893.464362	2855.515000	1552.523438	814.490051
11893.464362	2855.515000	1551.474609	1007.919617
11893.464362	2855.515000	1550.424805	752.650330
11893.464362	2855.515000	1549.375000	861.837463
11893.464362	2855.515000	1548.325195	713.771484
11893.464362	2855.515000	1547.275391	882.178467
11893.464362	2855.515000	1546.225586	797.961060
11893.464362	2855.515000	1545.174805	625.080383
11893.464362	2855.515000	1544.124023	854.937622
11893.464362	2855.515000	1543.073242	670.823242
11893.464362	2855.515000	1542.022461	818.803040
11893.464362	2855.515000	1540.970703	773.522766
11893.464362	2855.515000	1539.919922	669.209717
11893.464362	2855.515000	1538.868164	653.603333
11893.464362	2855.515000	1537.815430	485.814362
11893.464362	2855.515000	1536.763672	611.175476
11893.464362	2855.515000	1535.710938	473.071655
11893.464362	2855.515000	1534.659180	623.451599
11893.464362	2855.515000	1533.606445	578.568604
11893.464362	2855.515000	1532.552734	458.841156
11893.464362	2855.515000	1531.500000	355.094604
11893.464362	2855.515000	1530.446289	655.298401
11893.464362	2855.515000	1529.393555	517.618408
11893.464362	2855.515000	1528.338867	393.639801
11893.464362	2855.515000	1527.285156	482.911987
11893.464362	2855.515000	1526.231445	524.586853
11893.464362	2855.515000	1525.176758	319.219940
11893.464362	2855.515000	1524.122070	358.735962
11893.464362	2855.515000	1523.067383	287.260284
11893.464362	2855.515000	1522.012695	446.925995
11893.464362	2855.515000	1520.957031	355.170624
11893.464362	2855.515000	1519.901367	281.616943
11893.464362	2855.515000	1518.845703	165.125610
11893.464362	2855.515000	1517.790039	329.409821
11893.464362	2855.515000	1516.734375	194.950363
11893.464362	2855.515000	1515.677734	264.228851
11893.464362	2855.515000	1514.621094	159.342438
11893.464362	2855.515000	1513.564453	88.474998
11893.464362	2855.515000	1512.507813	-106.685677
11893.464362	2855.515000	1511.450195	150.451584
11893.464362	2855.515000	1510.393555	-225.372849
11893.464362	2855.515000	1509.335938	156.088577
11893.464362	2855.515000	1508.278320	40.358498
11893.464362	2855.515000	1507.219727	60.268513
11893.464362	2855.515000	1506.162109	204.450150
11893.464362	2855.515000	1505.103516	82.161133
11893.464362	2855.515000	1504.044922	90.922882
11893.464362	2855.515000	1502.986328	210.341095
11893.464362	2855.515000	1501.926758	40.891171
11893.464362	2855.515000	1500.868164	112.997055
11893.464362	2855.515000	1499.808594	-11.139665
11893.464362	2855.515000	1498.749023	-15.630672
11893.464362	2855.515000	1497.688477	-47.127342
11893.464362	2855.515000	1496.628906	-227.356537
11893.464362	2855.515000	1495.568359	-200.080170
11893.464362	2855.515000	1494.507813	70.640663
11893.464362	2855.515000	1493.447266	68.667450
11893.464362	2855.515000	1492.386719	-97.701775
11893.464362	2855.515000	1491.325195	76.153381
11893.464362	2855.515000	1490.263672	130.646179
11893.464362	2855.515000	1489.202148	-177.310150
11893.464362	2855.515000	1488.140625	21.391006
11893.464362	2855.515000	1487.079102	22.020300
11893.464362	2855.515000	1486.016602	-76.299675
11893.464362	2855.515000	1484.954102	3.201463
11893.464362	2855.515000	1483.891602	69.233803
11893.464362	2855.515000	1482.829102	148.790634
11893.464362	2855.515000	1481.765625	70.991821
11893.464362	2855.515000	1480.702148	47.232506
11893.464362	2855.515000	1479.638672	-10.157126
11893.464362	2855.515000	1478.575195	-85.447479
11893.464362	2855.515000	1477.511719	21.343971
11893.464362	2855.515000	1476.447266	15.828551
11893.464362	2855.515000	1475.382813	-30.038361
11893.464362	2855.515000	1474.318359	-87.062347
11893.464362	2855.515000	1473.253906	183.696136
11893.464362	2855.515000	1472.189453	178.388504
11893.464362	2855.515000	1471.124023	155.134171
11893.464362	2855.515000	1470.058594	91.898941
11893.464362	2855.515000	1468.993164	194.326431
11893.464362	2855.515000	1467.927734	256.604187
11893.464362	2855.515000	1466.861328	251.512955
11893.464362	2855.515000	1465.794922	394.239960
11893.464362	2855.515000	1464.728516	514.601624
11893.464362	2855.515000	1463.662109	60.196671
11893.464362	2855.515000	1462.594727	417.767883
11893.464362	2855.515000	1461.528320	337.234070
11893.464362	2855.515000	1460.460938	379.539825
11893.464362	2855.515000	1459.393555	582.759827
11893.464362	2855.515000	1458.326172	366.002380
11893.464362	2855.515000	1457.257813	460.288971
11893.464362	2855.515000	1456.189453	217.131454
11893.464362	2855.515000	1455.121094	629.330627
11893.464362	2855.515000	1454.052734	399.696991
11893.464362	2855.515000	1452.984375	692.442444
11893.464362	2855.515000	1451.915039	717.531067
11893.464362	2855.515000	1450.845703	363.571075
11893.464362	2855.515000	1449.776367	492.461884
11893.464362	2855.515000	1448.707031	475.021790
11893.464362	2855.515000	1447.636719	415.746307
11893.464362	2855.515000	1446.567383	410.522247
11893.464362	2855.515000	1445.497070	195.605362
11893.464362	2855.515000	1444.425781	416.069031
11893.464362	2855.515000	1443.355469	444.457886
11893.464362	2855.515000	1442.285156	436.618103
11893.464362	2855.515000	1441.213867	377.956665
11893.464362	2855.515000	1440.142578	428.766724
11893.464362	2855.515000	1439.070313	407.788391
11893.464362	2855.515000	1437.999023	105.960220
11893.464362	2855.515000	1436.926758	344.087677
11893.464362	2855.515000	1435.854492	432.714691
11893.464362	2855.515000	1434.782227	269.472992
11893.464362	2855.515000	1433.709961	237.987457
11893.464362	2855.515000	1432.636719	203.101959
11893.464362	2855.515000	1431.563477	102.503723
11893.464362	2855.515000	1430.490234	173.033463
11893.464362	2855.515000	1429.416992	154.631454
11893.464362	2855.515000	1428.343750	156.658905
11893.464362	2855.515000	1427.269531	354.756775
11893.464362	2855.515000	1426.195313	346.688232
11893.464362	2855.515000	1425.121094	250.211853
11893.464362	2855.515000	1424.046875	173.002319
11893.464362	2855.515000	1422.971680	183.648071
11893.464362	2855.515000	1421.896484	336.464722
11893.464362	2855.515000	1420.821289	150.975540
11893.464362	2855.515000	1419.746094	70.589523
11893.464362	2855.515000	1418.669922	358.517395
11893.464362	2855.515000	1417.594727	328.780548
11893.464362	2855.515000	1416.518555	447.446198
11893.464362	2855.515000	1415.442383	328.542450
11893.464362	2855.515000	1414.365234	293.753906
11893.464362	2855.515000	1413.289063	219.142517
11893.464362	2855.515000	1412.211914	359.067871
11893.464362	2855.515000	1411.134766	229.740494
11893.464362	2855.515000	1410.057617	247.171890
11893.464362	2855.515000	1408.979492	370.840790
11893.464362	2855.515000	1407.902344	262.752014
11893.464362	2855.515000	1406.824219	396.237274
11893.464362	2855.515000	1405.746094	304.487335
11893.464362	2855.515000	1404.666992	355.538727
11893.464362	2855.515000	1403.588867	431.125275
11893.464362	2855.515000	1402.509766	483.547913
11893.464362	2855.515000	1401.430664	494.927826
11893.464362	2855.515000	1400.351563	545.841858
11893.464362	2855.515000	1399.271484	679.698853
11893.464362	2855.515000	1398.192383	738.101318
11893.464362	2855.515000	1397.112305	630.606445
11893.464362	2855.515000	1396.031250	474.230774
11893.464362	2855.515000	1394.951172	562.002197
11893.464362	2855.515000	1393.871094	510.619629
11893.464362	2855.515000	1392.790039	473.100708
11893.464362	2855.515000	1391.708984	458.328705
11893.464362	2855.515000	1390.626953	658.190369
11893.464362	2855.515000	1389.545898	640.079407
11893.464362	2855.515000	1388.463867	533.340881
11893.464362	2855.515000	1387.381836	717.120667
11893.464362	2855.515000	1386.299805	903.891052
11893.464362	2855.515000	1385.217773	961.203491
11893.464362	2855.515000	1384.134766	934.632568
11893.464362	2855.515000	1383.051758	818.648132
11893.464362	2855.515000	1381.968750	769.682373
11893.464362	2855.515000	1380.885742	681.991882
11893.464362	2855.515000	1379.802734	354.390808
11893.464362	2855.515000	1378.718750	418.972351
11893.464362	2855.515000	1377.634766	279.758911
11893.464362	2855.515000	1376.550781	204.711044
11893.464362	2855.515000	1375.465820	393.623352
11893.464362	2855.515000	1374.381836	289.164459
11893.464362	2855.515000	1373.296875	117.604584
11893.464362	2855.515000	1372.211914	216.674789
11893.464362	2855.515000	1371.126953	260.720459
11893.464362	2855.515000	1370.041016	312.473816
11893.464362	2855.515000	1368.955078	287.590637
11893.464362	2855.515000	1367.869141	348.748322
11893.464362	2855.515000	1366.783203	385.188629
11893.464362	2855.515000	1365.697266	216.659271
11893.464362	2855.515000	1364.610352	241.635849
11893.464362	2855.515000	1363.523438	374.659668
11893.464362	2855.515000	1362.436523	145.527206
11893.464362	2855.515000	1361.349609	157.535934
11893.464362	2855.515000	1360.261719	269.033691
11893.464362	2855.515000	1359.174805	340.179108
11893.464362	2855.515000	1358.086914	418.035522
11893.464362	2855.515000	1356.998047	441.921967
11893.464362	2855.515000	1355.910156	314.190216
11893.464362	2855.515000	1354.821289	223.704575
11893.464362	2855.515000	1353.732422	276.923920
11893.464362	2855.515000	1352.643555	282.247223
11893.464362	2855.515000	1351.554688	328.844055
11893.464362	2855.515000	1350.464844	510.585968
11893.464362	2855.515000	1349.375000	418.401398
11893.464362	2855.515000	1348.285156	282.648346
11893.464362	2855.515000	1347.195313	351.296112
11893.464362	2855.515000	1346.105469	515.406799
11893.464362	2855.515000	1345.014648	383.108948
11893.464362	2855.515000	1343.923828	646.321106
11893.464362	2855.515000	1342.833008	347.854309
11893.464362	2855.515000	1341.741211	377.393921
11893.464362	2855.515000	1340.650391	304.336609
11893.464362	2855.515000	1339.558594	417.004608
11893.464362	2855.515000	1338.466797	392.160034
11893.464362	2855.515000	1337.374023	318.254883
11893.464362	2855.515000	1336.282227	373.918945
11893.464362	2855.515000	1335.189453	523.262878
11893.464362	2855.515000	1334.096680	421.529999
11893.464362	2855.515000	1333.003906	343.922028
11893.464362	2855.515000	1331.910156	509.635345
11893.464362	2855.515000	1330.817383	337.496613
11893.464362	2855.515000	1329.723633	366.884369
11893.464362	2855.515000	1328.629883	378.344543
11893.464362	2855.515000	1327.535156	624.805054
11893.464362	2855.515000	1326.441406	667.440002
11893.464362	2855.515000	1325.346680	407.989441
11893.464362	2855.515000	1324.251953	537.041199
11893.464362	2855.515000	1323.156250	559.079956
11893.464362	2855.515000	1322.061523	387.089111
11893.464362	2855.515000	1320.965820	595.982788
11893.464362	2855.515000	1319.870117	423.136841
11893.464362	2855.515000	1318.774414	531.061462
11893.464362	2855.515000	1317.678711	579.421326
11893.464362	2855.515000	1316.582031	491.528229
11893.464362	2855.515000	1315.485352	443.438660
11893.464362	2855.515000	1314.388672	367.468475
11893.464362	2855.515000	1313.291016	468.896484
11893.464362	2855.515000	1312.194336	483.231140
11893.464362	2855.515000	1311.096680	453.401611
11893.464362	2855.515000	1309.999023	411.114502
11893.464362	2855.515000	1308.901367	477.164246
11893.464362	2855.515000	1307.802734	251.974335
11893.464362	2855.515000	1306.705078	401.128113
11893.464362	2855.515000	1305.606445	383.896790
11893.464362	2855.515000	1304.506836	300.205780
11893.464362	2855.515000	1303.408203	189.025009
11893.464362	2855.515000	1302.308594	502.719574
11893.464362	2855.515000	1301.208984	469.178528
11893.464362	2855.515000	1300.109375	353.250977
11893.464362	2855.515000	1299.009766	630.299805
11893.464362	2855.515000	1297.909180	352.123566
11893.464362	2855.515000	1296.808594	523.990173
11893.464362	2855.515000	1295.708008	420.662811
11893.464362	2855.515000	1294.607422	605.891052
11893.464362	2855.515000	1293.506836	572.317932
11893.464362	2855.515000	1292.405273	420.996063
11893.464362	2855.515000	1291.303711	619.807556
11893.464362	2855.515000	1290.202148	335.413025
11893.464362	2855.515000	1289.099609	391.746002
11893.464362	2855.515000	1287.998047	342.711548
11893.464362	2855.515000	1286.895508	242.642929
11893.464362	2855.515000	1285.792969	206.588181
11893.464362	2855.515000	1284.689453	265.790436
11893.464362	2855.515000	1283.586914	251.736649
11893.464362	2855.515000	1282.483398	111.414536
11893.464362	2855.515000	1281.379883	168.113266
11893.464362	2855.515000	1280.276367	170.254257
11893.464362	2855.515000	1279.171875	167.351212
11893.464362	2855.515000	1278.067383	88.638542
11893.464362	2855.515000	1276.962891	53.860935
11893.464362	2855.515000	1275.858398	-3.018206
11893.464362	2855.515000	1274.753906	-95.015930
11893.464362	2855.515000	1273.648438	-4.912438
11893.464362	2855.515000	1272.542969	68.680962
11893.464362	2855.515000	1271.437500	5.114409
11893.464362	2855.515000	1270.331055	16.611637
11893.464362	2855.515000	1269.225586	104.710167
11893.464362	2855.515000	1268.119141	-40.508282
11893.464362	2855.515000	1267.012695	76.592995
11893.464362	2855.515000	1265.906250	73.718628
11893.464362	2855.515000	1264.798828	20.938101
11893.464362	2855.515000	1263.691406	62.720123
11893.464362	2855.515000	1262.583984	0.072075
11893.464362	2855.515000	1261.476563	-139.371719
11893.464362	2855.515000	1260.368164	-46.902103
11893.464362	2855.515000	1259.260742	170.207809
11893.464362	2855.515000	1258.152344	-46.263882
11893.464362	2855.515000	1257.043945	52.861504
11893.464362	2855.515000	1255.934570	32.881016
11893.464362	2855.515000	1254.825195	232.160812
11893.464362	2855.515000	1253.716797	151.574844
11893.464362	2855.515000	1252.606445	3.964384
11893.464362	2855.515000	1251.497070	80.516617
11893.464362	2855.515000	1250.387695	161.121399
11893.464362	2855.515000	1249.277344	-51.287491
11893.464362	2855.515000	1248.166992	176.531113
11893.464362	2855.515000	1247.055664	106.123322
11893.464362	2855.515000	1245.945313	110.677902
11893.464362	2855.515000	1244.833984	65.628311
11893.464362	2855.515000	1243.722656	112.757698
11893.464362	2855.515000	1242.611328	237.009995
11893.464362	2855.515000	1241.499023	178.787766
11893.464362	2855.515000	1240.387695	136.473160
11893.464362	2855.515000	1239.275391	104.269150
11893.464362	2855.515000	1238.162109	74.262253
11893.464362	2855.515000	1237.049805	29.926460
11893.464362	2855.515000	1235.936523	99.267456
11893.464362	2855.515000	1234.823242	95.396561
11893.464362	2855.515000	1233.709961	-48.736412
11893.464362	2855.515000	1232.596680	150.563461
11893.464362	2855.515000	1231.482422	68.972153
11893.464362	2855.515000	1230.369141	-22.819471
11893.464362	2855.515000	1229.253906	28.204559
11893.464362	2855.515000	1228.139648	14.907405
11893.464362	2855.515000	1227.025391	-56.093548
11893.464362	2855.515000	1225.910156	-110.614525
11893.464362	2855.515000	1224.794922	-84.701378
11893.464362	2855.515000	1223.679688	-52.772427
11893.464362	2855.515000	1222.563477	18.500614
11893.464362	2855.515000	1221.447266	5.054354
11893.464362	2855.515000	1220.331055	-52.114491
11893.464362	2855.515000	1219.214844	66.331627
11893.464362	2855.515000	1218.098633	69.977310
11893.464362	2855.515000	1216.981445	64.772896
11893.464362	2855.515000	1215.864258	11.967552
11893.464362	2855.515000	1214.747070	75.372459
11893.464362	2855.515000	1213.629883	204.541977
11893.464362	2855.515000	1212.511719	49.738892
11893.464362	2855.515000	1211.393555	-45.839321
11893.464362	2855.515000	1210.275391	87.526726
11893.464362	2855.515000	1209.157227	91.383598
11893.464362	2855.515000	1208.038086	-150.877045
11893.464362	2855.515000	1206.918945	23.861277
11893.464362	2855.515000	1205.799805	-121.556068
11893.464362	2855.515000	1204.680664	-94.299294
11893.464362	2855.515000	1203.560547	-10.885953
11893.464362	2855.515000	1202.441406	28.438824
11893.464362	2855.515000	1201.321289	-0.704481
11893.464362	2855.515000	1200.200195	-35.191204
11893.464362	2855.515000	1199.080078	-95.645287
11893.464362	2855.515000	1197.958984	7.408161
11893.464362	2855.515000	1196.837891	-81.280457
11893.464362	2855.515000	1195.716797	-39.026859
11893.464362	2855.515000	1194.594727	-17.911169
11893.464362	2855.515000	1193.473633	-75.125534
11893.464362	2855.515000	1192.351563	-2.245971
11893.464362	2855.515000	1191.229492	164.311996
11893.464362	2855.515000	1190.106445	-50.552319
11893.464362	2855.515000	1188.984375	-16.024092
11893.464362	2855.515000	1187.861328	-96.346436
11893.464362	2855.515000	1186.738281	7.338638
11893.464362	2855.515000	1185.614258	-6.934849
11893.464362	2855.515000	1184.491211	-31.909542
11893.464362	2855.515000	1183.367188	1.518989
11893.464362	2855.515000	1182.243164	-56.473812
11893.464362	2855.515000	1181.119141	-134.593262
11893.464362	2855.515000	1179.994141	-154.731171
11893.464362	2855.515000	1178.869141	-148.272598
11893.464362	2855.515000	1177.744141	-107.663071
11893.464362	2855.515000	1176.619141	-123.193825
11893.464362	2855.515000	1175.493164	-126.060448
11893.464362	2855.515000	1174.368164	-170.223999
11893.464362	2855.515000	1173.242188	19.659922
11893.464362	2855.515000	1172.115234	-159.999802
11893.464362	2855.515000	1170.989258	-74.339836
11893.464362	2855.515000	1169.862305	19.756525
11893.464362	2855.515000	1168.735352	-75.110199
11893.464362	2855.515000	1167.608398	9.442610
11893.464362	2855.515000	1166.481445	-24.847925
11893.464362	2855.515000	1165.353516	-187.077927
11893.464362	2855.515000	1164.225586	-137.505203
11893.464362	2855.515000	1163.097656	-109.217804
11893.464362	2855.515000	1161.968750	-69.083397
11893.464362	2855.515000	1160.840820	-96.437508
11893.464362	2855.515000	1159.711914	-58.151028
11893.464362	2855.515000	1158.583008	-132.179886
11893.464362	2855.515000	1157.453125	28.401163
11893.464362	2855.515000	1156.324219	-88.348686
11893.464362	2855.515000	1155.194336	-151.922577
11893.464362	2855.515000	1154.064453	-52.089775
11893.464362	2855.515000	1152.933594	-29.706379
11893.464362	2855.515000	1151.803711	-91.509888
11893.464362	2855.515000	1150.672852	-66.757248
11893.464362	2855.515000	1149.541992	129.919067
11893.464362	2855.515000	1148.411133	-4.949836
11893.464362	2855.515000	1147.279297	-25.912491
11893.464362	2855.515000	1146.147461	24.982685
11893.464362	2855.515000	1145.015625	-48.286880
11893.464362	2855.515000	1143.883789	-131.362900
11893.464362	2855.515000	1142.750977	74.705009
11893.464362	2855.515000	1141.619141	15.160267
11893.464362	2855.515000	1140.486328	-91.219299
11893.464362	2855.515000	1139.352539	77.363014
11893.464362	2855.515000	1138.219727	59.164444
11893.464362	2855.515000	1137.085938	-38.123249
11893.464362	2855.515000	1135.952148	177.071884
11893.464362	2855.515000	1134.818359	206.990967
11893.464362	2855.515000	1133.683594	191.602798
11893.464362	2855.515000	1132.549805	222.033997
11893.464362	2855.515000	1131.415039	438.175323
11893.464362	2855.515000	1130.279297	640.523743
11893.464362	2855.515000	1129.144531	618.923767
11893.464362	2855.515000	1128.008789	606.390076
11893.464362	2855.515000	1126.873047	635.889343
11893.464362	2855.515000	1125.737305	644.070007
11893.464362	2855.515000	1124.601563	613.911438
11893.464362	2855.515000	1123.464844	512.167480
11893.464362	2855.515000	1122.328125	444.763855
11893.464362	2855.515000	1121.191406	459.975952
11893.464362	2855.515000	1120.054688	222.414093
11893.464362	2855.515000	1118.916992	353.912048
11893.464362	2855.515000	1117.779297	365.527527
11893.464362	2855.515000	1116.641602	250.625763
11893.464362	2855.515000	1115.503906	233.088562
11893.464362	2855.515000	1114.365234	224.131454
11893.464362	2855.515000	1113.226563	-19.045151
11893.464362	2855.515000	1112.087891	312.205231
11893.464362	2855.515000	1110.949219	99.480263
11893.464362	2855.515000	1109.809570	100.026619
11893.464362	2855.515000	1108.669922	51.168861
11893.464362	2855.515000	1107.530273	49.613041
11893.464362	2855.515000	1106.390625	136.944138
11893.464362	2855.515000	1105.250000	171.185120
11893.464362	2855.515000	1104.109375	134.069839
11893.464362	2855.515000	1102.968750	51.857098
11893.464362	2855.515000	1101.828125	147.138718
11893.464362	2855.515000	1100.686523	284.170013
11893.464362	2855.515000	1099.544922	240.932968
11893.464362	2855.515000	1098.403320	224.314362
11893.464362	2855.515000	1097.261719	208.671631
11893.464362	2855.515000	1096.120117	130.037048
11893.464362	2855.515000	1094.977539	164.451950
11893.464362	2855.515000	1093.834961	50.384819
11893.464362	2855.515000	1092.691406	138.105453
11893.464362	2855.515000	1091.548828	-0.110216
11893.464362	2855.515000	1090.405273	15.712918
11893.464362	2855.515000	1089.261719	239.897919
11893.464362	2855.515000	1088.118164	49.651890
11893.464362	2855.515000	1086.973633	47.255276
11893.464362	2855.515000	1085.829102	77.557587
11893.464362	2855.515000	1084.684570	176.267883
11893.464362	2855.515000	1083.540039	102.837410
11893.464362	2855.515000	1082.395508	54.325806
11893.464362	2855.515000	1081.250000	-22.700441
11893.464362	2855.515000	1080.104492	150.173737
11893.464362	2855.515000	1078.958984	65.074417
11893.464362	2855.515000	1077.812500	94.647110
11893.464362	2855.515000	1076.666016	140.382172
11893.464362	2855.515000	1075.519531	118.749405
11893.464362	2855.515000	1074.373047	83.817284
11893.464362	2855.515000	1073.226563	220.839798
11893.464362	2855.515000	1072.079102	54.072720
11893.464362	2855.515000	1070.931641	179.625671
11893.464362	2855.515000	1069.784180	167.282944
11893.464362	2855.515000	1068.635742	190.766068
11893.464362	2855.515000	1067.487305	120.824379
11893.464362	2855.515000	1066.338867	205.596664
11893.464362	2855.515000	1065.190430	222.919952
11893.464362	2855.515000	1064.041992	136.153732
11893.464362	2855.515000	1062.892578	223.807526
11893.464362	2855.515000	1061.743164	266.550720
11893.464362	2855.515000	1060.593750	288.046509
11893.464362	2855.515000	1059.443359	158.096390
11893.464362	2855.515000	1058.292969	178.789703
11893.464362	2855.515000	1057.142578	298.964478
11893.464362	2855.515000	1055.992188	209.105225
11893.464362	2855.515000	1054.841797	112.380051
11893.464362	2855.515000	1053.690430	100.976044
11893.464362	2855.515000	1052.539063	57.350880
11893.464362	2855.515000	1051.387695	53.481255
11893.464362	2855.515000	1050.235352	40.116707
11893.464362	2855.515000	1049.083984	266.202911
11893.464362	2855.515000	1047.931641	74.403793
11893.464362	2855.515000	1046.778320	21.433346
11893.464362	2855.515000	1045.625977	126.430695
11893.464362	2855.515000	1044.472656	86.327271
11893.464362	2855.515000	1043.319336	69.576035
11893.464362	2855.515000	1042.166016	-3.365836
11893.464362	2855.515000	1041.012695	72.448112
11893.464362	2855.515000	1039.858398	81.291664
11893.464362	2855.515000	1038.704102	213.680359
11893.464362	2855.515000	1037.549805	122.637810
11893.464362	2855.515000	1036.394531	61.541260
11893.464362	2855.515000	1035.239258	113.845772
11893.464362	2855.515000	1034.083984	169.854233
11893.464362	2855.515000	1032.928711	113.770935
11893.464362	2855.515000	1031.773438	329.444641
11893.464362	2855.515000	1030.617188	175.567978
11893.464362	2855.515000	1029.460938	-56.081638
11893.464362	2855.515000	1028.304688	110.564316
11893.464362	2855.515000	1027.147461	64.235489
11893.464362	2855.515000	1025.991211	176.284607
11893.464362	2855.515000	1024.833984	-8.688603
11893.464362	2855.515000	1023.675781	18.458563
11893.464362	2855.515000	1022.518555	117.433418
11893.464362	2855.515000	1021.360352	85.180328
11893.464362	2855.515000	1020.202148	106.370422
11893.464362	2855.515000	1019.043945	58.071274
11893.464362	2855.515000	1017.884766	121.344414
11893.464362	2855.515000	1016.726563	-13.605582
11893.464362	2855.515000	1015.567383	91.182076
11893.464362	2855.515000	1014.407227	-18.940929
11893.464362	2855.515000	1013.248047	-13.215236
11893.464362	2855.515000	1012.087891	77.691917
11893.464362	2855.515000	1010.927734	197.570953
11893.464362	2855.515000	1009.767578	-41.841614
11893.464362	2855.515000	1008.606445	20.795893
11893.464362	2855.515000	1007.446289	-48.632977
11893.464362	2855.515000	1006.285156	118.347931
11893.464362	2855.515000	1005.123047	134.939926
11893.464362	2855.515000	1003.961914	169.923141
11893.464362	2855.515000	1002.799805	69.102722
11893.464362	2855.515000	1001.637695	190.894226
11893.464362	2855.515000	1000.475586	86.482399
11893.464362	2855.515000	999.312500	-57.149578
11893.464362	2855.515000	998.149414	29.891424
11893.464362	2855.515000	996.986328	-9.725472
11893.464362	2855.515000	995.823242	-76.864349
11893.464362	2855.515000	994.659180	-1.829194
11893.464362	2855.515000	993.496094	-29.163847
11893.464362	2855.515000	992.332031	-28.548758
11893.464362	2855.515000	991.166992	-19.982811
11893.464362	2855.515000	990.002930	89.445320
11893.464362	2855.515000	988.837891	33.242596
11893.464362	2855.515000	987.672852	74.469269
11893.464362	2855.515000	986.506836	-25.916054
11893.464362	2855.515000	985.341797	-36.864250
11893.464362	2855.515000	984.175781	-117.562798
11893.464362	2855.515000	983.009766	-7.475814
11893.464362	2855.515000	981.843750	-174.272064
11893.464362	2855.515000	980.676758	39.575329
11893.464362	2855.515000	979.509766	23.671638
11893.464362	2855.515000	978.342773	143.705505
11893.464362	2855.515000	977.175781	-90.676422
11893.464362	2855.515000	976.007813	132.445282
11893.464362	2855.515000	974.839844	159.673950
11893.464362	2855.515000	973.671875	-84.375488
11893.464362	2855.515000	972.503906	31.499758
11893.464362	2855.515000	971.334961	-32.906429
11893.464362	2855.515000	970.166016	54.864319
11893.464362	2855.515000	968.997070	33.004547
11893.464362	2855.515000	967.828125	-19.744375
11893.464362	2855.515000	966.658203	105.931396
11893.464362	2855.515000	965.488281	92.967331
11893.464362	2855.515000	964.318359	218.650696
11893.464362	2855.515000	963.148438	324.581238
11893.464362	2855.515000	961.977539	255.443848
11893.464362	2855.515000	960.806641	421.204315
11893.464362	2855.515000	959.635742	310.484863
11893.464362	2855.515000	958.463867	99.314079
11893.464362	2855.515000	957.292969	216.007248
11893.464362	2855.515000	956.121094	166.462250
11893.464362	2855.515000	954.948242	178.882324
11893.464362	2855.515000	953.776367	168.902130
11893.464362	2855.515000	952.603516	-35.131306
11893.464362	2855.515000	951.430664	-3.973809
11893.464362	2855.515000	950.257813	-26.603769
11893.464362	2855.515000	949.084961	10.739682
11893.464362	2855.515000	947.911133	-25.184475
11893.464362	2855.515000	946.737305	53.236111
11893.464362	2855.515000	945.563477	-52.332912
11893.464362	2855.515000	944.388672	48.296597
11893.464362	2855.515000	943.213867	55.398640
11893.464362	2855.515000	942.039063	-17.592592
11893.464362	2855.515000	940.864258	15.596455
11893.464362	2855.515000	939.688477	-14.154714
11893.464362	2855.515000	938.513672	-0.504688
11893.464362	2855.515000	937.337891	86.924072
11893.464362	2855.515000	936.161133	135.397766
11893.464362	2855.515000	934.985352	-78.893539
11893.464362	2855.515000	933.808594	40.999920
11893.464362	2855.515000	932.631836	113.267227
11893.464362	2855.515000	931.454102	115.983124
11893.464362	2855.515000	930.277344	170.706406
11893.464362	2855.515000	929.099609	145.303253
11893.464362	2855.515000	927.921875	256.405640
11893.464362	2855.515000	926.743164	267.810425
11893.464362	2855.515000	925.565430	216.299133
11893.464362	2855.515000	924.386719	104.136292
11893.464362	2855.515000	923.208008	67.837692
11893.464362	2855.515000	922.028320	68.386688
11893.464362	2855.515000	920.849609	144.731827
11893.464362	2855.515000	919.669922	146.937363
11893.464362	2855.515000	919.474609	-31.963772
11893.464362	2855.515000	918.309570	44.333496
11893.464362	2855.515000	917.143555	-65.571495
11893.464362	2855.515000	915.977539	-52.076023
11893.464362	2855.515000	914.810547	41.468239
11893.464362	2855.515000	913.644531	20.306778
11893.464362	2855.515000	912.477539	20.776226
11893.464362	2855.515000	911.310547	-199.337082
11893.464362	2855.515000	910.143555	-99.383202
11893.464362	2855.515000	908.975586	17.816416
11893.464362	2855.515000	907.807617	-189.216034
11893.464362	2855.515000	906.639648	16.529249
11893.464362	2855.515000	905.471680	-11.129356
11893.464362	2855.515000	904.303711	144.803787
11893.464362	2855.515000	903.134766	-83.709122
11893.464362	2855.515000	901.965820	-208.505753
11893.464362	2855.515000	900.796875	-186.478149
11893.464362	2855.515000	899.626953	-54.402454
11893.464362	2855.515000	898.457031	-97.158783
11893.464362	2855.515000	897.287109	-85.974663
11893.464362	2855.515000	896.117188	-100.684082
11893.464362	2855.515000	894.947266	11.829668
11893.464362	2855.515000	893.776367	-190.471298
11893.464362	2855.515000	892.605469	-118.952927
11893.464362	2855.515000	891.434570	-38.851070
11893.464362	2855.515000	890.262695	-27.734880
11893.464362	2855.515000	889.091797	110.462128
11893.464362	2855.515000	887.919922	56.916588
11893.464362	2855.515000	886.748047	-95.664680
11893.464362	2855.515000	885.575195	102.720894
11893.464362	2855.515000	884.403320	-49.823524
11893.464362	2855.515000	883.230469	45.162800
11893.464362	2855.515000	882.057617	-79.351578
11893.464362	2855.515000	880.883789	88.723282
11893.464362	2855.515000	879.710938	-44.367340
11893.464362	2855.515000	878.537109	5.355792
11893.464362	2855.515000	877.362305	14.206573
11893.464362	2855.515000	876.188477	154.151993
11893.464362	2855.515000	875.013672	66.253761
11893.464362	2855.515000	873.839844	-103.258430
11893.464362	2855.515000	872.664063	-107.312065
11893.464362	2855.515000	871.489258	-83.455368
11893.464362	2855.515000	870.313477	-61.762436
11893.464362	2855.515000	869.138672	-63.701767
11893.464362	2855.515000	867.962891	28.786776
11893.464362	2855.515000	866.786133	50.418911
11893.464362	2855.515000	865.610352	-129.630753
11893.464362	2855.515000	864.433594	-11.471565
11893.464362	2855.515000	863.256836	-107.817047
11893.464362	2855.515000	862.079102	-137.665314
11893.464362	2855.515000	860.902344	-113.922272
11893.464362	2855.515000	859.724609	-58.049397
11893.464362	2855.515000	858.546875	-38.634701
11893.464362	2855.515000	857.368164	40.747482
11893.464362	2855.515000	856.190430	17.277725
11893.464362	2855.515000	855.011719	-162.512360
11893.464362	2855.515000	853.833008	-57.491055
11893.464362	2855.515000	852.654297	-61.689217
11893.464362	2855.515000	851.474609	113.871986
11893.464362	2855.515000	850.294922	62.549404
11893.464362	2855.515000	849.115234	-85.026230
11893.464362	2855.515000	847.935547	-70.005913
11893.464362	2855.515000	846.754883	13.425082
11893.464362	2855.515000	845.575195	-31.463200
11893.464362	2855.515000	844.393555	-87.028099
11893.464362	2855.515000	843.212891	-106.253853
11893.464362	2855.515000	842.032227	98.856384
11893.464362	2855.515000	840.850586	-174.619049
11893.464362	2855.515000	839.668945	-50.756363
11893.464362	2855.515000	838.486328	-31.582212
11893.464362	2855.515000	837.304688	151.951385
11893.464362	2855.515000	836.122070	-132.027603
11893.464362	2855.515000	834.939453	-234.517731
11893.464362	2855.515000	833.756836	-198.301361
11893.464362	2855.515000	832.573242	27.730013
11893.464362	2855.515000	831.389648	-170.733154
11893.464362	2855.515000	830.206055	-196.421494
11893.464362	2855.515000	829.022461	3.850847
11893.464362	2855.515000	827.838867	-188.130157
11893.464362	2855.515000	826.654297	56.781075
11893.464362	2855.515000	825.469727	284.533813
11893.464362	2855.515000	824.284180	9.506976
11893.464362	2855.515000	823.099609	-33.302464
11893.464362	2855.515000	821.914063	40.993408
11893.464362	2855.515000	820.728516	113.114899
11893.464362	2855.515000	819.542969	-36.141781
11893.464362	2855.515000	818.356445	-40.661442
11893.464362	2855.515000	817.169922	118.610733
11893.464362	2855.515000	815.983398	-47.613541
11893.464362	2855.515000	814.796875	5.241232
11893.464362	2855.515000	813.609375	79.319489
11893.464362	2855.515000	812.422852	89.583221
11893.464362	2855.515000	811.235352	152.956726
11893.464362	2855.515000	810.046875	82.431969
11893.464362	2855.515000	808.859375	58.653130
11893.464362	2855.515000	807.670898	98.583504
11893.464362	2855.515000	806.482422	-31.390472
11893.464362	2855.515000	805.293945	127.393112
11893.464362	2855.515000	804.104492	105.682098
11893.464362	2855.515000	802.915039	90.328293
11893.464362	2855.515000	801.725586	94.057564
11893.464362	2855.515000	800.536133	144.434158
11893.464362	2855.515000	799.345703	25.112570
11893.464362	2855.515000	798.155273	117.852890
11893.464362	2855.515000	796.964844	-69.287003
11893.464362	2855.515000	795.774414	-16.871777
11893.464362	2855.515000	794.583008	46.098232
11893.464362	2855.515000	793.392578	60.295399
11893.464362	2855.515000	792.200195	-3.901522
11893.464362	2855.515000	791.008789	73.792343
11893.464362	2855.515000	789.816406	87.917458
11893.464362	2855.515000	788.625000	17.343586
11893.464362	2855.515000	787.432617	14.502738
11893.464362	2855.515000	786.239258	115.323845
11893.464362	2855.515000	785.046875	-25.084471
11893.464362	2855.515000	783.853516	88.351303
11893.464362	2855.515000	782.660156	9.288899
11893.464362	2855.515000	781.465820	21.147217
11893.464362	2855.515000	780.272461	22.410027
11893.464362	2855.515000	779.078125	108.182434
11893.464362	2855.515000	777.883789	181.219406
11893.464362	2855.515000	776.688477	182.382645
11893.464362	2855.515000	775.494141	198.304993
11893.464362	2855.515000	774.298828	214.198837
11893.464362	2855.515000	773.103516	124.507187
11893.464362	2855.515000	771.907227	199.461807
11893.464362	2855.515000	770.711914	2.141966
11893.464362	2855.515000	769.515625	-15.787945
11893.464362	2855.515000	768.318359	147.669846
11893.464362	2855.515000	767.122070	53.748039
11893.464362	2855.515000	765.924805	115.867264
11893.464362	2855.515000	764.727539	182.151840
11893.464362	2855.515000	763.530273	265.244110
11893.464362	2855.515000	762.333008	152.311859
11893.464362	2855.515000	761.134766	151.056366
11893.464362	2855.515000	759.936523	225.602051
11893.464362	2855.515000	758.738281	361.159607
11893.464362	2855.515000	757.540039	313.464233
11893.464362	2855.515000	756.340820	198.403625
11893.464362	2855.515000	755.141602	260.143799
11893.464362	2855.515000	753.942383	115.631325
11893.464362	2855.515000	752.742188	91.059555
11893.464362	2855.515000	751.541992	93.812332
11893.464362	2855.515000	750.341797	62.891891
11893.464362	2855.515000	749.141602	149.686707
11893.464362	2855.515000	747.941406	146.035965
11893.464362	2855.515000	746.740234	49.894592
11893.464362	2855.515000	745.539063	35.703709
11893.464362	2855.515000	744.337891	275.659882
11893.464362	2855.515000	743.135742	70.258095
11893.464362	2855.515000	741.933594	-46.899876
11893.464362	2855.515000	740.731445	117.262451
11893.464362	2855.515000	739.529297	188.978317
11893.464362	2855.515000	738.326172	325.684448
11893.464362	2855.515000	737.124023	342.720215
11893.464362	2855.515000	735.919922	342.938110
11893.464362	2855.515000	734.716797	720.599060
11893.464362	2855.515000	733.513672	462.791656
11893.464362	2855.515000	732.309570	590.759705
11893.464362	2855.515000	731.105469	454.579315
11893.464362	2855.515000	729.900391	387.569458
11893.464362	2855.515000	728.696289	326.841797
11893.464362	2855.515000	727.491211	465.078278
11893.464362	2855.515000	726.286133	307.972382
11893.464362	2855.515000	725.080078	280.700348
11893.464362	2855.515000	723.874023	142.471344
11893.464362	2855.515000	722.668945	171.684586
11893.464362	2855.515000	721.461914	52.302101
11893.464362	2855.515000	720.255859	-83.797081
11893.464362	2855.515000	719.048828	-104.845894
11893.464362	2855.515000	717.841797	-119.646263
11893.464362	2855.515000	716.634766	-36.219788
11893.464362	2855.515000	715.427734	-84.535309
11893.464362	2855.515000	714.219727	-36.740971
11893.464362	2855.515000	713.011719	-91.370026
11893.464362	2855.515000	711.803711	14.823534
11893.464362	2855.515000	710.594727	93.791115
11893.464362	2855.515000	709.385742	-17.304646
11893.464362	2855.515000	708.176758	13.558160
11893.464362	2855.515000	706.967773	-47.453548
11893.464362	2855.515000	705.758789	0.027361
11893.464362	2855.515000	704.548828	185.138214
11893.464362	2855.515000	703.338867	44.770344
11893.464362	2855.515000	702.127930	165.082504
11893.464362	2855.515000	700.917969	-33.664867
11893.464362	2855.515000	699.707031	78.207619
11893.464362	2855.515000	698.496094	133.732513
11893.464362	2855.515000	697.285156	66.273094
11893.464362	2855.515000	696.073242	196.697983
11893.464362	2855.515000	694.861328	191.662872
11893.464362	2855.515000	693.649414	147.034485
11893.464362	2855.515000	692.436523	4.547089
11893.464362	2855.515000	691.224609	149.306808
11893.464362	2855.515000	690.011719	152.470688
11893.464362	2855.515000	688.798828	159.760010
11893.464362	2855.515000	687.584961	104.610184
11893.464362	2855.515000	686.372070	305.236420
11893.464362	2855.515000	685.158203	580.591492
11893.464362	2855.515000	683.943359	824.613342
11893.464362	2855.515000	682.729492	657.007629
11893.464362	2855.515000	681.514648	703.451599
11893.464362	2855.515000	680.299805	436.157501
11893.464362	2855.515000	679.084961	424.404663
11893.464362	2855.515000	677.869141	570.435974
11893.464362	2855.515000	676.653320	587.655151
11893.464362	2855.515000	675.437500	382.741058
11893.464362	2855.515000	674.221680	213.157623
11893.464362	2855.515000	673.004883	136.973801
11893.464362	2855.515000	671.789063	156.208282
11893.464362	2855.515000	670.571289	94.516808
11893.464362	2855.515000	669.354492	36.966053
11893.464362	2855.515000	668.136719	-37.179356
11893.464362	2855.515000	666.919922	201.631729
11893.464362	2855.515000	665.701172	85.971764
11893.464362	2855.515000	664.483398	268.651917
11893.464362	2855.515000	663.264648	210.956146
11893.464362	2855.515000	662.045898	124.259804
11893.464362	2855.515000	660.827148	161.790146
11893.464362	2855.515000	659.608398	157.873032
11893.464362	2855.515000	658.388672	44.240276
11893.464362	2855.515000	657.168945	189.256607
11893.464362	2855.515000	655.949219	63.188866
11893.464362	2855.515000	654.728516	-4.949476
11893.464362	2855.515000	653.507813	166.768448
11893.464362	2855.515000	652.287109	106.843834
11893.464362	2855.515000	651.066406	77.916100
11893.464362	2855.515000	649.844727	144.023575
11893.464362	2855.515000	648.623047	141.894989
11893.464362	2855.515000	647.401367	172.785507
11893.464362	2855.515000	646.179688	205.698334
11893.464362	2855.515000	644.957031	170.430511
11893.464362	2855.515000	643.734375	151.661102
11893.464362	2855.515000	642.511719	147.317154
11893.464362	2855.515000	641.289063	297.700745
11893.464362	2855.515000	640.065430	117.916969
11893.464362	2855.515000	638.841797	181.557602
11893.464362	2855.515000	637.618164	170.908630
11893.464362	2855.515000	636.393555	285.994049
11893.464362	2855.515000	635.168945	174.270447
11893.464362	2855.515000	633.944336	72.870514
11893.464362	2855.515000	632.719727	-9.970528
11893.464362	2855.515000	631.494141	28.728798
11893.464362	2855.515000	630.269531	133.290787
11893.464362	2855.515000	629.042969	231.600021
11893.464362	2855.515000	627.817383	241.326385
11893.464362	2855.515000	626.590820	109.007599
11893.464362	2855.515000	625.365234	19.935385
11893.464362	2855.515000	624.137695	216.832993
11893.464362	2855.515000	622.911133	158.577606
11893.464362	2855.515000	621.683594	28.345955
11893.464362	2855.515000	620.456055	167.478775
11893.464362	2855.515000	619.228516	72.199127
11893.464362	2855.515000	618.000977	94.077766
11893.464362	2855.515000	616.772461	185.780624
11893.464362	2855.515000	615.543945	84.326202
11893.464362	2855.515000	614.314453	175.947800
11893.464362	2855.515000	613.085938	60.123554
11893.464362	2855.515000	611.856445	186.570541
11893.464362	2855.515000	610.626953	19.438242
11893.464362	2855.515000	609.397461	80.135323
11893.464362	2855.515000	608.166992	91.546394
11893.464362	2855.515000	606.936523	-38.596989
11893.464362	2855.515000	605.706055	44.573822
11893.464362	2855.515000	604.474609	29.274948
11893.464362	2855.515000	603.244141	-221.766190
11893.464362	2855.515000	602.012695	-40.290215
11893.464362	2855.515000	600.780273	-151.916275
11893.464362	2855.515000	599.548828	-38.166397
11893.464362	2855.515000	598.316406	-102.668938
11893.464362	2855.515000	597.083984	-68.869461
11893.464362	2855.515000	595.851563	-73.996468
11893.464362	2855.515000	594.618164	-21.826551
11893.464362	2855.515000	593.384766	-29.036694
11893.464362	2855.515000	592.151367	-79.221100
11893.464362	2855.515000	590.917969	-104.849953
11893.464362	2855.515000	589.683594	80.159477
11893.464362	2855.515000	588.449219	216.008698
11893.464362	2855.515000	587.214844	-67.271523
11893.464362	2855.515000	585.979492	-105.191704
11893.464362	2855.515000	584.745117	-102.236053
11893.464362	2855.515000	583.509766	-64.564362
11893.464362	2855.515000	582.273438	-155.594574
11893.464362	2855.515000	581.038086	59.712559
11893.464362	2855.515000	579.801758	-53.778351
11893.464362	2855.515000	578.565430	-201.926819
11893.464362	2855.515000	577.329102	45.880463
11893.464362	2855.515000	576.091797	42.618267
11893.464362	2855.515000	574.854492	-23.882484
11893.464362	2855.515000	573.617188	-72.005074
11893.464362	2855.515000	572.378906	-32.438316
11893.464362	2855.515000	571.141602	43.803356
11893.464362	2855.515000	569.903320	120.007813
11893.464362	2855.515000	568.664063	-93.176025
11893.464362	2855.515000	567.425781	-0.682509
11893.464362	2855.515000	566.186523	20.478346
11893.464362	2855.515000	564.947266	-45.935307
11893.464362	2855.515000	563.708008	-18.669106
11893.464362	2855.515000	562.467773	-28.055473
11893.464362	2855.515000	561.227539	86.699844
11893.464362	2855.515000	559.987305	81.362915
11893.464362	2855.515000	558.747070	-3.303151
11893.464362	2855.515000	557.505859	13.752985
11893.464362	2855.515000	556.264648	20.636084
11893.464362	2855.515000	555.023438	11.255714
11893.464362	2855.515000	553.781250	16.105576
11893.464362	2855.515000	552.539063	10.796241
11893.464362	2855.515000	551.296875	56.282166
11893.464362	2855.515000	550.054688	-91.207787
11893.464362	2855.515000	548.811523	21.298546
11893.464362	2855.515000	547.569336	-71.295532
11893.464362	2855.515000	546.325195	-56.268490
11893.464362	2855.515000	545.082031	-114.299294
11893.464362	2855.515000	543.837891	-115.492783
11893.464362	2855.515000	542.593750	-143.050552
11893.464362	2855.515000	541.349609	13.966584
11893.464362	2855.515000	540.105469	101.980225
11893.464362	2855.515000	538.860352	-91.826126
11893.464362	2855.515000	537.615234	93.469368
11893.464362	2855.515000	536.369141	-37.425896
11893.464362	2855.515000	535.124023	3.949674
11893.464362	2855.515000	533.877930	0.748975
11893.464362	2855.515000	532.631836	-196.849442
11893.464362	2855.515000	531.384766	-48.147991
11893.464362	2855.515000	530.138672	-170.742889
11893.464362	2855.515000	528.891602	-54.477345
11893.464362	2855.515000	527.643555	25.321457
11893.464362	2855.515000	526.396484	-56.735756
11893.464362	2855.515000	525.148438	65.513580
11893.464362	2855.515000	523.900391	29.999743
11893.464362	2855.515000	522.652344	79.413971
11893.464362	2855.515000	521.403320	-38.946743
11893.464362	2855.515000	520.154297	20.573334
11893.464362	2855.515000	518.905273	7.343081
11893.464362	2855.515000	517.656250	62.797749
11893.464362	2855.515000	516.406250	156.600418
11893.464362	2855.515000	515.156250	26.260166
11893.464362	2855.515000	513.906250	-122.188263
11893.464362	2855.515000	512.655273	-151.501816
11893.464362	2855.515000	511.404297	47.198555
11893.464362	2855.515000	510.153320	-56.772251
11893.464362	2855.515000	508.902344	-156.662872
11893.464362	2855.515000	507.650391	-230.297775
11893.464362	2855.515000	506.398438	-13.603802
11893.464362	2855.515000	505.146484	88.112679
11893.464362	2855.515000	503.893555	54.771172
11893.464362	2855.515000	502.641602	67.781265
11893.464362	2855.515000	501.388672	54.596912
11893.464362	2855.515000	500.134766	73.632202
11893.464362	2855.515000	498.881836	92.656929
11893.464362	2855.515000	497.627930	121.731316
11893.464362	2855.515000	496.374023	138.710327
11893.464362	2855.515000	495.119141	67.141998
11893.464362	2855.515000	493.865234	-66.762711
11893.464362	2855.515000	492.610352	201.615723
11893.464362	2855.515000	491.355469	75.759003
11893.464362	2855.515000	490.099609	70.559586
11893.464362	2855.515000	488.843750	171.872101
11893.464362	2855.515000	487.587891	116.387390
11893.464362	2855.515000	486.332031	233.684875
11893.464362	2855.515000	485.075195	107.869576
11893.464362	2855.515000	483.818359	38.316383
11893.464362	2855.515000	482.561523	93.249039
11893.464362	2855.515000	481.304688	152.147079
11893.464362	2855.515000	480.046875	78.537979
11893.464362	2855.515000	478.789063	43.053223
11893.464362	2855.515000	477.531250	238.241425
11893.464362	2855.515000	476.272461	164.563339
11893.464362	2855.515000	475.013672	269.338745
11893.464362	2855.515000	473.754883	237.710678
11893.464362	2855.515000	472.496094	173.986237
11893.464362	2855.515000	471.236328	320.646210
11893.464362	2855.515000	469.976563	214.766891
11893.464362	2855.515000	468.716797	405.324005
11893.464362	2855.515000	467.456055	411.510864
11893.464362	2855.515000	466.196289	357.578522
11893.464362	2855.515000	464.935547	353.650574
11893.464362	2855.515000	463.673828	375.675812
11893.464362	2855.515000	462.413086	331.602539
11893.464362	2855.515000	461.151367	463.509796
11893.464362	2855.515000	459.889648	559.289795
11893.464362	2855.515000	458.626953	293.037018
11893.464362	2855.515000	457.364258	442.627960
11893.464362	2855.515000	456.101563	538.106567
11893.464362	2855.515000	454.838867	535.544006
11893.464362	2855.515000	453.575195	339.102417
11893.464362	2855.515000	452.312500	404.306213
11893.464362	2855.515000	451.047852	523.290283
11893.464362	2855.515000	449.784180	432.489929
11893.464362	2855.515000	448.519531	399.500214
11893.464362	2855.515000	447.254883	360.423676
11893.464362	2855.515000	445.990234	610.546387
11893.464362	2855.515000	444.725586	481.430664
11893.464362	2855.515000	443.459961	515.770996
11893.464362	2855.515000	442.194336	613.765381
11893.464362	2855.515000	440.927734	444.446747
11893.464362	2855.515000	439.662109	564.048828
11893.464362	2855.515000	438.395508	436.357330
11893.464362	2855.515000	437.127930	406.173553
11893.464362	2855.515000	435.861328	369.866241
11893.464362	2855.515000	434.593750	456.858582
11893.464362	2855.515000	433.326172	677.022949
11893.464362	2855.515000	432.058594	494.836151
11893.464362	2855.515000	430.790039	535.410706
11893.464362	2855.515000	429.521484	456.393280
11893.464362	2855.515000	428.252930	594.019897
11893.464362	2855.515000	426.984375	534.488159
11893.464362	2855.515000	425.714844	667.618286
11893.464362	2855.515000	424.445313	633.478760
11893.464362	2855.515000	423.174805	501.724823
11893.464362	2855.515000	421.905273	636.044983
11893.464362	2855.515000	420.634766	611.118652
11893.464362	2855.515000	419.364258	653.467224
11893.464362	2855.515000	418.092773	643.888000
11893.464362	2855.515000	416.822266	634.037964
11893.464362	2855.515000	415.550781	512.739563
11893.464362	2855.515000	414.278320	442.778534
11893.464362	2855.515000	413.006836	547.134766
11893.464362	2855.515000	411.734375	522.184326
11893.464362	2855.515000	410.461914	467.165436
11893.464362	2855.515000	409.188477	499.055603
11893.464362	2855.515000	407.916016	621.771423
11893.464362	2855.515000	406.642578	591.458313
11893.464362	2855.515000	405.368164	542.939331
11893.464362	2855.515000	404.094727	628.768555
11893.464362	2855.515000	402.820313	696.324402
11893.464362	2855.515000	401.545898	605.029724
11893.464362	2855.515000	400.270508	584.607239
11893.464362	2855.515000	398.996094	454.907440
11893.464362	2855.515000	397.720703	514.768005
11893.464362	2855.515000	396.444336	516.753967
11893.464362	2855.515000	395.168945	445.087097
11893.464362	2855.515000	393.892578	550.926331
11893.464362	2855.515000	392.616211	464.433136
11893.464362	2855.515000	391.339844	507.917603
11893.464362	2855.515000	390.062500	446.092316
11893.464362	2855.515000	388.785156	547.735229
11893.464362	2855.515000	387.507813	401.844849
11893.464362	2855.515000	386.229492	482.539856
11893.464362	2855.515000	384.951172	546.805359
11893.464362	2855.515000	383.672852	604.504333
11893.464362	2855.515000	382.394531	552.995300
11893.464362	2855.515000	381.115234	461.377075
11893.464362	2855.515000	379.835938	471.718323
11893.464362	2855.515000	378.556641	347.247681
11893.464362	2855.515000	377.277344	529.753113
11893.464362	2855.515000	375.997070	413.739075
11893.464362	2855.515000	374.716797	472.461273
11893.464362	2855.515000	373.435547	386.517944
11893.464362	2855.515000	372.155273	370.781097
11893.464362	2855.515000	370.874023	174.976410
11893.464362	2855.515000	369.591797	315.176758
11893.464362	2855.515000	368.310547	261.538849
11893.464362	2855.515000	367.028320	350.740448
11893.464362	2855.515000	365.746094	210.717346
11893.464362	2855.515000	364.463867	300.063202
11893.464362	2855.515000	363.180664	172.018234
11893.464362	2855.515000	361.897461	255.489670
11893.464362	2855.515000	360.614258	324.181122
11893.464362	2855.515000	359.330078	230.605759
11893.464362	2855.515000	358.045898	92.801384
11893.464362	2855.515000	356.761719	360.778931
11893.464362	2855.515000	355.477539	273.922882
11893.464362	2855.515000	354.192383	109.364380
11893.464362	2855.515000	352.907227	100.851471
11893.464362	2855.515000	351.622070	295.376617
11893.464362	2855.515000	350.336914	105.856560
11893.464362	2855.515000	349.050781	54.510735
11893.464362	2855.515000	347.764648	202.079849
11893.464362	2855.515000	346.477539	42.255966
11893.464362	2855.515000	345.191406	104.820190
11893.464362	2855.515000	343.904297	5.201255
11893.464362	2855.515000	342.616211	27.727797
11893.464362	2855.515000	341.329102	54.772213
11893.464362	2855.515000	340.041016	123.446907
11893.464362	2855.515000	338.752930	-15.070772
11893.464362	2855.515000	337.463867	-4.245416
11893.464362	2855.515000	336.175781	103.006836
11893.464362	2855.515000	334.886719	189.030518
11893.464362	2855.515000	333.596680	-149.421463
11893.464362	2855.515000	332.307617	46.901115
11893.464362	2855.515000	331.017578	-126.406387
11893.464362	2855.515000	329.727539	-86.168709
11893.464362	2855.515000	328.436523	-2.759648
11893.464362	2855.515000	327.146484	-188.982956
11893.464362	2855.515000	325.855469	17.880753
11893.464362	2855.515000	324.563477	-150.550385
11893.464362	2855.515000	323.272461	-96.040741
11893.464362	2855.515000	321.980469	89.291656
11893.464362	2855.515000	320.688477	-178.608627
11893.464362	2855.515000	319.395508	-106.752983
11893.464362	2855.515000	318.103516	-138.448593
11893.464362	2855.515000	316.810547	-246.471649
11893.464362	2855.515000	315.516602	-21.023857
11893.464362	2855.515000	314.223633	-178.248901
11893.464362	2855.515000	312.929688	64.098488
11893.464362	2855.515000	311.635742	-39.175983
11893.464362	2855.515000	310.340820	-68.777031
11893.464362	2855.515000	309.045898	51.290321
11893.464362	2855.515000	307.750977	194.203537
11893.464362	2855.515000	306.456055	180.641266
11893.464362	2855.515000	305.160156	35.900085
11893.464362	2855.515000	303.865234	67.894432
11893.464362	2855.515000	302.568359	225.577515
11893.464362	2855.515000	301.272461	559.681824
11893.464362	2855.515000	299.975586	657.247192
11893.464362	2855.515000	298.678711	518.459534
