#X		#Y		#Wave		#Intensity
11938.948404	1403.225000	1999.980469	22.728806
11938.948404	1403.225000	1999.016602	-48.396206
11938.948404	1403.225000	1998.052734	-13.724372
11938.948404	1403.225000	1997.087891	33.288597
11938.948404	1403.225000	1996.123047	43.082016
11938.948404	1403.225000	1995.158203	-4.140135
11938.948404	1403.225000	1994.193359	65.027275
11938.948404	1403.225000	1993.228516	-44.158096
11938.948404	1403.225000	1992.262695	-27.068960
11938.948404	1403.225000	1991.297852	-24.871094
11938.948404	1403.225000	1990.332031	-72.204590
11938.948404	1403.225000	1989.366211	11.594641
11938.948404	1403.225000	1988.399414	70.591927
11938.948404	1403.225000	1987.433594	-31.242315
11938.948404	1403.225000	1986.466797	-86.079247
11938.948404	1403.225000	1985.500977	-14.820915
11938.948404	1403.225000	1984.534180	-12.837358
11938.948404	1403.225000	1983.567383	63.269497
11938.948404	1403.225000	1982.599609	3.403367
11938.948404	1403.225000	1981.632813	27.540049
11938.948404	1403.225000	1980.665039	19.528238
11938.948404	1403.225000	1979.697266	88.060745
11938.948404	1403.225000	1978.729492	13.318365
11938.948404	1403.225000	1977.761719	74.372017
11938.948404	1403.225000	1976.792969	-89.251991
11938.948404	1403.225000	1975.825195	119.835182
11938.948404	1403.225000	1974.856445	-6.767376
11938.948404	1403.225000	1973.887695	-27.257910
11938.948404	1403.225000	1972.918945	6.505000
11938.948404	1403.225000	1971.949219	67.363403
11938.948404	1403.225000	1970.980469	9.823995
11938.948404	1403.225000	1970.010742	-50.178734
11938.948404	1403.225000	1969.041016	-18.979195
11938.948404	1403.225000	1968.071289	-5.059810
11938.948404	1403.225000	1967.101563	28.547678
11938.948404	1403.225000	1966.130859	30.100428
11938.948404	1403.225000	1965.161133	16.858452
11938.948404	1403.225000	1964.190430	45.467400
11938.948404	1403.225000	1963.219727	110.981567
11938.948404	1403.225000	1962.249023	43.527843
11938.948404	1403.225000	1961.277344	111.447731
11938.948404	1403.225000	1960.306641	-34.753033
11938.948404	1403.225000	1959.334961	133.997253
11938.948404	1403.225000	1958.363281	-12.181668
11938.948404	1403.225000	1957.391602	40.885403
11938.948404	1403.225000	1956.419922	-83.119286
11938.948404	1403.225000	1955.447266	21.541870
11938.948404	1403.225000	1954.474609	18.001575
11938.948404	1403.225000	1953.501953	-39.615070
11938.948404	1403.225000	1952.529297	158.310913
11938.948404	1403.225000	1951.556641	-0.054131
11938.948404	1403.225000	1950.583984	-3.634701
11938.948404	1403.225000	1949.610352	14.875288
11938.948404	1403.225000	1948.636719	23.547283
11938.948404	1403.225000	1947.663086	96.029030
11938.948404	1403.225000	1946.689453	156.202652
11938.948404	1403.225000	1945.715820	66.658737
11938.948404	1403.225000	1944.741211	9.032383
11938.948404	1403.225000	1943.767578	-21.599148
11938.948404	1403.225000	1942.792969	23.798199
11938.948404	1403.225000	1941.818359	12.772938
11938.948404	1403.225000	1940.842773	14.000131
11938.948404	1403.225000	1939.868164	-1.938528
11938.948404	1403.225000	1938.892578	-3.176072
11938.948404	1403.225000	1937.916992	130.339920
11938.948404	1403.225000	1936.941406	21.273218
11938.948404	1403.225000	1935.965820	-107.354256
11938.948404	1403.225000	1934.990234	99.547768
11938.948404	1403.225000	1934.013672	86.011917
11938.948404	1403.225000	1933.037109	28.410677
11938.948404	1403.225000	1932.060547	-12.043382
11938.948404	1403.225000	1931.083984	-28.019053
11938.948404	1403.225000	1930.107422	7.381276
11938.948404	1403.225000	1929.129883	59.884743
11938.948404	1403.225000	1928.153320	-0.137326
11938.948404	1403.225000	1927.175781	15.657374
11938.948404	1403.225000	1926.198242	-125.022728
11938.948404	1403.225000	1925.219727	-23.674425
11938.948404	1403.225000	1924.242188	67.855133
11938.948404	1403.225000	1923.263672	7.856178
11938.948404	1403.225000	1922.285156	-25.254129
11938.948404	1403.225000	1921.306641	7.587780
11938.948404	1403.225000	1920.328125	86.810219
11938.948404	1403.225000	1919.349609	102.517265
11938.948404	1403.225000	1918.370117	103.565819
11938.948404	1403.225000	1917.391602	133.896606
11938.948404	1403.225000	1916.412109	-6.601884
11938.948404	1403.225000	1915.431641	74.960541
11938.948404	1403.225000	1914.452148	-16.699995
11938.948404	1403.225000	1913.472656	-30.289625
11938.948404	1403.225000	1912.492188	36.585594
11938.948404	1403.225000	1911.511719	-76.973328
11938.948404	1403.225000	1910.531250	84.935242
11938.948404	1403.225000	1909.550781	29.886776
11938.948404	1403.225000	1908.569336	52.822304
11938.948404	1403.225000	1907.588867	-63.111359
11938.948404	1403.225000	1906.607422	-15.821259
11938.948404	1403.225000	1905.625977	-56.219334
11938.948404	1403.225000	1904.644531	-99.042397
11938.948404	1403.225000	1903.662109	-88.301613
11938.948404	1403.225000	1902.680664	68.458694
11938.948404	1403.225000	1901.698242	54.820915
11938.948404	1403.225000	1900.715820	84.974922
11938.948404	1403.225000	1899.733398	-72.185013
11938.948404	1403.225000	1898.750000	40.658020
11938.948404	1403.225000	1897.767578	-28.910385
11938.948404	1403.225000	1896.784180	91.165237
11938.948404	1403.225000	1895.800781	-7.564641
11938.948404	1403.225000	1894.817383	129.462448
11938.948404	1403.225000	1893.833984	23.462276
11938.948404	1403.225000	1892.850586	-46.064205
11938.948404	1403.225000	1891.866211	-76.710541
11938.948404	1403.225000	1890.881836	-95.208977
11938.948404	1403.225000	1889.897461	-53.008778
11938.948404	1403.225000	1888.913086	52.283566
11938.948404	1403.225000	1887.927734	65.304939
11938.948404	1403.225000	1886.943359	68.609993
11938.948404	1403.225000	1885.958008	-5.726649
11938.948404	1403.225000	1884.972656	43.665318
11938.948404	1403.225000	1883.987305	-84.003967
11938.948404	1403.225000	1883.001953	-73.423050
11938.948404	1403.225000	1882.015625	70.480957
11938.948404	1403.225000	1881.029297	1.031004
11938.948404	1403.225000	1880.042969	38.227753
11938.948404	1403.225000	1879.056641	-43.317547
11938.948404	1403.225000	1878.070313	-105.458740
11938.948404	1403.225000	1877.083984	35.863426
11938.948404	1403.225000	1876.096680	72.999367
11938.948404	1403.225000	1875.109375	-3.675452
11938.948404	1403.225000	1874.122070	35.861347
11938.948404	1403.225000	1873.134766	109.259087
11938.948404	1403.225000	1872.146484	-39.992439
11938.948404	1403.225000	1871.159180	144.664001
11938.948404	1403.225000	1870.170898	72.849693
11938.948404	1403.225000	1869.182617	49.422291
11938.948404	1403.225000	1868.194336	-85.227180
11938.948404	1403.225000	1867.205078	-53.030357
11938.948404	1403.225000	1866.216797	-57.107677
11938.948404	1403.225000	1865.227539	-73.273979
11938.948404	1403.225000	1864.238281	82.099915
11938.948404	1403.225000	1863.249023	17.584705
11938.948404	1403.225000	1862.259766	-46.913952
11938.948404	1403.225000	1861.269531	115.586800
11938.948404	1403.225000	1860.279297	53.491081
11938.948404	1403.225000	1859.290039	61.412010
11938.948404	1403.225000	1858.298828	110.347176
11938.948404	1403.225000	1857.308594	137.539490
11938.948404	1403.225000	1856.318359	41.677853
11938.948404	1403.225000	1855.327148	15.790971
11938.948404	1403.225000	1854.335938	45.370399
11938.948404	1403.225000	1853.344727	19.474133
11938.948404	1403.225000	1852.353516	-90.793945
11938.948404	1403.225000	1851.362305	88.193497
11938.948404	1403.225000	1850.370117	52.636497
11938.948404	1403.225000	1849.377930	115.863579
11938.948404	1403.225000	1848.385742	34.527443
11938.948404	1403.225000	1847.393555	-10.662063
11938.948404	1403.225000	1846.401367	4.353541
11938.948404	1403.225000	1845.408203	118.059410
11938.948404	1403.225000	1844.415039	120.989182
11938.948404	1403.225000	1843.421875	34.863911
11938.948404	1403.225000	1842.428711	102.752831
11938.948404	1403.225000	1841.435547	47.916069
11938.948404	1403.225000	1840.441406	62.840202
11938.948404	1403.225000	1839.448242	58.510212
11938.948404	1403.225000	1838.454102	22.914495
11938.948404	1403.225000	1837.459961	4.147782
11938.948404	1403.225000	1836.464844	-21.834642
11938.948404	1403.225000	1835.470703	91.554329
11938.948404	1403.225000	1834.475586	72.750290
11938.948404	1403.225000	1833.480469	32.323093
11938.948404	1403.225000	1832.485352	37.530449
11938.948404	1403.225000	1831.490234	13.909830
11938.948404	1403.225000	1830.495117	31.098333
11938.948404	1403.225000	1829.499023	163.477921
11938.948404	1403.225000	1828.502930	65.416389
11938.948404	1403.225000	1827.506836	32.161648
11938.948404	1403.225000	1826.510742	-56.267361
11938.948404	1403.225000	1825.513672	51.994686
11938.948404	1403.225000	1824.517578	-0.460457
11938.948404	1403.225000	1823.520508	-62.499207
11938.948404	1403.225000	1822.523438	-19.056932
11938.948404	1403.225000	1821.526367	184.929733
11938.948404	1403.225000	1820.529297	53.362526
11938.948404	1403.225000	1819.531250	51.199493
11938.948404	1403.225000	1818.533203	5.909113
11938.948404	1403.225000	1817.535156	56.414619
11938.948404	1403.225000	1816.537109	-43.956940
11938.948404	1403.225000	1815.539063	121.418839
11938.948404	1403.225000	1814.540039	97.634697
11938.948404	1403.225000	1813.541992	69.060501
11938.948404	1403.225000	1812.542969	109.865707
11938.948404	1403.225000	1811.543945	-31.157858
11938.948404	1403.225000	1810.543945	-71.694847
11938.948404	1403.225000	1809.544922	24.068558
11938.948404	1403.225000	1808.544922	-11.710978
11938.948404	1403.225000	1807.544922	-4.466180
11938.948404	1403.225000	1806.544922	-66.544312
11938.948404	1403.225000	1805.544922	-21.090973
11938.948404	1403.225000	1804.544922	122.276558
11938.948404	1403.225000	1803.543945	117.486832
11938.948404	1403.225000	1802.542969	98.356216
11938.948404	1403.225000	1801.541992	67.279640
11938.948404	1403.225000	1800.541016	-28.253231
11938.948404	1403.225000	1799.539063	-2.045837
11938.948404	1403.225000	1798.538086	69.475723
11938.948404	1403.225000	1797.536133	-95.238708
11938.948404	1403.225000	1796.534180	85.965698
11938.948404	1403.225000	1795.532227	28.598154
11938.948404	1403.225000	1794.529297	14.154956
11938.948404	1403.225000	1793.527344	-16.985153
11938.948404	1403.225000	1792.524414	-55.281654
11938.948404	1403.225000	1791.521484	44.638149
11938.948404	1403.225000	1790.518555	46.817154
11938.948404	1403.225000	1789.514648	113.295547
11938.948404	1403.225000	1788.511719	17.777424
11938.948404	1403.225000	1787.507813	131.828552
11938.948404	1403.225000	1786.503906	-89.874100
11938.948404	1403.225000	1785.500000	45.544422
11938.948404	1403.225000	1784.496094	2.402416
11938.948404	1403.225000	1783.491211	73.471916
11938.948404	1403.225000	1782.486328	144.497360
11938.948404	1403.225000	1781.481445	18.059740
11938.948404	1403.225000	1780.476563	-8.466964
11938.948404	1403.225000	1779.471680	3.042200
11938.948404	1403.225000	1778.465820	40.677074
11938.948404	1403.225000	1777.460938	-88.089340
11938.948404	1403.225000	1776.455078	-2.959650
11938.948404	1403.225000	1775.449219	117.758934
11938.948404	1403.225000	1774.442383	55.506783
11938.948404	1403.225000	1773.436523	9.887406
11938.948404	1403.225000	1772.429688	-45.231609
11938.948404	1403.225000	1771.422852	20.729311
11938.948404	1403.225000	1770.416016	-60.515499
11938.948404	1403.225000	1769.409180	88.448486
11938.948404	1403.225000	1768.402344	-23.657576
11938.948404	1403.225000	1767.394531	13.710605
11938.948404	1403.225000	1766.386719	74.764534
11938.948404	1403.225000	1765.378906	145.263458
11938.948404	1403.225000	1764.371094	101.915398
11938.948404	1403.225000	1763.362305	-12.548925
11938.948404	1403.225000	1762.354492	50.763931
11938.948404	1403.225000	1761.345703	156.684113
11938.948404	1403.225000	1760.336914	-5.159765
11938.948404	1403.225000	1759.328125	43.848495
11938.948404	1403.225000	1758.318359	-58.745476
11938.948404	1403.225000	1757.308594	2.055138
11938.948404	1403.225000	1756.299805	-65.015465
11938.948404	1403.225000	1755.290039	26.496721
11938.948404	1403.225000	1754.279297	-5.097321
11938.948404	1403.225000	1753.269531	15.355429
11938.948404	1403.225000	1752.258789	-47.011436
11938.948404	1403.225000	1751.249023	110.577728
11938.948404	1403.225000	1750.238281	-32.214245
11938.948404	1403.225000	1749.226563	40.163395
11938.948404	1403.225000	1748.215820	15.587463
11938.948404	1403.225000	1747.204102	45.354988
11938.948404	1403.225000	1746.193359	37.291580
11938.948404	1403.225000	1745.181641	-20.398079
11938.948404	1403.225000	1744.168945	-96.980614
11938.948404	1403.225000	1743.157227	10.642168
11938.948404	1403.225000	1742.144531	-106.088341
11938.948404	1403.225000	1741.132813	-19.784822
11938.948404	1403.225000	1740.120117	-39.737869
11938.948404	1403.225000	1739.106445	-43.185272
11938.948404	1403.225000	1738.093750	57.156860
11938.948404	1403.225000	1737.080078	-102.018753
11938.948404	1403.225000	1736.067383	-74.845123
11938.948404	1403.225000	1735.053711	30.106726
11938.948404	1403.225000	1734.040039	28.919006
11938.948404	1403.225000	1733.025391	-101.918663
11938.948404	1403.225000	1732.011719	-48.916615
11938.948404	1403.225000	1730.997070	53.522484
11938.948404	1403.225000	1729.982422	108.793411
11938.948404	1403.225000	1728.967773	18.008528
11938.948404	1403.225000	1727.952148	-53.923656
11938.948404	1403.225000	1726.937500	-17.548964
11938.948404	1403.225000	1725.921875	-9.452811
11938.948404	1403.225000	1724.906250	48.043354
11938.948404	1403.225000	1723.890625	53.736969
11938.948404	1403.225000	1722.875000	-55.856750
11938.948404	1403.225000	1721.858398	-26.661407
11938.948404	1403.225000	1720.841797	68.348297
11938.948404	1403.225000	1719.825195	-24.780191
11938.948404	1403.225000	1718.808594	-5.059964
11938.948404	1403.225000	1717.791992	-178.077850
11938.948404	1403.225000	1716.774414	-198.316589
11938.948404	1403.225000	1715.756836	-37.669754
11938.948404	1403.225000	1714.739258	108.806114
11938.948404	1403.225000	1713.721680	-90.000206
11938.948404	1403.225000	1712.704102	49.353760
11938.948404	1403.225000	1711.685547	-22.636765
11938.948404	1403.225000	1710.667969	25.085928
11938.948404	1403.225000	1709.649414	-9.358931
11938.948404	1403.225000	1708.630859	64.115685
11938.948404	1403.225000	1707.611328	123.469788
11938.948404	1403.225000	1706.592773	-77.530777
11938.948404	1403.225000	1705.573242	-6.479294
11938.948404	1403.225000	1704.553711	36.397858
11938.948404	1403.225000	1703.534180	-42.637974
11938.948404	1403.225000	1702.513672	-25.580931
11938.948404	1403.225000	1701.494141	82.833504
11938.948404	1403.225000	1700.473633	71.719940
11938.948404	1403.225000	1699.453125	37.175316
11938.948404	1403.225000	1698.432617	84.585983
11938.948404	1403.225000	1697.412109	61.729424
11938.948404	1403.225000	1696.390625	-124.987198
11938.948404	1403.225000	1695.369141	60.457901
11938.948404	1403.225000	1694.347656	46.932549
11938.948404	1403.225000	1693.326172	-8.710100
11938.948404	1403.225000	1692.304688	61.956860
11938.948404	1403.225000	1691.282227	-21.760038
11938.948404	1403.225000	1690.260742	254.601761
11938.948404	1403.225000	1689.238281	51.637089
11938.948404	1403.225000	1688.214844	103.480843
11938.948404	1403.225000	1687.192383	85.194771
11938.948404	1403.225000	1686.168945	17.838490
11938.948404	1403.225000	1685.146484	34.586597
11938.948404	1403.225000	1684.123047	112.030907
11938.948404	1403.225000	1683.099609	138.065933
11938.948404	1403.225000	1682.075195	59.025948
11938.948404	1403.225000	1681.051758	26.686712
11938.948404	1403.225000	1680.027344	31.681475
11938.948404	1403.225000	1679.002930	125.319336
11938.948404	1403.225000	1677.978516	-16.686148
11938.948404	1403.225000	1676.953125	123.542229
11938.948404	1403.225000	1675.928711	65.510796
11938.948404	1403.225000	1674.903320	79.757500
11938.948404	1403.225000	1673.877930	100.979691
11938.948404	1403.225000	1672.852539	73.245407
11938.948404	1403.225000	1671.826172	152.684280
11938.948404	1403.225000	1670.800781	-19.499039
11938.948404	1403.225000	1669.774414	113.474052
11938.948404	1403.225000	1668.748047	106.670090
11938.948404	1403.225000	1667.721680	141.766022
11938.948404	1403.225000	1666.694336	123.297668
11938.948404	1403.225000	1665.667969	83.885330
11938.948404	1403.225000	1664.640625	167.795303
11938.948404	1403.225000	1663.613281	123.714310
11938.948404	1403.225000	1662.585938	272.690857
11938.948404	1403.225000	1661.557617	51.851612
11938.948404	1403.225000	1660.530273	98.466805
11938.948404	1403.225000	1659.501953	249.656708
11938.948404	1403.225000	1658.473633	254.361465
11938.948404	1403.225000	1657.444336	163.783386
11938.948404	1403.225000	1656.416016	277.677643
11938.948404	1403.225000	1655.386719	335.769958
11938.948404	1403.225000	1654.358398	180.184601
11938.948404	1403.225000	1653.328125	159.312256
11938.948404	1403.225000	1652.298828	228.978989
11938.948404	1403.225000	1651.269531	94.368057
11938.948404	1403.225000	1650.239258	61.900959
11938.948404	1403.225000	1649.208984	198.803574
11938.948404	1403.225000	1648.178711	94.408134
11938.948404	1403.225000	1647.148438	284.580109
11938.948404	1403.225000	1646.117188	208.017319
11938.948404	1403.225000	1645.086914	254.349609
11938.948404	1403.225000	1644.055664	258.934387
11938.948404	1403.225000	1643.024414	251.925323
11938.948404	1403.225000	1641.992188	140.649139
11938.948404	1403.225000	1640.960938	242.529648
11938.948404	1403.225000	1639.928711	200.769455
11938.948404	1403.225000	1638.896484	304.901123
11938.948404	1403.225000	1637.864258	246.930756
11938.948404	1403.225000	1636.832031	330.173004
11938.948404	1403.225000	1635.798828	288.407745
11938.948404	1403.225000	1634.766602	202.697495
11938.948404	1403.225000	1633.733398	216.486053
11938.948404	1403.225000	1632.699219	436.108093
11938.948404	1403.225000	1631.666016	267.158844
11938.948404	1403.225000	1630.632813	310.973877
11938.948404	1403.225000	1629.598633	375.569855
11938.948404	1403.225000	1628.564453	382.361206
11938.948404	1403.225000	1627.530273	222.782730
11938.948404	1403.225000	1626.495117	67.881897
11938.948404	1403.225000	1625.460938	259.501984
11938.948404	1403.225000	1624.425781	127.743515
11938.948404	1403.225000	1623.390625	289.257263
11938.948404	1403.225000	1622.355469	337.596191
11938.948404	1403.225000	1621.319336	376.680328
11938.948404	1403.225000	1620.284180	307.300720
11938.948404	1403.225000	1619.248047	143.356201
11938.948404	1403.225000	1618.211914	200.907745
11938.948404	1403.225000	1617.174805	389.883636
11938.948404	1403.225000	1616.138672	359.749268
11938.948404	1403.225000	1615.101563	357.286804
11938.948404	1403.225000	1614.065430	421.669098
11938.948404	1403.225000	1613.027344	237.151428
11938.948404	1403.225000	1611.990234	243.933563
11938.948404	1403.225000	1610.953125	425.776886
11938.948404	1403.225000	1609.915039	292.036987
11938.948404	1403.225000	1608.876953	195.192734
11938.948404	1403.225000	1607.838867	422.984100
11938.948404	1403.225000	1606.800781	300.838593
11938.948404	1403.225000	1605.761719	273.089844
11938.948404	1403.225000	1604.723633	362.696259
11938.948404	1403.225000	1603.684570	516.676514
11938.948404	1403.225000	1602.644531	355.517120
11938.948404	1403.225000	1601.605469	474.954865
11938.948404	1403.225000	1600.566406	311.578766
11938.948404	1403.225000	1599.526367	375.819611
11938.948404	1403.225000	1598.486328	332.031311
11938.948404	1403.225000	1597.446289	681.156433
11938.948404	1403.225000	1596.405273	506.393860
11938.948404	1403.225000	1595.365234	469.511108
11938.948404	1403.225000	1594.324219	473.977539
11938.948404	1403.225000	1593.283203	276.415985
11938.948404	1403.225000	1592.242188	391.108459
11938.948404	1403.225000	1591.200195	384.127869
11938.948404	1403.225000	1590.159180	358.804138
11938.948404	1403.225000	1589.117188	427.549103
11938.948404	1403.225000	1588.075195	452.696014
11938.948404	1403.225000	1587.032227	411.336426
11938.948404	1403.225000	1585.990234	459.418304
11938.948404	1403.225000	1584.947266	470.810120
11938.948404	1403.225000	1583.904297	431.786469
11938.948404	1403.225000	1582.861328	493.604950
11938.948404	1403.225000	1581.818359	324.028473
11938.948404	1403.225000	1580.775391	429.379547
11938.948404	1403.225000	1579.731445	321.725891
11938.948404	1403.225000	1578.687500	250.756607
11938.948404	1403.225000	1577.643555	388.131622
11938.948404	1403.225000	1576.598633	381.275116
11938.948404	1403.225000	1575.554688	408.757385
11938.948404	1403.225000	1574.509766	424.797241
11938.948404	1403.225000	1573.464844	358.498230
11938.948404	1403.225000	1572.419922	495.765900
11938.948404	1403.225000	1571.374023	340.327728
11938.948404	1403.225000	1570.329102	422.704071
11938.948404	1403.225000	1569.283203	297.075714
11938.948404	1403.225000	1568.237305	377.163422
11938.948404	1403.225000	1567.191406	358.993317
11938.948404	1403.225000	1566.144531	395.659119
11938.948404	1403.225000	1565.098633	382.084412
11938.948404	1403.225000	1564.051758	377.657593
11938.948404	1403.225000	1563.004883	421.184845
11938.948404	1403.225000	1561.957031	432.751129
11938.948404	1403.225000	1560.910156	473.994751
11938.948404	1403.225000	1559.862305	261.989838
11938.948404	1403.225000	1558.814453	376.267517
11938.948404	1403.225000	1557.766602	410.694244
11938.948404	1403.225000	1556.718750	442.842041
11938.948404	1403.225000	1555.669922	237.902374
11938.948404	1403.225000	1554.621094	313.402496
11938.948404	1403.225000	1553.573242	288.624908
11938.948404	1403.225000	1552.523438	311.711700
11938.948404	1403.225000	1551.474609	209.523666
11938.948404	1403.225000	1550.424805	262.254272
11938.948404	1403.225000	1549.375000	280.825195
11938.948404	1403.225000	1548.325195	390.466644
11938.948404	1403.225000	1547.275391	156.391663
11938.948404	1403.225000	1546.225586	311.559967
11938.948404	1403.225000	1545.174805	234.611496
11938.948404	1403.225000	1544.124023	246.425323
11938.948404	1403.225000	1543.073242	124.068542
11938.948404	1403.225000	1542.022461	286.008179
11938.948404	1403.225000	1540.970703	302.401764
11938.948404	1403.225000	1539.919922	227.890869
11938.948404	1403.225000	1538.868164	228.417404
11938.948404	1403.225000	1537.815430	208.510910
11938.948404	1403.225000	1536.763672	113.670753
11938.948404	1403.225000	1535.710938	200.576706
11938.948404	1403.225000	1534.659180	164.851593
11938.948404	1403.225000	1533.606445	124.616692
11938.948404	1403.225000	1532.552734	172.937195
11938.948404	1403.225000	1531.500000	116.869865
11938.948404	1403.225000	1530.446289	208.321747
11938.948404	1403.225000	1529.393555	152.309479
11938.948404	1403.225000	1528.338867	53.242004
11938.948404	1403.225000	1527.285156	-34.425461
11938.948404	1403.225000	1526.231445	174.956039
11938.948404	1403.225000	1525.176758	14.804126
11938.948404	1403.225000	1524.122070	147.080978
11938.948404	1403.225000	1523.067383	32.356136
11938.948404	1403.225000	1522.012695	128.374390
11938.948404	1403.225000	1520.957031	111.129120
11938.948404	1403.225000	1519.901367	136.937408
11938.948404	1403.225000	1518.845703	33.709587
11938.948404	1403.225000	1517.790039	0.714875
11938.948404	1403.225000	1516.734375	-82.032394
11938.948404	1403.225000	1515.677734	-33.492855
11938.948404	1403.225000	1514.621094	55.769608
11938.948404	1403.225000	1513.564453	99.784943
11938.948404	1403.225000	1512.507813	-68.757225
11938.948404	1403.225000	1511.450195	34.091728
11938.948404	1403.225000	1510.393555	-28.083986
11938.948404	1403.225000	1509.335938	-65.354530
11938.948404	1403.225000	1508.278320	62.358627
11938.948404	1403.225000	1507.219727	-26.827324
11938.948404	1403.225000	1506.162109	60.220451
11938.948404	1403.225000	1505.103516	11.765949
11938.948404	1403.225000	1504.044922	-77.283768
11938.948404	1403.225000	1502.986328	84.283852
11938.948404	1403.225000	1501.926758	42.696438
11938.948404	1403.225000	1500.868164	-12.386064
11938.948404	1403.225000	1499.808594	95.003700
11938.948404	1403.225000	1498.749023	114.412300
11938.948404	1403.225000	1497.688477	100.011314
11938.948404	1403.225000	1496.628906	96.916534
11938.948404	1403.225000	1495.568359	96.101357
11938.948404	1403.225000	1494.507813	-15.118206
11938.948404	1403.225000	1493.447266	-20.365078
11938.948404	1403.225000	1492.386719	14.966343
11938.948404	1403.225000	1491.325195	3.009686
11938.948404	1403.225000	1490.263672	42.878208
11938.948404	1403.225000	1489.202148	96.266365
11938.948404	1403.225000	1488.140625	-34.922882
11938.948404	1403.225000	1487.079102	-6.242639
11938.948404	1403.225000	1486.016602	-40.551346
11938.948404	1403.225000	1484.954102	100.654739
11938.948404	1403.225000	1483.891602	-64.061768
11938.948404	1403.225000	1482.829102	-15.051344
11938.948404	1403.225000	1481.765625	-26.734829
11938.948404	1403.225000	1480.702148	-47.382519
11938.948404	1403.225000	1479.638672	-124.168625
11938.948404	1403.225000	1478.575195	-41.371849
11938.948404	1403.225000	1477.511719	66.134369
11938.948404	1403.225000	1476.447266	-17.266983
11938.948404	1403.225000	1475.382813	-22.033836
11938.948404	1403.225000	1474.318359	-29.029867
11938.948404	1403.225000	1473.253906	-13.528423
11938.948404	1403.225000	1472.189453	120.911995
11938.948404	1403.225000	1471.124023	10.828303
11938.948404	1403.225000	1470.058594	91.458229
11938.948404	1403.225000	1468.993164	187.716400
11938.948404	1403.225000	1467.927734	165.203964
11938.948404	1403.225000	1466.861328	147.074173
11938.948404	1403.225000	1465.794922	176.034348
11938.948404	1403.225000	1464.728516	272.349213
11938.948404	1403.225000	1463.662109	28.452908
11938.948404	1403.225000	1462.594727	140.291260
11938.948404	1403.225000	1461.528320	91.587616
11938.948404	1403.225000	1460.460938	212.266281
11938.948404	1403.225000	1459.393555	317.100800
11938.948404	1403.225000	1458.326172	230.528732
11938.948404	1403.225000	1457.257813	225.801697
11938.948404	1403.225000	1456.189453	92.009079
11938.948404	1403.225000	1455.121094	94.786659
11938.948404	1403.225000	1454.052734	103.992401
11938.948404	1403.225000	1452.984375	160.087784
11938.948404	1403.225000	1451.915039	236.334320
11938.948404	1403.225000	1450.845703	394.661072
11938.948404	1403.225000	1449.776367	256.300476
11938.948404	1403.225000	1448.707031	192.503113
11938.948404	1403.225000	1447.636719	296.057922
11938.948404	1403.225000	1446.567383	346.697632
11938.948404	1403.225000	1445.497070	145.103714
11938.948404	1403.225000	1444.425781	207.572647
11938.948404	1403.225000	1443.355469	381.040619
11938.948404	1403.225000	1442.285156	257.251251
11938.948404	1403.225000	1441.213867	371.224609
11938.948404	1403.225000	1440.142578	307.268341
11938.948404	1403.225000	1439.070313	222.025650
11938.948404	1403.225000	1437.999023	178.226837
11938.948404	1403.225000	1436.926758	205.047928
11938.948404	1403.225000	1435.854492	91.980530
11938.948404	1403.225000	1434.782227	223.955795
11938.948404	1403.225000	1433.709961	230.828247
11938.948404	1403.225000	1432.636719	44.442379
11938.948404	1403.225000	1431.563477	246.806274
11938.948404	1403.225000	1430.490234	130.800812
11938.948404	1403.225000	1429.416992	62.684769
11938.948404	1403.225000	1428.343750	239.182251
11938.948404	1403.225000	1427.269531	210.278534
11938.948404	1403.225000	1426.195313	44.810165
11938.948404	1403.225000	1425.121094	84.074005
11938.948404	1403.225000	1424.046875	113.078339
11938.948404	1403.225000	1422.971680	113.806099
11938.948404	1403.225000	1421.896484	75.184044
11938.948404	1403.225000	1420.821289	69.998283
11938.948404	1403.225000	1419.746094	256.742432
11938.948404	1403.225000	1418.669922	189.599258
11938.948404	1403.225000	1417.594727	168.374084
11938.948404	1403.225000	1416.518555	88.621925
11938.948404	1403.225000	1415.442383	151.146301
11938.948404	1403.225000	1414.365234	75.465996
11938.948404	1403.225000	1413.289063	243.594131
11938.948404	1403.225000	1412.211914	171.066391
11938.948404	1403.225000	1411.134766	145.554321
11938.948404	1403.225000	1410.057617	255.359161
11938.948404	1403.225000	1408.979492	263.297699
11938.948404	1403.225000	1407.902344	295.223541
11938.948404	1403.225000	1406.824219	420.391388
11938.948404	1403.225000	1405.746094	287.333038
11938.948404	1403.225000	1404.666992	291.320923
11938.948404	1403.225000	1403.588867	294.175720
11938.948404	1403.225000	1402.509766	261.817383
11938.948404	1403.225000	1401.430664	253.471924
11938.948404	1403.225000	1400.351563	183.522522
11938.948404	1403.225000	1399.271484	248.693939
11938.948404	1403.225000	1398.192383	352.024811
11938.948404	1403.225000	1397.112305	267.058441
11938.948404	1403.225000	1396.031250	143.329483
11938.948404	1403.225000	1394.951172	250.047318
11938.948404	1403.225000	1393.871094	322.387390
11938.948404	1403.225000	1392.790039	212.047256
11938.948404	1403.225000	1391.708984	239.304840
11938.948404	1403.225000	1390.626953	279.027161
11938.948404	1403.225000	1389.545898	205.389114
11938.948404	1403.225000	1388.463867	273.273315
11938.948404	1403.225000	1387.381836	285.897003
11938.948404	1403.225000	1386.299805	327.865540
11938.948404	1403.225000	1385.217773	308.154938
11938.948404	1403.225000	1384.134766	260.264160
11938.948404	1403.225000	1383.051758	227.961197
11938.948404	1403.225000	1381.968750	297.612579
11938.948404	1403.225000	1380.885742	286.985840
11938.948404	1403.225000	1379.802734	189.475327
11938.948404	1403.225000	1378.718750	108.521645
11938.948404	1403.225000	1377.634766	250.956985
11938.948404	1403.225000	1376.550781	275.863770
11938.948404	1403.225000	1375.465820	173.976074
11938.948404	1403.225000	1374.381836	277.483124
11938.948404	1403.225000	1373.296875	301.012878
11938.948404	1403.225000	1372.211914	307.042938
11938.948404	1403.225000	1371.126953	155.910599
11938.948404	1403.225000	1370.041016	109.839256
11938.948404	1403.225000	1368.955078	254.562317
11938.948404	1403.225000	1367.869141	203.688538
11938.948404	1403.225000	1366.783203	246.405273
11938.948404	1403.225000	1365.697266	281.817383
11938.948404	1403.225000	1364.610352	238.599075
11938.948404	1403.225000	1363.523438	351.312225
11938.948404	1403.225000	1362.436523	360.224792
11938.948404	1403.225000	1361.349609	220.673950
11938.948404	1403.225000	1360.261719	357.402954
11938.948404	1403.225000	1359.174805	429.423523
11938.948404	1403.225000	1358.086914	249.200729
11938.948404	1403.225000	1356.998047	328.344818
11938.948404	1403.225000	1355.910156	341.305389
11938.948404	1403.225000	1354.821289	213.697998
11938.948404	1403.225000	1353.732422	288.491516
11938.948404	1403.225000	1352.643555	358.888428
11938.948404	1403.225000	1351.554688	322.458344
11938.948404	1403.225000	1350.464844	187.295288
11938.948404	1403.225000	1349.375000	151.061813
11938.948404	1403.225000	1348.285156	215.587341
11938.948404	1403.225000	1347.195313	184.161743
11938.948404	1403.225000	1346.105469	202.707230
11938.948404	1403.225000	1345.014648	109.374001
11938.948404	1403.225000	1343.923828	214.312332
11938.948404	1403.225000	1342.833008	225.648483
11938.948404	1403.225000	1341.741211	113.403877
11938.948404	1403.225000	1340.650391	200.034714
11938.948404	1403.225000	1339.558594	218.120575
11938.948404	1403.225000	1338.466797	296.124115
11938.948404	1403.225000	1337.374023	195.634171
11938.948404	1403.225000	1336.282227	245.602859
11938.948404	1403.225000	1335.189453	228.130478
11938.948404	1403.225000	1334.096680	268.816254
11938.948404	1403.225000	1333.003906	226.593124
11938.948404	1403.225000	1331.910156	207.206757
11938.948404	1403.225000	1330.817383	109.362984
11938.948404	1403.225000	1329.723633	125.894691
11938.948404	1403.225000	1328.629883	233.047501
11938.948404	1403.225000	1327.535156	177.827438
11938.948404	1403.225000	1326.441406	100.554878
11938.948404	1403.225000	1325.346680	216.278229
11938.948404	1403.225000	1324.251953	179.561371
11938.948404	1403.225000	1323.156250	125.015373
11938.948404	1403.225000	1322.061523	212.983414
11938.948404	1403.225000	1320.965820	243.578979
11938.948404	1403.225000	1319.870117	205.618317
11938.948404	1403.225000	1318.774414	172.943985
11938.948404	1403.225000	1317.678711	211.454208
11938.948404	1403.225000	1316.582031	239.029709
11938.948404	1403.225000	1315.485352	248.258118
11938.948404	1403.225000	1314.388672	237.662186
11938.948404	1403.225000	1313.291016	204.192490
11938.948404	1403.225000	1312.194336	52.664993
11938.948404	1403.225000	1311.096680	204.525543
11938.948404	1403.225000	1309.999023	104.520874
11938.948404	1403.225000	1308.901367	151.065796
11938.948404	1403.225000	1307.802734	87.373184
11938.948404	1403.225000	1306.705078	91.464882
11938.948404	1403.225000	1305.606445	163.269806
11938.948404	1403.225000	1304.506836	85.612976
11938.948404	1403.225000	1303.408203	192.835953
11938.948404	1403.225000	1302.308594	192.574295
11938.948404	1403.225000	1301.208984	168.772827
11938.948404	1403.225000	1300.109375	193.005539
11938.948404	1403.225000	1299.009766	217.572983
11938.948404	1403.225000	1297.909180	113.163261
11938.948404	1403.225000	1296.808594	244.657654
11938.948404	1403.225000	1295.708008	184.181427
11938.948404	1403.225000	1294.607422	174.678192
11938.948404	1403.225000	1293.506836	105.147720
11938.948404	1403.225000	1292.405273	107.487640
11938.948404	1403.225000	1291.303711	38.123119
11938.948404	1403.225000	1290.202148	47.117878
11938.948404	1403.225000	1289.099609	18.016575
11938.948404	1403.225000	1287.998047	54.658882
11938.948404	1403.225000	1286.895508	63.078701
11938.948404	1403.225000	1285.792969	120.938416
11938.948404	1403.225000	1284.689453	38.554707
11938.948404	1403.225000	1283.586914	84.040085
11938.948404	1403.225000	1282.483398	53.763023
11938.948404	1403.225000	1281.379883	80.925896
11938.948404	1403.225000	1280.276367	65.117805
11938.948404	1403.225000	1279.171875	21.884012
11938.948404	1403.225000	1278.067383	-33.560947
11938.948404	1403.225000	1276.962891	-18.943398
11938.948404	1403.225000	1275.858398	-17.944733
11938.948404	1403.225000	1274.753906	55.181385
11938.948404	1403.225000	1273.648438	52.198517
11938.948404	1403.225000	1272.542969	91.908554
11938.948404	1403.225000	1271.437500	86.760452
11938.948404	1403.225000	1270.331055	52.012939
11938.948404	1403.225000	1269.225586	92.825096
11938.948404	1403.225000	1268.119141	-9.362543
11938.948404	1403.225000	1267.012695	-63.961040
11938.948404	1403.225000	1265.906250	-3.139105
11938.948404	1403.225000	1264.798828	78.738976
11938.948404	1403.225000	1263.691406	-11.168062
11938.948404	1403.225000	1262.583984	-50.928833
11938.948404	1403.225000	1261.476563	2.109246
11938.948404	1403.225000	1260.368164	25.347055
11938.948404	1403.225000	1259.260742	24.795086
11938.948404	1403.225000	1258.152344	-29.416523
11938.948404	1403.225000	1257.043945	39.356750
11938.948404	1403.225000	1255.934570	-42.965149
11938.948404	1403.225000	1254.825195	-45.654213
11938.948404	1403.225000	1253.716797	-41.278370
11938.948404	1403.225000	1252.606445	10.449631
11938.948404	1403.225000	1251.497070	-37.550930
11938.948404	1403.225000	1250.387695	-39.374252
11938.948404	1403.225000	1249.277344	-29.928461
11938.948404	1403.225000	1248.166992	18.449455
11938.948404	1403.225000	1247.055664	14.241510
11938.948404	1403.225000	1245.945313	-44.645966
11938.948404	1403.225000	1244.833984	-12.881024
11938.948404	1403.225000	1243.722656	-24.296757
11938.948404	1403.225000	1242.611328	-9.824565
11938.948404	1403.225000	1241.499023	-21.105461
11938.948404	1403.225000	1240.387695	121.113518
11938.948404	1403.225000	1239.275391	14.747379
11938.948404	1403.225000	1238.162109	-54.089367
11938.948404	1403.225000	1237.049805	-84.288315
11938.948404	1403.225000	1235.936523	29.814104
11938.948404	1403.225000	1234.823242	37.977047
11938.948404	1403.225000	1233.709961	34.455147
11938.948404	1403.225000	1232.596680	-59.625858
11938.948404	1403.225000	1231.482422	15.229277
11938.948404	1403.225000	1230.369141	28.165550
11938.948404	1403.225000	1229.253906	-89.363014
11938.948404	1403.225000	1228.139648	-13.439833
11938.948404	1403.225000	1227.025391	35.655445
11938.948404	1403.225000	1225.910156	15.930290
11938.948404	1403.225000	1224.794922	-31.361042
11938.948404	1403.225000	1223.679688	-16.356485
11938.948404	1403.225000	1222.563477	-79.437241
11938.948404	1403.225000	1221.447266	-69.106873
11938.948404	1403.225000	1220.331055	5.065059
11938.948404	1403.225000	1219.214844	-25.582829
11938.948404	1403.225000	1218.098633	15.240247
11938.948404	1403.225000	1216.981445	-60.289295
11938.948404	1403.225000	1215.864258	151.738083
11938.948404	1403.225000	1214.747070	52.263046
11938.948404	1403.225000	1213.629883	47.916237
11938.948404	1403.225000	1212.511719	11.679242
11938.948404	1403.225000	1211.393555	40.076839
11938.948404	1403.225000	1210.275391	62.844143
11938.948404	1403.225000	1209.157227	23.150358
11938.948404	1403.225000	1208.038086	6.910181
11938.948404	1403.225000	1206.918945	7.007279
11938.948404	1403.225000	1205.799805	-12.074688
11938.948404	1403.225000	1204.680664	42.716785
11938.948404	1403.225000	1203.560547	58.107918
11938.948404	1403.225000	1202.441406	67.182701
11938.948404	1403.225000	1201.321289	39.738529
11938.948404	1403.225000	1200.200195	-25.248283
11938.948404	1403.225000	1199.080078	5.132468
11938.948404	1403.225000	1197.958984	30.326582
11938.948404	1403.225000	1196.837891	74.248520
11938.948404	1403.225000	1195.716797	-3.530159
11938.948404	1403.225000	1194.594727	-107.980042
11938.948404	1403.225000	1193.473633	10.542033
11938.948404	1403.225000	1192.351563	-45.656853
11938.948404	1403.225000	1191.229492	-11.362400
11938.948404	1403.225000	1190.106445	16.700396
11938.948404	1403.225000	1188.984375	-89.947830
11938.948404	1403.225000	1187.861328	-61.674820
11938.948404	1403.225000	1186.738281	-20.131008
11938.948404	1403.225000	1185.614258	-8.533587
11938.948404	1403.225000	1184.491211	-85.187065
11938.948404	1403.225000	1183.367188	-63.028084
11938.948404	1403.225000	1182.243164	21.392569
11938.948404	1403.225000	1181.119141	15.014637
11938.948404	1403.225000	1179.994141	-38.254593
11938.948404	1403.225000	1178.869141	-67.517159
11938.948404	1403.225000	1177.744141	-68.220039
11938.948404	1403.225000	1176.619141	-66.104141
11938.948404	1403.225000	1175.493164	-51.581543
11938.948404	1403.225000	1174.368164	-49.632397
11938.948404	1403.225000	1173.242188	-33.267677
11938.948404	1403.225000	1172.115234	-35.147255
11938.948404	1403.225000	1170.989258	-21.754169
11938.948404	1403.225000	1169.862305	14.626644
11938.948404	1403.225000	1168.735352	-82.734207
11938.948404	1403.225000	1167.608398	89.717781
11938.948404	1403.225000	1166.481445	-4.768068
11938.948404	1403.225000	1165.353516	-44.869015
11938.948404	1403.225000	1164.225586	-77.063446
11938.948404	1403.225000	1163.097656	-50.843231
11938.948404	1403.225000	1161.968750	16.448809
11938.948404	1403.225000	1160.840820	64.676003
11938.948404	1403.225000	1159.711914	-49.757767
11938.948404	1403.225000	1158.583008	-20.219980
11938.948404	1403.225000	1157.453125	-90.623322
11938.948404	1403.225000	1156.324219	41.864388
11938.948404	1403.225000	1155.194336	-36.177757
11938.948404	1403.225000	1154.064453	-64.503914
11938.948404	1403.225000	1152.933594	-55.347103
11938.948404	1403.225000	1151.803711	-1.650458
11938.948404	1403.225000	1150.672852	-19.003897
11938.948404	1403.225000	1149.541992	-24.359772
11938.948404	1403.225000	1148.411133	-26.469698
11938.948404	1403.225000	1147.279297	44.232082
11938.948404	1403.225000	1146.147461	22.836714
11938.948404	1403.225000	1145.015625	22.195612
11938.948404	1403.225000	1143.883789	41.781288
11938.948404	1403.225000	1142.750977	-50.786827
11938.948404	1403.225000	1141.619141	10.220224
11938.948404	1403.225000	1140.486328	-70.119690
11938.948404	1403.225000	1139.352539	-48.334576
11938.948404	1403.225000	1138.219727	-102.960045
11938.948404	1403.225000	1137.085938	-11.118496
11938.948404	1403.225000	1135.952148	49.520111
11938.948404	1403.225000	1134.818359	23.544512
11938.948404	1403.225000	1133.683594	111.706863
11938.948404	1403.225000	1132.549805	75.309593
11938.948404	1403.225000	1131.415039	59.070019
11938.948404	1403.225000	1130.279297	107.922554
11938.948404	1403.225000	1129.144531	9.596948
11938.948404	1403.225000	1128.008789	100.889557
11938.948404	1403.225000	1126.873047	62.057289
11938.948404	1403.225000	1125.737305	106.868599
11938.948404	1403.225000	1124.601563	125.709106
11938.948404	1403.225000	1123.464844	49.503727
11938.948404	1403.225000	1122.328125	50.516270
11938.948404	1403.225000	1121.191406	179.111877
11938.948404	1403.225000	1120.054688	47.120014
11938.948404	1403.225000	1118.916992	132.836166
11938.948404	1403.225000	1117.779297	104.459755
11938.948404	1403.225000	1116.641602	216.971146
11938.948404	1403.225000	1115.503906	111.674942
11938.948404	1403.225000	1114.365234	155.821625
11938.948404	1403.225000	1113.226563	-57.766731
11938.948404	1403.225000	1112.087891	72.932228
11938.948404	1403.225000	1110.949219	130.195755
11938.948404	1403.225000	1109.809570	71.230858
11938.948404	1403.225000	1108.669922	56.879665
11938.948404	1403.225000	1107.530273	115.513191
11938.948404	1403.225000	1106.390625	109.796387
11938.948404	1403.225000	1105.250000	119.671562
11938.948404	1403.225000	1104.109375	147.742630
11938.948404	1403.225000	1102.968750	158.760498
11938.948404	1403.225000	1101.828125	57.090324
11938.948404	1403.225000	1100.686523	32.506393
11938.948404	1403.225000	1099.544922	130.406631
11938.948404	1403.225000	1098.403320	84.184540
11938.948404	1403.225000	1097.261719	156.486526
11938.948404	1403.225000	1096.120117	134.995178
11938.948404	1403.225000	1094.977539	151.280090
11938.948404	1403.225000	1093.834961	104.310593
11938.948404	1403.225000	1092.691406	41.599617
11938.948404	1403.225000	1091.548828	214.350601
11938.948404	1403.225000	1090.405273	201.671509
11938.948404	1403.225000	1089.261719	39.475090
11938.948404	1403.225000	1088.118164	146.848206
11938.948404	1403.225000	1086.973633	125.552292
11938.948404	1403.225000	1085.829102	14.048958
11938.948404	1403.225000	1084.684570	126.506622
11938.948404	1403.225000	1083.540039	123.457489
11938.948404	1403.225000	1082.395508	116.916168
11938.948404	1403.225000	1081.250000	71.740211
11938.948404	1403.225000	1080.104492	28.735565
11938.948404	1403.225000	1078.958984	150.063339
11938.948404	1403.225000	1077.812500	18.709446
11938.948404	1403.225000	1076.666016	5.208411
11938.948404	1403.225000	1075.519531	122.639809
11938.948404	1403.225000	1074.373047	150.866409
11938.948404	1403.225000	1073.226563	123.228546
11938.948404	1403.225000	1072.079102	56.427395
11938.948404	1403.225000	1070.931641	84.097664
11938.948404	1403.225000	1069.784180	92.707115
11938.948404	1403.225000	1068.635742	-31.852671
11938.948404	1403.225000	1067.487305	-66.542152
11938.948404	1403.225000	1066.338867	147.684570
11938.948404	1403.225000	1065.190430	33.319199
11938.948404	1403.225000	1064.041992	21.668871
11938.948404	1403.225000	1062.892578	66.837006
11938.948404	1403.225000	1061.743164	-12.232963
11938.948404	1403.225000	1060.593750	121.090828
11938.948404	1403.225000	1059.443359	7.217402
11938.948404	1403.225000	1058.292969	137.262634
11938.948404	1403.225000	1057.142578	-4.863306
11938.948404	1403.225000	1055.992188	-0.502681
11938.948404	1403.225000	1054.841797	33.215137
11938.948404	1403.225000	1053.690430	180.248428
11938.948404	1403.225000	1052.539063	91.740021
11938.948404	1403.225000	1051.387695	84.796852
11938.948404	1403.225000	1050.235352	14.388901
11938.948404	1403.225000	1049.083984	4.843895
11938.948404	1403.225000	1047.931641	39.966465
11938.948404	1403.225000	1046.778320	56.297127
11938.948404	1403.225000	1045.625977	111.805313
11938.948404	1403.225000	1044.472656	64.607582
11938.948404	1403.225000	1043.319336	89.524612
11938.948404	1403.225000	1042.166016	84.721497
11938.948404	1403.225000	1041.012695	32.599155
11938.948404	1403.225000	1039.858398	55.069328
11938.948404	1403.225000	1038.704102	73.785774
11938.948404	1403.225000	1037.549805	160.545914
11938.948404	1403.225000	1036.394531	0.938195
11938.948404	1403.225000	1035.239258	48.118393
11938.948404	1403.225000	1034.083984	8.576797
11938.948404	1403.225000	1032.928711	-44.336430
11938.948404	1403.225000	1031.773438	12.854357
11938.948404	1403.225000	1030.617188	107.582268
11938.948404	1403.225000	1029.460938	27.471428
11938.948404	1403.225000	1028.304688	22.889086
11938.948404	1403.225000	1027.147461	92.440193
11938.948404	1403.225000	1025.991211	108.907234
11938.948404	1403.225000	1024.833984	85.504913
11938.948404	1403.225000	1023.675781	197.917328
11938.948404	1403.225000	1022.518555	198.898758
11938.948404	1403.225000	1021.360352	116.916260
11938.948404	1403.225000	1020.202148	183.393387
11938.948404	1403.225000	1019.043945	41.315098
11938.948404	1403.225000	1017.884766	12.338470
11938.948404	1403.225000	1016.726563	68.416176
11938.948404	1403.225000	1015.567383	-33.849136
11938.948404	1403.225000	1014.407227	10.962506
11938.948404	1403.225000	1013.248047	-107.679054
11938.948404	1403.225000	1012.087891	-11.023288
11938.948404	1403.225000	1010.927734	-2.605486
11938.948404	1403.225000	1009.767578	-53.615982
11938.948404	1403.225000	1008.606445	36.939613
11938.948404	1403.225000	1007.446289	83.669968
11938.948404	1403.225000	1006.285156	69.210236
11938.948404	1403.225000	1005.123047	40.976982
11938.948404	1403.225000	1003.961914	37.268414
11938.948404	1403.225000	1002.799805	172.239136
11938.948404	1403.225000	1001.637695	114.319328
11938.948404	1403.225000	1000.475586	49.330868
11938.948404	1403.225000	999.312500	44.059063
11938.948404	1403.225000	998.149414	57.845261
11938.948404	1403.225000	996.986328	61.650024
11938.948404	1403.225000	995.823242	173.530106
11938.948404	1403.225000	994.659180	83.766373
11938.948404	1403.225000	993.496094	87.260788
11938.948404	1403.225000	992.332031	104.473907
11938.948404	1403.225000	991.166992	97.737335
11938.948404	1403.225000	990.002930	-30.491690
11938.948404	1403.225000	988.837891	26.396217
11938.948404	1403.225000	987.672852	-1.132466
11938.948404	1403.225000	986.506836	67.637131
11938.948404	1403.225000	985.341797	4.680890
11938.948404	1403.225000	984.175781	-54.172649
11938.948404	1403.225000	983.009766	136.602127
11938.948404	1403.225000	981.843750	18.446251
11938.948404	1403.225000	980.676758	-28.287756
11938.948404	1403.225000	979.509766	98.871552
11938.948404	1403.225000	978.342773	47.954090
11938.948404	1403.225000	977.175781	16.600124
11938.948404	1403.225000	976.007813	-15.500474
11938.948404	1403.225000	974.839844	39.114517
11938.948404	1403.225000	973.671875	5.706951
11938.948404	1403.225000	972.503906	-0.444721
11938.948404	1403.225000	971.334961	-20.660433
11938.948404	1403.225000	970.166016	97.557732
11938.948404	1403.225000	968.997070	-14.310118
11938.948404	1403.225000	967.828125	-110.605637
11938.948404	1403.225000	966.658203	60.996223
11938.948404	1403.225000	965.488281	81.396248
11938.948404	1403.225000	964.318359	101.702980
11938.948404	1403.225000	963.148438	115.411674
11938.948404	1403.225000	961.977539	84.463058
11938.948404	1403.225000	960.806641	18.581696
11938.948404	1403.225000	959.635742	45.868809
11938.948404	1403.225000	958.463867	14.265093
11938.948404	1403.225000	957.292969	41.235264
11938.948404	1403.225000	956.121094	123.459404
11938.948404	1403.225000	954.948242	-8.657103
11938.948404	1403.225000	953.776367	30.118584
11938.948404	1403.225000	952.603516	76.725281
11938.948404	1403.225000	951.430664	180.419373
11938.948404	1403.225000	950.257813	-119.666191
11938.948404	1403.225000	949.084961	-59.634285
11938.948404	1403.225000	947.911133	-86.761574
11938.948404	1403.225000	946.737305	-44.398567
11938.948404	1403.225000	945.563477	31.698042
11938.948404	1403.225000	944.388672	20.348738
11938.948404	1403.225000	943.213867	-11.496674
11938.948404	1403.225000	942.039063	-38.607578
11938.948404	1403.225000	940.864258	-47.708927
11938.948404	1403.225000	939.688477	-25.683395
11938.948404	1403.225000	938.513672	88.320236
11938.948404	1403.225000	937.337891	74.460297
11938.948404	1403.225000	936.161133	20.385351
11938.948404	1403.225000	934.985352	-9.017696
11938.948404	1403.225000	933.808594	49.006611
11938.948404	1403.225000	932.631836	102.378365
11938.948404	1403.225000	931.454102	-41.249519
11938.948404	1403.225000	930.277344	-23.708817
11938.948404	1403.225000	929.099609	168.509277
11938.948404	1403.225000	927.921875	143.512878
11938.948404	1403.225000	926.743164	105.088676
11938.948404	1403.225000	925.565430	-2.735700
11938.948404	1403.225000	924.386719	-146.306229
11938.948404	1403.225000	923.208008	-115.343124
11938.948404	1403.225000	922.028320	-68.735779
11938.948404	1403.225000	920.849609	56.117485
11938.948404	1403.225000	919.669922	56.567173
11938.948404	1403.225000	919.474609	26.712820
11938.948404	1403.225000	918.309570	-89.948318
11938.948404	1403.225000	917.143555	-76.939842
11938.948404	1403.225000	915.977539	47.782204
11938.948404	1403.225000	914.810547	-46.490433
11938.948404	1403.225000	913.644531	15.621068
11938.948404	1403.225000	912.477539	140.229828
11938.948404	1403.225000	911.310547	75.002151
11938.948404	1403.225000	910.143555	12.027514
11938.948404	1403.225000	908.975586	-6.290804
11938.948404	1403.225000	907.807617	-0.062866
11938.948404	1403.225000	906.639648	144.471222
11938.948404	1403.225000	905.471680	-85.770195
11938.948404	1403.225000	904.303711	74.322128
11938.948404	1403.225000	903.134766	-57.722801
11938.948404	1403.225000	901.965820	68.852386
11938.948404	1403.225000	900.796875	70.569305
11938.948404	1403.225000	899.626953	41.086086
11938.948404	1403.225000	898.457031	192.054886
11938.948404	1403.225000	897.287109	-42.357162
11938.948404	1403.225000	896.117188	21.712837
11938.948404	1403.225000	894.947266	105.789421
11938.948404	1403.225000	893.776367	-32.761295
11938.948404	1403.225000	892.605469	-11.027852
11938.948404	1403.225000	891.434570	108.591423
11938.948404	1403.225000	890.262695	63.543205
11938.948404	1403.225000	889.091797	29.629808
11938.948404	1403.225000	887.919922	-6.496277
11938.948404	1403.225000	886.748047	-2.594968
11938.948404	1403.225000	885.575195	52.423939
11938.948404	1403.225000	884.403320	-17.029305
11938.948404	1403.225000	883.230469	-22.024893
11938.948404	1403.225000	882.057617	-13.693346
11938.948404	1403.225000	880.883789	90.130234
11938.948404	1403.225000	879.710938	34.036293
11938.948404	1403.225000	878.537109	31.242687
11938.948404	1403.225000	877.362305	24.008307
11938.948404	1403.225000	876.188477	61.155529
11938.948404	1403.225000	875.013672	-76.985481
11938.948404	1403.225000	873.839844	77.725029
11938.948404	1403.225000	872.664063	26.123304
11938.948404	1403.225000	871.489258	-147.409180
11938.948404	1403.225000	870.313477	-99.192177
11938.948404	1403.225000	869.138672	-15.535625
11938.948404	1403.225000	867.962891	154.505341
11938.948404	1403.225000	866.786133	136.162018
11938.948404	1403.225000	865.610352	-85.955368
11938.948404	1403.225000	864.433594	52.986477
11938.948404	1403.225000	863.256836	32.455917
11938.948404	1403.225000	862.079102	18.573128
11938.948404	1403.225000	860.902344	11.333354
11938.948404	1403.225000	859.724609	-20.243851
11938.948404	1403.225000	858.546875	30.044008
11938.948404	1403.225000	857.368164	-41.339405
11938.948404	1403.225000	856.190430	75.270111
11938.948404	1403.225000	855.011719	19.380856
11938.948404	1403.225000	853.833008	-54.170887
11938.948404	1403.225000	852.654297	-83.492958
11938.948404	1403.225000	851.474609	-126.061157
11938.948404	1403.225000	850.294922	1.487150
11938.948404	1403.225000	849.115234	27.384945
11938.948404	1403.225000	847.935547	-12.974161
11938.948404	1403.225000	846.754883	26.161558
11938.948404	1403.225000	845.575195	-64.949951
11938.948404	1403.225000	844.393555	-120.714272
11938.948404	1403.225000	843.212891	-44.074356
11938.948404	1403.225000	842.032227	14.885582
11938.948404	1403.225000	840.850586	18.685328
11938.948404	1403.225000	839.668945	-74.538078
11938.948404	1403.225000	838.486328	-24.426958
11938.948404	1403.225000	837.304688	1.418215
11938.948404	1403.225000	836.122070	-34.449863
11938.948404	1403.225000	834.939453	83.920303
11938.948404	1403.225000	833.756836	-20.235416
11938.948404	1403.225000	832.573242	34.216518
11938.948404	1403.225000	831.389648	-17.042423
11938.948404	1403.225000	830.206055	-127.717293
11938.948404	1403.225000	829.022461	52.175819
11938.948404	1403.225000	827.838867	20.748758
11938.948404	1403.225000	826.654297	-103.065880
11938.948404	1403.225000	825.469727	-22.269491
11938.948404	1403.225000	824.284180	-0.882613
11938.948404	1403.225000	823.099609	5.104371
11938.948404	1403.225000	821.914063	63.846184
11938.948404	1403.225000	820.728516	-2.707663
11938.948404	1403.225000	819.542969	-84.615509
11938.948404	1403.225000	818.356445	-8.316347
11938.948404	1403.225000	817.169922	24.023357
11938.948404	1403.225000	815.983398	-90.778030
11938.948404	1403.225000	814.796875	-104.539604
11938.948404	1403.225000	813.609375	-50.249191
11938.948404	1403.225000	812.422852	76.439713
11938.948404	1403.225000	811.235352	27.546066
11938.948404	1403.225000	810.046875	29.127972
11938.948404	1403.225000	808.859375	-4.382868
11938.948404	1403.225000	807.670898	-83.927948
11938.948404	1403.225000	806.482422	25.098963
11938.948404	1403.225000	805.293945	17.912193
11938.948404	1403.225000	804.104492	-4.611108
11938.948404	1403.225000	802.915039	23.266621
11938.948404	1403.225000	801.725586	27.037052
11938.948404	1403.225000	800.536133	2.335418
11938.948404	1403.225000	799.345703	17.056917
11938.948404	1403.225000	798.155273	14.258439
11938.948404	1403.225000	796.964844	53.046398
11938.948404	1403.225000	795.774414	-17.593891
11938.948404	1403.225000	794.583008	56.188820
11938.948404	1403.225000	793.392578	81.818878
11938.948404	1403.225000	792.200195	9.029290
11938.948404	1403.225000	791.008789	-39.680126
11938.948404	1403.225000	789.816406	9.998622
11938.948404	1403.225000	788.625000	64.027466
11938.948404	1403.225000	787.432617	146.439499
11938.948404	1403.225000	786.239258	108.662872
11938.948404	1403.225000	785.046875	68.717155
11938.948404	1403.225000	783.853516	0.399567
11938.948404	1403.225000	782.660156	15.073131
11938.948404	1403.225000	781.465820	-33.561813
11938.948404	1403.225000	780.272461	-5.794807
11938.948404	1403.225000	779.078125	8.868154
11938.948404	1403.225000	777.883789	-37.556602
11938.948404	1403.225000	776.688477	16.362694
11938.948404	1403.225000	775.494141	48.453209
11938.948404	1403.225000	774.298828	47.827579
11938.948404	1403.225000	773.103516	38.482594
11938.948404	1403.225000	771.907227	24.782145
11938.948404	1403.225000	770.711914	24.157885
11938.948404	1403.225000	769.515625	34.424095
11938.948404	1403.225000	768.318359	-11.938838
11938.948404	1403.225000	767.122070	-3.850342
11938.948404	1403.225000	765.924805	-56.720512
11938.948404	1403.225000	764.727539	-26.864817
11938.948404	1403.225000	763.530273	29.087992
11938.948404	1403.225000	762.333008	-19.410763
11938.948404	1403.225000	761.134766	-22.214014
11938.948404	1403.225000	759.936523	-83.734161
11938.948404	1403.225000	758.738281	0.439841
11938.948404	1403.225000	757.540039	-28.457741
11938.948404	1403.225000	756.340820	192.581970
11938.948404	1403.225000	755.141602	39.799397
11938.948404	1403.225000	753.942383	-30.371956
11938.948404	1403.225000	752.742188	-48.390038
11938.948404	1403.225000	751.541992	-49.031982
11938.948404	1403.225000	750.341797	-25.795954
11938.948404	1403.225000	749.141602	58.203686
11938.948404	1403.225000	747.941406	116.123558
11938.948404	1403.225000	746.740234	-36.442043
11938.948404	1403.225000	745.539063	-76.148193
11938.948404	1403.225000	744.337891	81.515739
11938.948404	1403.225000	743.135742	61.308578
11938.948404	1403.225000	741.933594	199.359924
11938.948404	1403.225000	740.731445	157.454819
11938.948404	1403.225000	739.529297	182.738647
11938.948404	1403.225000	738.326172	117.014145
11938.948404	1403.225000	737.124023	283.080231
11938.948404	1403.225000	735.919922	267.162323
11938.948404	1403.225000	734.716797	225.264709
11938.948404	1403.225000	733.513672	289.449432
11938.948404	1403.225000	732.309570	275.689636
11938.948404	1403.225000	731.105469	173.215530
11938.948404	1403.225000	729.900391	382.299072
11938.948404	1403.225000	728.696289	312.278259
11938.948404	1403.225000	727.491211	326.615601
11938.948404	1403.225000	726.286133	191.765411
11938.948404	1403.225000	725.080078	234.210617
11938.948404	1403.225000	723.874023	112.390381
11938.948404	1403.225000	722.668945	70.558403
11938.948404	1403.225000	721.461914	24.416954
11938.948404	1403.225000	720.255859	-0.113952
11938.948404	1403.225000	719.048828	50.932987
11938.948404	1403.225000	717.841797	-27.576725
11938.948404	1403.225000	716.634766	62.291340
11938.948404	1403.225000	715.427734	57.167412
11938.948404	1403.225000	714.219727	-29.945179
11938.948404	1403.225000	713.011719	66.317131
11938.948404	1403.225000	711.803711	-18.618547
11938.948404	1403.225000	710.594727	34.463978
11938.948404	1403.225000	709.385742	91.828194
11938.948404	1403.225000	708.176758	58.641930
11938.948404	1403.225000	706.967773	-32.716057
11938.948404	1403.225000	705.758789	-18.484184
11938.948404	1403.225000	704.548828	-86.111816
11938.948404	1403.225000	703.338867	104.686531
11938.948404	1403.225000	702.127930	108.091377
11938.948404	1403.225000	700.917969	-6.900833
11938.948404	1403.225000	699.707031	43.852310
11938.948404	1403.225000	698.496094	-21.609287
11938.948404	1403.225000	697.285156	35.560913
11938.948404	1403.225000	696.073242	34.629810
11938.948404	1403.225000	694.861328	10.037234
11938.948404	1403.225000	693.649414	-18.854160
11938.948404	1403.225000	692.436523	-39.146149
11938.948404	1403.225000	691.224609	-25.057003
11938.948404	1403.225000	690.011719	206.005280
11938.948404	1403.225000	688.798828	28.847746
11938.948404	1403.225000	687.584961	81.537544
11938.948404	1403.225000	686.372070	144.930206
11938.948404	1403.225000	685.158203	90.221664
11938.948404	1403.225000	683.943359	7.625625
11938.948404	1403.225000	682.729492	199.703720
11938.948404	1403.225000	681.514648	119.242172
11938.948404	1403.225000	680.299805	66.685791
11938.948404	1403.225000	679.084961	99.914337
11938.948404	1403.225000	677.869141	60.224873
11938.948404	1403.225000	676.653320	78.412819
11938.948404	1403.225000	675.437500	109.439957
11938.948404	1403.225000	674.221680	-20.249006
11938.948404	1403.225000	673.004883	36.466190
11938.948404	1403.225000	671.789063	161.678604
11938.948404	1403.225000	670.571289	94.117928
11938.948404	1403.225000	669.354492	90.795425
11938.948404	1403.225000	668.136719	57.497631
11938.948404	1403.225000	666.919922	62.718548
11938.948404	1403.225000	665.701172	67.924088
11938.948404	1403.225000	664.483398	8.945966
11938.948404	1403.225000	663.264648	86.842598
11938.948404	1403.225000	662.045898	141.175171
11938.948404	1403.225000	660.827148	41.565155
11938.948404	1403.225000	659.608398	174.930893
11938.948404	1403.225000	658.388672	81.738274
11938.948404	1403.225000	657.168945	31.296078
11938.948404	1403.225000	655.949219	42.798542
11938.948404	1403.225000	654.728516	37.199787
11938.948404	1403.225000	653.507813	50.802795
11938.948404	1403.225000	652.287109	119.880905
11938.948404	1403.225000	651.066406	69.413017
11938.948404	1403.225000	649.844727	48.821007
11938.948404	1403.225000	648.623047	62.352230
11938.948404	1403.225000	647.401367	52.404060
11938.948404	1403.225000	646.179688	144.789886
11938.948404	1403.225000	644.957031	68.715736
11938.948404	1403.225000	643.734375	201.523239
11938.948404	1403.225000	642.511719	178.709412
11938.948404	1403.225000	641.289063	138.847397
11938.948404	1403.225000	640.065430	86.207146
11938.948404	1403.225000	638.841797	29.315432
11938.948404	1403.225000	637.618164	142.753235
11938.948404	1403.225000	636.393555	102.870567
11938.948404	1403.225000	635.168945	92.782593
11938.948404	1403.225000	633.944336	103.960464
11938.948404	1403.225000	632.719727	25.774723
11938.948404	1403.225000	631.494141	107.112930
11938.948404	1403.225000	630.269531	86.338966
11938.948404	1403.225000	629.042969	71.934418
11938.948404	1403.225000	627.817383	104.279434
11938.948404	1403.225000	626.590820	30.346388
11938.948404	1403.225000	625.365234	154.008560
11938.948404	1403.225000	624.137695	207.507645
11938.948404	1403.225000	622.911133	-12.977206
11938.948404	1403.225000	621.683594	93.580971
11938.948404	1403.225000	620.456055	119.415237
11938.948404	1403.225000	619.228516	-30.925117
11938.948404	1403.225000	618.000977	45.815269
11938.948404	1403.225000	616.772461	52.501869
11938.948404	1403.225000	615.543945	74.015266
11938.948404	1403.225000	614.314453	80.659866
11938.948404	1403.225000	613.085938	104.245766
11938.948404	1403.225000	611.856445	102.370575
11938.948404	1403.225000	610.626953	121.670296
11938.948404	1403.225000	609.397461	134.589767
11938.948404	1403.225000	608.166992	191.969513
11938.948404	1403.225000	606.936523	18.472919
11938.948404	1403.225000	605.706055	-8.872150
11938.948404	1403.225000	604.474609	44.218147
11938.948404	1403.225000	603.244141	14.730392
11938.948404	1403.225000	602.012695	52.948551
11938.948404	1403.225000	600.780273	53.054760
11938.948404	1403.225000	599.548828	-31.457001
11938.948404	1403.225000	598.316406	230.845612
11938.948404	1403.225000	597.083984	51.162281
11938.948404	1403.225000	595.851563	25.840210
11938.948404	1403.225000	594.618164	30.096779
11938.948404	1403.225000	593.384766	68.140976
11938.948404	1403.225000	592.151367	53.343967
11938.948404	1403.225000	590.917969	21.642340
11938.948404	1403.225000	589.683594	44.835468
11938.948404	1403.225000	588.449219	110.223228
11938.948404	1403.225000	587.214844	93.255402
11938.948404	1403.225000	585.979492	-124.181496
11938.948404	1403.225000	584.745117	-14.543583
11938.948404	1403.225000	583.509766	-109.562088
11938.948404	1403.225000	582.273438	-6.332886
11938.948404	1403.225000	581.038086	-21.227308
11938.948404	1403.225000	579.801758	-50.886543
11938.948404	1403.225000	578.565430	-65.796722
11938.948404	1403.225000	577.329102	-34.361553
11938.948404	1403.225000	576.091797	-74.577629
11938.948404	1403.225000	574.854492	-34.761127
11938.948404	1403.225000	573.617188	-62.355282
11938.948404	1403.225000	572.378906	-3.641876
11938.948404	1403.225000	571.141602	-41.783535
11938.948404	1403.225000	569.903320	-10.483602
11938.948404	1403.225000	568.664063	-61.261017
11938.948404	1403.225000	567.425781	68.859856
11938.948404	1403.225000	566.186523	26.470535
11938.948404	1403.225000	564.947266	32.442959
11938.948404	1403.225000	563.708008	23.684500
11938.948404	1403.225000	562.467773	-16.608166
11938.948404	1403.225000	561.227539	56.563400
11938.948404	1403.225000	559.987305	-61.470074
11938.948404	1403.225000	558.747070	-70.254822
11938.948404	1403.225000	557.505859	-66.451118
11938.948404	1403.225000	556.264648	21.310612
11938.948404	1403.225000	555.023438	-67.282448
11938.948404	1403.225000	553.781250	-92.898903
11938.948404	1403.225000	552.539063	-38.793648
11938.948404	1403.225000	551.296875	-79.112015
11938.948404	1403.225000	550.054688	0.108088
11938.948404	1403.225000	548.811523	-21.356655
11938.948404	1403.225000	547.569336	-28.149405
11938.948404	1403.225000	546.325195	-20.282784
11938.948404	1403.225000	545.082031	-20.810696
11938.948404	1403.225000	543.837891	83.390808
11938.948404	1403.225000	542.593750	-61.694798
11938.948404	1403.225000	541.349609	6.852596
11938.948404	1403.225000	540.105469	-6.286159
11938.948404	1403.225000	538.860352	-36.175251
11938.948404	1403.225000	537.615234	-120.468384
11938.948404	1403.225000	536.369141	-70.840103
11938.948404	1403.225000	535.124023	-0.324533
11938.948404	1403.225000	533.877930	-84.602028
11938.948404	1403.225000	532.631836	-43.404873
11938.948404	1403.225000	531.384766	33.299870
11938.948404	1403.225000	530.138672	-32.149303
11938.948404	1403.225000	528.891602	-9.823430
11938.948404	1403.225000	527.643555	-56.454269
11938.948404	1403.225000	526.396484	-17.441570
11938.948404	1403.225000	525.148438	-61.979458
11938.948404	1403.225000	523.900391	-212.977188
11938.948404	1403.225000	522.652344	-80.056885
11938.948404	1403.225000	521.403320	-87.015984
11938.948404	1403.225000	520.154297	-58.512272
11938.948404	1403.225000	518.905273	-21.684731
11938.948404	1403.225000	517.656250	-78.724586
11938.948404	1403.225000	516.406250	-52.348995
11938.948404	1403.225000	515.156250	-17.653460
11938.948404	1403.225000	513.906250	52.449577
11938.948404	1403.225000	512.655273	-65.012421
11938.948404	1403.225000	511.404297	7.138959
11938.948404	1403.225000	510.153320	54.260796
11938.948404	1403.225000	508.902344	63.874722
11938.948404	1403.225000	507.650391	-5.632467
11938.948404	1403.225000	506.398438	-50.139492
11938.948404	1403.225000	505.146484	36.466568
11938.948404	1403.225000	503.893555	25.244848
11938.948404	1403.225000	502.641602	3.623816
11938.948404	1403.225000	501.388672	110.940353
11938.948404	1403.225000	500.134766	22.763388
11938.948404	1403.225000	498.881836	15.690340
11938.948404	1403.225000	497.627930	29.395933
11938.948404	1403.225000	496.374023	43.090767
11938.948404	1403.225000	495.119141	-5.547937
11938.948404	1403.225000	493.865234	20.599678
11938.948404	1403.225000	492.610352	46.729759
11938.948404	1403.225000	491.355469	76.995750
11938.948404	1403.225000	490.099609	24.219351
11938.948404	1403.225000	488.843750	46.164822
11938.948404	1403.225000	487.587891	16.229618
11938.948404	1403.225000	486.332031	-26.143402
11938.948404	1403.225000	485.075195	107.767296
11938.948404	1403.225000	483.818359	55.014515
11938.948404	1403.225000	482.561523	-49.542919
11938.948404	1403.225000	481.304688	24.170113
11938.948404	1403.225000	480.046875	-18.187912
11938.948404	1403.225000	478.789063	-0.457307
11938.948404	1403.225000	477.531250	69.037582
11938.948404	1403.225000	476.272461	26.679789
11938.948404	1403.225000	475.013672	-106.755333
11938.948404	1403.225000	473.754883	128.279892
11938.948404	1403.225000	472.496094	141.790649
11938.948404	1403.225000	471.236328	-6.085250
11938.948404	1403.225000	469.976563	52.939209
11938.948404	1403.225000	468.716797	47.823734
11938.948404	1403.225000	467.456055	55.106937
11938.948404	1403.225000	466.196289	-107.120331
11938.948404	1403.225000	464.935547	-0.622894
11938.948404	1403.225000	463.673828	-5.756586
11938.948404	1403.225000	462.413086	53.144100
11938.948404	1403.225000	461.151367	54.179474
11938.948404	1403.225000	459.889648	15.973308
11938.948404	1403.225000	458.626953	-11.906210
11938.948404	1403.225000	457.364258	15.942975
11938.948404	1403.225000	456.101563	64.405113
11938.948404	1403.225000	454.838867	55.068047
11938.948404	1403.225000	453.575195	62.222950
11938.948404	1403.225000	452.312500	61.114807
11938.948404	1403.225000	451.047852	191.941940
11938.948404	1403.225000	449.784180	135.122406
11938.948404	1403.225000	448.519531	138.075851
11938.948404	1403.225000	447.254883	58.596241
11938.948404	1403.225000	445.990234	158.351242
11938.948404	1403.225000	444.725586	78.868866
11938.948404	1403.225000	443.459961	104.413048
11938.948404	1403.225000	442.194336	12.586238
11938.948404	1403.225000	440.927734	151.292908
11938.948404	1403.225000	439.662109	137.648987
11938.948404	1403.225000	438.395508	27.294811
11938.948404	1403.225000	437.127930	-19.274130
11938.948404	1403.225000	435.861328	98.666443
11938.948404	1403.225000	434.593750	43.828915
11938.948404	1403.225000	433.326172	30.099199
11938.948404	1403.225000	432.058594	24.567850
11938.948404	1403.225000	430.790039	68.319000
11938.948404	1403.225000	429.521484	192.133011
11938.948404	1403.225000	428.252930	83.791199
11938.948404	1403.225000	426.984375	-14.270888
11938.948404	1403.225000	425.714844	86.797676
11938.948404	1403.225000	424.445313	-13.347884
11938.948404	1403.225000	423.174805	153.262329
11938.948404	1403.225000	421.905273	98.200653
11938.948404	1403.225000	420.634766	104.651031
11938.948404	1403.225000	419.364258	4.423342
11938.948404	1403.225000	418.092773	207.616501
11938.948404	1403.225000	416.822266	29.427851
11938.948404	1403.225000	415.550781	70.537880
11938.948404	1403.225000	414.278320	43.964924
11938.948404	1403.225000	413.006836	25.545506
11938.948404	1403.225000	411.734375	138.144241
11938.948404	1403.225000	410.461914	152.356430
11938.948404	1403.225000	409.188477	0.687424
11938.948404	1403.225000	407.916016	22.986029
11938.948404	1403.225000	406.642578	125.006821
11938.948404	1403.225000	405.368164	169.632813
11938.948404	1403.225000	404.094727	62.820267
11938.948404	1403.225000	402.820313	103.205544
11938.948404	1403.225000	401.545898	24.921791
11938.948404	1403.225000	400.270508	93.754204
11938.948404	1403.225000	398.996094	170.650360
11938.948404	1403.225000	397.720703	49.247761
11938.948404	1403.225000	396.444336	109.598694
11938.948404	1403.225000	395.168945	124.905731
11938.948404	1403.225000	393.892578	50.271507
11938.948404	1403.225000	392.616211	98.046738
11938.948404	1403.225000	391.339844	13.043768
11938.948404	1403.225000	390.062500	7.542546
11938.948404	1403.225000	388.785156	-49.065777
11938.948404	1403.225000	387.507813	4.369701
11938.948404	1403.225000	386.229492	-48.372631
11938.948404	1403.225000	384.951172	96.531410
11938.948404	1403.225000	383.672852	4.815877
11938.948404	1403.225000	382.394531	129.008682
11938.948404	1403.225000	381.115234	85.949371
11938.948404	1403.225000	379.835938	28.509398
11938.948404	1403.225000	378.556641	115.533195
11938.948404	1403.225000	377.277344	10.988122
11938.948404	1403.225000	375.997070	-71.281342
11938.948404	1403.225000	374.716797	41.691872
11938.948404	1403.225000	373.435547	127.993912
11938.948404	1403.225000	372.155273	-23.909061
11938.948404	1403.225000	370.874023	68.121948
11938.948404	1403.225000	369.591797	3.359263
11938.948404	1403.225000	368.310547	101.070190
11938.948404	1403.225000	367.028320	100.981842
11938.948404	1403.225000	365.746094	21.444988
11938.948404	1403.225000	364.463867	-72.486000
11938.948404	1403.225000	363.180664	60.886482
11938.948404	1403.225000	361.897461	-65.943741
11938.948404	1403.225000	360.614258	-32.559975
11938.948404	1403.225000	359.330078	39.133312
11938.948404	1403.225000	358.045898	55.761787
11938.948404	1403.225000	356.761719	41.700142
11938.948404	1403.225000	355.477539	49.700829
11938.948404	1403.225000	354.192383	-9.497531
11938.948404	1403.225000	352.907227	109.481750
11938.948404	1403.225000	351.622070	-100.263695
11938.948404	1403.225000	350.336914	56.621380
11938.948404	1403.225000	349.050781	-32.041019
11938.948404	1403.225000	347.764648	-88.558205
11938.948404	1403.225000	346.477539	10.577485
11938.948404	1403.225000	345.191406	-111.360062
11938.948404	1403.225000	343.904297	-146.534088
11938.948404	1403.225000	342.616211	-36.315884
11938.948404	1403.225000	341.329102	85.653313
11938.948404	1403.225000	340.041016	31.184177
11938.948404	1403.225000	338.752930	-60.042084
11938.948404	1403.225000	337.463867	8.136110
11938.948404	1403.225000	336.175781	-89.886978
11938.948404	1403.225000	334.886719	7.791411
11938.948404	1403.225000	333.596680	-95.072289
11938.948404	1403.225000	332.307617	34.050602
11938.948404	1403.225000	331.017578	15.203355
11938.948404	1403.225000	329.727539	22.169655
11938.948404	1403.225000	328.436523	-15.763901
11938.948404	1403.225000	327.146484	73.037544
11938.948404	1403.225000	325.855469	-10.254125
11938.948404	1403.225000	324.563477	-87.969337
11938.948404	1403.225000	323.272461	-109.662254
11938.948404	1403.225000	321.980469	71.827179
11938.948404	1403.225000	320.688477	-1.384657
11938.948404	1403.225000	319.395508	63.975983
11938.948404	1403.225000	318.103516	13.863362
11938.948404	1403.225000	316.810547	80.056244
11938.948404	1403.225000	315.516602	-9.530864
11938.948404	1403.225000	314.223633	-9.030843
11938.948404	1403.225000	312.929688	123.740219
11938.948404	1403.225000	311.635742	-24.059406
11938.948404	1403.225000	310.340820	-17.471788
11938.948404	1403.225000	309.045898	-15.589816
11938.948404	1403.225000	307.750977	-18.426271
11938.948404	1403.225000	306.456055	-56.170517
11938.948404	1403.225000	305.160156	-26.264490
11938.948404	1403.225000	303.865234	8.936335
11938.948404	1403.225000	302.568359	169.967499
11938.948404	1403.225000	301.272461	6.570120
11938.948404	1403.225000	299.975586	184.032562
11938.948404	1403.225000	298.678711	280.234680
