#X		#Y		#Wave		#Intensity
12606.551596	1492.963333	1999.980469	100.534729
12606.551596	1492.963333	1999.016602	120.226570
12606.551596	1492.963333	1998.052734	-14.893102
12606.551596	1492.963333	1997.087891	1.103817
12606.551596	1492.963333	1996.123047	-92.022598
12606.551596	1492.963333	1995.158203	112.053009
12606.551596	1492.963333	1994.193359	-18.404102
12606.551596	1492.963333	1993.228516	4.623735
12606.551596	1492.963333	1992.262695	77.068871
12606.551596	1492.963333	1991.297852	144.445572
12606.551596	1492.963333	1990.332031	-63.004704
12606.551596	1492.963333	1989.366211	-47.763603
12606.551596	1492.963333	1988.399414	-69.720520
12606.551596	1492.963333	1987.433594	39.343987
12606.551596	1492.963333	1986.466797	61.730625
12606.551596	1492.963333	1985.500977	-185.486404
12606.551596	1492.963333	1984.534180	-0.059979
12606.551596	1492.963333	1983.567383	41.863552
12606.551596	1492.963333	1982.599609	-96.702042
12606.551596	1492.963333	1981.632813	11.789165
12606.551596	1492.963333	1980.665039	-25.579048
12606.551596	1492.963333	1979.697266	48.141918
12606.551596	1492.963333	1978.729492	45.215900
12606.551596	1492.963333	1977.761719	86.666473
12606.551596	1492.963333	1976.792969	123.100571
12606.551596	1492.963333	1975.825195	-75.005028
12606.551596	1492.963333	1974.856445	10.673219
12606.551596	1492.963333	1973.887695	-115.912422
12606.551596	1492.963333	1972.918945	73.222435
12606.551596	1492.963333	1971.949219	67.400627
12606.551596	1492.963333	1970.980469	9.744413
12606.551596	1492.963333	1970.010742	3.826631
12606.551596	1492.963333	1969.041016	10.181758
12606.551596	1492.963333	1968.071289	105.200310
12606.551596	1492.963333	1967.101563	25.195135
12606.551596	1492.963333	1966.130859	63.416355
12606.551596	1492.963333	1965.161133	12.908105
12606.551596	1492.963333	1964.190430	46.097935
12606.551596	1492.963333	1963.219727	42.298332
12606.551596	1492.963333	1962.249023	55.687756
12606.551596	1492.963333	1961.277344	46.877808
12606.551596	1492.963333	1960.306641	25.726439
12606.551596	1492.963333	1959.334961	34.064465
12606.551596	1492.963333	1958.363281	253.901749
12606.551596	1492.963333	1957.391602	183.417130
12606.551596	1492.963333	1956.419922	7.189337
12606.551596	1492.963333	1955.447266	175.168488
12606.551596	1492.963333	1954.474609	16.140871
12606.551596	1492.963333	1953.501953	93.058212
12606.551596	1492.963333	1952.529297	106.029922
12606.551596	1492.963333	1951.556641	94.398781
12606.551596	1492.963333	1950.583984	109.757553
12606.551596	1492.963333	1949.610352	46.496948
12606.551596	1492.963333	1948.636719	130.543991
12606.551596	1492.963333	1947.663086	-18.672169
12606.551596	1492.963333	1946.689453	13.758035
12606.551596	1492.963333	1945.715820	136.940948
12606.551596	1492.963333	1944.741211	66.232887
12606.551596	1492.963333	1943.767578	211.385178
12606.551596	1492.963333	1942.792969	64.612457
12606.551596	1492.963333	1941.818359	62.540051
12606.551596	1492.963333	1940.842773	-54.780094
12606.551596	1492.963333	1939.868164	-69.130699
12606.551596	1492.963333	1938.892578	-2.627464
12606.551596	1492.963333	1937.916992	-17.026869
12606.551596	1492.963333	1936.941406	29.802664
12606.551596	1492.963333	1935.965820	154.972198
12606.551596	1492.963333	1934.990234	59.681618
12606.551596	1492.963333	1934.013672	-89.456818
12606.551596	1492.963333	1933.037109	-79.443222
12606.551596	1492.963333	1932.060547	30.895895
12606.551596	1492.963333	1931.083984	-64.370972
12606.551596	1492.963333	1930.107422	58.124458
12606.551596	1492.963333	1929.129883	46.022598
12606.551596	1492.963333	1928.153320	29.020945
12606.551596	1492.963333	1927.175781	29.126240
12606.551596	1492.963333	1926.198242	46.331059
12606.551596	1492.963333	1925.219727	95.290833
12606.551596	1492.963333	1924.242188	26.917961
12606.551596	1492.963333	1923.263672	112.488548
12606.551596	1492.963333	1922.285156	-126.890076
12606.551596	1492.963333	1921.306641	14.831382
12606.551596	1492.963333	1920.328125	-102.361740
12606.551596	1492.963333	1919.349609	-41.289780
12606.551596	1492.963333	1918.370117	-2.220816
12606.551596	1492.963333	1917.391602	22.181911
12606.551596	1492.963333	1916.412109	-31.520552
12606.551596	1492.963333	1915.431641	-102.290718
12606.551596	1492.963333	1914.452148	178.212097
12606.551596	1492.963333	1913.472656	19.617682
12606.551596	1492.963333	1912.492188	14.690087
12606.551596	1492.963333	1911.511719	-21.935579
12606.551596	1492.963333	1910.531250	112.066223
12606.551596	1492.963333	1909.550781	172.902359
12606.551596	1492.963333	1908.569336	89.953041
12606.551596	1492.963333	1907.588867	70.368492
12606.551596	1492.963333	1906.607422	-5.234812
12606.551596	1492.963333	1905.625977	-44.287708
12606.551596	1492.963333	1904.644531	-71.157112
12606.551596	1492.963333	1903.662109	77.243149
12606.551596	1492.963333	1902.680664	1.676102
12606.551596	1492.963333	1901.698242	69.699043
12606.551596	1492.963333	1900.715820	164.454346
12606.551596	1492.963333	1899.733398	54.846035
12606.551596	1492.963333	1898.750000	-13.382547
12606.551596	1492.963333	1897.767578	-74.292610
12606.551596	1492.963333	1896.784180	-96.287384
12606.551596	1492.963333	1895.800781	20.268137
12606.551596	1492.963333	1894.817383	42.001587
12606.551596	1492.963333	1893.833984	-48.042431
12606.551596	1492.963333	1892.850586	109.728531
12606.551596	1492.963333	1891.866211	97.421501
12606.551596	1492.963333	1890.881836	-4.731859
12606.551596	1492.963333	1889.897461	87.381866
12606.551596	1492.963333	1888.913086	-63.283581
12606.551596	1492.963333	1887.927734	101.611221
12606.551596	1492.963333	1886.943359	-58.709850
12606.551596	1492.963333	1885.958008	11.503179
12606.551596	1492.963333	1884.972656	30.750479
12606.551596	1492.963333	1883.987305	-5.789634
12606.551596	1492.963333	1883.001953	112.864861
12606.551596	1492.963333	1882.015625	-32.771866
12606.551596	1492.963333	1881.029297	22.820345
12606.551596	1492.963333	1880.042969	-6.426311
12606.551596	1492.963333	1879.056641	-62.314018
12606.551596	1492.963333	1878.070313	-33.396923
12606.551596	1492.963333	1877.083984	-45.664730
12606.551596	1492.963333	1876.096680	2.608120
12606.551596	1492.963333	1875.109375	92.020363
12606.551596	1492.963333	1874.122070	31.319584
12606.551596	1492.963333	1873.134766	-24.518608
12606.551596	1492.963333	1872.146484	-31.943487
12606.551596	1492.963333	1871.159180	62.244316
12606.551596	1492.963333	1870.170898	-17.759041
12606.551596	1492.963333	1869.182617	11.092403
12606.551596	1492.963333	1868.194336	-78.544617
12606.551596	1492.963333	1867.205078	-98.044205
12606.551596	1492.963333	1866.216797	-78.863754
12606.551596	1492.963333	1865.227539	90.133286
12606.551596	1492.963333	1864.238281	85.107605
12606.551596	1492.963333	1863.249023	41.433201
12606.551596	1492.963333	1862.259766	-67.435867
12606.551596	1492.963333	1861.269531	14.497367
12606.551596	1492.963333	1860.279297	-12.243149
12606.551596	1492.963333	1859.290039	21.372389
12606.551596	1492.963333	1858.298828	50.144505
12606.551596	1492.963333	1857.308594	119.925888
12606.551596	1492.963333	1856.318359	175.205658
12606.551596	1492.963333	1855.327148	71.268852
12606.551596	1492.963333	1854.335938	13.190161
12606.551596	1492.963333	1853.344727	-49.690636
12606.551596	1492.963333	1852.353516	58.606853
12606.551596	1492.963333	1851.362305	-88.618134
12606.551596	1492.963333	1850.370117	152.177216
12606.551596	1492.963333	1849.377930	4.985570
12606.551596	1492.963333	1848.385742	16.830265
12606.551596	1492.963333	1847.393555	9.401645
12606.551596	1492.963333	1846.401367	119.962799
12606.551596	1492.963333	1845.408203	107.697632
12606.551596	1492.963333	1844.415039	-70.650230
12606.551596	1492.963333	1843.421875	109.646652
12606.551596	1492.963333	1842.428711	80.540314
12606.551596	1492.963333	1841.435547	17.764053
12606.551596	1492.963333	1840.441406	46.405075
12606.551596	1492.963333	1839.448242	0.486384
12606.551596	1492.963333	1838.454102	2.667361
12606.551596	1492.963333	1837.459961	14.459692
12606.551596	1492.963333	1836.464844	-48.262321
12606.551596	1492.963333	1835.470703	64.453529
12606.551596	1492.963333	1834.475586	28.166992
12606.551596	1492.963333	1833.480469	18.313095
12606.551596	1492.963333	1832.485352	68.499619
12606.551596	1492.963333	1831.490234	-56.620239
12606.551596	1492.963333	1830.495117	-78.466537
12606.551596	1492.963333	1829.499023	29.302780
12606.551596	1492.963333	1828.502930	-14.159493
12606.551596	1492.963333	1827.506836	88.750031
12606.551596	1492.963333	1826.510742	30.891558
12606.551596	1492.963333	1825.513672	66.587601
12606.551596	1492.963333	1824.517578	-58.397102
12606.551596	1492.963333	1823.520508	1.268126
12606.551596	1492.963333	1822.523438	163.980240
12606.551596	1492.963333	1821.526367	132.499847
12606.551596	1492.963333	1820.529297	77.064583
12606.551596	1492.963333	1819.531250	-40.645153
12606.551596	1492.963333	1818.533203	21.328630
12606.551596	1492.963333	1817.535156	71.299271
12606.551596	1492.963333	1816.537109	51.809109
12606.551596	1492.963333	1815.539063	101.743736
12606.551596	1492.963333	1814.540039	-25.464043
12606.551596	1492.963333	1813.541992	65.135170
12606.551596	1492.963333	1812.542969	4.961797
12606.551596	1492.963333	1811.543945	62.017323
12606.551596	1492.963333	1810.543945	102.301414
12606.551596	1492.963333	1809.544922	-10.471346
12606.551596	1492.963333	1808.544922	254.527618
12606.551596	1492.963333	1807.544922	-51.860332
12606.551596	1492.963333	1806.544922	33.793850
12606.551596	1492.963333	1805.544922	105.072060
12606.551596	1492.963333	1804.544922	18.646023
12606.551596	1492.963333	1803.543945	27.782949
12606.551596	1492.963333	1802.542969	-8.464353
12606.551596	1492.963333	1801.541992	48.409840
12606.551596	1492.963333	1800.541016	9.769637
12606.551596	1492.963333	1799.539063	9.320699
12606.551596	1492.963333	1798.538086	37.499924
12606.551596	1492.963333	1797.536133	-101.346191
12606.551596	1492.963333	1796.534180	5.540291
12606.551596	1492.963333	1795.532227	45.601128
12606.551596	1492.963333	1794.529297	99.942337
12606.551596	1492.963333	1793.527344	120.880272
12606.551596	1492.963333	1792.524414	153.716949
12606.551596	1492.963333	1791.521484	95.974983
12606.551596	1492.963333	1790.518555	43.010693
12606.551596	1492.963333	1789.514648	35.316280
12606.551596	1492.963333	1788.511719	113.358597
12606.551596	1492.963333	1787.507813	-25.335836
12606.551596	1492.963333	1786.503906	97.902145
12606.551596	1492.963333	1785.500000	68.739891
12606.551596	1492.963333	1784.496094	110.975624
12606.551596	1492.963333	1783.491211	-46.691475
12606.551596	1492.963333	1782.486328	66.897545
12606.551596	1492.963333	1781.481445	-55.044544
12606.551596	1492.963333	1780.476563	-91.339157
12606.551596	1492.963333	1779.471680	176.708405
12606.551596	1492.963333	1778.465820	-52.193401
12606.551596	1492.963333	1777.460938	25.582619
12606.551596	1492.963333	1776.455078	108.068680
12606.551596	1492.963333	1775.449219	-4.307165
12606.551596	1492.963333	1774.442383	-26.389246
12606.551596	1492.963333	1773.436523	70.274445
12606.551596	1492.963333	1772.429688	12.546119
12606.551596	1492.963333	1771.422852	73.529663
12606.551596	1492.963333	1770.416016	20.545290
12606.551596	1492.963333	1769.409180	-1.579952
12606.551596	1492.963333	1768.402344	142.379425
12606.551596	1492.963333	1767.394531	-33.982502
12606.551596	1492.963333	1766.386719	-153.367447
12606.551596	1492.963333	1765.378906	-80.640732
12606.551596	1492.963333	1764.371094	-7.954300
12606.551596	1492.963333	1763.362305	123.950432
12606.551596	1492.963333	1762.354492	35.385605
12606.551596	1492.963333	1761.345703	136.402176
12606.551596	1492.963333	1760.336914	78.638824
12606.551596	1492.963333	1759.328125	49.307903
12606.551596	1492.963333	1758.318359	64.968231
12606.551596	1492.963333	1757.308594	-4.629141
12606.551596	1492.963333	1756.299805	82.029579
12606.551596	1492.963333	1755.290039	97.634369
12606.551596	1492.963333	1754.279297	77.722252
12606.551596	1492.963333	1753.269531	145.345322
12606.551596	1492.963333	1752.258789	78.094879
12606.551596	1492.963333	1751.249023	-168.884140
12606.551596	1492.963333	1750.238281	-42.181156
12606.551596	1492.963333	1749.226563	77.364380
12606.551596	1492.963333	1748.215820	0.668002
12606.551596	1492.963333	1747.204102	96.500084
12606.551596	1492.963333	1746.193359	-51.082684
12606.551596	1492.963333	1745.181641	77.767189
12606.551596	1492.963333	1744.168945	135.695129
12606.551596	1492.963333	1743.157227	-11.855388
12606.551596	1492.963333	1742.144531	62.565617
12606.551596	1492.963333	1741.132813	-11.766781
12606.551596	1492.963333	1740.120117	46.076832
12606.551596	1492.963333	1739.106445	99.161804
12606.551596	1492.963333	1738.093750	1.227679
12606.551596	1492.963333	1737.080078	28.326340
12606.551596	1492.963333	1736.067383	64.836044
12606.551596	1492.963333	1735.053711	32.937550
12606.551596	1492.963333	1734.040039	-15.464928
12606.551596	1492.963333	1733.025391	-28.512508
12606.551596	1492.963333	1732.011719	36.196613
12606.551596	1492.963333	1730.997070	34.895351
12606.551596	1492.963333	1729.982422	57.135925
12606.551596	1492.963333	1728.967773	124.099976
12606.551596	1492.963333	1727.952148	96.834808
12606.551596	1492.963333	1726.937500	-52.851868
12606.551596	1492.963333	1725.921875	-4.781949
12606.551596	1492.963333	1724.906250	-135.596970
12606.551596	1492.963333	1723.890625	-144.027893
12606.551596	1492.963333	1722.875000	7.494144
12606.551596	1492.963333	1721.858398	10.766881
12606.551596	1492.963333	1720.841797	108.084869
12606.551596	1492.963333	1719.825195	17.265018
12606.551596	1492.963333	1718.808594	-35.925068
12606.551596	1492.963333	1717.791992	-28.004904
12606.551596	1492.963333	1716.774414	71.533653
12606.551596	1492.963333	1715.756836	126.383659
12606.551596	1492.963333	1714.739258	37.919666
12606.551596	1492.963333	1713.721680	-8.254286
12606.551596	1492.963333	1712.704102	1.925310
12606.551596	1492.963333	1711.685547	-142.849869
12606.551596	1492.963333	1710.667969	-69.308273
12606.551596	1492.963333	1709.649414	-38.050491
12606.551596	1492.963333	1708.630859	-23.241745
12606.551596	1492.963333	1707.611328	87.716835
12606.551596	1492.963333	1706.592773	123.573456
12606.551596	1492.963333	1705.573242	-37.561127
12606.551596	1492.963333	1704.553711	-11.102554
12606.551596	1492.963333	1703.534180	-69.047844
12606.551596	1492.963333	1702.513672	-178.543289
12606.551596	1492.963333	1701.494141	-91.197968
12606.551596	1492.963333	1700.473633	24.207169
12606.551596	1492.963333	1699.453125	-75.917282
12606.551596	1492.963333	1698.432617	13.654819
12606.551596	1492.963333	1697.412109	100.837135
12606.551596	1492.963333	1696.390625	14.755762
12606.551596	1492.963333	1695.369141	12.943429
12606.551596	1492.963333	1694.347656	36.856274
12606.551596	1492.963333	1693.326172	49.049561
12606.551596	1492.963333	1692.304688	-4.265201
12606.551596	1492.963333	1691.282227	-1.452666
12606.551596	1492.963333	1690.260742	1.348589
12606.551596	1492.963333	1689.238281	132.699188
12606.551596	1492.963333	1688.214844	175.172424
12606.551596	1492.963333	1687.192383	-34.742260
12606.551596	1492.963333	1686.168945	14.729072
12606.551596	1492.963333	1685.146484	187.967987
12606.551596	1492.963333	1684.123047	48.190285
12606.551596	1492.963333	1683.099609	116.257950
12606.551596	1492.963333	1682.075195	34.879978
12606.551596	1492.963333	1681.051758	21.209518
12606.551596	1492.963333	1680.027344	184.877335
12606.551596	1492.963333	1679.002930	-80.817047
12606.551596	1492.963333	1677.978516	57.124077
12606.551596	1492.963333	1676.953125	92.380844
12606.551596	1492.963333	1675.928711	-103.226494
12606.551596	1492.963333	1674.903320	62.575798
12606.551596	1492.963333	1673.877930	151.385193
12606.551596	1492.963333	1672.852539	-37.167339
12606.551596	1492.963333	1671.826172	0.341982
12606.551596	1492.963333	1670.800781	-43.703011
12606.551596	1492.963333	1669.774414	38.022610
12606.551596	1492.963333	1668.748047	103.405418
12606.551596	1492.963333	1667.721680	59.329842
12606.551596	1492.963333	1666.694336	145.607788
12606.551596	1492.963333	1665.667969	20.066078
12606.551596	1492.963333	1664.640625	96.990486
12606.551596	1492.963333	1663.613281	94.778870
12606.551596	1492.963333	1662.585938	113.490974
12606.551596	1492.963333	1661.557617	71.721390
12606.551596	1492.963333	1660.530273	178.760880
12606.551596	1492.963333	1659.501953	164.869781
12606.551596	1492.963333	1658.473633	162.594925
12606.551596	1492.963333	1657.444336	-18.612183
12606.551596	1492.963333	1656.416016	269.530518
12606.551596	1492.963333	1655.386719	322.951752
12606.551596	1492.963333	1654.358398	223.075195
12606.551596	1492.963333	1653.328125	153.405884
12606.551596	1492.963333	1652.298828	65.187180
12606.551596	1492.963333	1651.269531	211.410645
12606.551596	1492.963333	1650.239258	125.515526
12606.551596	1492.963333	1649.208984	123.167412
12606.551596	1492.963333	1648.178711	106.895294
12606.551596	1492.963333	1647.148438	88.302391
12606.551596	1492.963333	1646.117188	215.784500
12606.551596	1492.963333	1645.086914	153.116013
12606.551596	1492.963333	1644.055664	120.593224
12606.551596	1492.963333	1643.024414	215.530685
12606.551596	1492.963333	1641.992188	173.723572
12606.551596	1492.963333	1640.960938	259.335022
12606.551596	1492.963333	1639.928711	231.418625
12606.551596	1492.963333	1638.896484	351.703461
12606.551596	1492.963333	1637.864258	337.659027
12606.551596	1492.963333	1636.832031	298.153168
12606.551596	1492.963333	1635.798828	228.568481
12606.551596	1492.963333	1634.766602	212.225861
12606.551596	1492.963333	1633.733398	177.374146
12606.551596	1492.963333	1632.699219	406.195190
12606.551596	1492.963333	1631.666016	343.561188
12606.551596	1492.963333	1630.632813	230.083221
12606.551596	1492.963333	1629.598633	202.168289
12606.551596	1492.963333	1628.564453	58.706703
12606.551596	1492.963333	1627.530273	402.838318
12606.551596	1492.963333	1626.495117	354.099548
12606.551596	1492.963333	1625.460938	344.645325
12606.551596	1492.963333	1624.425781	337.496887
12606.551596	1492.963333	1623.390625	274.936707
12606.551596	1492.963333	1622.355469	454.777954
12606.551596	1492.963333	1621.319336	348.360260
12606.551596	1492.963333	1620.284180	251.214523
12606.551596	1492.963333	1619.248047	304.058350
12606.551596	1492.963333	1618.211914	430.690277
12606.551596	1492.963333	1617.174805	239.021210
12606.551596	1492.963333	1616.138672	289.526398
12606.551596	1492.963333	1615.101563	356.143616
12606.551596	1492.963333	1614.065430	335.155304
12606.551596	1492.963333	1613.027344	369.471954
12606.551596	1492.963333	1611.990234	442.944702
12606.551596	1492.963333	1610.953125	276.829773
12606.551596	1492.963333	1609.915039	465.437927
12606.551596	1492.963333	1608.876953	467.466644
12606.551596	1492.963333	1607.838867	326.764313
12606.551596	1492.963333	1606.800781	443.902924
12606.551596	1492.963333	1605.761719	252.632324
12606.551596	1492.963333	1604.723633	365.140106
12606.551596	1492.963333	1603.684570	426.995514
12606.551596	1492.963333	1602.644531	419.829620
12606.551596	1492.963333	1601.605469	401.174316
12606.551596	1492.963333	1600.566406	288.271545
12606.551596	1492.963333	1599.526367	469.620728
12606.551596	1492.963333	1598.486328	678.479309
12606.551596	1492.963333	1597.446289	351.914917
12606.551596	1492.963333	1596.405273	404.509949
12606.551596	1492.963333	1595.365234	241.200012
12606.551596	1492.963333	1594.324219	399.431305
12606.551596	1492.963333	1593.283203	355.573181
12606.551596	1492.963333	1592.242188	334.689819
12606.551596	1492.963333	1591.200195	430.856781
12606.551596	1492.963333	1590.159180	352.614105
12606.551596	1492.963333	1589.117188	370.752380
12606.551596	1492.963333	1588.075195	379.715027
12606.551596	1492.963333	1587.032227	283.191925
12606.551596	1492.963333	1585.990234	227.983826
12606.551596	1492.963333	1584.947266	351.594208
12606.551596	1492.963333	1583.904297	284.944550
12606.551596	1492.963333	1582.861328	314.563416
12606.551596	1492.963333	1581.818359	273.159576
12606.551596	1492.963333	1580.775391	254.683441
12606.551596	1492.963333	1579.731445	231.638412
12606.551596	1492.963333	1578.687500	309.350250
12606.551596	1492.963333	1577.643555	231.380692
12606.551596	1492.963333	1576.598633	34.436794
12606.551596	1492.963333	1575.554688	299.797150
12606.551596	1492.963333	1574.509766	297.392181
12606.551596	1492.963333	1573.464844	205.792679
12606.551596	1492.963333	1572.419922	290.325562
12606.551596	1492.963333	1571.374023	137.045090
12606.551596	1492.963333	1570.329102	299.299591
12606.551596	1492.963333	1569.283203	292.369171
12606.551596	1492.963333	1568.237305	456.830933
12606.551596	1492.963333	1567.191406	296.824310
12606.551596	1492.963333	1566.144531	75.215607
12606.551596	1492.963333	1565.098633	168.859863
12606.551596	1492.963333	1564.051758	324.123260
12606.551596	1492.963333	1563.004883	235.076019
12606.551596	1492.963333	1561.957031	178.025406
12606.551596	1492.963333	1560.910156	27.453339
12606.551596	1492.963333	1559.862305	317.272949
12606.551596	1492.963333	1558.814453	171.316620
12606.551596	1492.963333	1557.766602	114.371696
12606.551596	1492.963333	1556.718750	46.061974
12606.551596	1492.963333	1555.669922	235.392548
12606.551596	1492.963333	1554.621094	212.693787
12606.551596	1492.963333	1553.573242	340.420044
12606.551596	1492.963333	1552.523438	185.591064
12606.551596	1492.963333	1551.474609	304.186157
12606.551596	1492.963333	1550.424805	210.944305
12606.551596	1492.963333	1549.375000	195.170944
12606.551596	1492.963333	1548.325195	213.567490
12606.551596	1492.963333	1547.275391	154.584366
12606.551596	1492.963333	1546.225586	68.332153
12606.551596	1492.963333	1545.174805	191.444534
12606.551596	1492.963333	1544.124023	193.963135
12606.551596	1492.963333	1543.073242	105.524437
12606.551596	1492.963333	1542.022461	121.734619
12606.551596	1492.963333	1540.970703	215.247437
12606.551596	1492.963333	1539.919922	-77.658936
12606.551596	1492.963333	1538.868164	61.340851
12606.551596	1492.963333	1537.815430	111.689941
12606.551596	1492.963333	1536.763672	146.138107
12606.551596	1492.963333	1535.710938	62.487820
12606.551596	1492.963333	1534.659180	51.553726
12606.551596	1492.963333	1533.606445	113.288284
12606.551596	1492.963333	1532.552734	197.712753
12606.551596	1492.963333	1531.500000	173.195389
12606.551596	1492.963333	1530.446289	126.014908
12606.551596	1492.963333	1529.393555	56.190353
12606.551596	1492.963333	1528.338867	47.644497
12606.551596	1492.963333	1527.285156	100.348549
12606.551596	1492.963333	1526.231445	37.428616
12606.551596	1492.963333	1525.176758	19.884403
12606.551596	1492.963333	1524.122070	181.400269
12606.551596	1492.963333	1523.067383	82.307953
12606.551596	1492.963333	1522.012695	17.255152
12606.551596	1492.963333	1520.957031	199.120056
12606.551596	1492.963333	1519.901367	104.672386
12606.551596	1492.963333	1518.845703	80.468018
12606.551596	1492.963333	1517.790039	20.077469
12606.551596	1492.963333	1516.734375	-49.318886
12606.551596	1492.963333	1515.677734	-44.000938
12606.551596	1492.963333	1514.621094	24.679823
12606.551596	1492.963333	1513.564453	-69.490761
12606.551596	1492.963333	1512.507813	10.519246
12606.551596	1492.963333	1511.450195	-51.915180
12606.551596	1492.963333	1510.393555	80.095787
12606.551596	1492.963333	1509.335938	-41.039883
12606.551596	1492.963333	1508.278320	18.657234
12606.551596	1492.963333	1507.219727	-68.486633
12606.551596	1492.963333	1506.162109	40.930355
12606.551596	1492.963333	1505.103516	-46.134819
12606.551596	1492.963333	1504.044922	-117.337112
12606.551596	1492.963333	1502.986328	-190.743225
12606.551596	1492.963333	1501.926758	-83.551254
12606.551596	1492.963333	1500.868164	-12.476283
12606.551596	1492.963333	1499.808594	20.242605
12606.551596	1492.963333	1498.749023	-122.953484
12606.551596	1492.963333	1497.688477	-139.786453
12606.551596	1492.963333	1496.628906	-86.692818
12606.551596	1492.963333	1495.568359	-76.425117
12606.551596	1492.963333	1494.507813	-108.954468
12606.551596	1492.963333	1493.447266	-49.061954
12606.551596	1492.963333	1492.386719	69.406883
12606.551596	1492.963333	1491.325195	66.226387
12606.551596	1492.963333	1490.263672	-4.482392
12606.551596	1492.963333	1489.202148	-32.358448
12606.551596	1492.963333	1488.140625	-107.467056
12606.551596	1492.963333	1487.079102	-63.238228
12606.551596	1492.963333	1486.016602	-127.006409
12606.551596	1492.963333	1484.954102	61.241425
12606.551596	1492.963333	1483.891602	132.482956
12606.551596	1492.963333	1482.829102	35.067940
12606.551596	1492.963333	1481.765625	-62.277893
12606.551596	1492.963333	1480.702148	-80.878075
12606.551596	1492.963333	1479.638672	-29.771523
12606.551596	1492.963333	1478.575195	-95.485931
12606.551596	1492.963333	1477.511719	16.303539
12606.551596	1492.963333	1476.447266	-47.069832
12606.551596	1492.963333	1475.382813	-132.814484
12606.551596	1492.963333	1474.318359	-180.388306
12606.551596	1492.963333	1473.253906	21.185892
12606.551596	1492.963333	1472.189453	76.868195
12606.551596	1492.963333	1471.124023	4.828920
12606.551596	1492.963333	1470.058594	6.789652
12606.551596	1492.963333	1468.993164	89.360863
12606.551596	1492.963333	1467.927734	178.738464
12606.551596	1492.963333	1466.861328	79.929314
12606.551596	1492.963333	1465.794922	131.122635
12606.551596	1492.963333	1464.728516	61.763378
12606.551596	1492.963333	1463.662109	141.971268
12606.551596	1492.963333	1462.594727	70.283051
12606.551596	1492.963333	1461.528320	124.064545
12606.551596	1492.963333	1460.460938	-25.814939
12606.551596	1492.963333	1459.393555	52.287739
12606.551596	1492.963333	1458.326172	161.836548
12606.551596	1492.963333	1457.257813	-99.369919
12606.551596	1492.963333	1456.189453	10.370970
12606.551596	1492.963333	1455.121094	-18.542271
12606.551596	1492.963333	1454.052734	-43.369316
12606.551596	1492.963333	1452.984375	-57.863991
12606.551596	1492.963333	1451.915039	109.579086
12606.551596	1492.963333	1450.845703	123.217552
12606.551596	1492.963333	1449.776367	67.159386
12606.551596	1492.963333	1448.707031	-54.349724
12606.551596	1492.963333	1447.636719	75.023247
12606.551596	1492.963333	1446.567383	-76.763985
12606.551596	1492.963333	1445.497070	45.219250
12606.551596	1492.963333	1444.425781	55.632282
12606.551596	1492.963333	1443.355469	30.553732
12606.551596	1492.963333	1442.285156	34.648220
12606.551596	1492.963333	1441.213867	85.695236
12606.551596	1492.963333	1440.142578	155.452087
12606.551596	1492.963333	1439.070313	11.386801
12606.551596	1492.963333	1437.999023	117.905296
12606.551596	1492.963333	1436.926758	37.821053
12606.551596	1492.963333	1435.854492	68.674919
12606.551596	1492.963333	1434.782227	68.358055
12606.551596	1492.963333	1433.709961	56.917370
12606.551596	1492.963333	1432.636719	257.187286
12606.551596	1492.963333	1431.563477	101.144539
12606.551596	1492.963333	1430.490234	33.484005
12606.551596	1492.963333	1429.416992	50.477188
12606.551596	1492.963333	1428.343750	74.635841
12606.551596	1492.963333	1427.269531	96.329666
12606.551596	1492.963333	1426.195313	24.576265
12606.551596	1492.963333	1425.121094	30.828791
12606.551596	1492.963333	1424.046875	7.371923
12606.551596	1492.963333	1422.971680	-40.909863
12606.551596	1492.963333	1421.896484	79.618088
12606.551596	1492.963333	1420.821289	-22.548611
12606.551596	1492.963333	1419.746094	69.755089
12606.551596	1492.963333	1418.669922	63.252640
12606.551596	1492.963333	1417.594727	-24.684963
12606.551596	1492.963333	1416.518555	-72.505798
12606.551596	1492.963333	1415.442383	-7.819064
12606.551596	1492.963333	1414.365234	253.256042
12606.551596	1492.963333	1413.289063	103.049706
12606.551596	1492.963333	1412.211914	64.140961
12606.551596	1492.963333	1411.134766	23.786680
12606.551596	1492.963333	1410.057617	137.523956
12606.551596	1492.963333	1408.979492	16.183916
12606.551596	1492.963333	1407.902344	39.863537
12606.551596	1492.963333	1406.824219	9.756399
12606.551596	1492.963333	1405.746094	127.448303
12606.551596	1492.963333	1404.666992	157.410156
12606.551596	1492.963333	1403.588867	69.494995
12606.551596	1492.963333	1402.509766	131.281906
12606.551596	1492.963333	1401.430664	33.329704
12606.551596	1492.963333	1400.351563	74.345863
12606.551596	1492.963333	1399.271484	157.119797
12606.551596	1492.963333	1398.192383	61.090641
12606.551596	1492.963333	1397.112305	293.840729
12606.551596	1492.963333	1396.031250	183.740662
12606.551596	1492.963333	1394.951172	98.914017
12606.551596	1492.963333	1393.871094	50.868965
12606.551596	1492.963333	1392.790039	119.383392
12606.551596	1492.963333	1391.708984	171.490402
12606.551596	1492.963333	1390.626953	56.020161
12606.551596	1492.963333	1389.545898	106.394699
12606.551596	1492.963333	1388.463867	138.689972
12606.551596	1492.963333	1387.381836	11.754867
12606.551596	1492.963333	1386.299805	-128.011749
12606.551596	1492.963333	1385.217773	44.195202
12606.551596	1492.963333	1384.134766	10.334009
12606.551596	1492.963333	1383.051758	81.128433
12606.551596	1492.963333	1381.968750	-28.544664
12606.551596	1492.963333	1380.885742	53.061222
12606.551596	1492.963333	1379.802734	107.019241
12606.551596	1492.963333	1378.718750	39.645718
12606.551596	1492.963333	1377.634766	40.013371
12606.551596	1492.963333	1376.550781	57.811066
12606.551596	1492.963333	1375.465820	6.875230
12606.551596	1492.963333	1374.381836	3.003457
12606.551596	1492.963333	1373.296875	-0.395447
12606.551596	1492.963333	1372.211914	143.351654
12606.551596	1492.963333	1371.126953	-5.778278
12606.551596	1492.963333	1370.041016	8.505890
12606.551596	1492.963333	1368.955078	34.671154
12606.551596	1492.963333	1367.869141	2.640740
12606.551596	1492.963333	1366.783203	47.336407
12606.551596	1492.963333	1365.697266	-30.036394
12606.551596	1492.963333	1364.610352	147.749649
12606.551596	1492.963333	1363.523438	11.266853
12606.551596	1492.963333	1362.436523	30.383730
12606.551596	1492.963333	1361.349609	22.345276
12606.551596	1492.963333	1360.261719	99.779305
12606.551596	1492.963333	1359.174805	45.597305
12606.551596	1492.963333	1358.086914	50.579479
12606.551596	1492.963333	1356.998047	-5.802061
12606.551596	1492.963333	1355.910156	36.087143
12606.551596	1492.963333	1354.821289	91.832138
12606.551596	1492.963333	1353.732422	149.507401
12606.551596	1492.963333	1352.643555	-5.351108
12606.551596	1492.963333	1351.554688	10.905904
12606.551596	1492.963333	1350.464844	171.230698
12606.551596	1492.963333	1349.375000	186.785019
12606.551596	1492.963333	1348.285156	142.522324
12606.551596	1492.963333	1347.195313	108.759842
12606.551596	1492.963333	1346.105469	135.930038
12606.551596	1492.963333	1345.014648	111.460396
12606.551596	1492.963333	1343.923828	146.419250
12606.551596	1492.963333	1342.833008	258.973938
12606.551596	1492.963333	1341.741211	297.618896
12606.551596	1492.963333	1340.650391	163.502441
12606.551596	1492.963333	1339.558594	274.516998
12606.551596	1492.963333	1338.466797	145.750290
12606.551596	1492.963333	1337.374023	112.724220
12606.551596	1492.963333	1336.282227	64.422325
12606.551596	1492.963333	1335.189453	214.387619
12606.551596	1492.963333	1334.096680	177.197937
12606.551596	1492.963333	1333.003906	143.053329
12606.551596	1492.963333	1331.910156	107.961128
12606.551596	1492.963333	1330.817383	191.369461
12606.551596	1492.963333	1329.723633	175.711746
12606.551596	1492.963333	1328.629883	169.273682
12606.551596	1492.963333	1327.535156	118.229721
12606.551596	1492.963333	1326.441406	114.598579
12606.551596	1492.963333	1325.346680	-44.875603
12606.551596	1492.963333	1324.251953	68.701180
12606.551596	1492.963333	1323.156250	135.025940
12606.551596	1492.963333	1322.061523	102.313957
12606.551596	1492.963333	1320.965820	168.056625
12606.551596	1492.963333	1319.870117	114.741112
12606.551596	1492.963333	1318.774414	87.117706
12606.551596	1492.963333	1317.678711	129.952805
12606.551596	1492.963333	1316.582031	94.363457
12606.551596	1492.963333	1315.485352	188.978821
12606.551596	1492.963333	1314.388672	221.338257
12606.551596	1492.963333	1313.291016	12.176049
12606.551596	1492.963333	1312.194336	140.731476
12606.551596	1492.963333	1311.096680	22.152588
12606.551596	1492.963333	1309.999023	48.250542
12606.551596	1492.963333	1308.901367	33.398167
12606.551596	1492.963333	1307.802734	91.398727
12606.551596	1492.963333	1306.705078	54.638229
12606.551596	1492.963333	1305.606445	110.812302
12606.551596	1492.963333	1304.506836	49.158081
12606.551596	1492.963333	1303.408203	62.814388
12606.551596	1492.963333	1302.308594	133.129791
12606.551596	1492.963333	1301.208984	140.594955
12606.551596	1492.963333	1300.109375	-45.998348
12606.551596	1492.963333	1299.009766	-52.317341
12606.551596	1492.963333	1297.909180	24.713865
12606.551596	1492.963333	1296.808594	99.206459
12606.551596	1492.963333	1295.708008	167.539597
12606.551596	1492.963333	1294.607422	-33.765453
12606.551596	1492.963333	1293.506836	92.153854
12606.551596	1492.963333	1292.405273	95.071251
12606.551596	1492.963333	1291.303711	79.181808
12606.551596	1492.963333	1290.202148	16.094669
12606.551596	1492.963333	1289.099609	101.688599
12606.551596	1492.963333	1287.998047	29.074986
12606.551596	1492.963333	1286.895508	152.574615
12606.551596	1492.963333	1285.792969	-81.023308
12606.551596	1492.963333	1284.689453	-32.307724
12606.551596	1492.963333	1283.586914	-115.321190
12606.551596	1492.963333	1282.483398	67.907112
12606.551596	1492.963333	1281.379883	-9.460639
12606.551596	1492.963333	1280.276367	-142.026245
12606.551596	1492.963333	1279.171875	-17.983572
12606.551596	1492.963333	1278.067383	25.468206
12606.551596	1492.963333	1276.962891	142.932846
12606.551596	1492.963333	1275.858398	14.242595
12606.551596	1492.963333	1274.753906	36.246346
12606.551596	1492.963333	1273.648438	60.723949
12606.551596	1492.963333	1272.542969	99.585991
12606.551596	1492.963333	1271.437500	12.612985
12606.551596	1492.963333	1270.331055	-20.660290
12606.551596	1492.963333	1269.225586	56.881893
12606.551596	1492.963333	1268.119141	88.785439
12606.551596	1492.963333	1267.012695	-58.677818
12606.551596	1492.963333	1265.906250	-38.722485
12606.551596	1492.963333	1264.798828	-5.794182
12606.551596	1492.963333	1263.691406	-7.140157
12606.551596	1492.963333	1262.583984	-45.808517
12606.551596	1492.963333	1261.476563	-78.631065
12606.551596	1492.963333	1260.368164	-7.194002
12606.551596	1492.963333	1259.260742	-91.287109
12606.551596	1492.963333	1258.152344	22.243647
12606.551596	1492.963333	1257.043945	-8.804619
12606.551596	1492.963333	1255.934570	27.526375
12606.551596	1492.963333	1254.825195	86.274429
12606.551596	1492.963333	1253.716797	26.656506
12606.551596	1492.963333	1252.606445	-12.108219
12606.551596	1492.963333	1251.497070	21.447081
12606.551596	1492.963333	1250.387695	-33.212948
12606.551596	1492.963333	1249.277344	9.350514
12606.551596	1492.963333	1248.166992	-1.515230
12606.551596	1492.963333	1247.055664	8.403066
12606.551596	1492.963333	1245.945313	-23.257898
12606.551596	1492.963333	1244.833984	-32.300362
12606.551596	1492.963333	1243.722656	-24.645618
12606.551596	1492.963333	1242.611328	-115.446266
12606.551596	1492.963333	1241.499023	-49.635994
12606.551596	1492.963333	1240.387695	35.270935
12606.551596	1492.963333	1239.275391	-16.283497
12606.551596	1492.963333	1238.162109	3.726842
12606.551596	1492.963333	1237.049805	-39.081020
12606.551596	1492.963333	1235.936523	-174.686920
12606.551596	1492.963333	1234.823242	-25.374523
12606.551596	1492.963333	1233.709961	-38.070358
12606.551596	1492.963333	1232.596680	31.281467
12606.551596	1492.963333	1231.482422	-43.944557
12606.551596	1492.963333	1230.369141	17.739120
12606.551596	1492.963333	1229.253906	76.668419
12606.551596	1492.963333	1228.139648	-71.974541
12606.551596	1492.963333	1227.025391	-11.357744
12606.551596	1492.963333	1225.910156	100.105240
12606.551596	1492.963333	1224.794922	44.151688
12606.551596	1492.963333	1223.679688	56.749119
12606.551596	1492.963333	1222.563477	17.465424
12606.551596	1492.963333	1221.447266	57.623810
12606.551596	1492.963333	1220.331055	-6.876569
12606.551596	1492.963333	1219.214844	-35.939777
12606.551596	1492.963333	1218.098633	-18.786774
12606.551596	1492.963333	1216.981445	-50.436069
12606.551596	1492.963333	1215.864258	-54.394558
12606.551596	1492.963333	1214.747070	-105.250870
12606.551596	1492.963333	1213.629883	-78.111221
12606.551596	1492.963333	1212.511719	-60.316860
12606.551596	1492.963333	1211.393555	20.434881
12606.551596	1492.963333	1210.275391	-136.515915
12606.551596	1492.963333	1209.157227	-13.514242
12606.551596	1492.963333	1208.038086	35.627972
12606.551596	1492.963333	1206.918945	-86.733391
12606.551596	1492.963333	1205.799805	0.625042
12606.551596	1492.963333	1204.680664	27.687895
12606.551596	1492.963333	1203.560547	-36.125813
12606.551596	1492.963333	1202.441406	-70.451744
12606.551596	1492.963333	1201.321289	1.662663
12606.551596	1492.963333	1200.200195	-39.585579
12606.551596	1492.963333	1199.080078	-102.196381
12606.551596	1492.963333	1197.958984	-58.326084
12606.551596	1492.963333	1196.837891	-124.661766
12606.551596	1492.963333	1195.716797	-54.241276
12606.551596	1492.963333	1194.594727	-81.537674
12606.551596	1492.963333	1193.473633	-119.476151
12606.551596	1492.963333	1192.351563	-78.651527
12606.551596	1492.963333	1191.229492	-79.122955
12606.551596	1492.963333	1190.106445	-38.988979
12606.551596	1492.963333	1188.984375	6.510266
12606.551596	1492.963333	1187.861328	-81.760559
12606.551596	1492.963333	1186.738281	-70.089119
12606.551596	1492.963333	1185.614258	38.987556
12606.551596	1492.963333	1184.491211	-18.560678
12606.551596	1492.963333	1183.367188	13.769491
12606.551596	1492.963333	1182.243164	5.172841
12606.551596	1492.963333	1181.119141	42.494846
12606.551596	1492.963333	1179.994141	53.351299
12606.551596	1492.963333	1178.869141	-43.941429
12606.551596	1492.963333	1177.744141	-13.595481
12606.551596	1492.963333	1176.619141	-40.204823
12606.551596	1492.963333	1175.493164	55.278450
12606.551596	1492.963333	1174.368164	75.421440
12606.551596	1492.963333	1173.242188	114.114601
12606.551596	1492.963333	1172.115234	74.768356
12606.551596	1492.963333	1170.989258	20.396128
12606.551596	1492.963333	1169.862305	28.382486
12606.551596	1492.963333	1168.735352	146.712799
12606.551596	1492.963333	1167.608398	-18.179052
12606.551596	1492.963333	1166.481445	74.894699
12606.551596	1492.963333	1165.353516	24.601080
12606.551596	1492.963333	1164.225586	-37.963688
12606.551596	1492.963333	1163.097656	33.357906
12606.551596	1492.963333	1161.968750	-56.784710
12606.551596	1492.963333	1160.840820	22.563398
12606.551596	1492.963333	1159.711914	-20.263083
12606.551596	1492.963333	1158.583008	-26.670813
12606.551596	1492.963333	1157.453125	-1.232558
12606.551596	1492.963333	1156.324219	-102.917145
12606.551596	1492.963333	1155.194336	-27.465141
12606.551596	1492.963333	1154.064453	8.549845
12606.551596	1492.963333	1152.933594	22.167812
12606.551596	1492.963333	1151.803711	2.152419
12606.551596	1492.963333	1150.672852	-108.636360
12606.551596	1492.963333	1149.541992	46.656116
12606.551596	1492.963333	1148.411133	1.468143
12606.551596	1492.963333	1147.279297	-49.910313
12606.551596	1492.963333	1146.147461	65.018486
12606.551596	1492.963333	1145.015625	30.831024
12606.551596	1492.963333	1143.883789	-74.291237
12606.551596	1492.963333	1142.750977	169.647217
12606.551596	1492.963333	1141.619141	39.603069
12606.551596	1492.963333	1140.486328	62.161751
12606.551596	1492.963333	1139.352539	56.743961
12606.551596	1492.963333	1138.219727	22.015934
12606.551596	1492.963333	1137.085938	141.405807
12606.551596	1492.963333	1135.952148	11.647743
12606.551596	1492.963333	1134.818359	-42.770622
12606.551596	1492.963333	1133.683594	141.150055
12606.551596	1492.963333	1132.549805	31.094194
12606.551596	1492.963333	1131.415039	40.469326
12606.551596	1492.963333	1130.279297	34.200069
12606.551596	1492.963333	1129.144531	58.736046
12606.551596	1492.963333	1128.008789	65.777702
12606.551596	1492.963333	1126.873047	30.037813
12606.551596	1492.963333	1125.737305	142.216431
12606.551596	1492.963333	1124.601563	70.254333
12606.551596	1492.963333	1123.464844	40.346096
12606.551596	1492.963333	1122.328125	50.610310
12606.551596	1492.963333	1121.191406	122.508751
12606.551596	1492.963333	1120.054688	69.232201
12606.551596	1492.963333	1118.916992	151.607513
12606.551596	1492.963333	1117.779297	160.048767
12606.551596	1492.963333	1116.641602	164.181793
12606.551596	1492.963333	1115.503906	72.475708
12606.551596	1492.963333	1114.365234	114.575195
12606.551596	1492.963333	1113.226563	42.107265
12606.551596	1492.963333	1112.087891	33.885277
12606.551596	1492.963333	1110.949219	57.091232
12606.551596	1492.963333	1109.809570	63.440094
12606.551596	1492.963333	1108.669922	131.708344
12606.551596	1492.963333	1107.530273	62.566761
12606.551596	1492.963333	1106.390625	176.809677
12606.551596	1492.963333	1105.250000	95.864395
12606.551596	1492.963333	1104.109375	217.006485
12606.551596	1492.963333	1102.968750	199.863785
12606.551596	1492.963333	1101.828125	201.303345
12606.551596	1492.963333	1100.686523	220.097702
12606.551596	1492.963333	1099.544922	411.339325
12606.551596	1492.963333	1098.403320	181.941727
12606.551596	1492.963333	1097.261719	250.746094
12606.551596	1492.963333	1096.120117	190.440353
12606.551596	1492.963333	1094.977539	134.605011
12606.551596	1492.963333	1093.834961	186.281891
12606.551596	1492.963333	1092.691406	231.162354
12606.551596	1492.963333	1091.548828	59.159809
12606.551596	1492.963333	1090.405273	120.826950
12606.551596	1492.963333	1089.261719	71.383400
12606.551596	1492.963333	1088.118164	87.111786
12606.551596	1492.963333	1086.973633	-11.823449
12606.551596	1492.963333	1085.829102	128.556641
12606.551596	1492.963333	1084.684570	214.775406
12606.551596	1492.963333	1083.540039	97.296165
12606.551596	1492.963333	1082.395508	-46.378212
12606.551596	1492.963333	1081.250000	115.360481
12606.551596	1492.963333	1080.104492	-13.422299
12606.551596	1492.963333	1078.958984	65.826607
12606.551596	1492.963333	1077.812500	70.432182
12606.551596	1492.963333	1076.666016	65.904259
12606.551596	1492.963333	1075.519531	23.682728
12606.551596	1492.963333	1074.373047	132.255325
12606.551596	1492.963333	1073.226563	123.643005
12606.551596	1492.963333	1072.079102	143.324966
12606.551596	1492.963333	1070.931641	114.440048
12606.551596	1492.963333	1069.784180	22.979412
12606.551596	1492.963333	1068.635742	97.269394
12606.551596	1492.963333	1067.487305	36.415676
12606.551596	1492.963333	1066.338867	21.635994
12606.551596	1492.963333	1065.190430	145.737930
12606.551596	1492.963333	1064.041992	28.776628
12606.551596	1492.963333	1062.892578	128.476791
12606.551596	1492.963333	1061.743164	184.138031
12606.551596	1492.963333	1060.593750	100.431725
12606.551596	1492.963333	1059.443359	150.908691
12606.551596	1492.963333	1058.292969	-5.719295
12606.551596	1492.963333	1057.142578	167.169830
12606.551596	1492.963333	1055.992188	-73.480103
12606.551596	1492.963333	1054.841797	94.923164
12606.551596	1492.963333	1053.690430	100.014870
12606.551596	1492.963333	1052.539063	62.012753
12606.551596	1492.963333	1051.387695	13.352828
12606.551596	1492.963333	1050.235352	-68.153923
12606.551596	1492.963333	1049.083984	85.891991
12606.551596	1492.963333	1047.931641	83.025108
12606.551596	1492.963333	1046.778320	45.022247
12606.551596	1492.963333	1045.625977	53.296177
12606.551596	1492.963333	1044.472656	-19.912104
12606.551596	1492.963333	1043.319336	123.258835
12606.551596	1492.963333	1042.166016	101.786049
12606.551596	1492.963333	1041.012695	-0.183967
12606.551596	1492.963333	1039.858398	118.320763
12606.551596	1492.963333	1038.704102	10.190556
12606.551596	1492.963333	1037.549805	-69.435425
12606.551596	1492.963333	1036.394531	128.059784
12606.551596	1492.963333	1035.239258	51.369289
12606.551596	1492.963333	1034.083984	85.333916
12606.551596	1492.963333	1032.928711	70.890701
12606.551596	1492.963333	1031.773438	123.417587
12606.551596	1492.963333	1030.617188	83.453354
12606.551596	1492.963333	1029.460938	44.486588
12606.551596	1492.963333	1028.304688	125.236069
12606.551596	1492.963333	1027.147461	109.401649
12606.551596	1492.963333	1025.991211	180.184265
12606.551596	1492.963333	1024.833984	166.427948
12606.551596	1492.963333	1023.675781	-44.151501
12606.551596	1492.963333	1022.518555	76.592255
12606.551596	1492.963333	1021.360352	43.166729
12606.551596	1492.963333	1020.202148	62.282326
12606.551596	1492.963333	1019.043945	120.702759
12606.551596	1492.963333	1017.884766	-31.058746
12606.551596	1492.963333	1016.726563	9.532996
12606.551596	1492.963333	1015.567383	95.696274
12606.551596	1492.963333	1014.407227	-34.902893
12606.551596	1492.963333	1013.248047	-47.566628
12606.551596	1492.963333	1012.087891	177.779236
12606.551596	1492.963333	1010.927734	-26.973124
12606.551596	1492.963333	1009.767578	133.673904
12606.551596	1492.963333	1008.606445	-39.493595
12606.551596	1492.963333	1007.446289	-36.441669
12606.551596	1492.963333	1006.285156	79.295311
12606.551596	1492.963333	1005.123047	118.653389
12606.551596	1492.963333	1003.961914	53.443985
12606.551596	1492.963333	1002.799805	10.653139
12606.551596	1492.963333	1001.637695	5.639476
12606.551596	1492.963333	1000.475586	68.308334
12606.551596	1492.963333	999.312500	28.617548
12606.551596	1492.963333	998.149414	106.126480
12606.551596	1492.963333	996.986328	77.224350
12606.551596	1492.963333	995.823242	-32.438377
12606.551596	1492.963333	994.659180	27.469614
12606.551596	1492.963333	993.496094	134.154541
12606.551596	1492.963333	992.332031	104.592934
12606.551596	1492.963333	991.166992	10.867313
12606.551596	1492.963333	990.002930	-15.863352
12606.551596	1492.963333	988.837891	53.246502
12606.551596	1492.963333	987.672852	-176.825165
12606.551596	1492.963333	986.506836	169.395447
12606.551596	1492.963333	985.341797	97.158707
12606.551596	1492.963333	984.175781	5.914087
12606.551596	1492.963333	983.009766	149.857864
12606.551596	1492.963333	981.843750	51.367092
12606.551596	1492.963333	980.676758	53.477005
12606.551596	1492.963333	979.509766	45.815582
12606.551596	1492.963333	978.342773	45.264748
12606.551596	1492.963333	977.175781	-45.329227
12606.551596	1492.963333	976.007813	-2.920876
12606.551596	1492.963333	974.839844	89.839020
12606.551596	1492.963333	973.671875	12.280137
12606.551596	1492.963333	972.503906	26.318583
12606.551596	1492.963333	971.334961	-156.765854
12606.551596	1492.963333	970.166016	-32.858768
12606.551596	1492.963333	968.997070	8.333882
12606.551596	1492.963333	967.828125	-14.790835
12606.551596	1492.963333	966.658203	81.915955
12606.551596	1492.963333	965.488281	68.183952
12606.551596	1492.963333	964.318359	33.578201
12606.551596	1492.963333	963.148438	114.461586
12606.551596	1492.963333	961.977539	113.099144
12606.551596	1492.963333	960.806641	-68.275459
12606.551596	1492.963333	959.635742	-35.146996
12606.551596	1492.963333	958.463867	8.642614
12606.551596	1492.963333	957.292969	28.031414
12606.551596	1492.963333	956.121094	13.392562
12606.551596	1492.963333	954.948242	50.640182
12606.551596	1492.963333	953.776367	-17.337400
12606.551596	1492.963333	952.603516	-18.536247
12606.551596	1492.963333	951.430664	-46.083427
12606.551596	1492.963333	950.257813	52.855141
12606.551596	1492.963333	949.084961	-28.282450
12606.551596	1492.963333	947.911133	36.424461
12606.551596	1492.963333	946.737305	-51.749302
12606.551596	1492.963333	945.563477	3.652426
12606.551596	1492.963333	944.388672	-63.990749
12606.551596	1492.963333	943.213867	67.043304
12606.551596	1492.963333	942.039063	10.763971
12606.551596	1492.963333	940.864258	-24.926310
12606.551596	1492.963333	939.688477	-15.160664
12606.551596	1492.963333	938.513672	149.909988
12606.551596	1492.963333	937.337891	-4.524203
12606.551596	1492.963333	936.161133	-44.912365
12606.551596	1492.963333	934.985352	111.214264
12606.551596	1492.963333	933.808594	118.717171
12606.551596	1492.963333	932.631836	78.369865
12606.551596	1492.963333	931.454102	88.189041
12606.551596	1492.963333	930.277344	-57.222176
12606.551596	1492.963333	929.099609	-74.730881
12606.551596	1492.963333	927.921875	51.411068
12606.551596	1492.963333	926.743164	-93.927124
12606.551596	1492.963333	925.565430	166.747879
12606.551596	1492.963333	924.386719	14.593310
12606.551596	1492.963333	923.208008	-16.687563
12606.551596	1492.963333	922.028320	-54.807125
12606.551596	1492.963333	920.849609	-1.753889
12606.551596	1492.963333	919.669922	-0.108013
12606.551596	1492.963333	919.474609	35.591331
12606.551596	1492.963333	918.309570	15.661409
12606.551596	1492.963333	917.143555	-216.104126
12606.551596	1492.963333	915.977539	-5.985348
12606.551596	1492.963333	914.810547	92.472282
12606.551596	1492.963333	913.644531	92.992775
12606.551596	1492.963333	912.477539	-31.673109
12606.551596	1492.963333	911.310547	39.391869
12606.551596	1492.963333	910.143555	128.617966
12606.551596	1492.963333	908.975586	76.776100
12606.551596	1492.963333	907.807617	179.582825
12606.551596	1492.963333	906.639648	139.099258
12606.551596	1492.963333	905.471680	-19.582211
12606.551596	1492.963333	904.303711	35.424244
12606.551596	1492.963333	903.134766	-25.484550
12606.551596	1492.963333	901.965820	-47.758488
12606.551596	1492.963333	900.796875	-45.048847
12606.551596	1492.963333	899.626953	-12.827482
12606.551596	1492.963333	898.457031	39.804371
12606.551596	1492.963333	897.287109	-18.821177
12606.551596	1492.963333	896.117188	20.154362
12606.551596	1492.963333	894.947266	36.414658
12606.551596	1492.963333	893.776367	111.642113
12606.551596	1492.963333	892.605469	62.085136
12606.551596	1492.963333	891.434570	42.018219
12606.551596	1492.963333	890.262695	157.980179
12606.551596	1492.963333	889.091797	-29.851019
12606.551596	1492.963333	887.919922	-4.588750
12606.551596	1492.963333	886.748047	-4.269234
12606.551596	1492.963333	885.575195	48.144356
12606.551596	1492.963333	884.403320	98.261681
12606.551596	1492.963333	883.230469	-28.269951
12606.551596	1492.963333	882.057617	60.312088
12606.551596	1492.963333	880.883789	-63.912930
12606.551596	1492.963333	879.710938	81.197433
12606.551596	1492.963333	878.537109	36.189827
12606.551596	1492.963333	877.362305	-8.806793
12606.551596	1492.963333	876.188477	-6.301330
12606.551596	1492.963333	875.013672	14.285054
12606.551596	1492.963333	873.839844	-28.445185
12606.551596	1492.963333	872.664063	23.764549
12606.551596	1492.963333	871.489258	-9.926695
12606.551596	1492.963333	870.313477	-34.574417
12606.551596	1492.963333	869.138672	-88.585388
12606.551596	1492.963333	867.962891	-68.055664
12606.551596	1492.963333	866.786133	-38.510128
12606.551596	1492.963333	865.610352	-178.292511
12606.551596	1492.963333	864.433594	-2.049216
12606.551596	1492.963333	863.256836	38.723690
12606.551596	1492.963333	862.079102	27.583870
12606.551596	1492.963333	860.902344	-91.828003
12606.551596	1492.963333	859.724609	-39.808289
12606.551596	1492.963333	858.546875	14.436525
12606.551596	1492.963333	857.368164	93.448441
12606.551596	1492.963333	856.190430	61.986824
12606.551596	1492.963333	855.011719	-104.664658
12606.551596	1492.963333	853.833008	-9.930249
12606.551596	1492.963333	852.654297	195.122696
12606.551596	1492.963333	851.474609	71.310081
12606.551596	1492.963333	850.294922	39.849258
12606.551596	1492.963333	849.115234	17.397491
12606.551596	1492.963333	847.935547	8.450418
12606.551596	1492.963333	846.754883	-49.999836
12606.551596	1492.963333	845.575195	73.780327
12606.551596	1492.963333	844.393555	94.045036
12606.551596	1492.963333	843.212891	-101.576492
12606.551596	1492.963333	842.032227	-128.511566
12606.551596	1492.963333	840.850586	33.366646
12606.551596	1492.963333	839.668945	58.088070
12606.551596	1492.963333	838.486328	136.716064
12606.551596	1492.963333	837.304688	-85.705154
12606.551596	1492.963333	836.122070	111.936455
12606.551596	1492.963333	834.939453	-9.358461
12606.551596	1492.963333	833.756836	199.395935
12606.551596	1492.963333	832.573242	-22.882540
12606.551596	1492.963333	831.389648	64.597778
12606.551596	1492.963333	830.206055	-9.501006
12606.551596	1492.963333	829.022461	-18.527027
12606.551596	1492.963333	827.838867	3.840025
12606.551596	1492.963333	826.654297	-25.378555
12606.551596	1492.963333	825.469727	-7.516091
12606.551596	1492.963333	824.284180	-56.905308
12606.551596	1492.963333	823.099609	61.776455
12606.551596	1492.963333	821.914063	23.580048
12606.551596	1492.963333	820.728516	92.905563
12606.551596	1492.963333	819.542969	79.337456
12606.551596	1492.963333	818.356445	-129.019531
12606.551596	1492.963333	817.169922	-86.588524
12606.551596	1492.963333	815.983398	9.529365
12606.551596	1492.963333	814.796875	-106.966652
12606.551596	1492.963333	813.609375	-31.032419
12606.551596	1492.963333	812.422852	-17.762669
12606.551596	1492.963333	811.235352	-58.173569
12606.551596	1492.963333	810.046875	-100.810570
12606.551596	1492.963333	808.859375	-29.440742
12606.551596	1492.963333	807.670898	15.075469
12606.551596	1492.963333	806.482422	-20.870089
12606.551596	1492.963333	805.293945	-16.599226
12606.551596	1492.963333	804.104492	18.930193
12606.551596	1492.963333	802.915039	87.931320
12606.551596	1492.963333	801.725586	-135.557312
12606.551596	1492.963333	800.536133	-37.552830
12606.551596	1492.963333	799.345703	118.424370
12606.551596	1492.963333	798.155273	64.606987
12606.551596	1492.963333	796.964844	8.573102
12606.551596	1492.963333	795.774414	35.070225
12606.551596	1492.963333	794.583008	-107.908401
12606.551596	1492.963333	793.392578	-74.726852
12606.551596	1492.963333	792.200195	69.872498
12606.551596	1492.963333	791.008789	-55.222572
12606.551596	1492.963333	789.816406	-95.615425
12606.551596	1492.963333	788.625000	-22.403969
12606.551596	1492.963333	787.432617	57.450012
12606.551596	1492.963333	786.239258	-132.139496
12606.551596	1492.963333	785.046875	32.275017
12606.551596	1492.963333	783.853516	80.885063
12606.551596	1492.963333	782.660156	36.012764
12606.551596	1492.963333	781.465820	111.280167
12606.551596	1492.963333	780.272461	55.281334
12606.551596	1492.963333	779.078125	110.482117
12606.551596	1492.963333	777.883789	-32.217220
12606.551596	1492.963333	776.688477	40.743336
12606.551596	1492.963333	775.494141	0.325567
12606.551596	1492.963333	774.298828	-0.090677
12606.551596	1492.963333	773.103516	63.903683
12606.551596	1492.963333	771.907227	150.072235
12606.551596	1492.963333	770.711914	25.250357
12606.551596	1492.963333	769.515625	109.151321
12606.551596	1492.963333	768.318359	-24.507202
12606.551596	1492.963333	767.122070	-82.671532
12606.551596	1492.963333	765.924805	-23.234394
12606.551596	1492.963333	764.727539	58.349556
12606.551596	1492.963333	763.530273	71.140785
12606.551596	1492.963333	762.333008	-89.028267
12606.551596	1492.963333	761.134766	-27.462965
12606.551596	1492.963333	759.936523	27.417734
12606.551596	1492.963333	758.738281	-17.448765
12606.551596	1492.963333	757.540039	19.662054
12606.551596	1492.963333	756.340820	47.887680
12606.551596	1492.963333	755.141602	-14.702547
12606.551596	1492.963333	753.942383	-61.780109
12606.551596	1492.963333	752.742188	112.506310
12606.551596	1492.963333	751.541992	63.187027
12606.551596	1492.963333	750.341797	128.933319
12606.551596	1492.963333	749.141602	-2.241244
12606.551596	1492.963333	747.941406	70.103676
12606.551596	1492.963333	746.740234	60.591324
12606.551596	1492.963333	745.539063	177.085541
12606.551596	1492.963333	744.337891	94.590607
12606.551596	1492.963333	743.135742	40.846943
12606.551596	1492.963333	741.933594	68.860977
12606.551596	1492.963333	740.731445	85.806442
12606.551596	1492.963333	739.529297	140.276489
12606.551596	1492.963333	738.326172	-28.297594
12606.551596	1492.963333	737.124023	50.431751
12606.551596	1492.963333	735.919922	56.281982
12606.551596	1492.963333	734.716797	108.455933
12606.551596	1492.963333	733.513672	116.471802
12606.551596	1492.963333	732.309570	144.323303
12606.551596	1492.963333	731.105469	79.529167
12606.551596	1492.963333	729.900391	171.289169
12606.551596	1492.963333	728.696289	126.328934
12606.551596	1492.963333	727.491211	193.771225
12606.551596	1492.963333	726.286133	128.967819
12606.551596	1492.963333	725.080078	13.510539
12606.551596	1492.963333	723.874023	94.107620
12606.551596	1492.963333	722.668945	143.829178
12606.551596	1492.963333	721.461914	10.786710
12606.551596	1492.963333	720.255859	-23.164698
12606.551596	1492.963333	719.048828	-35.110451
12606.551596	1492.963333	717.841797	-11.862257
12606.551596	1492.963333	716.634766	75.153015
12606.551596	1492.963333	715.427734	146.722855
12606.551596	1492.963333	714.219727	70.928711
12606.551596	1492.963333	713.011719	-108.170471
12606.551596	1492.963333	711.803711	189.728424
12606.551596	1492.963333	710.594727	54.597935
12606.551596	1492.963333	709.385742	-18.977098
12606.551596	1492.963333	708.176758	10.699030
12606.551596	1492.963333	706.967773	22.778559
12606.551596	1492.963333	705.758789	1.903964
12606.551596	1492.963333	704.548828	51.265495
12606.551596	1492.963333	703.338867	34.751293
12606.551596	1492.963333	702.127930	-5.907896
12606.551596	1492.963333	700.917969	91.638618
12606.551596	1492.963333	699.707031	44.372940
12606.551596	1492.963333	698.496094	-88.409027
12606.551596	1492.963333	697.285156	30.967915
12606.551596	1492.963333	696.073242	-20.688881
12606.551596	1492.963333	694.861328	32.848179
12606.551596	1492.963333	693.649414	64.435936
12606.551596	1492.963333	692.436523	-44.198376
12606.551596	1492.963333	691.224609	96.861092
12606.551596	1492.963333	690.011719	145.881409
12606.551596	1492.963333	688.798828	-10.913199
12606.551596	1492.963333	687.584961	-45.094357
12606.551596	1492.963333	686.372070	117.660141
12606.551596	1492.963333	685.158203	48.427799
12606.551596	1492.963333	683.943359	64.510750
12606.551596	1492.963333	682.729492	174.602859
12606.551596	1492.963333	681.514648	79.113098
12606.551596	1492.963333	680.299805	156.331253
12606.551596	1492.963333	679.084961	71.777275
12606.551596	1492.963333	677.869141	26.569860
12606.551596	1492.963333	676.653320	42.530087
12606.551596	1492.963333	675.437500	143.643723
12606.551596	1492.963333	674.221680	85.294022
12606.551596	1492.963333	673.004883	88.078133
12606.551596	1492.963333	671.789063	-3.011940
12606.551596	1492.963333	670.571289	135.050247
12606.551596	1492.963333	669.354492	72.314323
12606.551596	1492.963333	668.136719	-10.045900
12606.551596	1492.963333	666.919922	136.598419
12606.551596	1492.963333	665.701172	128.354614
12606.551596	1492.963333	664.483398	266.150421
12606.551596	1492.963333	663.264648	109.641991
12606.551596	1492.963333	662.045898	5.476754
12606.551596	1492.963333	660.827148	36.406151
12606.551596	1492.963333	659.608398	73.837860
12606.551596	1492.963333	658.388672	-76.040756
12606.551596	1492.963333	657.168945	31.029150
12606.551596	1492.963333	655.949219	105.384468
12606.551596	1492.963333	654.728516	116.578239
12606.551596	1492.963333	653.507813	-70.248306
12606.551596	1492.963333	652.287109	56.231480
12606.551596	1492.963333	651.066406	45.622074
12606.551596	1492.963333	649.844727	28.474041
12606.551596	1492.963333	648.623047	239.578094
12606.551596	1492.963333	647.401367	157.153946
12606.551596	1492.963333	646.179688	-27.386774
12606.551596	1492.963333	644.957031	42.320419
12606.551596	1492.963333	643.734375	66.364647
12606.551596	1492.963333	642.511719	70.834793
12606.551596	1492.963333	641.289063	31.859779
12606.551596	1492.963333	640.065430	23.271812
12606.551596	1492.963333	638.841797	49.392513
12606.551596	1492.963333	637.618164	116.709213
12606.551596	1492.963333	636.393555	75.509659
12606.551596	1492.963333	635.168945	58.166786
12606.551596	1492.963333	633.944336	88.517067
12606.551596	1492.963333	632.719727	101.491707
12606.551596	1492.963333	631.494141	168.628876
12606.551596	1492.963333	630.269531	25.515444
12606.551596	1492.963333	629.042969	96.934280
12606.551596	1492.963333	627.817383	-7.151773
12606.551596	1492.963333	626.590820	-54.905701
12606.551596	1492.963333	625.365234	124.689651
12606.551596	1492.963333	624.137695	1.122583
12606.551596	1492.963333	622.911133	-1.209310
12606.551596	1492.963333	621.683594	78.666145
12606.551596	1492.963333	620.456055	-27.561487
12606.551596	1492.963333	619.228516	-14.801773
12606.551596	1492.963333	618.000977	21.721260
12606.551596	1492.963333	616.772461	73.343040
12606.551596	1492.963333	615.543945	10.363088
12606.551596	1492.963333	614.314453	-65.576065
12606.551596	1492.963333	613.085938	52.956646
12606.551596	1492.963333	611.856445	-12.194247
12606.551596	1492.963333	610.626953	80.323090
12606.551596	1492.963333	609.397461	47.547363
12606.551596	1492.963333	608.166992	25.560518
12606.551596	1492.963333	606.936523	3.565517
12606.551596	1492.963333	605.706055	3.141602
12606.551596	1492.963333	604.474609	-29.662016
12606.551596	1492.963333	603.244141	-38.741180
12606.551596	1492.963333	602.012695	-28.426332
12606.551596	1492.963333	600.780273	-18.133360
12606.551596	1492.963333	599.548828	-35.883026
12606.551596	1492.963333	598.316406	-45.022423
12606.551596	1492.963333	597.083984	36.321465
12606.551596	1492.963333	595.851563	20.675673
12606.551596	1492.963333	594.618164	-40.209476
12606.551596	1492.963333	593.384766	-30.025858
12606.551596	1492.963333	592.151367	-11.251303
12606.551596	1492.963333	590.917969	44.090458
12606.551596	1492.963333	589.683594	2.555870
12606.551596	1492.963333	588.449219	53.536137
12606.551596	1492.963333	587.214844	138.895721
12606.551596	1492.963333	585.979492	101.622704
12606.551596	1492.963333	584.745117	4.150255
12606.551596	1492.963333	583.509766	48.578335
12606.551596	1492.963333	582.273438	-94.004974
12606.551596	1492.963333	581.038086	-49.602448
12606.551596	1492.963333	579.801758	3.358960
12606.551596	1492.963333	578.565430	-147.755310
12606.551596	1492.963333	577.329102	61.932430
12606.551596	1492.963333	576.091797	-18.310505
12606.551596	1492.963333	574.854492	-81.360817
12606.551596	1492.963333	573.617188	-62.850571
12606.551596	1492.963333	572.378906	-50.798107
12606.551596	1492.963333	571.141602	-66.646454
12606.551596	1492.963333	569.903320	9.715412
12606.551596	1492.963333	568.664063	150.355118
12606.551596	1492.963333	567.425781	74.415627
12606.551596	1492.963333	566.186523	-14.363161
12606.551596	1492.963333	564.947266	66.162155
12606.551596	1492.963333	563.708008	0.967453
12606.551596	1492.963333	562.467773	-44.934883
12606.551596	1492.963333	561.227539	-35.151409
12606.551596	1492.963333	559.987305	13.155085
12606.551596	1492.963333	558.747070	14.341335
12606.551596	1492.963333	557.505859	11.236616
12606.551596	1492.963333	556.264648	95.846222
12606.551596	1492.963333	555.023438	-146.869095
12606.551596	1492.963333	553.781250	-13.091294
12606.551596	1492.963333	552.539063	-33.327274
12606.551596	1492.963333	551.296875	16.982853
12606.551596	1492.963333	550.054688	20.244669
12606.551596	1492.963333	548.811523	98.284981
12606.551596	1492.963333	547.569336	7.515555
12606.551596	1492.963333	546.325195	76.966972
12606.551596	1492.963333	545.082031	13.988186
12606.551596	1492.963333	543.837891	32.157787
12606.551596	1492.963333	542.593750	-43.603817
12606.551596	1492.963333	541.349609	-87.327560
12606.551596	1492.963333	540.105469	95.124573
12606.551596	1492.963333	538.860352	30.048119
12606.551596	1492.963333	537.615234	-15.810325
12606.551596	1492.963333	536.369141	51.353569
12606.551596	1492.963333	535.124023	-62.713413
12606.551596	1492.963333	533.877930	72.627335
12606.551596	1492.963333	532.631836	-45.664700
12606.551596	1492.963333	531.384766	-19.042519
12606.551596	1492.963333	530.138672	86.375923
12606.551596	1492.963333	528.891602	40.551487
12606.551596	1492.963333	527.643555	-71.256248
12606.551596	1492.963333	526.396484	85.185349
12606.551596	1492.963333	525.148438	-58.508080
12606.551596	1492.963333	523.900391	-102.139763
12606.551596	1492.963333	522.652344	49.949303
12606.551596	1492.963333	521.403320	-68.125069
12606.551596	1492.963333	520.154297	-22.424410
12606.551596	1492.963333	518.905273	-68.153503
12606.551596	1492.963333	517.656250	-62.852608
12606.551596	1492.963333	516.406250	-59.679832
12606.551596	1492.963333	515.156250	-3.395454
12606.551596	1492.963333	513.906250	95.346977
12606.551596	1492.963333	512.655273	-52.285473
12606.551596	1492.963333	511.404297	35.812134
12606.551596	1492.963333	510.153320	26.232321
12606.551596	1492.963333	508.902344	90.936264
12606.551596	1492.963333	507.650391	-18.368456
12606.551596	1492.963333	506.398438	-106.409958
12606.551596	1492.963333	505.146484	-88.369667
12606.551596	1492.963333	503.893555	-68.214821
12606.551596	1492.963333	502.641602	-48.063080
12606.551596	1492.963333	501.388672	-61.829109
12606.551596	1492.963333	500.134766	74.861778
12606.551596	1492.963333	498.881836	105.573036
12606.551596	1492.963333	497.627930	-96.714996
12606.551596	1492.963333	496.374023	50.496979
12606.551596	1492.963333	495.119141	-54.294453
12606.551596	1492.963333	493.865234	-55.315475
12606.551596	1492.963333	492.610352	30.433756
12606.551596	1492.963333	491.355469	-25.607574
12606.551596	1492.963333	490.099609	102.414017
12606.551596	1492.963333	488.843750	71.768715
12606.551596	1492.963333	487.587891	72.858910
12606.551596	1492.963333	486.332031	40.129456
12606.551596	1492.963333	485.075195	3.191107
12606.551596	1492.963333	483.818359	-33.725578
12606.551596	1492.963333	482.561523	-19.918968
12606.551596	1492.963333	481.304688	-37.795361
12606.551596	1492.963333	480.046875	-104.229393
12606.551596	1492.963333	478.789063	-43.954975
12606.551596	1492.963333	477.531250	-116.681679
12606.551596	1492.963333	476.272461	-12.104998
12606.551596	1492.963333	475.013672	-10.953053
12606.551596	1492.963333	473.754883	-22.454048
12606.551596	1492.963333	472.496094	-12.855739
12606.551596	1492.963333	471.236328	-1.150083
12606.551596	1492.963333	469.976563	94.876579
12606.551596	1492.963333	468.716797	-32.541168
12606.551596	1492.963333	467.456055	-8.186851
12606.551596	1492.963333	466.196289	58.295204
12606.551596	1492.963333	464.935547	-117.467964
12606.551596	1492.963333	463.673828	-15.190598
12606.551596	1492.963333	462.413086	-28.747608
12606.551596	1492.963333	461.151367	96.623222
12606.551596	1492.963333	459.889648	72.526413
12606.551596	1492.963333	458.626953	46.335453
12606.551596	1492.963333	457.364258	53.811523
12606.551596	1492.963333	456.101563	-6.014232
12606.551596	1492.963333	454.838867	45.622215
12606.551596	1492.963333	453.575195	128.765610
12606.551596	1492.963333	452.312500	64.752655
12606.551596	1492.963333	451.047852	124.734459
12606.551596	1492.963333	449.784180	-16.988478
12606.551596	1492.963333	448.519531	173.196289
12606.551596	1492.963333	447.254883	159.604309
12606.551596	1492.963333	445.990234	68.332817
12606.551596	1492.963333	444.725586	10.676268
12606.551596	1492.963333	443.459961	70.551117
12606.551596	1492.963333	442.194336	113.605743
12606.551596	1492.963333	440.927734	60.139305
12606.551596	1492.963333	439.662109	80.085808
12606.551596	1492.963333	438.395508	72.751556
12606.551596	1492.963333	437.127930	241.489288
12606.551596	1492.963333	435.861328	248.763168
12606.551596	1492.963333	434.593750	151.248428
12606.551596	1492.963333	433.326172	72.610741
12606.551596	1492.963333	432.058594	102.897446
12606.551596	1492.963333	430.790039	118.489693
12606.551596	1492.963333	429.521484	81.713631
12606.551596	1492.963333	428.252930	57.487045
12606.551596	1492.963333	426.984375	91.837524
12606.551596	1492.963333	425.714844	48.732788
12606.551596	1492.963333	424.445313	166.678009
12606.551596	1492.963333	423.174805	292.902924
12606.551596	1492.963333	421.905273	151.417313
12606.551596	1492.963333	420.634766	177.182892
12606.551596	1492.963333	419.364258	50.336502
12606.551596	1492.963333	418.092773	105.283730
12606.551596	1492.963333	416.822266	61.983025
12606.551596	1492.963333	415.550781	20.742249
12606.551596	1492.963333	414.278320	169.485123
12606.551596	1492.963333	413.006836	98.913719
12606.551596	1492.963333	411.734375	103.455551
12606.551596	1492.963333	410.461914	222.709991
12606.551596	1492.963333	409.188477	51.859150
12606.551596	1492.963333	407.916016	75.004494
12606.551596	1492.963333	406.642578	14.658289
12606.551596	1492.963333	405.368164	129.400848
12606.551596	1492.963333	404.094727	48.085598
12606.551596	1492.963333	402.820313	166.794037
12606.551596	1492.963333	401.545898	102.019760
12606.551596	1492.963333	400.270508	-0.305677
12606.551596	1492.963333	398.996094	159.745422
12606.551596	1492.963333	397.720703	184.292755
12606.551596	1492.963333	396.444336	-16.094868
12606.551596	1492.963333	395.168945	74.893143
12606.551596	1492.963333	393.892578	90.827896
12606.551596	1492.963333	392.616211	-11.931140
12606.551596	1492.963333	391.339844	70.360878
12606.551596	1492.963333	390.062500	106.751701
12606.551596	1492.963333	388.785156	91.033318
12606.551596	1492.963333	387.507813	183.286118
12606.551596	1492.963333	386.229492	163.149033
12606.551596	1492.963333	384.951172	82.636063
12606.551596	1492.963333	383.672852	-8.365618
12606.551596	1492.963333	382.394531	174.665298
12606.551596	1492.963333	381.115234	122.840385
12606.551596	1492.963333	379.835938	91.643265
12606.551596	1492.963333	378.556641	70.678825
12606.551596	1492.963333	377.277344	171.982468
12606.551596	1492.963333	375.997070	-2.844088
12606.551596	1492.963333	374.716797	73.191963
12606.551596	1492.963333	373.435547	72.284058
12606.551596	1492.963333	372.155273	-7.588405
12606.551596	1492.963333	370.874023	-17.154016
12606.551596	1492.963333	369.591797	8.306316
12606.551596	1492.963333	368.310547	50.125904
12606.551596	1492.963333	367.028320	37.850639
12606.551596	1492.963333	365.746094	-63.691883
12606.551596	1492.963333	364.463867	-61.897533
12606.551596	1492.963333	363.180664	18.312233
12606.551596	1492.963333	361.897461	29.945644
12606.551596	1492.963333	360.614258	66.149261
12606.551596	1492.963333	359.330078	-44.805645
12606.551596	1492.963333	358.045898	5.337186
12606.551596	1492.963333	356.761719	22.095335
12606.551596	1492.963333	355.477539	-62.739391
12606.551596	1492.963333	354.192383	-67.233788
12606.551596	1492.963333	352.907227	-10.039758
12606.551596	1492.963333	351.622070	-19.296282
12606.551596	1492.963333	350.336914	-16.480431
12606.551596	1492.963333	349.050781	-44.984032
12606.551596	1492.963333	347.764648	-86.206963
12606.551596	1492.963333	346.477539	-47.273476
12606.551596	1492.963333	345.191406	-47.923893
12606.551596	1492.963333	343.904297	-18.010298
12606.551596	1492.963333	342.616211	21.807877
12606.551596	1492.963333	341.329102	145.777145
12606.551596	1492.963333	340.041016	120.815422
12606.551596	1492.963333	338.752930	17.108086
12606.551596	1492.963333	337.463867	-122.034897
12606.551596	1492.963333	336.175781	-181.190216
12606.551596	1492.963333	334.886719	-63.619762
12606.551596	1492.963333	333.596680	28.701166
12606.551596	1492.963333	332.307617	-75.114388
12606.551596	1492.963333	331.017578	-18.811180
12606.551596	1492.963333	329.727539	-51.550552
12606.551596	1492.963333	328.436523	-80.697350
12606.551596	1492.963333	327.146484	-3.371468
12606.551596	1492.963333	325.855469	17.815821
12606.551596	1492.963333	324.563477	-35.622719
12606.551596	1492.963333	323.272461	9.084256
12606.551596	1492.963333	321.980469	-43.455299
12606.551596	1492.963333	320.688477	137.702026
12606.551596	1492.963333	319.395508	-20.893858
12606.551596	1492.963333	318.103516	-15.708954
12606.551596	1492.963333	316.810547	64.784538
12606.551596	1492.963333	315.516602	-29.991417
12606.551596	1492.963333	314.223633	-26.866089
12606.551596	1492.963333	312.929688	51.465542
12606.551596	1492.963333	311.635742	-47.444160
12606.551596	1492.963333	310.340820	76.538582
12606.551596	1492.963333	309.045898	127.905922
12606.551596	1492.963333	307.750977	96.433746
12606.551596	1492.963333	306.456055	14.960569
12606.551596	1492.963333	305.160156	-5.835821
12606.551596	1492.963333	303.865234	19.684425
12606.551596	1492.963333	302.568359	44.276031
12606.551596	1492.963333	301.272461	59.794712
12606.551596	1492.963333	299.975586	125.568489
12606.551596	1492.963333	298.678711	153.521988
