#X		#Y		#Wave		#Intensity
11784.701596	1439.950000	1999.980469	-71.429703
11784.701596	1439.950000	1999.016602	14.813070
11784.701596	1439.950000	1998.052734	73.946579
11784.701596	1439.950000	1997.087891	-62.757107
11784.701596	1439.950000	1996.123047	50.788624
11784.701596	1439.950000	1995.158203	-115.677269
11784.701596	1439.950000	1994.193359	-4.729296
11784.701596	1439.950000	1993.228516	133.373474
11784.701596	1439.950000	1992.262695	-28.191837
11784.701596	1439.950000	1991.297852	30.567274
11784.701596	1439.950000	1990.332031	24.917437
11784.701596	1439.950000	1989.366211	103.359665
11784.701596	1439.950000	1988.399414	-65.664398
11784.701596	1439.950000	1987.433594	213.042160
11784.701596	1439.950000	1986.466797	123.120689
11784.701596	1439.950000	1985.500977	141.987991
11784.701596	1439.950000	1984.534180	-113.597588
11784.701596	1439.950000	1983.567383	75.782227
11784.701596	1439.950000	1982.599609	94.540535
11784.701596	1439.950000	1981.632813	-84.407501
11784.701596	1439.950000	1980.665039	112.166893
11784.701596	1439.950000	1979.697266	-34.676277
11784.701596	1439.950000	1978.729492	-248.172607
11784.701596	1439.950000	1977.761719	-155.471786
11784.701596	1439.950000	1976.792969	-99.864044
11784.701596	1439.950000	1975.825195	-46.777542
11784.701596	1439.950000	1974.856445	186.393036
11784.701596	1439.950000	1973.887695	-113.449326
11784.701596	1439.950000	1972.918945	-72.810753
11784.701596	1439.950000	1971.949219	41.770329
11784.701596	1439.950000	1970.980469	114.364082
11784.701596	1439.950000	1970.010742	-54.694004
11784.701596	1439.950000	1969.041016	-31.458811
11784.701596	1439.950000	1968.071289	68.137749
11784.701596	1439.950000	1967.101563	66.652031
11784.701596	1439.950000	1966.130859	55.288605
11784.701596	1439.950000	1965.161133	100.554459
11784.701596	1439.950000	1964.190430	108.844330
11784.701596	1439.950000	1963.219727	-35.541054
11784.701596	1439.950000	1962.249023	7.189023
11784.701596	1439.950000	1961.277344	35.114986
11784.701596	1439.950000	1960.306641	168.821167
11784.701596	1439.950000	1959.334961	14.609300
11784.701596	1439.950000	1958.363281	27.702076
11784.701596	1439.950000	1957.391602	-33.009220
11784.701596	1439.950000	1956.419922	-0.277832
11784.701596	1439.950000	1955.447266	-26.577187
11784.701596	1439.950000	1954.474609	224.867218
11784.701596	1439.950000	1953.501953	215.705444
11784.701596	1439.950000	1952.529297	-66.199577
11784.701596	1439.950000	1951.556641	49.953579
11784.701596	1439.950000	1950.583984	70.260277
11784.701596	1439.950000	1949.610352	63.534077
11784.701596	1439.950000	1948.636719	228.662827
11784.701596	1439.950000	1947.663086	96.692055
11784.701596	1439.950000	1946.689453	330.450500
11784.701596	1439.950000	1945.715820	90.518845
11784.701596	1439.950000	1944.741211	27.310181
11784.701596	1439.950000	1943.767578	152.990326
11784.701596	1439.950000	1942.792969	136.372147
11784.701596	1439.950000	1941.818359	78.067184
11784.701596	1439.950000	1940.842773	17.324398
11784.701596	1439.950000	1939.868164	57.091873
11784.701596	1439.950000	1938.892578	69.880646
11784.701596	1439.950000	1937.916992	249.271973
11784.701596	1439.950000	1936.941406	313.452911
11784.701596	1439.950000	1935.965820	213.503113
11784.701596	1439.950000	1934.990234	165.010986
11784.701596	1439.950000	1934.013672	158.155136
11784.701596	1439.950000	1933.037109	141.506058
11784.701596	1439.950000	1932.060547	139.545700
11784.701596	1439.950000	1931.083984	166.946442
11784.701596	1439.950000	1930.107422	-94.357613
11784.701596	1439.950000	1929.129883	92.069878
11784.701596	1439.950000	1928.153320	-107.985100
11784.701596	1439.950000	1927.175781	-190.596619
11784.701596	1439.950000	1926.198242	-182.722565
11784.701596	1439.950000	1925.219727	89.129089
11784.701596	1439.950000	1924.242188	170.262833
11784.701596	1439.950000	1923.263672	31.465885
11784.701596	1439.950000	1922.285156	-214.765533
11784.701596	1439.950000	1921.306641	81.319977
11784.701596	1439.950000	1920.328125	25.650591
11784.701596	1439.950000	1919.349609	-232.642426
11784.701596	1439.950000	1918.370117	2.261992
11784.701596	1439.950000	1917.391602	88.204391
11784.701596	1439.950000	1916.412109	166.798157
11784.701596	1439.950000	1915.431641	28.234123
11784.701596	1439.950000	1914.452148	-122.471436
11784.701596	1439.950000	1913.472656	119.532791
11784.701596	1439.950000	1912.492188	44.466290
11784.701596	1439.950000	1911.511719	-47.630905
11784.701596	1439.950000	1910.531250	-88.501610
11784.701596	1439.950000	1909.550781	-51.366177
11784.701596	1439.950000	1908.569336	-72.714119
11784.701596	1439.950000	1907.588867	-179.310532
11784.701596	1439.950000	1906.607422	13.722643
11784.701596	1439.950000	1905.625977	-53.871506
11784.701596	1439.950000	1904.644531	109.865334
11784.701596	1439.950000	1903.662109	61.769829
11784.701596	1439.950000	1902.680664	-39.842194
11784.701596	1439.950000	1901.698242	-51.372879
11784.701596	1439.950000	1900.715820	-101.816544
11784.701596	1439.950000	1899.733398	100.741150
11784.701596	1439.950000	1898.750000	-88.315269
11784.701596	1439.950000	1897.767578	-17.117371
11784.701596	1439.950000	1896.784180	80.805801
11784.701596	1439.950000	1895.800781	-120.261833
11784.701596	1439.950000	1894.817383	55.430935
11784.701596	1439.950000	1893.833984	53.700729
11784.701596	1439.950000	1892.850586	30.119059
11784.701596	1439.950000	1891.866211	-88.163895
11784.701596	1439.950000	1890.881836	29.158165
11784.701596	1439.950000	1889.897461	107.601051
11784.701596	1439.950000	1888.913086	101.067291
11784.701596	1439.950000	1887.927734	26.593817
11784.701596	1439.950000	1886.943359	-84.237427
11784.701596	1439.950000	1885.958008	-88.267799
11784.701596	1439.950000	1884.972656	-131.093460
11784.701596	1439.950000	1883.987305	-215.117599
11784.701596	1439.950000	1883.001953	62.185322
11784.701596	1439.950000	1882.015625	-29.089138
11784.701596	1439.950000	1881.029297	85.706917
11784.701596	1439.950000	1880.042969	147.160507
11784.701596	1439.950000	1879.056641	-38.530983
11784.701596	1439.950000	1878.070313	64.131577
11784.701596	1439.950000	1877.083984	-85.117348
11784.701596	1439.950000	1876.096680	-35.729023
11784.701596	1439.950000	1875.109375	13.654269
11784.701596	1439.950000	1874.122070	-55.577740
11784.701596	1439.950000	1873.134766	-71.524590
11784.701596	1439.950000	1872.146484	118.224777
11784.701596	1439.950000	1871.159180	177.276169
11784.701596	1439.950000	1870.170898	-66.029785
11784.701596	1439.950000	1869.182617	-171.383347
11784.701596	1439.950000	1868.194336	61.822945
11784.701596	1439.950000	1867.205078	-101.504692
11784.701596	1439.950000	1866.216797	1.112420
11784.701596	1439.950000	1865.227539	118.206421
11784.701596	1439.950000	1864.238281	136.210983
11784.701596	1439.950000	1863.249023	81.755005
11784.701596	1439.950000	1862.259766	65.976196
11784.701596	1439.950000	1861.269531	18.828667
11784.701596	1439.950000	1860.279297	-28.287193
11784.701596	1439.950000	1859.290039	376.013306
11784.701596	1439.950000	1858.298828	68.235191
11784.701596	1439.950000	1857.308594	16.354820
11784.701596	1439.950000	1856.318359	140.619293
11784.701596	1439.950000	1855.327148	-72.828743
11784.701596	1439.950000	1854.335938	51.435390
11784.701596	1439.950000	1853.344727	14.123549
11784.701596	1439.950000	1852.353516	355.311859
11784.701596	1439.950000	1851.362305	-17.031025
11784.701596	1439.950000	1850.370117	213.217117
11784.701596	1439.950000	1849.377930	101.273819
11784.701596	1439.950000	1848.385742	261.586273
11784.701596	1439.950000	1847.393555	103.944412
11784.701596	1439.950000	1846.401367	-10.279757
11784.701596	1439.950000	1845.408203	29.631691
11784.701596	1439.950000	1844.415039	76.764366
11784.701596	1439.950000	1843.421875	30.036133
11784.701596	1439.950000	1842.428711	94.020126
11784.701596	1439.950000	1841.435547	4.031656
11784.701596	1439.950000	1840.441406	118.535782
11784.701596	1439.950000	1839.448242	-36.325680
11784.701596	1439.950000	1838.454102	222.428284
11784.701596	1439.950000	1837.459961	74.845047
11784.701596	1439.950000	1836.464844	-17.389580
11784.701596	1439.950000	1835.470703	366.206909
11784.701596	1439.950000	1834.475586	36.131233
11784.701596	1439.950000	1833.480469	-10.367136
11784.701596	1439.950000	1832.485352	-97.661392
11784.701596	1439.950000	1831.490234	-45.645252
11784.701596	1439.950000	1830.495117	8.765111
11784.701596	1439.950000	1829.499023	-44.843086
11784.701596	1439.950000	1828.502930	33.569588
11784.701596	1439.950000	1827.506836	224.733429
11784.701596	1439.950000	1826.510742	115.976379
11784.701596	1439.950000	1825.513672	100.811485
11784.701596	1439.950000	1824.517578	85.662338
11784.701596	1439.950000	1823.520508	20.184099
11784.701596	1439.950000	1822.523438	-54.847572
11784.701596	1439.950000	1821.526367	-204.135010
11784.701596	1439.950000	1820.529297	-22.685257
11784.701596	1439.950000	1819.531250	46.109497
11784.701596	1439.950000	1818.533203	167.584442
11784.701596	1439.950000	1817.535156	8.831144
11784.701596	1439.950000	1816.537109	-30.134954
11784.701596	1439.950000	1815.539063	139.192764
11784.701596	1439.950000	1814.540039	160.073502
11784.701596	1439.950000	1813.541992	147.451126
11784.701596	1439.950000	1812.542969	79.815933
11784.701596	1439.950000	1811.543945	40.919994
11784.701596	1439.950000	1810.543945	181.422943
11784.701596	1439.950000	1809.544922	87.541985
11784.701596	1439.950000	1808.544922	-142.566498
11784.701596	1439.950000	1807.544922	222.603439
11784.701596	1439.950000	1806.544922	76.215630
11784.701596	1439.950000	1805.544922	285.910461
11784.701596	1439.950000	1804.544922	115.691620
11784.701596	1439.950000	1803.543945	62.582031
11784.701596	1439.950000	1802.542969	-95.574509
11784.701596	1439.950000	1801.541992	199.975662
11784.701596	1439.950000	1800.541016	60.962772
11784.701596	1439.950000	1799.539063	-23.097054
11784.701596	1439.950000	1798.538086	-25.987757
11784.701596	1439.950000	1797.536133	202.548737
11784.701596	1439.950000	1796.534180	113.756554
11784.701596	1439.950000	1795.532227	146.630569
11784.701596	1439.950000	1794.529297	53.125404
11784.701596	1439.950000	1793.527344	109.847679
11784.701596	1439.950000	1792.524414	-47.962070
11784.701596	1439.950000	1791.521484	-74.638840
11784.701596	1439.950000	1790.518555	-82.241470
11784.701596	1439.950000	1789.514648	131.705170
11784.701596	1439.950000	1788.511719	121.692429
11784.701596	1439.950000	1787.507813	-107.388725
11784.701596	1439.950000	1786.503906	42.168674
11784.701596	1439.950000	1785.500000	-70.167854
11784.701596	1439.950000	1784.496094	24.592651
11784.701596	1439.950000	1783.491211	90.768105
11784.701596	1439.950000	1782.486328	26.074257
11784.701596	1439.950000	1781.481445	-48.108288
11784.701596	1439.950000	1780.476563	-107.991699
11784.701596	1439.950000	1779.471680	-196.383850
11784.701596	1439.950000	1778.465820	-66.038109
11784.701596	1439.950000	1777.460938	-68.840118
11784.701596	1439.950000	1776.455078	113.711472
11784.701596	1439.950000	1775.449219	-361.915649
11784.701596	1439.950000	1774.442383	195.937256
11784.701596	1439.950000	1773.436523	102.840622
11784.701596	1439.950000	1772.429688	59.644405
11784.701596	1439.950000	1771.422852	154.158096
11784.701596	1439.950000	1770.416016	106.218376
11784.701596	1439.950000	1769.409180	-145.794174
11784.701596	1439.950000	1768.402344	152.751083
11784.701596	1439.950000	1767.394531	-25.637539
11784.701596	1439.950000	1766.386719	192.128784
11784.701596	1439.950000	1765.378906	101.535141
11784.701596	1439.950000	1764.371094	-145.505615
11784.701596	1439.950000	1763.362305	124.300972
11784.701596	1439.950000	1762.354492	5.323220
11784.701596	1439.950000	1761.345703	132.819275
11784.701596	1439.950000	1760.336914	317.122101
11784.701596	1439.950000	1759.328125	273.960938
11784.701596	1439.950000	1758.318359	192.923218
11784.701596	1439.950000	1757.308594	40.880009
11784.701596	1439.950000	1756.299805	109.045158
11784.701596	1439.950000	1755.290039	94.341805
11784.701596	1439.950000	1754.279297	70.174011
11784.701596	1439.950000	1753.269531	-58.091797
11784.701596	1439.950000	1752.258789	-6.536401
11784.701596	1439.950000	1751.249023	203.448853
11784.701596	1439.950000	1750.238281	25.557566
11784.701596	1439.950000	1749.226563	136.153763
11784.701596	1439.950000	1748.215820	24.513113
11784.701596	1439.950000	1747.204102	73.609482
11784.701596	1439.950000	1746.193359	-75.795097
11784.701596	1439.950000	1745.181641	-241.683823
11784.701596	1439.950000	1744.168945	-76.853806
11784.701596	1439.950000	1743.157227	161.108398
11784.701596	1439.950000	1742.144531	139.266449
11784.701596	1439.950000	1741.132813	89.096313
11784.701596	1439.950000	1740.120117	67.259277
11784.701596	1439.950000	1739.106445	106.773651
11784.701596	1439.950000	1738.093750	-155.712646
11784.701596	1439.950000	1737.080078	129.118851
11784.701596	1439.950000	1736.067383	-104.990158
11784.701596	1439.950000	1735.053711	47.665470
11784.701596	1439.950000	1734.040039	-26.054733
11784.701596	1439.950000	1733.025391	32.232437
11784.701596	1439.950000	1732.011719	-53.259541
11784.701596	1439.950000	1730.997070	-192.915436
11784.701596	1439.950000	1729.982422	72.629211
11784.701596	1439.950000	1728.967773	-121.186325
11784.701596	1439.950000	1727.952148	104.192993
11784.701596	1439.950000	1726.937500	-237.892273
11784.701596	1439.950000	1725.921875	90.966934
11784.701596	1439.950000	1724.906250	17.271879
11784.701596	1439.950000	1723.890625	98.882744
11784.701596	1439.950000	1722.875000	-80.669380
11784.701596	1439.950000	1721.858398	-67.300209
11784.701596	1439.950000	1720.841797	23.650743
11784.701596	1439.950000	1719.825195	-5.348907
11784.701596	1439.950000	1718.808594	78.479012
11784.701596	1439.950000	1717.791992	-16.350035
11784.701596	1439.950000	1716.774414	6.331218
11784.701596	1439.950000	1715.756836	24.291723
11784.701596	1439.950000	1714.739258	-162.114166
11784.701596	1439.950000	1713.721680	114.167122
11784.701596	1439.950000	1712.704102	14.660847
11784.701596	1439.950000	1711.685547	13.775427
11784.701596	1439.950000	1710.667969	102.060814
11784.701596	1439.950000	1709.649414	202.034164
11784.701596	1439.950000	1708.630859	-0.695611
11784.701596	1439.950000	1707.611328	186.022049
11784.701596	1439.950000	1706.592773	283.533112
11784.701596	1439.950000	1705.573242	172.309753
11784.701596	1439.950000	1704.553711	14.228480
11784.701596	1439.950000	1703.534180	71.828278
11784.701596	1439.950000	1702.513672	-217.432724
11784.701596	1439.950000	1701.494141	-98.922279
11784.701596	1439.950000	1700.473633	-200.667374
11784.701596	1439.950000	1699.453125	-4.945675
11784.701596	1439.950000	1698.432617	-176.948669
11784.701596	1439.950000	1697.412109	-166.289719
11784.701596	1439.950000	1696.390625	8.202147
11784.701596	1439.950000	1695.369141	-93.540710
11784.701596	1439.950000	1694.347656	-176.541794
11784.701596	1439.950000	1693.326172	-91.091202
11784.701596	1439.950000	1692.304688	48.106895
11784.701596	1439.950000	1691.282227	128.774185
11784.701596	1439.950000	1690.260742	85.478828
11784.701596	1439.950000	1689.238281	173.089050
11784.701596	1439.950000	1688.214844	-3.444055
11784.701596	1439.950000	1687.192383	158.892090
11784.701596	1439.950000	1686.168945	1.087722
11784.701596	1439.950000	1685.146484	9.167211
11784.701596	1439.950000	1684.123047	-87.861687
11784.701596	1439.950000	1683.099609	-61.120090
11784.701596	1439.950000	1682.075195	-106.771172
11784.701596	1439.950000	1681.051758	85.643173
11784.701596	1439.950000	1680.027344	58.616917
11784.701596	1439.950000	1679.002930	-26.741480
11784.701596	1439.950000	1677.978516	51.200779
11784.701596	1439.950000	1676.953125	262.031433
11784.701596	1439.950000	1675.928711	398.148224
11784.701596	1439.950000	1674.903320	-74.267487
11784.701596	1439.950000	1673.877930	87.469955
11784.701596	1439.950000	1672.852539	53.375229
11784.701596	1439.950000	1671.826172	221.983292
11784.701596	1439.950000	1670.800781	145.913712
11784.701596	1439.950000	1669.774414	-111.807556
11784.701596	1439.950000	1668.748047	-43.442970
11784.701596	1439.950000	1667.721680	48.159840
11784.701596	1439.950000	1666.694336	128.073868
11784.701596	1439.950000	1665.667969	63.651260
11784.701596	1439.950000	1664.640625	-51.951283
11784.701596	1439.950000	1663.613281	-37.250042
11784.701596	1439.950000	1662.585938	86.746246
11784.701596	1439.950000	1661.557617	261.839020
11784.701596	1439.950000	1660.530273	-0.251195
11784.701596	1439.950000	1659.501953	53.882118
11784.701596	1439.950000	1658.473633	133.544083
11784.701596	1439.950000	1657.444336	-35.470722
11784.701596	1439.950000	1656.416016	206.770233
11784.701596	1439.950000	1655.386719	-22.615652
11784.701596	1439.950000	1654.358398	168.406754
11784.701596	1439.950000	1653.328125	368.628143
11784.701596	1439.950000	1652.298828	123.047050
11784.701596	1439.950000	1651.269531	258.182648
11784.701596	1439.950000	1650.239258	75.341164
11784.701596	1439.950000	1649.208984	252.163803
11784.701596	1439.950000	1648.178711	29.930933
11784.701596	1439.950000	1647.148438	304.068451
11784.701596	1439.950000	1646.117188	313.752655
11784.701596	1439.950000	1645.086914	335.009216
11784.701596	1439.950000	1644.055664	557.892700
11784.701596	1439.950000	1643.024414	440.023041
11784.701596	1439.950000	1641.992188	519.122314
11784.701596	1439.950000	1640.960938	632.923340
11784.701596	1439.950000	1639.928711	364.523682
11784.701596	1439.950000	1638.896484	334.717987
11784.701596	1439.950000	1637.864258	399.828674
11784.701596	1439.950000	1636.832031	599.150818
11784.701596	1439.950000	1635.798828	634.072510
11784.701596	1439.950000	1634.766602	601.868774
11784.701596	1439.950000	1633.733398	581.229675
11784.701596	1439.950000	1632.699219	417.187683
11784.701596	1439.950000	1631.666016	449.752136
11784.701596	1439.950000	1630.632813	454.546539
11784.701596	1439.950000	1629.598633	530.984375
11784.701596	1439.950000	1628.564453	544.980530
11784.701596	1439.950000	1627.530273	381.041138
11784.701596	1439.950000	1626.495117	561.368652
11784.701596	1439.950000	1625.460938	510.641602
11784.701596	1439.950000	1624.425781	455.303894
11784.701596	1439.950000	1623.390625	545.431702
11784.701596	1439.950000	1622.355469	545.486145
11784.701596	1439.950000	1621.319336	446.287872
11784.701596	1439.950000	1620.284180	746.311401
11784.701596	1439.950000	1619.248047	566.344360
11784.701596	1439.950000	1618.211914	614.788086
11784.701596	1439.950000	1617.174805	741.610718
11784.701596	1439.950000	1616.138672	564.023193
11784.701596	1439.950000	1615.101563	695.395996
11784.701596	1439.950000	1614.065430	425.674530
11784.701596	1439.950000	1613.027344	497.090668
11784.701596	1439.950000	1611.990234	497.048706
11784.701596	1439.950000	1610.953125	609.866333
11784.701596	1439.950000	1609.915039	789.416809
11784.701596	1439.950000	1608.876953	646.532410
11784.701596	1439.950000	1607.838867	699.372498
11784.701596	1439.950000	1606.800781	853.456909
11784.701596	1439.950000	1605.761719	627.774048
11784.701596	1439.950000	1604.723633	434.381927
11784.701596	1439.950000	1603.684570	705.719116
11784.701596	1439.950000	1602.644531	645.763428
11784.701596	1439.950000	1601.605469	914.639221
11784.701596	1439.950000	1600.566406	679.930664
11784.701596	1439.950000	1599.526367	762.501282
11784.701596	1439.950000	1598.486328	709.447021
11784.701596	1439.950000	1597.446289	814.942993
11784.701596	1439.950000	1596.405273	794.046997
11784.701596	1439.950000	1595.365234	945.407837
11784.701596	1439.950000	1594.324219	984.185852
11784.701596	1439.950000	1593.283203	669.388123
11784.701596	1439.950000	1592.242188	588.836304
11784.701596	1439.950000	1591.200195	528.964172
11784.701596	1439.950000	1590.159180	574.657837
11784.701596	1439.950000	1589.117188	668.503418
11784.701596	1439.950000	1588.075195	665.977844
11784.701596	1439.950000	1587.032227	629.052917
11784.701596	1439.950000	1585.990234	667.797485
11784.701596	1439.950000	1584.947266	552.944092
11784.701596	1439.950000	1583.904297	573.348572
11784.701596	1439.950000	1582.861328	557.080566
11784.701596	1439.950000	1581.818359	703.469482
11784.701596	1439.950000	1580.775391	650.532166
11784.701596	1439.950000	1579.731445	915.921143
11784.701596	1439.950000	1578.687500	677.506042
11784.701596	1439.950000	1577.643555	452.917999
11784.701596	1439.950000	1576.598633	578.580017
11784.701596	1439.950000	1575.554688	459.354889
11784.701596	1439.950000	1574.509766	534.635376
11784.701596	1439.950000	1573.464844	630.471619
11784.701596	1439.950000	1572.419922	527.315125
11784.701596	1439.950000	1571.374023	700.853638
11784.701596	1439.950000	1570.329102	568.008484
11784.701596	1439.950000	1569.283203	311.798401
11784.701596	1439.950000	1568.237305	478.426910
11784.701596	1439.950000	1567.191406	352.562286
11784.701596	1439.950000	1566.144531	528.257507
11784.701596	1439.950000	1565.098633	569.148743
11784.701596	1439.950000	1564.051758	463.897400
11784.701596	1439.950000	1563.004883	555.012573
11784.701596	1439.950000	1561.957031	691.742554
11784.701596	1439.950000	1560.910156	595.667969
11784.701596	1439.950000	1559.862305	652.493042
11784.701596	1439.950000	1558.814453	784.574585
11784.701596	1439.950000	1557.766602	679.429565
11784.701596	1439.950000	1556.718750	779.542725
11784.701596	1439.950000	1555.669922	729.162354
11784.701596	1439.950000	1554.621094	653.737000
11784.701596	1439.950000	1553.573242	674.056213
11784.701596	1439.950000	1552.523438	862.970703
11784.701596	1439.950000	1551.474609	1031.315918
11784.701596	1439.950000	1550.424805	1003.743530
11784.701596	1439.950000	1549.375000	955.696228
11784.701596	1439.950000	1548.325195	1073.863770
11784.701596	1439.950000	1547.275391	1082.739746
11784.701596	1439.950000	1546.225586	1071.140747
11784.701596	1439.950000	1545.174805	1066.379761
11784.701596	1439.950000	1544.124023	1402.842896
11784.701596	1439.950000	1543.073242	884.046875
11784.701596	1439.950000	1542.022461	892.998047
11784.701596	1439.950000	1540.970703	981.524902
11784.701596	1439.950000	1539.919922	679.078735
11784.701596	1439.950000	1538.868164	815.357483
11784.701596	1439.950000	1537.815430	567.616211
11784.701596	1439.950000	1536.763672	697.070984
11784.701596	1439.950000	1535.710938	610.726196
11784.701596	1439.950000	1534.659180	442.682495
11784.701596	1439.950000	1533.606445	567.581177
11784.701596	1439.950000	1532.552734	658.397217
11784.701596	1439.950000	1531.500000	569.910828
11784.701596	1439.950000	1530.446289	642.566162
11784.701596	1439.950000	1529.393555	397.619873
11784.701596	1439.950000	1528.338867	604.122803
11784.701596	1439.950000	1527.285156	679.039490
11784.701596	1439.950000	1526.231445	642.850891
11784.701596	1439.950000	1525.176758	681.494202
11784.701596	1439.950000	1524.122070	826.650085
11784.701596	1439.950000	1523.067383	921.917603
11784.701596	1439.950000	1522.012695	1019.428833
11784.701596	1439.950000	1520.957031	956.112183
11784.701596	1439.950000	1519.901367	1361.576050
11784.701596	1439.950000	1518.845703	1228.067017
11784.701596	1439.950000	1517.790039	1262.130981
11784.701596	1439.950000	1516.734375	1004.258850
11784.701596	1439.950000	1515.677734	1031.602539
11784.701596	1439.950000	1514.621094	798.800598
11784.701596	1439.950000	1513.564453	1025.246094
11784.701596	1439.950000	1512.507813	779.007507
11784.701596	1439.950000	1511.450195	573.582947
11784.701596	1439.950000	1510.393555	363.738159
11784.701596	1439.950000	1509.335938	357.394470
11784.701596	1439.950000	1508.278320	172.572220
11784.701596	1439.950000	1507.219727	96.280083
11784.701596	1439.950000	1506.162109	144.262344
11784.701596	1439.950000	1505.103516	334.513641
11784.701596	1439.950000	1504.044922	149.929260
11784.701596	1439.950000	1502.986328	94.104179
11784.701596	1439.950000	1501.926758	196.304047
11784.701596	1439.950000	1500.868164	77.358879
11784.701596	1439.950000	1499.808594	290.108246
11784.701596	1439.950000	1498.749023	139.663116
11784.701596	1439.950000	1497.688477	77.249130
11784.701596	1439.950000	1496.628906	-88.827316
11784.701596	1439.950000	1495.568359	81.054794
11784.701596	1439.950000	1494.507813	104.403755
11784.701596	1439.950000	1493.447266	33.131969
11784.701596	1439.950000	1492.386719	-51.602081
11784.701596	1439.950000	1491.325195	-66.453438
11784.701596	1439.950000	1490.263672	-126.310387
11784.701596	1439.950000	1489.202148	-51.030075
11784.701596	1439.950000	1488.140625	-7.267489
11784.701596	1439.950000	1487.079102	-206.554581
11784.701596	1439.950000	1486.016602	-86.219154
11784.701596	1439.950000	1484.954102	110.584778
11784.701596	1439.950000	1483.891602	46.429726
11784.701596	1439.950000	1482.829102	20.557178
11784.701596	1439.950000	1481.765625	10.463665
11784.701596	1439.950000	1480.702148	20.639559
11784.701596	1439.950000	1479.638672	-27.609217
11784.701596	1439.950000	1478.575195	171.368958
11784.701596	1439.950000	1477.511719	35.568489
11784.701596	1439.950000	1476.447266	18.905941
11784.701596	1439.950000	1475.382813	-40.395054
11784.701596	1439.950000	1474.318359	-90.656517
11784.701596	1439.950000	1473.253906	72.338593
11784.701596	1439.950000	1472.189453	-49.648746
11784.701596	1439.950000	1471.124023	57.287437
11784.701596	1439.950000	1470.058594	-17.491693
11784.701596	1439.950000	1468.993164	51.239677
11784.701596	1439.950000	1467.927734	-126.522118
11784.701596	1439.950000	1466.861328	110.495186
11784.701596	1439.950000	1465.794922	-159.195007
11784.701596	1439.950000	1464.728516	-67.584679
11784.701596	1439.950000	1463.662109	10.120335
11784.701596	1439.950000	1462.594727	83.576218
11784.701596	1439.950000	1461.528320	42.618740
11784.701596	1439.950000	1460.460938	-199.465317
11784.701596	1439.950000	1459.393555	41.939766
11784.701596	1439.950000	1458.326172	-141.604279
11784.701596	1439.950000	1457.257813	-8.301493
11784.701596	1439.950000	1456.189453	-220.572372
11784.701596	1439.950000	1455.121094	-22.480227
11784.701596	1439.950000	1454.052734	62.483944
11784.701596	1439.950000	1452.984375	-39.722652
11784.701596	1439.950000	1451.915039	37.554501
11784.701596	1439.950000	1450.845703	191.044128
11784.701596	1439.950000	1449.776367	-29.646181
11784.701596	1439.950000	1448.707031	119.452499
11784.701596	1439.950000	1447.636719	30.145199
11784.701596	1439.950000	1446.567383	123.881966
11784.701596	1439.950000	1445.497070	78.316658
11784.701596	1439.950000	1444.425781	125.832344
11784.701596	1439.950000	1443.355469	-22.139688
11784.701596	1439.950000	1442.285156	26.883371
11784.701596	1439.950000	1441.213867	122.172546
11784.701596	1439.950000	1440.142578	1.619281
11784.701596	1439.950000	1439.070313	140.412628
11784.701596	1439.950000	1437.999023	151.477661
11784.701596	1439.950000	1436.926758	167.978516
11784.701596	1439.950000	1435.854492	7.353353
11784.701596	1439.950000	1434.782227	60.589603
11784.701596	1439.950000	1433.709961	-68.610466
11784.701596	1439.950000	1432.636719	52.431648
11784.701596	1439.950000	1431.563477	80.547508
11784.701596	1439.950000	1430.490234	-21.378010
11784.701596	1439.950000	1429.416992	-175.421951
11784.701596	1439.950000	1428.343750	76.752716
11784.701596	1439.950000	1427.269531	-149.533783
11784.701596	1439.950000	1426.195313	115.223785
11784.701596	1439.950000	1425.121094	-114.468643
11784.701596	1439.950000	1424.046875	68.530609
11784.701596	1439.950000	1422.971680	-221.588928
11784.701596	1439.950000	1421.896484	-61.936455
11784.701596	1439.950000	1420.821289	-25.489454
11784.701596	1439.950000	1419.746094	-132.275192
11784.701596	1439.950000	1418.669922	-51.647968
11784.701596	1439.950000	1417.594727	115.691856
11784.701596	1439.950000	1416.518555	48.454609
11784.701596	1439.950000	1415.442383	-47.637142
11784.701596	1439.950000	1414.365234	-80.484436
11784.701596	1439.950000	1413.289063	-94.046722
11784.701596	1439.950000	1412.211914	-109.646622
11784.701596	1439.950000	1411.134766	-38.815620
11784.701596	1439.950000	1410.057617	-8.113256
11784.701596	1439.950000	1408.979492	81.236351
11784.701596	1439.950000	1407.902344	-94.343834
11784.701596	1439.950000	1406.824219	65.642288
11784.701596	1439.950000	1405.746094	50.628845
11784.701596	1439.950000	1404.666992	284.804932
11784.701596	1439.950000	1403.588867	153.609787
11784.701596	1439.950000	1402.509766	133.680450
11784.701596	1439.950000	1401.430664	-28.519863
11784.701596	1439.950000	1400.351563	72.093826
11784.701596	1439.950000	1399.271484	126.801590
11784.701596	1439.950000	1398.192383	179.183899
11784.701596	1439.950000	1397.112305	63.865414
11784.701596	1439.950000	1396.031250	77.972183
11784.701596	1439.950000	1394.951172	176.418442
11784.701596	1439.950000	1393.871094	166.601501
11784.701596	1439.950000	1392.790039	153.569214
11784.701596	1439.950000	1391.708984	104.171181
11784.701596	1439.950000	1390.626953	-47.592518
11784.701596	1439.950000	1389.545898	64.920456
11784.701596	1439.950000	1388.463867	-21.136366
11784.701596	1439.950000	1387.381836	363.101105
11784.701596	1439.950000	1386.299805	104.901352
11784.701596	1439.950000	1385.217773	190.377609
11784.701596	1439.950000	1384.134766	220.666840
11784.701596	1439.950000	1383.051758	94.724785
11784.701596	1439.950000	1381.968750	128.246674
11784.701596	1439.950000	1380.885742	223.363266
11784.701596	1439.950000	1379.802734	312.966095
11784.701596	1439.950000	1378.718750	67.477463
11784.701596	1439.950000	1377.634766	244.757172
11784.701596	1439.950000	1376.550781	181.752396
11784.701596	1439.950000	1375.465820	129.414810
11784.701596	1439.950000	1374.381836	188.473587
11784.701596	1439.950000	1373.296875	165.388870
11784.701596	1439.950000	1372.211914	32.486107
11784.701596	1439.950000	1371.126953	134.825714
11784.701596	1439.950000	1370.041016	176.561676
11784.701596	1439.950000	1368.955078	438.765411
11784.701596	1439.950000	1367.869141	329.808868
11784.701596	1439.950000	1366.783203	310.602997
11784.701596	1439.950000	1365.697266	409.621368
11784.701596	1439.950000	1364.610352	642.230957
11784.701596	1439.950000	1363.523438	347.789124
11784.701596	1439.950000	1362.436523	500.985199
11784.701596	1439.950000	1361.349609	290.680298
11784.701596	1439.950000	1360.261719	484.864685
11784.701596	1439.950000	1359.174805	396.109222
11784.701596	1439.950000	1358.086914	336.976532
11784.701596	1439.950000	1356.998047	381.781006
11784.701596	1439.950000	1355.910156	446.280823
11784.701596	1439.950000	1354.821289	341.423553
11784.701596	1439.950000	1353.732422	179.390427
11784.701596	1439.950000	1352.643555	261.969360
11784.701596	1439.950000	1351.554688	320.458954
11784.701596	1439.950000	1350.464844	270.549896
11784.701596	1439.950000	1349.375000	341.484772
11784.701596	1439.950000	1348.285156	165.360062
11784.701596	1439.950000	1347.195313	253.979263
11784.701596	1439.950000	1346.105469	145.308975
11784.701596	1439.950000	1345.014648	138.764572
11784.701596	1439.950000	1343.923828	301.204712
11784.701596	1439.950000	1342.833008	345.881134
11784.701596	1439.950000	1341.741211	241.076492
11784.701596	1439.950000	1340.650391	133.412277
11784.701596	1439.950000	1339.558594	236.886703
11784.701596	1439.950000	1338.466797	400.377777
11784.701596	1439.950000	1337.374023	206.576492
11784.701596	1439.950000	1336.282227	239.457581
11784.701596	1439.950000	1335.189453	243.395462
11784.701596	1439.950000	1334.096680	315.502380
11784.701596	1439.950000	1333.003906	152.752655
11784.701596	1439.950000	1331.910156	175.859894
11784.701596	1439.950000	1330.817383	217.540710
11784.701596	1439.950000	1329.723633	299.010620
11784.701596	1439.950000	1328.629883	72.163918
11784.701596	1439.950000	1327.535156	192.661545
11784.701596	1439.950000	1326.441406	127.508934
11784.701596	1439.950000	1325.346680	179.997025
11784.701596	1439.950000	1324.251953	521.072693
11784.701596	1439.950000	1323.156250	249.115768
11784.701596	1439.950000	1322.061523	187.894104
11784.701596	1439.950000	1320.965820	370.631470
11784.701596	1439.950000	1319.870117	292.162354
11784.701596	1439.950000	1318.774414	338.642700
11784.701596	1439.950000	1317.678711	228.417862
11784.701596	1439.950000	1316.582031	107.036766
11784.701596	1439.950000	1315.485352	271.101318
11784.701596	1439.950000	1314.388672	304.446136
11784.701596	1439.950000	1313.291016	276.389740
11784.701596	1439.950000	1312.194336	377.197571
11784.701596	1439.950000	1311.096680	304.455109
11784.701596	1439.950000	1309.999023	55.918472
11784.701596	1439.950000	1308.901367	159.129303
11784.701596	1439.950000	1307.802734	133.212830
11784.701596	1439.950000	1306.705078	191.229156
11784.701596	1439.950000	1305.606445	435.251343
11784.701596	1439.950000	1304.506836	381.798645
11784.701596	1439.950000	1303.408203	332.397827
11784.701596	1439.950000	1302.308594	171.812485
11784.701596	1439.950000	1301.208984	227.358078
11784.701596	1439.950000	1300.109375	277.274475
11784.701596	1439.950000	1299.009766	237.695114
11784.701596	1439.950000	1297.909180	145.919205
11784.701596	1439.950000	1296.808594	328.903717
11784.701596	1439.950000	1295.708008	225.581863
11784.701596	1439.950000	1294.607422	247.619293
11784.701596	1439.950000	1293.506836	373.231476
11784.701596	1439.950000	1292.405273	254.106369
11784.701596	1439.950000	1291.303711	109.955711
11784.701596	1439.950000	1290.202148	317.776184
11784.701596	1439.950000	1289.099609	189.952103
11784.701596	1439.950000	1287.998047	134.342636
11784.701596	1439.950000	1286.895508	273.505859
11784.701596	1439.950000	1285.792969	270.310608
11784.701596	1439.950000	1284.689453	-93.110657
11784.701596	1439.950000	1283.586914	85.622513
11784.701596	1439.950000	1282.483398	-4.951170
11784.701596	1439.950000	1281.379883	-12.988353
11784.701596	1439.950000	1280.276367	129.385574
11784.701596	1439.950000	1279.171875	-81.278908
11784.701596	1439.950000	1278.067383	0.800940
11784.701596	1439.950000	1276.962891	61.068096
11784.701596	1439.950000	1275.858398	-241.927063
11784.701596	1439.950000	1274.753906	-110.544296
11784.701596	1439.950000	1273.648438	66.883110
11784.701596	1439.950000	1272.542969	-34.784019
11784.701596	1439.950000	1271.437500	-46.583206
11784.701596	1439.950000	1270.331055	-87.773460
11784.701596	1439.950000	1269.225586	20.471617
11784.701596	1439.950000	1268.119141	-12.678095
11784.701596	1439.950000	1267.012695	-84.072792
11784.701596	1439.950000	1265.906250	-112.640625
11784.701596	1439.950000	1264.798828	-18.183512
11784.701596	1439.950000	1263.691406	47.308647
11784.701596	1439.950000	1262.583984	13.908688
11784.701596	1439.950000	1261.476563	-32.275410
11784.701596	1439.950000	1260.368164	49.324577
11784.701596	1439.950000	1259.260742	-140.962234
11784.701596	1439.950000	1258.152344	-119.658165
11784.701596	1439.950000	1257.043945	-141.256088
11784.701596	1439.950000	1255.934570	-123.427994
11784.701596	1439.950000	1254.825195	-242.949005
11784.701596	1439.950000	1253.716797	-93.603081
11784.701596	1439.950000	1252.606445	13.464832
11784.701596	1439.950000	1251.497070	-47.684162
11784.701596	1439.950000	1250.387695	-46.784534
11784.701596	1439.950000	1249.277344	89.468323
11784.701596	1439.950000	1248.166992	40.506271
11784.701596	1439.950000	1247.055664	-101.193222
11784.701596	1439.950000	1245.945313	-8.834401
11784.701596	1439.950000	1244.833984	-53.163078
11784.701596	1439.950000	1243.722656	-21.876318
11784.701596	1439.950000	1242.611328	2.877995
11784.701596	1439.950000	1241.499023	25.578321
11784.701596	1439.950000	1240.387695	-62.516735
11784.701596	1439.950000	1239.275391	-99.744743
11784.701596	1439.950000	1238.162109	-32.408859
11784.701596	1439.950000	1237.049805	-53.756351
11784.701596	1439.950000	1235.936523	137.786346
11784.701596	1439.950000	1234.823242	-33.262989
11784.701596	1439.950000	1233.709961	-132.054214
11784.701596	1439.950000	1232.596680	-200.788940
11784.701596	1439.950000	1231.482422	-118.167366
11784.701596	1439.950000	1230.369141	9.768287
11784.701596	1439.950000	1229.253906	-4.751774
11784.701596	1439.950000	1228.139648	-96.516212
11784.701596	1439.950000	1227.025391	-15.416667
11784.701596	1439.950000	1225.910156	46.603447
11784.701596	1439.950000	1224.794922	-64.074829
11784.701596	1439.950000	1223.679688	-13.903075
11784.701596	1439.950000	1222.563477	66.430161
11784.701596	1439.950000	1221.447266	3.603795
11784.701596	1439.950000	1220.331055	53.339081
11784.701596	1439.950000	1219.214844	-15.550914
11784.701596	1439.950000	1218.098633	-8.200396
11784.701596	1439.950000	1216.981445	-22.608461
11784.701596	1439.950000	1215.864258	58.781746
11784.701596	1439.950000	1214.747070	-55.335850
11784.701596	1439.950000	1213.629883	-209.688217
11784.701596	1439.950000	1212.511719	-141.665100
11784.701596	1439.950000	1211.393555	26.483732
11784.701596	1439.950000	1210.275391	-9.589763
11784.701596	1439.950000	1209.157227	151.310287
11784.701596	1439.950000	1208.038086	-19.044743
11784.701596	1439.950000	1206.918945	-15.063766
11784.701596	1439.950000	1205.799805	44.056534
11784.701596	1439.950000	1204.680664	-5.827794
11784.701596	1439.950000	1203.560547	-15.826281
11784.701596	1439.950000	1202.441406	23.317020
11784.701596	1439.950000	1201.321289	-89.609718
11784.701596	1439.950000	1200.200195	-134.478012
11784.701596	1439.950000	1199.080078	17.026737
11784.701596	1439.950000	1197.958984	102.435814
11784.701596	1439.950000	1196.837891	0.038656
11784.701596	1439.950000	1195.716797	19.539961
11784.701596	1439.950000	1194.594727	-16.006788
11784.701596	1439.950000	1193.473633	0.621341
11784.701596	1439.950000	1192.351563	-96.625534
11784.701596	1439.950000	1191.229492	-65.019432
11784.701596	1439.950000	1190.106445	-85.563545
11784.701596	1439.950000	1188.984375	70.000328
11784.701596	1439.950000	1187.861328	65.026497
11784.701596	1439.950000	1186.738281	-16.167147
11784.701596	1439.950000	1185.614258	-97.482285
11784.701596	1439.950000	1184.491211	41.222225
11784.701596	1439.950000	1183.367188	-87.776566
11784.701596	1439.950000	1182.243164	54.331497
11784.701596	1439.950000	1181.119141	95.075356
11784.701596	1439.950000	1179.994141	-31.443811
11784.701596	1439.950000	1178.869141	83.273651
11784.701596	1439.950000	1177.744141	42.599468
11784.701596	1439.950000	1176.619141	69.576271
11784.701596	1439.950000	1175.493164	-10.870603
11784.701596	1439.950000	1174.368164	117.488197
11784.701596	1439.950000	1173.242188	-100.220940
11784.701596	1439.950000	1172.115234	25.220354
11784.701596	1439.950000	1170.989258	-42.551224
11784.701596	1439.950000	1169.862305	118.683388
11784.701596	1439.950000	1168.735352	-32.765427
11784.701596	1439.950000	1167.608398	1.225070
11784.701596	1439.950000	1166.481445	90.083275
11784.701596	1439.950000	1165.353516	38.998043
11784.701596	1439.950000	1164.225586	0.310138
11784.701596	1439.950000	1163.097656	-68.900673
11784.701596	1439.950000	1161.968750	62.951893
11784.701596	1439.950000	1160.840820	-146.066376
11784.701596	1439.950000	1159.711914	8.420465
11784.701596	1439.950000	1158.583008	-54.450794
11784.701596	1439.950000	1157.453125	73.085724
11784.701596	1439.950000	1156.324219	-14.186224
11784.701596	1439.950000	1155.194336	83.483185
11784.701596	1439.950000	1154.064453	41.435894
11784.701596	1439.950000	1152.933594	-2.728298
11784.701596	1439.950000	1151.803711	-15.578956
11784.701596	1439.950000	1150.672852	-56.012909
11784.701596	1439.950000	1149.541992	-78.922485
11784.701596	1439.950000	1148.411133	56.771172
11784.701596	1439.950000	1147.279297	48.240017
11784.701596	1439.950000	1146.147461	30.596695
11784.701596	1439.950000	1145.015625	-105.350441
11784.701596	1439.950000	1143.883789	-0.575266
11784.701596	1439.950000	1142.750977	-131.765274
11784.701596	1439.950000	1141.619141	6.495787
11784.701596	1439.950000	1140.486328	-215.651230
11784.701596	1439.950000	1139.352539	66.064857
11784.701596	1439.950000	1138.219727	-34.626049
11784.701596	1439.950000	1137.085938	-108.101799
11784.701596	1439.950000	1135.952148	28.865751
11784.701596	1439.950000	1134.818359	-81.402321
11784.701596	1439.950000	1133.683594	-27.981379
11784.701596	1439.950000	1132.549805	48.944695
11784.701596	1439.950000	1131.415039	-9.587147
11784.701596	1439.950000	1130.279297	160.463837
11784.701596	1439.950000	1129.144531	77.258675
11784.701596	1439.950000	1128.008789	116.422043
11784.701596	1439.950000	1126.873047	153.965546
11784.701596	1439.950000	1125.737305	224.712250
11784.701596	1439.950000	1124.601563	94.890495
11784.701596	1439.950000	1123.464844	165.263580
11784.701596	1439.950000	1122.328125	175.326630
11784.701596	1439.950000	1121.191406	78.189842
11784.701596	1439.950000	1120.054688	218.259308
11784.701596	1439.950000	1118.916992	185.495483
11784.701596	1439.950000	1117.779297	175.666092
11784.701596	1439.950000	1116.641602	72.686035
11784.701596	1439.950000	1115.503906	251.607910
11784.701596	1439.950000	1114.365234	186.688965
11784.701596	1439.950000	1113.226563	83.346451
11784.701596	1439.950000	1112.087891	207.547043
11784.701596	1439.950000	1110.949219	192.663696
11784.701596	1439.950000	1109.809570	122.186920
11784.701596	1439.950000	1108.669922	57.443310
11784.701596	1439.950000	1107.530273	134.934708
11784.701596	1439.950000	1106.390625	53.786037
11784.701596	1439.950000	1105.250000	185.389084
11784.701596	1439.950000	1104.109375	256.256134
11784.701596	1439.950000	1102.968750	21.274755
11784.701596	1439.950000	1101.828125	60.380459
11784.701596	1439.950000	1100.686523	153.018661
11784.701596	1439.950000	1099.544922	60.764233
11784.701596	1439.950000	1098.403320	145.026321
11784.701596	1439.950000	1097.261719	219.713043
11784.701596	1439.950000	1096.120117	172.200363
11784.701596	1439.950000	1094.977539	327.489197
11784.701596	1439.950000	1093.834961	77.025742
11784.701596	1439.950000	1092.691406	312.146820
11784.701596	1439.950000	1091.548828	121.579979
11784.701596	1439.950000	1090.405273	107.418854
11784.701596	1439.950000	1089.261719	164.557968
11784.701596	1439.950000	1088.118164	133.355728
11784.701596	1439.950000	1086.973633	164.482834
11784.701596	1439.950000	1085.829102	94.213791
11784.701596	1439.950000	1084.684570	273.215607
11784.701596	1439.950000	1083.540039	264.344727
11784.701596	1439.950000	1082.395508	-80.891022
11784.701596	1439.950000	1081.250000	65.514862
11784.701596	1439.950000	1080.104492	9.259944
11784.701596	1439.950000	1078.958984	143.087402
11784.701596	1439.950000	1077.812500	10.570085
11784.701596	1439.950000	1076.666016	222.399796
11784.701596	1439.950000	1075.519531	-22.469334
11784.701596	1439.950000	1074.373047	98.483253
11784.701596	1439.950000	1073.226563	44.738071
11784.701596	1439.950000	1072.079102	238.294586
11784.701596	1439.950000	1070.931641	146.183655
11784.701596	1439.950000	1069.784180	243.080124
11784.701596	1439.950000	1068.635742	217.582047
11784.701596	1439.950000	1067.487305	-19.017923
11784.701596	1439.950000	1066.338867	171.204117
11784.701596	1439.950000	1065.190430	298.907440
11784.701596	1439.950000	1064.041992	217.388992
11784.701596	1439.950000	1062.892578	275.278900
11784.701596	1439.950000	1061.743164	247.042877
11784.701596	1439.950000	1060.593750	48.370464
11784.701596	1439.950000	1059.443359	98.968857
11784.701596	1439.950000	1058.292969	297.338043
11784.701596	1439.950000	1057.142578	338.464447
11784.701596	1439.950000	1055.992188	118.148994
11784.701596	1439.950000	1054.841797	50.687687
11784.701596	1439.950000	1053.690430	4.384279
11784.701596	1439.950000	1052.539063	42.592445
11784.701596	1439.950000	1051.387695	49.346493
11784.701596	1439.950000	1050.235352	102.960854
11784.701596	1439.950000	1049.083984	34.011166
11784.701596	1439.950000	1047.931641	-81.148293
11784.701596	1439.950000	1046.778320	120.182739
11784.701596	1439.950000	1045.625977	155.203140
11784.701596	1439.950000	1044.472656	5.391054
11784.701596	1439.950000	1043.319336	160.789856
11784.701596	1439.950000	1042.166016	-146.263351
11784.701596	1439.950000	1041.012695	104.563606
11784.701596	1439.950000	1039.858398	153.416992
11784.701596	1439.950000	1038.704102	42.820797
11784.701596	1439.950000	1037.549805	75.403114
11784.701596	1439.950000	1036.394531	113.981026
11784.701596	1439.950000	1035.239258	-89.084473
11784.701596	1439.950000	1034.083984	43.750751
11784.701596	1439.950000	1032.928711	-11.859772
11784.701596	1439.950000	1031.773438	-38.572086
11784.701596	1439.950000	1030.617188	-33.051662
11784.701596	1439.950000	1029.460938	68.792137
11784.701596	1439.950000	1028.304688	-38.539482
11784.701596	1439.950000	1027.147461	56.388519
11784.701596	1439.950000	1025.991211	21.913717
11784.701596	1439.950000	1024.833984	-25.148716
11784.701596	1439.950000	1023.675781	118.007042
11784.701596	1439.950000	1022.518555	-154.111359
11784.701596	1439.950000	1021.360352	185.441010
11784.701596	1439.950000	1020.202148	114.259888
11784.701596	1439.950000	1019.043945	-93.219887
11784.701596	1439.950000	1017.884766	105.284210
11784.701596	1439.950000	1016.726563	-175.420090
11784.701596	1439.950000	1015.567383	16.645096
11784.701596	1439.950000	1014.407227	-31.282732
11784.701596	1439.950000	1013.248047	65.275200
11784.701596	1439.950000	1012.087891	140.223404
11784.701596	1439.950000	1010.927734	52.225254
11784.701596	1439.950000	1009.767578	-69.677971
11784.701596	1439.950000	1008.606445	-75.180450
11784.701596	1439.950000	1007.446289	83.216362
11784.701596	1439.950000	1006.285156	-33.041241
11784.701596	1439.950000	1005.123047	69.085052
11784.701596	1439.950000	1003.961914	-60.278145
11784.701596	1439.950000	1002.799805	-43.731525
11784.701596	1439.950000	1001.637695	174.946091
11784.701596	1439.950000	1000.475586	-69.159058
11784.701596	1439.950000	999.312500	104.973526
11784.701596	1439.950000	998.149414	52.862961
11784.701596	1439.950000	996.986328	-53.656479
11784.701596	1439.950000	995.823242	218.853012
11784.701596	1439.950000	994.659180	66.495865
11784.701596	1439.950000	993.496094	-3.355790
11784.701596	1439.950000	992.332031	31.334688
11784.701596	1439.950000	991.166992	64.633965
11784.701596	1439.950000	990.002930	-4.681413
11784.701596	1439.950000	988.837891	125.864555
11784.701596	1439.950000	987.672852	-104.483238
11784.701596	1439.950000	986.506836	35.341415
11784.701596	1439.950000	985.341797	27.039064
11784.701596	1439.950000	984.175781	69.348251
11784.701596	1439.950000	983.009766	81.440712
11784.701596	1439.950000	981.843750	8.084340
11784.701596	1439.950000	980.676758	111.003487
11784.701596	1439.950000	979.509766	-126.788261
11784.701596	1439.950000	978.342773	212.682083
11784.701596	1439.950000	977.175781	242.480270
11784.701596	1439.950000	976.007813	196.390167
11784.701596	1439.950000	974.839844	-27.018902
11784.701596	1439.950000	973.671875	80.103966
11784.701596	1439.950000	972.503906	-9.390296
11784.701596	1439.950000	971.334961	12.964728
11784.701596	1439.950000	970.166016	-39.821148
11784.701596	1439.950000	968.997070	-79.522003
11784.701596	1439.950000	967.828125	169.503128
11784.701596	1439.950000	966.658203	87.106369
11784.701596	1439.950000	965.488281	124.598351
11784.701596	1439.950000	964.318359	196.880798
11784.701596	1439.950000	963.148438	160.096603
11784.701596	1439.950000	961.977539	170.448456
11784.701596	1439.950000	960.806641	-65.284225
11784.701596	1439.950000	959.635742	14.908687
11784.701596	1439.950000	958.463867	62.591129
11784.701596	1439.950000	957.292969	-53.121586
11784.701596	1439.950000	956.121094	78.136360
11784.701596	1439.950000	954.948242	11.982467
11784.701596	1439.950000	953.776367	-0.826290
11784.701596	1439.950000	952.603516	129.475250
11784.701596	1439.950000	951.430664	-57.313820
11784.701596	1439.950000	950.257813	109.579285
11784.701596	1439.950000	949.084961	-92.699585
11784.701596	1439.950000	947.911133	113.306976
11784.701596	1439.950000	946.737305	-70.666367
11784.701596	1439.950000	945.563477	-56.854641
11784.701596	1439.950000	944.388672	27.623375
11784.701596	1439.950000	943.213867	181.405670
11784.701596	1439.950000	942.039063	26.555096
11784.701596	1439.950000	940.864258	-92.084282
11784.701596	1439.950000	939.688477	66.698799
11784.701596	1439.950000	938.513672	106.772850
11784.701596	1439.950000	937.337891	-64.163589
11784.701596	1439.950000	936.161133	41.827293
11784.701596	1439.950000	934.985352	-47.461155
11784.701596	1439.950000	933.808594	-99.508171
11784.701596	1439.950000	932.631836	69.634834
11784.701596	1439.950000	931.454102	-35.316036
11784.701596	1439.950000	930.277344	128.460922
11784.701596	1439.950000	929.099609	49.771568
11784.701596	1439.950000	927.921875	79.221748
11784.701596	1439.950000	926.743164	-67.916809
11784.701596	1439.950000	925.565430	-20.055775
11784.701596	1439.950000	924.386719	191.124359
11784.701596	1439.950000	923.208008	20.294853
11784.701596	1439.950000	922.028320	73.371956
11784.701596	1439.950000	920.849609	-71.053055
11784.701596	1439.950000	919.669922	-68.800362
11784.701596	1439.950000	919.474609	24.510984
11784.701596	1439.950000	918.309570	122.265968
11784.701596	1439.950000	917.143555	54.200306
11784.701596	1439.950000	915.977539	-82.244225
11784.701596	1439.950000	914.810547	-142.350647
11784.701596	1439.950000	913.644531	-128.801117
11784.701596	1439.950000	912.477539	-173.100433
11784.701596	1439.950000	911.310547	74.410927
11784.701596	1439.950000	910.143555	-35.618324
11784.701596	1439.950000	908.975586	-121.952675
11784.701596	1439.950000	907.807617	-92.655243
11784.701596	1439.950000	906.639648	-121.156441
11784.701596	1439.950000	905.471680	-123.383766
11784.701596	1439.950000	904.303711	-73.097694
11784.701596	1439.950000	903.134766	-51.705326
11784.701596	1439.950000	901.965820	-106.429947
11784.701596	1439.950000	900.796875	-29.933432
11784.701596	1439.950000	899.626953	-68.894356
11784.701596	1439.950000	898.457031	-42.265526
11784.701596	1439.950000	897.287109	94.494301
11784.701596	1439.950000	896.117188	-65.064850
11784.701596	1439.950000	894.947266	-138.054092
11784.701596	1439.950000	893.776367	-27.557289
11784.701596	1439.950000	892.605469	56.696365
11784.701596	1439.950000	891.434570	64.948280
11784.701596	1439.950000	890.262695	-120.613914
11784.701596	1439.950000	889.091797	91.929062
11784.701596	1439.950000	887.919922	-90.937401
11784.701596	1439.950000	886.748047	-17.206190
11784.701596	1439.950000	885.575195	48.650139
11784.701596	1439.950000	884.403320	7.206110
11784.701596	1439.950000	883.230469	-91.763817
11784.701596	1439.950000	882.057617	-146.228165
11784.701596	1439.950000	880.883789	-213.736618
11784.701596	1439.950000	879.710938	220.737442
11784.701596	1439.950000	878.537109	-71.595009
11784.701596	1439.950000	877.362305	101.360939
11784.701596	1439.950000	876.188477	-7.925774
11784.701596	1439.950000	875.013672	68.306648
11784.701596	1439.950000	873.839844	3.481243
11784.701596	1439.950000	872.664063	-71.751541
11784.701596	1439.950000	871.489258	46.233471
11784.701596	1439.950000	870.313477	38.896328
11784.701596	1439.950000	869.138672	-182.414215
11784.701596	1439.950000	867.962891	-87.938309
11784.701596	1439.950000	866.786133	-35.228565
11784.701596	1439.950000	865.610352	7.033445
11784.701596	1439.950000	864.433594	15.390797
11784.701596	1439.950000	863.256836	151.487106
11784.701596	1439.950000	862.079102	32.117413
11784.701596	1439.950000	860.902344	-6.419468
11784.701596	1439.950000	859.724609	-8.457383
11784.701596	1439.950000	858.546875	153.609161
11784.701596	1439.950000	857.368164	-67.196312
11784.701596	1439.950000	856.190430	-56.181477
11784.701596	1439.950000	855.011719	-86.811020
11784.701596	1439.950000	853.833008	-179.883804
11784.701596	1439.950000	852.654297	213.671478
11784.701596	1439.950000	851.474609	-40.700741
11784.701596	1439.950000	850.294922	-105.090355
11784.701596	1439.950000	849.115234	48.990898
11784.701596	1439.950000	847.935547	-80.373962
11784.701596	1439.950000	846.754883	-118.697540
11784.701596	1439.950000	845.575195	24.917391
11784.701596	1439.950000	844.393555	194.468231
11784.701596	1439.950000	843.212891	80.798332
11784.701596	1439.950000	842.032227	-89.957436
11784.701596	1439.950000	840.850586	-68.477707
11784.701596	1439.950000	839.668945	-23.634727
11784.701596	1439.950000	838.486328	-4.756532
11784.701596	1439.950000	837.304688	-66.329803
11784.701596	1439.950000	836.122070	-18.896309
11784.701596	1439.950000	834.939453	7.772244
11784.701596	1439.950000	833.756836	86.305649
11784.701596	1439.950000	832.573242	-143.746201
11784.701596	1439.950000	831.389648	-41.866005
11784.701596	1439.950000	830.206055	10.732272
11784.701596	1439.950000	829.022461	60.724297
11784.701596	1439.950000	827.838867	-44.747478
11784.701596	1439.950000	826.654297	-46.555046
11784.701596	1439.950000	825.469727	-84.613777
11784.701596	1439.950000	824.284180	24.937725
11784.701596	1439.950000	823.099609	-13.107154
11784.701596	1439.950000	821.914063	-118.421982
11784.701596	1439.950000	820.728516	-96.893845
11784.701596	1439.950000	819.542969	-23.627407
11784.701596	1439.950000	818.356445	-56.432194
11784.701596	1439.950000	817.169922	-120.250984
11784.701596	1439.950000	815.983398	-54.764645
11784.701596	1439.950000	814.796875	-136.643295
11784.701596	1439.950000	813.609375	60.636551
11784.701596	1439.950000	812.422852	-202.095734
11784.701596	1439.950000	811.235352	28.706984
11784.701596	1439.950000	810.046875	88.954651
11784.701596	1439.950000	808.859375	-54.822212
11784.701596	1439.950000	807.670898	-48.792297
11784.701596	1439.950000	806.482422	207.616165
11784.701596	1439.950000	805.293945	51.012291
11784.701596	1439.950000	804.104492	64.767174
11784.701596	1439.950000	802.915039	42.403721
11784.701596	1439.950000	801.725586	89.687286
11784.701596	1439.950000	800.536133	116.323624
11784.701596	1439.950000	799.345703	109.438705
11784.701596	1439.950000	798.155273	192.770233
11784.701596	1439.950000	796.964844	-123.359825
11784.701596	1439.950000	795.774414	55.313843
11784.701596	1439.950000	794.583008	76.786293
11784.701596	1439.950000	793.392578	139.453171
11784.701596	1439.950000	792.200195	117.129364
11784.701596	1439.950000	791.008789	-18.456743
11784.701596	1439.950000	789.816406	51.913765
11784.701596	1439.950000	788.625000	-73.312721
11784.701596	1439.950000	787.432617	189.987991
11784.701596	1439.950000	786.239258	67.357498
11784.701596	1439.950000	785.046875	50.209003
11784.701596	1439.950000	783.853516	159.049454
11784.701596	1439.950000	782.660156	8.215141
11784.701596	1439.950000	781.465820	78.464684
11784.701596	1439.950000	780.272461	-56.881504
11784.701596	1439.950000	779.078125	98.118050
11784.701596	1439.950000	777.883789	68.121880
11784.701596	1439.950000	776.688477	-41.468845
11784.701596	1439.950000	775.494141	13.287383
11784.701596	1439.950000	774.298828	162.989212
11784.701596	1439.950000	773.103516	12.367418
11784.701596	1439.950000	771.907227	-84.316513
11784.701596	1439.950000	770.711914	103.768593
11784.701596	1439.950000	769.515625	119.936157
11784.701596	1439.950000	768.318359	169.423965
11784.701596	1439.950000	767.122070	95.826912
11784.701596	1439.950000	765.924805	53.010098
11784.701596	1439.950000	764.727539	245.954315
11784.701596	1439.950000	763.530273	0.703997
11784.701596	1439.950000	762.333008	11.693236
11784.701596	1439.950000	761.134766	219.861115
11784.701596	1439.950000	759.936523	8.021450
11784.701596	1439.950000	758.738281	218.638580
11784.701596	1439.950000	757.540039	203.932693
11784.701596	1439.950000	756.340820	104.779350
11784.701596	1439.950000	755.141602	92.635925
11784.701596	1439.950000	753.942383	164.887650
11784.701596	1439.950000	752.742188	63.205906
11784.701596	1439.950000	751.541992	66.374283
11784.701596	1439.950000	750.341797	77.193993
11784.701596	1439.950000	749.141602	-106.234909
11784.701596	1439.950000	747.941406	91.102661
11784.701596	1439.950000	746.740234	45.660221
11784.701596	1439.950000	745.539063	84.500702
11784.701596	1439.950000	744.337891	220.337418
11784.701596	1439.950000	743.135742	251.429489
11784.701596	1439.950000	741.933594	11.931676
11784.701596	1439.950000	740.731445	83.842438
11784.701596	1439.950000	739.529297	163.356522
11784.701596	1439.950000	738.326172	275.978088
11784.701596	1439.950000	737.124023	153.901154
11784.701596	1439.950000	735.919922	294.481140
11784.701596	1439.950000	734.716797	432.426880
11784.701596	1439.950000	733.513672	504.024780
11784.701596	1439.950000	732.309570	743.747620
11784.701596	1439.950000	731.105469	662.344116
11784.701596	1439.950000	729.900391	578.403076
11784.701596	1439.950000	728.696289	384.965637
11784.701596	1439.950000	727.491211	255.233627
11784.701596	1439.950000	726.286133	290.986084
11784.701596	1439.950000	725.080078	298.701508
11784.701596	1439.950000	723.874023	120.640381
11784.701596	1439.950000	722.668945	118.152130
11784.701596	1439.950000	721.461914	82.573746
11784.701596	1439.950000	720.255859	21.548473
11784.701596	1439.950000	719.048828	146.106033
11784.701596	1439.950000	717.841797	334.124207
11784.701596	1439.950000	716.634766	46.818218
11784.701596	1439.950000	715.427734	-90.499077
11784.701596	1439.950000	714.219727	-85.541786
11784.701596	1439.950000	713.011719	20.963488
11784.701596	1439.950000	711.803711	-7.184062
11784.701596	1439.950000	710.594727	-60.740620
11784.701596	1439.950000	709.385742	-28.017675
11784.701596	1439.950000	708.176758	-43.559776
11784.701596	1439.950000	706.967773	-13.467134
11784.701596	1439.950000	705.758789	310.802612
11784.701596	1439.950000	704.548828	148.000946
11784.701596	1439.950000	703.338867	-78.157097
11784.701596	1439.950000	702.127930	30.341606
11784.701596	1439.950000	700.917969	-129.886490
11784.701596	1439.950000	699.707031	234.406128
11784.701596	1439.950000	698.496094	175.450287
11784.701596	1439.950000	697.285156	93.679939
11784.701596	1439.950000	696.073242	275.250641
11784.701596	1439.950000	694.861328	99.735115
11784.701596	1439.950000	693.649414	200.141541
11784.701596	1439.950000	692.436523	151.155655
11784.701596	1439.950000	691.224609	94.553658
11784.701596	1439.950000	690.011719	174.523941
11784.701596	1439.950000	688.798828	206.361084
11784.701596	1439.950000	687.584961	157.227249
11784.701596	1439.950000	686.372070	49.922367
11784.701596	1439.950000	685.158203	132.168747
11784.701596	1439.950000	683.943359	181.481323
11784.701596	1439.950000	682.729492	96.826347
11784.701596	1439.950000	681.514648	39.940506
11784.701596	1439.950000	680.299805	124.442902
11784.701596	1439.950000	679.084961	221.480469
11784.701596	1439.950000	677.869141	129.108627
11784.701596	1439.950000	676.653320	114.957352
11784.701596	1439.950000	675.437500	342.980225
11784.701596	1439.950000	674.221680	0.739240
11784.701596	1439.950000	673.004883	273.978149
11784.701596	1439.950000	671.789063	176.377838
11784.701596	1439.950000	670.571289	192.207520
11784.701596	1439.950000	669.354492	223.098404
11784.701596	1439.950000	668.136719	231.238449
11784.701596	1439.950000	666.919922	193.967148
11784.701596	1439.950000	665.701172	181.843231
11784.701596	1439.950000	664.483398	262.845154
11784.701596	1439.950000	663.264648	283.325592
11784.701596	1439.950000	662.045898	167.802841
11784.701596	1439.950000	660.827148	49.751087
11784.701596	1439.950000	659.608398	112.859352
11784.701596	1439.950000	658.388672	67.703934
11784.701596	1439.950000	657.168945	-93.192757
11784.701596	1439.950000	655.949219	173.407181
11784.701596	1439.950000	654.728516	354.352356
11784.701596	1439.950000	653.507813	195.822601
11784.701596	1439.950000	652.287109	160.436691
11784.701596	1439.950000	651.066406	140.077103
11784.701596	1439.950000	649.844727	51.838375
11784.701596	1439.950000	648.623047	48.961121
11784.701596	1439.950000	647.401367	71.130569
11784.701596	1439.950000	646.179688	414.557343
11784.701596	1439.950000	644.957031	401.370026
11784.701596	1439.950000	643.734375	132.169830
11784.701596	1439.950000	642.511719	103.862709
11784.701596	1439.950000	641.289063	351.412292
11784.701596	1439.950000	640.065430	200.056335
11784.701596	1439.950000	638.841797	517.548645
11784.701596	1439.950000	637.618164	-4.902942
11784.701596	1439.950000	636.393555	76.782928
11784.701596	1439.950000	635.168945	205.972580
11784.701596	1439.950000	633.944336	169.702927
11784.701596	1439.950000	632.719727	130.876144
11784.701596	1439.950000	631.494141	-3.157973
11784.701596	1439.950000	630.269531	195.763718
11784.701596	1439.950000	629.042969	-43.491779
11784.701596	1439.950000	627.817383	220.277603
11784.701596	1439.950000	626.590820	181.132751
11784.701596	1439.950000	625.365234	214.477539
11784.701596	1439.950000	624.137695	232.729126
11784.701596	1439.950000	622.911133	280.908661
11784.701596	1439.950000	621.683594	176.509308
11784.701596	1439.950000	620.456055	234.535828
11784.701596	1439.950000	619.228516	167.531189
11784.701596	1439.950000	618.000977	28.036375
11784.701596	1439.950000	616.772461	220.719086
11784.701596	1439.950000	615.543945	183.513123
11784.701596	1439.950000	614.314453	-6.042821
11784.701596	1439.950000	613.085938	208.778595
11784.701596	1439.950000	611.856445	-35.745079
11784.701596	1439.950000	610.626953	111.483307
11784.701596	1439.950000	609.397461	88.953110
11784.701596	1439.950000	608.166992	-135.650681
11784.701596	1439.950000	606.936523	-46.056873
11784.701596	1439.950000	605.706055	-3.936219
11784.701596	1439.950000	604.474609	53.048500
11784.701596	1439.950000	603.244141	-32.093128
11784.701596	1439.950000	602.012695	-89.867508
11784.701596	1439.950000	600.780273	4.248852
11784.701596	1439.950000	599.548828	-23.763395
11784.701596	1439.950000	598.316406	-136.487091
11784.701596	1439.950000	597.083984	-167.087997
11784.701596	1439.950000	595.851563	-142.993561
11784.701596	1439.950000	594.618164	-96.588539
11784.701596	1439.950000	593.384766	118.885338
11784.701596	1439.950000	592.151367	45.699886
11784.701596	1439.950000	590.917969	-129.470734
11784.701596	1439.950000	589.683594	-63.494827
11784.701596	1439.950000	588.449219	39.668404
11784.701596	1439.950000	587.214844	75.627731
11784.701596	1439.950000	585.979492	-52.470596
11784.701596	1439.950000	584.745117	115.005913
11784.701596	1439.950000	583.509766	-95.129166
11784.701596	1439.950000	582.273438	-12.269109
11784.701596	1439.950000	581.038086	28.296078
11784.701596	1439.950000	579.801758	-154.586105
11784.701596	1439.950000	578.565430	52.103180
11784.701596	1439.950000	577.329102	-98.583794
11784.701596	1439.950000	576.091797	85.553650
11784.701596	1439.950000	574.854492	29.020878
11784.701596	1439.950000	573.617188	74.095779
11784.701596	1439.950000	572.378906	233.101013
11784.701596	1439.950000	571.141602	10.357789
11784.701596	1439.950000	569.903320	-276.771423
11784.701596	1439.950000	568.664063	-127.886696
11784.701596	1439.950000	567.425781	-45.985863
11784.701596	1439.950000	566.186523	-13.702758
11784.701596	1439.950000	564.947266	33.361053
11784.701596	1439.950000	563.708008	58.073421
11784.701596	1439.950000	562.467773	1.059486
11784.701596	1439.950000	561.227539	-18.878832
11784.701596	1439.950000	559.987305	116.953506
11784.701596	1439.950000	558.747070	161.181244
11784.701596	1439.950000	557.505859	-34.478821
11784.701596	1439.950000	556.264648	56.611404
11784.701596	1439.950000	555.023438	-50.085423
11784.701596	1439.950000	553.781250	-45.613308
11784.701596	1439.950000	552.539063	-4.143600
11784.701596	1439.950000	551.296875	22.440693
11784.701596	1439.950000	550.054688	24.273169
11784.701596	1439.950000	548.811523	8.769670
11784.701596	1439.950000	547.569336	82.079376
11784.701596	1439.950000	546.325195	-17.425875
11784.701596	1439.950000	545.082031	-257.547943
11784.701596	1439.950000	543.837891	3.071292
11784.701596	1439.950000	542.593750	-175.401291
11784.701596	1439.950000	541.349609	-6.221673
11784.701596	1439.950000	540.105469	27.275036
11784.701596	1439.950000	538.860352	43.458572
11784.701596	1439.950000	537.615234	-26.640728
11784.701596	1439.950000	536.369141	-79.513535
11784.701596	1439.950000	535.124023	-149.637894
11784.701596	1439.950000	533.877930	-47.420837
11784.701596	1439.950000	532.631836	-122.529152
11784.701596	1439.950000	531.384766	36.161610
11784.701596	1439.950000	530.138672	84.024216
11784.701596	1439.950000	528.891602	-67.444267
11784.701596	1439.950000	527.643555	-51.637615
11784.701596	1439.950000	526.396484	121.513390
11784.701596	1439.950000	525.148438	-2.931864
11784.701596	1439.950000	523.900391	20.122690
11784.701596	1439.950000	522.652344	156.179840
11784.701596	1439.950000	521.403320	176.664597
11784.701596	1439.950000	520.154297	-117.311287
11784.701596	1439.950000	518.905273	-128.764587
11784.701596	1439.950000	517.656250	-88.678886
11784.701596	1439.950000	516.406250	-220.482788
11784.701596	1439.950000	515.156250	72.338821
11784.701596	1439.950000	513.906250	-22.690859
11784.701596	1439.950000	512.655273	103.081512
11784.701596	1439.950000	511.404297	-9.140479
11784.701596	1439.950000	510.153320	-6.085604
11784.701596	1439.950000	508.902344	26.364023
11784.701596	1439.950000	507.650391	12.199483
11784.701596	1439.950000	506.398438	-227.440094
11784.701596	1439.950000	505.146484	13.220351
11784.701596	1439.950000	503.893555	-91.638763
11784.701596	1439.950000	502.641602	26.394022
11784.701596	1439.950000	501.388672	193.320480
11784.701596	1439.950000	500.134766	-46.216305
11784.701596	1439.950000	498.881836	-121.683800
11784.701596	1439.950000	497.627930	25.527039
11784.701596	1439.950000	496.374023	-81.769966
11784.701596	1439.950000	495.119141	-81.425919
11784.701596	1439.950000	493.865234	-152.009888
11784.701596	1439.950000	492.610352	-105.235329
11784.701596	1439.950000	491.355469	132.158752
11784.701596	1439.950000	490.099609	103.055420
11784.701596	1439.950000	488.843750	335.374786
11784.701596	1439.950000	487.587891	74.148254
11784.701596	1439.950000	486.332031	-55.103531
11784.701596	1439.950000	485.075195	30.545233
11784.701596	1439.950000	483.818359	-74.268700
11784.701596	1439.950000	482.561523	72.329636
11784.701596	1439.950000	481.304688	140.764954
11784.701596	1439.950000	480.046875	174.994064
11784.701596	1439.950000	478.789063	199.435760
11784.701596	1439.950000	477.531250	165.324142
11784.701596	1439.950000	476.272461	19.057215
11784.701596	1439.950000	475.013672	309.141510
11784.701596	1439.950000	473.754883	265.221039
11784.701596	1439.950000	472.496094	179.881271
11784.701596	1439.950000	471.236328	330.834290
11784.701596	1439.950000	469.976563	189.458435
11784.701596	1439.950000	468.716797	257.517609
11784.701596	1439.950000	467.456055	23.665045
11784.701596	1439.950000	466.196289	220.676559
11784.701596	1439.950000	464.935547	57.451111
11784.701596	1439.950000	463.673828	25.632072
11784.701596	1439.950000	462.413086	74.069298
11784.701596	1439.950000	461.151367	295.100800
11784.701596	1439.950000	459.889648	114.867073
11784.701596	1439.950000	458.626953	194.751984
11784.701596	1439.950000	457.364258	240.548187
11784.701596	1439.950000	456.101563	218.262726
11784.701596	1439.950000	454.838867	215.383057
11784.701596	1439.950000	453.575195	241.603073
11784.701596	1439.950000	452.312500	95.390320
11784.701596	1439.950000	451.047852	29.292023
11784.701596	1439.950000	449.784180	157.341415
11784.701596	1439.950000	448.519531	115.430557
11784.701596	1439.950000	447.254883	112.303467
11784.701596	1439.950000	445.990234	155.208420
11784.701596	1439.950000	444.725586	130.142548
11784.701596	1439.950000	443.459961	-13.769869
11784.701596	1439.950000	442.194336	232.552612
11784.701596	1439.950000	440.927734	304.220154
11784.701596	1439.950000	439.662109	315.226990
11784.701596	1439.950000	438.395508	231.682098
11784.701596	1439.950000	437.127930	322.454620
11784.701596	1439.950000	435.861328	86.254356
11784.701596	1439.950000	434.593750	242.211975
11784.701596	1439.950000	433.326172	257.647369
11784.701596	1439.950000	432.058594	251.205490
11784.701596	1439.950000	430.790039	24.524937
11784.701596	1439.950000	429.521484	259.786560
11784.701596	1439.950000	428.252930	197.418945
11784.701596	1439.950000	426.984375	350.124817
11784.701596	1439.950000	425.714844	268.190125
11784.701596	1439.950000	424.445313	292.490509
11784.701596	1439.950000	423.174805	290.068085
11784.701596	1439.950000	421.905273	-7.163698
11784.701596	1439.950000	420.634766	219.615204
11784.701596	1439.950000	419.364258	482.362946
11784.701596	1439.950000	418.092773	52.054813
11784.701596	1439.950000	416.822266	234.764389
11784.701596	1439.950000	415.550781	173.522720
11784.701596	1439.950000	414.278320	191.725174
11784.701596	1439.950000	413.006836	364.093750
11784.701596	1439.950000	411.734375	275.770203
11784.701596	1439.950000	410.461914	112.550629
11784.701596	1439.950000	409.188477	120.303032
11784.701596	1439.950000	407.916016	135.069778
11784.701596	1439.950000	406.642578	284.501038
11784.701596	1439.950000	405.368164	293.918854
11784.701596	1439.950000	404.094727	384.966278
11784.701596	1439.950000	402.820313	210.870590
11784.701596	1439.950000	401.545898	330.240417
11784.701596	1439.950000	400.270508	417.980316
11784.701596	1439.950000	398.996094	305.700500
11784.701596	1439.950000	397.720703	226.830399
11784.701596	1439.950000	396.444336	303.988342
11784.701596	1439.950000	395.168945	255.763474
11784.701596	1439.950000	393.892578	204.802338
11784.701596	1439.950000	392.616211	163.120850
11784.701596	1439.950000	391.339844	188.368912
11784.701596	1439.950000	390.062500	218.016510
11784.701596	1439.950000	388.785156	290.486389
11784.701596	1439.950000	387.507813	189.618683
11784.701596	1439.950000	386.229492	117.163445
11784.701596	1439.950000	384.951172	289.124146
11784.701596	1439.950000	383.672852	266.171692
11784.701596	1439.950000	382.394531	254.750946
11784.701596	1439.950000	381.115234	269.214325
11784.701596	1439.950000	379.835938	117.686966
11784.701596	1439.950000	378.556641	267.802795
11784.701596	1439.950000	377.277344	316.628906
11784.701596	1439.950000	375.997070	508.649994
11784.701596	1439.950000	374.716797	297.460510
11784.701596	1439.950000	373.435547	-62.782921
11784.701596	1439.950000	372.155273	172.890305
11784.701596	1439.950000	370.874023	376.668610
11784.701596	1439.950000	369.591797	258.877350
11784.701596	1439.950000	368.310547	37.547951
11784.701596	1439.950000	367.028320	78.810570
11784.701596	1439.950000	365.746094	272.437958
11784.701596	1439.950000	364.463867	132.745850
11784.701596	1439.950000	363.180664	52.096172
11784.701596	1439.950000	361.897461	87.826950
11784.701596	1439.950000	360.614258	208.762939
11784.701596	1439.950000	359.330078	75.442009
11784.701596	1439.950000	358.045898	79.873032
11784.701596	1439.950000	356.761719	195.663071
11784.701596	1439.950000	355.477539	212.541611
11784.701596	1439.950000	354.192383	154.396591
11784.701596	1439.950000	352.907227	28.434252
11784.701596	1439.950000	351.622070	18.446484
11784.701596	1439.950000	350.336914	36.036053
11784.701596	1439.950000	349.050781	69.197319
11784.701596	1439.950000	347.764648	148.921844
11784.701596	1439.950000	346.477539	19.959581
11784.701596	1439.950000	345.191406	32.939903
11784.701596	1439.950000	343.904297	-215.156342
11784.701596	1439.950000	342.616211	24.089617
11784.701596	1439.950000	341.329102	33.241005
11784.701596	1439.950000	340.041016	-242.445175
11784.701596	1439.950000	338.752930	178.398392
11784.701596	1439.950000	337.463867	-100.022972
11784.701596	1439.950000	336.175781	-53.612885
11784.701596	1439.950000	334.886719	-99.194351
11784.701596	1439.950000	333.596680	-108.260284
11784.701596	1439.950000	332.307617	92.863983
11784.701596	1439.950000	331.017578	-14.575975
11784.701596	1439.950000	329.727539	38.061016
11784.701596	1439.950000	328.436523	-32.326267
11784.701596	1439.950000	327.146484	-151.931076
11784.701596	1439.950000	325.855469	14.199059
11784.701596	1439.950000	324.563477	-197.022903
11784.701596	1439.950000	323.272461	-165.350510
11784.701596	1439.950000	321.980469	-166.568192
11784.701596	1439.950000	320.688477	-98.562843
11784.701596	1439.950000	319.395508	-265.325775
11784.701596	1439.950000	318.103516	-151.657578
11784.701596	1439.950000	316.810547	-18.907791
11784.701596	1439.950000	315.516602	-241.952850
11784.701596	1439.950000	314.223633	35.672771
11784.701596	1439.950000	312.929688	38.096478
11784.701596	1439.950000	311.635742	-25.884811
11784.701596	1439.950000	310.340820	161.237289
11784.701596	1439.950000	309.045898	59.036118
11784.701596	1439.950000	307.750977	150.929031
11784.701596	1439.950000	306.456055	254.344849
11784.701596	1439.950000	305.160156	108.652298
11784.701596	1439.950000	303.865234	379.369141
11784.701596	1439.950000	302.568359	448.133789
11784.701596	1439.950000	301.272461	514.027649
11784.701596	1439.950000	299.975586	652.531128
11784.701596	1439.950000	298.678711	768.984802
