#X		#Y		#Wave		#Intensity
12312.518617	1578.655000	1999.980469	-217.260925
12312.518617	1578.655000	1999.016602	-55.352947
12312.518617	1578.655000	1998.052734	18.896399
12312.518617	1578.655000	1997.087891	117.510887
12312.518617	1578.655000	1996.123047	-27.109686
12312.518617	1578.655000	1995.158203	-139.848648
12312.518617	1578.655000	1994.193359	66.591110
12312.518617	1578.655000	1993.228516	42.304348
12312.518617	1578.655000	1992.262695	-2.116723
12312.518617	1578.655000	1991.297852	39.777172
12312.518617	1578.655000	1990.332031	41.738266
12312.518617	1578.655000	1989.366211	-11.052178
12312.518617	1578.655000	1988.399414	57.101463
12312.518617	1578.655000	1987.433594	-97.686630
12312.518617	1578.655000	1986.466797	26.758287
12312.518617	1578.655000	1985.500977	192.910553
12312.518617	1578.655000	1984.534180	116.465858
12312.518617	1578.655000	1983.567383	277.072968
12312.518617	1578.655000	1982.599609	-24.749041
12312.518617	1578.655000	1981.632813	231.692383
12312.518617	1578.655000	1980.665039	13.504196
12312.518617	1578.655000	1979.697266	375.589447
12312.518617	1578.655000	1978.729492	38.478603
12312.518617	1578.655000	1977.761719	108.658928
12312.518617	1578.655000	1976.792969	32.970367
12312.518617	1578.655000	1975.825195	8.941137
12312.518617	1578.655000	1974.856445	34.084751
12312.518617	1578.655000	1973.887695	7.227440
12312.518617	1578.655000	1972.918945	83.803925
12312.518617	1578.655000	1971.949219	115.793068
12312.518617	1578.655000	1970.980469	-71.842270
12312.518617	1578.655000	1970.010742	-188.070618
12312.518617	1578.655000	1969.041016	-65.316589
12312.518617	1578.655000	1968.071289	62.177025
12312.518617	1578.655000	1967.101563	120.497360
12312.518617	1578.655000	1966.130859	50.564880
12312.518617	1578.655000	1965.161133	-14.540471
12312.518617	1578.655000	1964.190430	-175.781967
12312.518617	1578.655000	1963.219727	19.924580
12312.518617	1578.655000	1962.249023	173.601135
12312.518617	1578.655000	1961.277344	477.246033
12312.518617	1578.655000	1960.306641	207.336136
12312.518617	1578.655000	1959.334961	23.539244
12312.518617	1578.655000	1958.363281	201.311493
12312.518617	1578.655000	1957.391602	145.296295
12312.518617	1578.655000	1956.419922	172.823441
12312.518617	1578.655000	1955.447266	-16.076832
12312.518617	1578.655000	1954.474609	35.901089
12312.518617	1578.655000	1953.501953	-81.775665
12312.518617	1578.655000	1952.529297	323.880432
12312.518617	1578.655000	1951.556641	196.245468
12312.518617	1578.655000	1950.583984	34.217834
12312.518617	1578.655000	1949.610352	-95.880280
12312.518617	1578.655000	1948.636719	176.679260
12312.518617	1578.655000	1947.663086	149.610977
12312.518617	1578.655000	1946.689453	83.243484
12312.518617	1578.655000	1945.715820	156.731522
12312.518617	1578.655000	1944.741211	-56.890610
12312.518617	1578.655000	1943.767578	-69.321617
12312.518617	1578.655000	1942.792969	87.443130
12312.518617	1578.655000	1941.818359	77.386215
12312.518617	1578.655000	1940.842773	-47.915550
12312.518617	1578.655000	1939.868164	40.058640
12312.518617	1578.655000	1938.892578	186.795273
12312.518617	1578.655000	1937.916992	120.296188
12312.518617	1578.655000	1936.941406	-183.815063
12312.518617	1578.655000	1935.965820	-59.198227
12312.518617	1578.655000	1934.990234	38.427303
12312.518617	1578.655000	1934.013672	-28.032314
12312.518617	1578.655000	1933.037109	67.092339
12312.518617	1578.655000	1932.060547	-222.071716
12312.518617	1578.655000	1931.083984	-97.583099
12312.518617	1578.655000	1930.107422	2.396003
12312.518617	1578.655000	1929.129883	-95.793121
12312.518617	1578.655000	1928.153320	40.843075
12312.518617	1578.655000	1927.175781	126.084885
12312.518617	1578.655000	1926.198242	76.844315
12312.518617	1578.655000	1925.219727	59.405777
12312.518617	1578.655000	1924.242188	274.150116
12312.518617	1578.655000	1923.263672	7.484375
12312.518617	1578.655000	1922.285156	119.582932
12312.518617	1578.655000	1921.306641	-159.137024
12312.518617	1578.655000	1920.328125	-0.618697
12312.518617	1578.655000	1919.349609	-110.711647
12312.518617	1578.655000	1918.370117	86.830070
12312.518617	1578.655000	1917.391602	194.017471
12312.518617	1578.655000	1916.412109	-18.478973
12312.518617	1578.655000	1915.431641	5.775213
12312.518617	1578.655000	1914.452148	108.101242
12312.518617	1578.655000	1913.472656	117.737953
12312.518617	1578.655000	1912.492188	-179.839432
12312.518617	1578.655000	1911.511719	56.615795
12312.518617	1578.655000	1910.531250	98.014275
12312.518617	1578.655000	1909.550781	171.101578
12312.518617	1578.655000	1908.569336	-48.197021
12312.518617	1578.655000	1907.588867	107.769043
12312.518617	1578.655000	1906.607422	-13.958707
12312.518617	1578.655000	1905.625977	229.658920
12312.518617	1578.655000	1904.644531	-113.551704
12312.518617	1578.655000	1903.662109	-162.064835
12312.518617	1578.655000	1902.680664	105.862343
12312.518617	1578.655000	1901.698242	188.781143
12312.518617	1578.655000	1900.715820	108.692322
12312.518617	1578.655000	1899.733398	-17.555555
12312.518617	1578.655000	1898.750000	60.555393
12312.518617	1578.655000	1897.767578	150.822144
12312.518617	1578.655000	1896.784180	-11.749809
12312.518617	1578.655000	1895.800781	132.021576
12312.518617	1578.655000	1894.817383	40.041290
12312.518617	1578.655000	1893.833984	76.895004
12312.518617	1578.655000	1892.850586	57.888050
12312.518617	1578.655000	1891.866211	148.207153
12312.518617	1578.655000	1890.881836	-67.453285
12312.518617	1578.655000	1889.897461	171.006882
12312.518617	1578.655000	1888.913086	-22.681374
12312.518617	1578.655000	1887.927734	96.805374
12312.518617	1578.655000	1886.943359	235.683044
12312.518617	1578.655000	1885.958008	54.289352
12312.518617	1578.655000	1884.972656	103.418938
12312.518617	1578.655000	1883.987305	-22.059679
12312.518617	1578.655000	1883.001953	-123.224304
12312.518617	1578.655000	1882.015625	56.882240
12312.518617	1578.655000	1881.029297	-138.749344
12312.518617	1578.655000	1880.042969	179.460312
12312.518617	1578.655000	1879.056641	-134.805969
12312.518617	1578.655000	1878.070313	-274.521606
12312.518617	1578.655000	1877.083984	-96.888580
12312.518617	1578.655000	1876.096680	71.006294
12312.518617	1578.655000	1875.109375	137.167145
12312.518617	1578.655000	1874.122070	-38.744781
12312.518617	1578.655000	1873.134766	-71.787987
12312.518617	1578.655000	1872.146484	-225.793457
12312.518617	1578.655000	1871.159180	-53.128300
12312.518617	1578.655000	1870.170898	-6.297367
12312.518617	1578.655000	1869.182617	-44.117039
12312.518617	1578.655000	1868.194336	188.891205
12312.518617	1578.655000	1867.205078	-139.030426
12312.518617	1578.655000	1866.216797	21.411913
12312.518617	1578.655000	1865.227539	34.389172
12312.518617	1578.655000	1864.238281	221.324097
12312.518617	1578.655000	1863.249023	-161.897629
12312.518617	1578.655000	1862.259766	150.598892
12312.518617	1578.655000	1861.269531	33.157402
12312.518617	1578.655000	1860.279297	166.843155
12312.518617	1578.655000	1859.290039	-54.351849
12312.518617	1578.655000	1858.298828	-285.121857
12312.518617	1578.655000	1857.308594	145.330643
12312.518617	1578.655000	1856.318359	-27.498346
12312.518617	1578.655000	1855.327148	36.108871
12312.518617	1578.655000	1854.335938	29.749723
12312.518617	1578.655000	1853.344727	264.495331
12312.518617	1578.655000	1852.353516	265.310364
12312.518617	1578.655000	1851.362305	32.326477
12312.518617	1578.655000	1850.370117	-70.455505
12312.518617	1578.655000	1849.377930	67.717117
12312.518617	1578.655000	1848.385742	32.387115
12312.518617	1578.655000	1847.393555	13.915624
12312.518617	1578.655000	1846.401367	19.513380
12312.518617	1578.655000	1845.408203	-6.206578
12312.518617	1578.655000	1844.415039	247.279968
12312.518617	1578.655000	1843.421875	28.964035
12312.518617	1578.655000	1842.428711	46.508492
12312.518617	1578.655000	1841.435547	11.099660
12312.518617	1578.655000	1840.441406	100.750862
12312.518617	1578.655000	1839.448242	14.797114
12312.518617	1578.655000	1838.454102	44.256462
12312.518617	1578.655000	1837.459961	169.831955
12312.518617	1578.655000	1836.464844	139.109116
12312.518617	1578.655000	1835.470703	129.997345
12312.518617	1578.655000	1834.475586	-56.928848
12312.518617	1578.655000	1833.480469	-106.898918
12312.518617	1578.655000	1832.485352	95.285179
12312.518617	1578.655000	1831.490234	102.865448
12312.518617	1578.655000	1830.495117	-16.828211
12312.518617	1578.655000	1829.499023	213.919373
12312.518617	1578.655000	1828.502930	158.968781
12312.518617	1578.655000	1827.506836	135.190918
12312.518617	1578.655000	1826.510742	75.399117
12312.518617	1578.655000	1825.513672	27.579899
12312.518617	1578.655000	1824.517578	209.943298
12312.518617	1578.655000	1823.520508	-96.901764
12312.518617	1578.655000	1822.523438	-166.365936
12312.518617	1578.655000	1821.526367	375.288940
12312.518617	1578.655000	1820.529297	-53.755623
12312.518617	1578.655000	1819.531250	180.925171
12312.518617	1578.655000	1818.533203	46.597618
12312.518617	1578.655000	1817.535156	79.908112
12312.518617	1578.655000	1816.537109	132.308701
12312.518617	1578.655000	1815.539063	129.577637
12312.518617	1578.655000	1814.540039	150.727417
12312.518617	1578.655000	1813.541992	85.668343
12312.518617	1578.655000	1812.542969	56.463524
12312.518617	1578.655000	1811.543945	-180.898651
12312.518617	1578.655000	1810.543945	21.831413
12312.518617	1578.655000	1809.544922	-55.340744
12312.518617	1578.655000	1808.544922	161.515747
12312.518617	1578.655000	1807.544922	-1.828265
12312.518617	1578.655000	1806.544922	4.507136
12312.518617	1578.655000	1805.544922	166.088379
12312.518617	1578.655000	1804.544922	129.262192
12312.518617	1578.655000	1803.543945	18.339375
12312.518617	1578.655000	1802.542969	291.867523
12312.518617	1578.655000	1801.541992	195.148468
12312.518617	1578.655000	1800.541016	41.108078
12312.518617	1578.655000	1799.539063	140.042313
12312.518617	1578.655000	1798.538086	119.561684
12312.518617	1578.655000	1797.536133	63.229626
12312.518617	1578.655000	1796.534180	76.020950
12312.518617	1578.655000	1795.532227	-180.755600
12312.518617	1578.655000	1794.529297	58.449574
12312.518617	1578.655000	1793.527344	-43.414398
12312.518617	1578.655000	1792.524414	88.267090
12312.518617	1578.655000	1791.521484	-61.378418
12312.518617	1578.655000	1790.518555	320.280182
12312.518617	1578.655000	1789.514648	-24.847471
12312.518617	1578.655000	1788.511719	-98.403236
12312.518617	1578.655000	1787.507813	54.207302
12312.518617	1578.655000	1786.503906	-43.304859
12312.518617	1578.655000	1785.500000	166.206085
12312.518617	1578.655000	1784.496094	123.287354
12312.518617	1578.655000	1783.491211	66.022064
12312.518617	1578.655000	1782.486328	265.628418
12312.518617	1578.655000	1781.481445	34.559891
12312.518617	1578.655000	1780.476563	119.781738
12312.518617	1578.655000	1779.471680	212.020905
12312.518617	1578.655000	1778.465820	37.889530
12312.518617	1578.655000	1777.460938	141.822769
12312.518617	1578.655000	1776.455078	60.274853
12312.518617	1578.655000	1775.449219	273.276154
12312.518617	1578.655000	1774.442383	426.721741
12312.518617	1578.655000	1773.436523	-122.960304
12312.518617	1578.655000	1772.429688	-178.629837
12312.518617	1578.655000	1771.422852	-70.557838
12312.518617	1578.655000	1770.416016	267.622467
12312.518617	1578.655000	1769.409180	166.552261
12312.518617	1578.655000	1768.402344	316.936218
12312.518617	1578.655000	1767.394531	28.304714
12312.518617	1578.655000	1766.386719	-53.964333
12312.518617	1578.655000	1765.378906	62.900230
12312.518617	1578.655000	1764.371094	-0.558948
12312.518617	1578.655000	1763.362305	35.466511
12312.518617	1578.655000	1762.354492	-120.577652
12312.518617	1578.655000	1761.345703	-94.206261
12312.518617	1578.655000	1760.336914	185.553970
12312.518617	1578.655000	1759.328125	112.187187
12312.518617	1578.655000	1758.318359	50.591255
12312.518617	1578.655000	1757.308594	-67.901810
12312.518617	1578.655000	1756.299805	88.167305
12312.518617	1578.655000	1755.290039	-65.978882
12312.518617	1578.655000	1754.279297	49.599648
12312.518617	1578.655000	1753.269531	120.094498
12312.518617	1578.655000	1752.258789	67.454269
12312.518617	1578.655000	1751.249023	360.041840
12312.518617	1578.655000	1750.238281	-61.688618
12312.518617	1578.655000	1749.226563	136.040863
12312.518617	1578.655000	1748.215820	-58.762684
12312.518617	1578.655000	1747.204102	-109.438560
12312.518617	1578.655000	1746.193359	0.484517
12312.518617	1578.655000	1745.181641	81.915947
12312.518617	1578.655000	1744.168945	-44.632805
12312.518617	1578.655000	1743.157227	-3.560949
12312.518617	1578.655000	1742.144531	278.212311
12312.518617	1578.655000	1741.132813	45.194355
12312.518617	1578.655000	1740.120117	-98.154427
12312.518617	1578.655000	1739.106445	43.961689
12312.518617	1578.655000	1738.093750	-66.495193
12312.518617	1578.655000	1737.080078	-167.578873
12312.518617	1578.655000	1736.067383	-6.943069
12312.518617	1578.655000	1735.053711	19.130550
12312.518617	1578.655000	1734.040039	-23.263817
12312.518617	1578.655000	1733.025391	-339.148041
12312.518617	1578.655000	1732.011719	327.649139
12312.518617	1578.655000	1730.997070	-16.642857
12312.518617	1578.655000	1729.982422	46.613564
12312.518617	1578.655000	1728.967773	-158.731720
12312.518617	1578.655000	1727.952148	47.965088
12312.518617	1578.655000	1726.937500	117.954323
12312.518617	1578.655000	1725.921875	56.001740
12312.518617	1578.655000	1724.906250	-31.906912
12312.518617	1578.655000	1723.890625	-93.991974
12312.518617	1578.655000	1722.875000	-66.756981
12312.518617	1578.655000	1721.858398	42.685581
12312.518617	1578.655000	1720.841797	-113.726952
12312.518617	1578.655000	1719.825195	-96.193375
12312.518617	1578.655000	1718.808594	43.476196
12312.518617	1578.655000	1717.791992	-5.014655
12312.518617	1578.655000	1716.774414	26.303280
12312.518617	1578.655000	1715.756836	43.424465
12312.518617	1578.655000	1714.739258	-24.109579
12312.518617	1578.655000	1713.721680	4.576659
12312.518617	1578.655000	1712.704102	75.425110
12312.518617	1578.655000	1711.685547	235.351929
12312.518617	1578.655000	1710.667969	36.045914
12312.518617	1578.655000	1709.649414	127.692284
12312.518617	1578.655000	1708.630859	-109.241173
12312.518617	1578.655000	1707.611328	158.139969
12312.518617	1578.655000	1706.592773	-114.056862
12312.518617	1578.655000	1705.573242	-95.494644
12312.518617	1578.655000	1704.553711	-208.306778
12312.518617	1578.655000	1703.534180	39.796444
12312.518617	1578.655000	1702.513672	-47.398289
12312.518617	1578.655000	1701.494141	48.119648
12312.518617	1578.655000	1700.473633	-53.264603
12312.518617	1578.655000	1699.453125	11.595304
12312.518617	1578.655000	1698.432617	-96.930763
12312.518617	1578.655000	1697.412109	40.329800
12312.518617	1578.655000	1696.390625	-21.516354
12312.518617	1578.655000	1695.369141	80.400116
12312.518617	1578.655000	1694.347656	193.900299
12312.518617	1578.655000	1693.326172	211.363892
12312.518617	1578.655000	1692.304688	97.764343
12312.518617	1578.655000	1691.282227	304.493195
12312.518617	1578.655000	1690.260742	73.867439
12312.518617	1578.655000	1689.238281	168.167297
12312.518617	1578.655000	1688.214844	42.655167
12312.518617	1578.655000	1687.192383	342.406281
12312.518617	1578.655000	1686.168945	-75.264320
12312.518617	1578.655000	1685.146484	165.857559
12312.518617	1578.655000	1684.123047	86.862099
12312.518617	1578.655000	1683.099609	133.912582
12312.518617	1578.655000	1682.075195	503.015289
12312.518617	1578.655000	1681.051758	351.441620
12312.518617	1578.655000	1680.027344	230.183609
12312.518617	1578.655000	1679.002930	325.883392
12312.518617	1578.655000	1677.978516	255.864151
12312.518617	1578.655000	1676.953125	453.995239
12312.518617	1578.655000	1675.928711	428.154144
12312.518617	1578.655000	1674.903320	122.494553
12312.518617	1578.655000	1673.877930	206.139313
12312.518617	1578.655000	1672.852539	480.784760
12312.518617	1578.655000	1671.826172	314.893768
12312.518617	1578.655000	1670.800781	223.563156
12312.518617	1578.655000	1669.774414	539.780090
12312.518617	1578.655000	1668.748047	462.288879
12312.518617	1578.655000	1667.721680	615.256592
12312.518617	1578.655000	1666.694336	612.143921
12312.518617	1578.655000	1665.667969	448.411499
12312.518617	1578.655000	1664.640625	484.780518
12312.518617	1578.655000	1663.613281	609.485657
12312.518617	1578.655000	1662.585938	675.946106
12312.518617	1578.655000	1661.557617	653.950500
12312.518617	1578.655000	1660.530273	869.078979
12312.518617	1578.655000	1659.501953	695.864929
12312.518617	1578.655000	1658.473633	815.508179
12312.518617	1578.655000	1657.444336	883.926208
12312.518617	1578.655000	1656.416016	905.824585
12312.518617	1578.655000	1655.386719	665.187439
12312.518617	1578.655000	1654.358398	763.669739
12312.518617	1578.655000	1653.328125	732.025208
12312.518617	1578.655000	1652.298828	978.934082
12312.518617	1578.655000	1651.269531	652.436768
12312.518617	1578.655000	1650.239258	1089.458496
12312.518617	1578.655000	1649.208984	985.703247
12312.518617	1578.655000	1648.178711	981.697754
12312.518617	1578.655000	1647.148438	1063.468506
12312.518617	1578.655000	1646.117188	1142.843018
12312.518617	1578.655000	1645.086914	846.611389
12312.518617	1578.655000	1644.055664	888.852966
12312.518617	1578.655000	1643.024414	1035.328857
12312.518617	1578.655000	1641.992188	1281.334961
12312.518617	1578.655000	1640.960938	880.941101
12312.518617	1578.655000	1639.928711	1124.513550
12312.518617	1578.655000	1638.896484	1138.727417
12312.518617	1578.655000	1637.864258	1111.242310
12312.518617	1578.655000	1636.832031	1069.858032
12312.518617	1578.655000	1635.798828	961.345398
12312.518617	1578.655000	1634.766602	797.336792
12312.518617	1578.655000	1633.733398	996.553833
12312.518617	1578.655000	1632.699219	1216.478149
12312.518617	1578.655000	1631.666016	1195.822388
12312.518617	1578.655000	1630.632813	1071.124756
12312.518617	1578.655000	1629.598633	877.103149
12312.518617	1578.655000	1628.564453	1154.602661
12312.518617	1578.655000	1627.530273	967.550354
12312.518617	1578.655000	1626.495117	1060.080200
12312.518617	1578.655000	1625.460938	1328.119629
12312.518617	1578.655000	1624.425781	1208.073730
12312.518617	1578.655000	1623.390625	1399.764404
12312.518617	1578.655000	1622.355469	1201.259399
12312.518617	1578.655000	1621.319336	1261.303711
12312.518617	1578.655000	1620.284180	1422.866089
12312.518617	1578.655000	1619.248047	1390.562378
12312.518617	1578.655000	1618.211914	1432.081909
12312.518617	1578.655000	1617.174805	1773.372681
12312.518617	1578.655000	1616.138672	1369.811646
12312.518617	1578.655000	1615.101563	1466.635986
12312.518617	1578.655000	1614.065430	1521.958496
12312.518617	1578.655000	1613.027344	1724.715820
12312.518617	1578.655000	1611.990234	1832.958374
12312.518617	1578.655000	1610.953125	1812.175537
12312.518617	1578.655000	1609.915039	1683.157715
12312.518617	1578.655000	1608.876953	1874.257690
12312.518617	1578.655000	1607.838867	1837.390991
12312.518617	1578.655000	1606.800781	2056.037354
12312.518617	1578.655000	1605.761719	1899.504639
12312.518617	1578.655000	1604.723633	2141.096924
12312.518617	1578.655000	1603.684570	2076.659424
12312.518617	1578.655000	1602.644531	1793.767456
12312.518617	1578.655000	1601.605469	1897.322754
12312.518617	1578.655000	1600.566406	1704.295166
12312.518617	1578.655000	1599.526367	1768.787964
12312.518617	1578.655000	1598.486328	1883.839355
12312.518617	1578.655000	1597.446289	1812.764893
12312.518617	1578.655000	1596.405273	1856.593628
12312.518617	1578.655000	1595.365234	1955.568359
12312.518617	1578.655000	1594.324219	2020.077881
12312.518617	1578.655000	1593.283203	1753.997925
12312.518617	1578.655000	1592.242188	1786.454956
12312.518617	1578.655000	1591.200195	1795.970093
12312.518617	1578.655000	1590.159180	1881.248779
12312.518617	1578.655000	1589.117188	1872.465210
12312.518617	1578.655000	1588.075195	1650.418823
12312.518617	1578.655000	1587.032227	1772.457397
12312.518617	1578.655000	1585.990234	1541.430298
12312.518617	1578.655000	1584.947266	1833.150879
12312.518617	1578.655000	1583.904297	1870.414551
12312.518617	1578.655000	1582.861328	1644.204834
12312.518617	1578.655000	1581.818359	1663.255615
12312.518617	1578.655000	1580.775391	1826.642090
12312.518617	1578.655000	1579.731445	1806.804077
12312.518617	1578.655000	1578.687500	1757.259521
12312.518617	1578.655000	1577.643555	1865.732178
12312.518617	1578.655000	1576.598633	1864.349365
12312.518617	1578.655000	1575.554688	1943.117920
12312.518617	1578.655000	1574.509766	1827.441772
12312.518617	1578.655000	1573.464844	1794.209595
12312.518617	1578.655000	1572.419922	1799.924561
12312.518617	1578.655000	1571.374023	1791.966187
12312.518617	1578.655000	1570.329102	1690.358154
12312.518617	1578.655000	1569.283203	1659.690552
12312.518617	1578.655000	1568.237305	1542.263794
12312.518617	1578.655000	1567.191406	1799.624146
12312.518617	1578.655000	1566.144531	1707.459839
12312.518617	1578.655000	1565.098633	1498.938599
12312.518617	1578.655000	1564.051758	1587.379517
12312.518617	1578.655000	1563.004883	1650.744995
12312.518617	1578.655000	1561.957031	1182.350342
12312.518617	1578.655000	1560.910156	1522.021118
12312.518617	1578.655000	1559.862305	1318.629639
12312.518617	1578.655000	1558.814453	1069.768555
12312.518617	1578.655000	1557.766602	1286.318115
12312.518617	1578.655000	1556.718750	976.150269
12312.518617	1578.655000	1555.669922	1012.678833
12312.518617	1578.655000	1554.621094	910.236511
12312.518617	1578.655000	1553.573242	1056.311890
12312.518617	1578.655000	1552.523438	974.556641
12312.518617	1578.655000	1551.474609	938.481262
12312.518617	1578.655000	1550.424805	1066.465454
12312.518617	1578.655000	1549.375000	784.626709
12312.518617	1578.655000	1548.325195	814.866333
12312.518617	1578.655000	1547.275391	908.911926
12312.518617	1578.655000	1546.225586	855.090637
12312.518617	1578.655000	1545.174805	646.652893
12312.518617	1578.655000	1544.124023	579.418762
12312.518617	1578.655000	1543.073242	437.250488
12312.518617	1578.655000	1542.022461	736.354187
12312.518617	1578.655000	1540.970703	482.986420
12312.518617	1578.655000	1539.919922	450.295105
12312.518617	1578.655000	1538.868164	372.251556
12312.518617	1578.655000	1537.815430	578.331604
12312.518617	1578.655000	1536.763672	352.829041
12312.518617	1578.655000	1535.710938	334.176697
12312.518617	1578.655000	1534.659180	281.580048
12312.518617	1578.655000	1533.606445	258.605103
12312.518617	1578.655000	1532.552734	496.758850
12312.518617	1578.655000	1531.500000	358.211090
12312.518617	1578.655000	1530.446289	596.452148
12312.518617	1578.655000	1529.393555	709.944397
12312.518617	1578.655000	1528.338867	285.956726
12312.518617	1578.655000	1527.285156	454.085205
12312.518617	1578.655000	1526.231445	220.970062
12312.518617	1578.655000	1525.176758	466.314575
12312.518617	1578.655000	1524.122070	389.862640
12312.518617	1578.655000	1523.067383	-76.166260
12312.518617	1578.655000	1522.012695	-109.222488
12312.518617	1578.655000	1520.957031	251.924881
12312.518617	1578.655000	1519.901367	182.796646
12312.518617	1578.655000	1518.845703	306.245087
12312.518617	1578.655000	1517.790039	223.774826
12312.518617	1578.655000	1516.734375	284.023315
12312.518617	1578.655000	1515.677734	256.110687
12312.518617	1578.655000	1514.621094	189.867615
12312.518617	1578.655000	1513.564453	-9.679784
12312.518617	1578.655000	1512.507813	51.017979
12312.518617	1578.655000	1511.450195	303.973999
12312.518617	1578.655000	1510.393555	278.921967
12312.518617	1578.655000	1509.335938	240.432449
12312.518617	1578.655000	1508.278320	238.229965
12312.518617	1578.655000	1507.219727	220.326035
12312.518617	1578.655000	1506.162109	114.469086
12312.518617	1578.655000	1505.103516	-63.492165
12312.518617	1578.655000	1504.044922	88.365540
12312.518617	1578.655000	1502.986328	199.654083
12312.518617	1578.655000	1501.926758	516.387512
12312.518617	1578.655000	1500.868164	117.850098
12312.518617	1578.655000	1499.808594	362.530365
12312.518617	1578.655000	1498.749023	368.157532
12312.518617	1578.655000	1497.688477	446.062500
12312.518617	1578.655000	1496.628906	19.040237
12312.518617	1578.655000	1495.568359	-24.488165
12312.518617	1578.655000	1494.507813	112.422813
12312.518617	1578.655000	1493.447266	181.810745
12312.518617	1578.655000	1492.386719	-136.183304
12312.518617	1578.655000	1491.325195	91.143280
12312.518617	1578.655000	1490.263672	95.569481
12312.518617	1578.655000	1489.202148	-32.712887
12312.518617	1578.655000	1488.140625	257.872772
12312.518617	1578.655000	1487.079102	-83.932953
12312.518617	1578.655000	1486.016602	166.303589
12312.518617	1578.655000	1484.954102	-112.098267
12312.518617	1578.655000	1483.891602	59.584476
12312.518617	1578.655000	1482.829102	-67.753304
12312.518617	1578.655000	1481.765625	-28.536905
12312.518617	1578.655000	1480.702148	278.277069
12312.518617	1578.655000	1479.638672	-37.412655
12312.518617	1578.655000	1478.575195	112.261421
12312.518617	1578.655000	1477.511719	-110.835182
12312.518617	1578.655000	1476.447266	-136.125244
12312.518617	1578.655000	1475.382813	132.799164
12312.518617	1578.655000	1474.318359	390.629700
12312.518617	1578.655000	1473.253906	-78.602158
12312.518617	1578.655000	1472.189453	-15.825861
12312.518617	1578.655000	1471.124023	206.374268
12312.518617	1578.655000	1470.058594	231.196487
12312.518617	1578.655000	1468.993164	63.447617
12312.518617	1578.655000	1467.927734	187.030182
12312.518617	1578.655000	1466.861328	120.415024
12312.518617	1578.655000	1465.794922	-138.604462
12312.518617	1578.655000	1464.728516	102.165215
12312.518617	1578.655000	1463.662109	-2.043396
12312.518617	1578.655000	1462.594727	233.797653
12312.518617	1578.655000	1461.528320	-33.163956
12312.518617	1578.655000	1460.460938	-78.796158
12312.518617	1578.655000	1459.393555	128.183823
12312.518617	1578.655000	1458.326172	-0.807937
12312.518617	1578.655000	1457.257813	-6.328832
12312.518617	1578.655000	1456.189453	22.766777
12312.518617	1578.655000	1455.121094	57.482819
12312.518617	1578.655000	1454.052734	163.110321
12312.518617	1578.655000	1452.984375	-35.063587
12312.518617	1578.655000	1451.915039	-72.652390
12312.518617	1578.655000	1450.845703	198.152924
12312.518617	1578.655000	1449.776367	-161.960175
12312.518617	1578.655000	1448.707031	127.172310
12312.518617	1578.655000	1447.636719	-26.826267
12312.518617	1578.655000	1446.567383	13.797349
12312.518617	1578.655000	1445.497070	11.010708
12312.518617	1578.655000	1444.425781	-18.474958
12312.518617	1578.655000	1443.355469	-37.834942
12312.518617	1578.655000	1442.285156	371.009369
12312.518617	1578.655000	1441.213867	-67.851158
12312.518617	1578.655000	1440.142578	155.394943
12312.518617	1578.655000	1439.070313	-81.014771
12312.518617	1578.655000	1437.999023	260.682526
12312.518617	1578.655000	1436.926758	229.182907
12312.518617	1578.655000	1435.854492	112.543396
12312.518617	1578.655000	1434.782227	101.228630
12312.518617	1578.655000	1433.709961	33.425896
12312.518617	1578.655000	1432.636719	246.377365
12312.518617	1578.655000	1431.563477	371.504730
12312.518617	1578.655000	1430.490234	166.719833
12312.518617	1578.655000	1429.416992	68.301735
12312.518617	1578.655000	1428.343750	198.685699
12312.518617	1578.655000	1427.269531	329.829315
12312.518617	1578.655000	1426.195313	216.921158
12312.518617	1578.655000	1425.121094	79.755852
12312.518617	1578.655000	1424.046875	233.778381
12312.518617	1578.655000	1422.971680	234.386246
12312.518617	1578.655000	1421.896484	144.523346
12312.518617	1578.655000	1420.821289	414.566254
12312.518617	1578.655000	1419.746094	388.850586
12312.518617	1578.655000	1418.669922	274.358246
12312.518617	1578.655000	1417.594727	16.319658
12312.518617	1578.655000	1416.518555	17.464838
12312.518617	1578.655000	1415.442383	399.732941
12312.518617	1578.655000	1414.365234	186.106323
12312.518617	1578.655000	1413.289063	89.990181
12312.518617	1578.655000	1412.211914	-45.460716
12312.518617	1578.655000	1411.134766	-99.444489
12312.518617	1578.655000	1410.057617	292.938812
12312.518617	1578.655000	1408.979492	185.443588
12312.518617	1578.655000	1407.902344	-9.782082
12312.518617	1578.655000	1406.824219	-187.857681
12312.518617	1578.655000	1405.746094	398.174286
12312.518617	1578.655000	1404.666992	207.281555
12312.518617	1578.655000	1403.588867	99.488136
12312.518617	1578.655000	1402.509766	331.298523
12312.518617	1578.655000	1401.430664	278.972443
12312.518617	1578.655000	1400.351563	64.573753
12312.518617	1578.655000	1399.271484	360.279785
12312.518617	1578.655000	1398.192383	243.253860
12312.518617	1578.655000	1397.112305	288.482147
12312.518617	1578.655000	1396.031250	236.974121
12312.518617	1578.655000	1394.951172	357.117065
12312.518617	1578.655000	1393.871094	536.863831
12312.518617	1578.655000	1392.790039	464.032990
12312.518617	1578.655000	1391.708984	282.357697
12312.518617	1578.655000	1390.626953	242.287567
12312.518617	1578.655000	1389.545898	390.001617
12312.518617	1578.655000	1388.463867	317.665497
12312.518617	1578.655000	1387.381836	515.390747
12312.518617	1578.655000	1386.299805	772.077087
12312.518617	1578.655000	1385.217773	838.907410
12312.518617	1578.655000	1384.134766	578.990234
12312.518617	1578.655000	1383.051758	489.612335
12312.518617	1578.655000	1381.968750	442.163696
12312.518617	1578.655000	1380.885742	465.372070
12312.518617	1578.655000	1379.802734	814.590271
12312.518617	1578.655000	1378.718750	897.233948
12312.518617	1578.655000	1377.634766	989.392029
12312.518617	1578.655000	1376.550781	986.823547
12312.518617	1578.655000	1375.465820	1009.987305
12312.518617	1578.655000	1374.381836	935.606140
12312.518617	1578.655000	1373.296875	640.108276
12312.518617	1578.655000	1372.211914	561.925842
12312.518617	1578.655000	1371.126953	743.720337
12312.518617	1578.655000	1370.041016	756.542664
12312.518617	1578.655000	1368.955078	695.375671
12312.518617	1578.655000	1367.869141	625.366821
12312.518617	1578.655000	1366.783203	626.687256
12312.518617	1578.655000	1365.697266	534.847839
12312.518617	1578.655000	1364.610352	412.864990
12312.518617	1578.655000	1363.523438	642.390747
12312.518617	1578.655000	1362.436523	633.533630
12312.518617	1578.655000	1361.349609	297.472504
12312.518617	1578.655000	1360.261719	574.968262
12312.518617	1578.655000	1359.174805	380.803192
12312.518617	1578.655000	1358.086914	550.314575
12312.518617	1578.655000	1356.998047	347.306427
12312.518617	1578.655000	1355.910156	435.369141
12312.518617	1578.655000	1354.821289	490.779877
12312.518617	1578.655000	1353.732422	255.394897
12312.518617	1578.655000	1352.643555	322.297211
12312.518617	1578.655000	1351.554688	252.691025
12312.518617	1578.655000	1350.464844	373.330200
12312.518617	1578.655000	1349.375000	517.625183
12312.518617	1578.655000	1348.285156	568.045776
12312.518617	1578.655000	1347.195313	471.257111
12312.518617	1578.655000	1346.105469	426.449585
12312.518617	1578.655000	1345.014648	210.703659
12312.518617	1578.655000	1343.923828	312.724274
12312.518617	1578.655000	1342.833008	404.248779
12312.518617	1578.655000	1341.741211	584.193726
12312.518617	1578.655000	1340.650391	595.012268
12312.518617	1578.655000	1339.558594	631.909607
12312.518617	1578.655000	1338.466797	583.652832
12312.518617	1578.655000	1337.374023	588.037720
12312.518617	1578.655000	1336.282227	444.555786
12312.518617	1578.655000	1335.189453	455.764465
12312.518617	1578.655000	1334.096680	684.543762
12312.518617	1578.655000	1333.003906	655.552795
12312.518617	1578.655000	1331.910156	572.450989
12312.518617	1578.655000	1330.817383	646.092407
12312.518617	1578.655000	1329.723633	500.310577
12312.518617	1578.655000	1328.629883	911.803467
12312.518617	1578.655000	1327.535156	682.842102
12312.518617	1578.655000	1326.441406	845.512268
12312.518617	1578.655000	1325.346680	900.046631
12312.518617	1578.655000	1324.251953	978.418152
12312.518617	1578.655000	1323.156250	1154.294556
12312.518617	1578.655000	1322.061523	1142.913574
12312.518617	1578.655000	1320.965820	1406.711426
12312.518617	1578.655000	1319.870117	1221.078613
12312.518617	1578.655000	1318.774414	1203.205811
12312.518617	1578.655000	1317.678711	1205.765625
12312.518617	1578.655000	1316.582031	1102.205444
12312.518617	1578.655000	1315.485352	891.406128
12312.518617	1578.655000	1314.388672	936.811768
12312.518617	1578.655000	1313.291016	1012.932495
12312.518617	1578.655000	1312.194336	923.915039
12312.518617	1578.655000	1311.096680	663.108704
12312.518617	1578.655000	1309.999023	458.274719
12312.518617	1578.655000	1308.901367	592.447266
12312.518617	1578.655000	1307.802734	522.507751
12312.518617	1578.655000	1306.705078	454.496796
12312.518617	1578.655000	1305.606445	588.028015
12312.518617	1578.655000	1304.506836	372.932526
12312.518617	1578.655000	1303.408203	450.723236
12312.518617	1578.655000	1302.308594	515.158691
12312.518617	1578.655000	1301.208984	555.431213
12312.518617	1578.655000	1300.109375	576.313293
12312.518617	1578.655000	1299.009766	300.762726
12312.518617	1578.655000	1297.909180	392.151672
12312.518617	1578.655000	1296.808594	484.385284
12312.518617	1578.655000	1295.708008	500.210541
12312.518617	1578.655000	1294.607422	399.639984
12312.518617	1578.655000	1293.506836	536.106201
12312.518617	1578.655000	1292.405273	444.526398
12312.518617	1578.655000	1291.303711	181.311340
12312.518617	1578.655000	1290.202148	370.127930
12312.518617	1578.655000	1289.099609	179.571274
12312.518617	1578.655000	1287.998047	287.840576
12312.518617	1578.655000	1286.895508	212.658371
12312.518617	1578.655000	1285.792969	113.251663
12312.518617	1578.655000	1284.689453	277.559418
12312.518617	1578.655000	1283.586914	197.114548
12312.518617	1578.655000	1282.483398	321.093018
12312.518617	1578.655000	1281.379883	192.327133
12312.518617	1578.655000	1280.276367	179.343170
12312.518617	1578.655000	1279.171875	83.207214
12312.518617	1578.655000	1278.067383	-102.588341
12312.518617	1578.655000	1276.962891	17.488640
12312.518617	1578.655000	1275.858398	10.675376
12312.518617	1578.655000	1274.753906	101.185654
12312.518617	1578.655000	1273.648438	-24.605711
12312.518617	1578.655000	1272.542969	11.473228
12312.518617	1578.655000	1271.437500	80.634300
12312.518617	1578.655000	1270.331055	3.996551
12312.518617	1578.655000	1269.225586	-232.960526
12312.518617	1578.655000	1268.119141	90.894783
12312.518617	1578.655000	1267.012695	3.894486
12312.518617	1578.655000	1265.906250	-124.368721
12312.518617	1578.655000	1264.798828	12.777043
12312.518617	1578.655000	1263.691406	111.068008
12312.518617	1578.655000	1262.583984	-110.485138
12312.518617	1578.655000	1261.476563	40.880241
12312.518617	1578.655000	1260.368164	91.070457
12312.518617	1578.655000	1259.260742	54.224895
12312.518617	1578.655000	1258.152344	29.895508
12312.518617	1578.655000	1257.043945	60.314556
12312.518617	1578.655000	1255.934570	-80.525658
12312.518617	1578.655000	1254.825195	21.548527
12312.518617	1578.655000	1253.716797	78.099388
12312.518617	1578.655000	1252.606445	37.520008
12312.518617	1578.655000	1251.497070	110.421158
12312.518617	1578.655000	1250.387695	-41.329819
12312.518617	1578.655000	1249.277344	-2.724929
12312.518617	1578.655000	1248.166992	-1.840550
12312.518617	1578.655000	1247.055664	-48.912815
12312.518617	1578.655000	1245.945313	-18.197021
12312.518617	1578.655000	1244.833984	12.616810
12312.518617	1578.655000	1243.722656	-317.678558
12312.518617	1578.655000	1242.611328	-102.595802
12312.518617	1578.655000	1241.499023	-11.365191
12312.518617	1578.655000	1240.387695	-201.064255
12312.518617	1578.655000	1239.275391	-108.164261
12312.518617	1578.655000	1238.162109	-46.297020
12312.518617	1578.655000	1237.049805	57.815426
12312.518617	1578.655000	1235.936523	-176.546234
12312.518617	1578.655000	1234.823242	-81.415367
12312.518617	1578.655000	1233.709961	70.857498
12312.518617	1578.655000	1232.596680	246.919876
12312.518617	1578.655000	1231.482422	218.885239
12312.518617	1578.655000	1230.369141	321.478943
12312.518617	1578.655000	1229.253906	325.832306
12312.518617	1578.655000	1228.139648	215.595413
12312.518617	1578.655000	1227.025391	313.504791
12312.518617	1578.655000	1225.910156	389.160187
12312.518617	1578.655000	1224.794922	160.479614
12312.518617	1578.655000	1223.679688	101.048065
12312.518617	1578.655000	1222.563477	22.504396
12312.518617	1578.655000	1221.447266	89.684563
12312.518617	1578.655000	1220.331055	334.372864
12312.518617	1578.655000	1219.214844	197.445374
12312.518617	1578.655000	1218.098633	158.069229
12312.518617	1578.655000	1216.981445	181.879288
12312.518617	1578.655000	1215.864258	348.924530
12312.518617	1578.655000	1214.747070	219.907211
12312.518617	1578.655000	1213.629883	150.736694
12312.518617	1578.655000	1212.511719	-66.258881
12312.518617	1578.655000	1211.393555	-25.282383
12312.518617	1578.655000	1210.275391	29.034523
12312.518617	1578.655000	1209.157227	155.177368
12312.518617	1578.655000	1208.038086	58.712513
12312.518617	1578.655000	1206.918945	19.792669
12312.518617	1578.655000	1205.799805	192.536209
12312.518617	1578.655000	1204.680664	231.541946
12312.518617	1578.655000	1203.560547	111.130104
12312.518617	1578.655000	1202.441406	230.929459
12312.518617	1578.655000	1201.321289	236.803802
12312.518617	1578.655000	1200.200195	223.439789
12312.518617	1578.655000	1199.080078	-20.217173
12312.518617	1578.655000	1197.958984	154.102798
12312.518617	1578.655000	1196.837891	60.074203
12312.518617	1578.655000	1195.716797	57.141644
12312.518617	1578.655000	1194.594727	121.218872
12312.518617	1578.655000	1193.473633	245.048523
12312.518617	1578.655000	1192.351563	215.970474
12312.518617	1578.655000	1191.229492	9.583291
12312.518617	1578.655000	1190.106445	28.265450
12312.518617	1578.655000	1188.984375	6.851669
12312.518617	1578.655000	1187.861328	-50.400414
12312.518617	1578.655000	1186.738281	-96.446785
12312.518617	1578.655000	1185.614258	43.042103
12312.518617	1578.655000	1184.491211	-80.739334
12312.518617	1578.655000	1183.367188	-10.217326
12312.518617	1578.655000	1182.243164	88.259750
12312.518617	1578.655000	1181.119141	165.003784
12312.518617	1578.655000	1179.994141	122.551193
12312.518617	1578.655000	1178.869141	235.641617
12312.518617	1578.655000	1177.744141	194.958084
12312.518617	1578.655000	1176.619141	209.722656
12312.518617	1578.655000	1175.493164	284.872009
12312.518617	1578.655000	1174.368164	205.177536
12312.518617	1578.655000	1173.242188	299.645966
12312.518617	1578.655000	1172.115234	313.241425
12312.518617	1578.655000	1170.989258	250.993439
12312.518617	1578.655000	1169.862305	300.916260
12312.518617	1578.655000	1168.735352	272.623077
12312.518617	1578.655000	1167.608398	54.896542
12312.518617	1578.655000	1166.481445	105.880699
12312.518617	1578.655000	1165.353516	187.062683
12312.518617	1578.655000	1164.225586	-21.188282
12312.518617	1578.655000	1163.097656	130.041382
12312.518617	1578.655000	1161.968750	167.819748
12312.518617	1578.655000	1160.840820	19.396921
12312.518617	1578.655000	1159.711914	32.395821
12312.518617	1578.655000	1158.583008	-14.473242
12312.518617	1578.655000	1157.453125	15.448464
12312.518617	1578.655000	1156.324219	-58.179344
12312.518617	1578.655000	1155.194336	79.770767
12312.518617	1578.655000	1154.064453	87.807190
12312.518617	1578.655000	1152.933594	14.603142
12312.518617	1578.655000	1151.803711	-60.856030
12312.518617	1578.655000	1150.672852	-68.037010
12312.518617	1578.655000	1149.541992	31.758287
12312.518617	1578.655000	1148.411133	27.619343
12312.518617	1578.655000	1147.279297	-35.541584
12312.518617	1578.655000	1146.147461	-47.041855
12312.518617	1578.655000	1145.015625	26.525425
12312.518617	1578.655000	1143.883789	-13.903547
12312.518617	1578.655000	1142.750977	-12.279000
12312.518617	1578.655000	1141.619141	6.272153
12312.518617	1578.655000	1140.486328	-170.946152
12312.518617	1578.655000	1139.352539	-224.027161
12312.518617	1578.655000	1138.219727	-70.029053
12312.518617	1578.655000	1137.085938	-73.947037
12312.518617	1578.655000	1135.952148	-342.534424
12312.518617	1578.655000	1134.818359	-117.820793
12312.518617	1578.655000	1133.683594	-135.221558
12312.518617	1578.655000	1132.549805	-112.397850
12312.518617	1578.655000	1131.415039	-75.030922
12312.518617	1578.655000	1130.279297	-34.950260
12312.518617	1578.655000	1129.144531	44.587662
12312.518617	1578.655000	1128.008789	209.855392
12312.518617	1578.655000	1126.873047	198.339371
12312.518617	1578.655000	1125.737305	218.096054
12312.518617	1578.655000	1124.601563	152.435822
12312.518617	1578.655000	1123.464844	38.565842
12312.518617	1578.655000	1122.328125	169.394714
12312.518617	1578.655000	1121.191406	97.698639
12312.518617	1578.655000	1120.054688	184.564407
12312.518617	1578.655000	1118.916992	215.041748
12312.518617	1578.655000	1117.779297	142.499496
12312.518617	1578.655000	1116.641602	244.465851
12312.518617	1578.655000	1115.503906	163.645782
12312.518617	1578.655000	1114.365234	207.991180
12312.518617	1578.655000	1113.226563	39.975639
12312.518617	1578.655000	1112.087891	190.170349
12312.518617	1578.655000	1110.949219	96.090851
12312.518617	1578.655000	1109.809570	114.130264
12312.518617	1578.655000	1108.669922	250.980209
12312.518617	1578.655000	1107.530273	382.016602
12312.518617	1578.655000	1106.390625	344.767700
12312.518617	1578.655000	1105.250000	186.590332
12312.518617	1578.655000	1104.109375	52.222225
12312.518617	1578.655000	1102.968750	389.721985
12312.518617	1578.655000	1101.828125	104.237038
12312.518617	1578.655000	1100.686523	425.728455
12312.518617	1578.655000	1099.544922	274.878632
12312.518617	1578.655000	1098.403320	-4.033113
12312.518617	1578.655000	1097.261719	149.857468
12312.518617	1578.655000	1096.120117	410.482086
12312.518617	1578.655000	1094.977539	279.570068
12312.518617	1578.655000	1093.834961	207.241638
12312.518617	1578.655000	1092.691406	267.397949
12312.518617	1578.655000	1091.548828	210.506348
12312.518617	1578.655000	1090.405273	399.620026
12312.518617	1578.655000	1089.261719	267.796906
12312.518617	1578.655000	1088.118164	200.316422
12312.518617	1578.655000	1086.973633	525.115540
12312.518617	1578.655000	1085.829102	423.297424
12312.518617	1578.655000	1084.684570	363.064301
12312.518617	1578.655000	1083.540039	204.375244
12312.518617	1578.655000	1082.395508	249.690353
12312.518617	1578.655000	1081.250000	154.772583
12312.518617	1578.655000	1080.104492	194.087631
12312.518617	1578.655000	1078.958984	394.394440
12312.518617	1578.655000	1077.812500	287.510498
12312.518617	1578.655000	1076.666016	234.899765
12312.518617	1578.655000	1075.519531	362.458893
12312.518617	1578.655000	1074.373047	357.103088
12312.518617	1578.655000	1073.226563	54.223167
12312.518617	1578.655000	1072.079102	191.216415
12312.518617	1578.655000	1070.931641	161.728760
12312.518617	1578.655000	1069.784180	343.551422
12312.518617	1578.655000	1068.635742	176.908691
12312.518617	1578.655000	1067.487305	460.934021
12312.518617	1578.655000	1066.338867	188.309250
12312.518617	1578.655000	1065.190430	459.634216
12312.518617	1578.655000	1064.041992	499.683533
12312.518617	1578.655000	1062.892578	278.592438
12312.518617	1578.655000	1061.743164	342.208496
12312.518617	1578.655000	1060.593750	375.657959
12312.518617	1578.655000	1059.443359	114.236992
12312.518617	1578.655000	1058.292969	301.135162
12312.518617	1578.655000	1057.142578	100.379112
12312.518617	1578.655000	1055.992188	-1.727167
12312.518617	1578.655000	1054.841797	184.910355
12312.518617	1578.655000	1053.690430	192.849289
12312.518617	1578.655000	1052.539063	245.637955
12312.518617	1578.655000	1051.387695	22.462196
12312.518617	1578.655000	1050.235352	14.847265
12312.518617	1578.655000	1049.083984	-29.230152
12312.518617	1578.655000	1047.931641	114.452988
12312.518617	1578.655000	1046.778320	11.121455
12312.518617	1578.655000	1045.625977	154.898743
12312.518617	1578.655000	1044.472656	154.056427
12312.518617	1578.655000	1043.319336	-6.290330
12312.518617	1578.655000	1042.166016	-122.764236
12312.518617	1578.655000	1041.012695	34.185822
12312.518617	1578.655000	1039.858398	31.124731
12312.518617	1578.655000	1038.704102	-46.035244
12312.518617	1578.655000	1037.549805	-189.996872
12312.518617	1578.655000	1036.394531	-137.665146
12312.518617	1578.655000	1035.239258	-85.065109
12312.518617	1578.655000	1034.083984	-111.150528
12312.518617	1578.655000	1032.928711	-102.563591
12312.518617	1578.655000	1031.773438	59.804455
12312.518617	1578.655000	1030.617188	-74.780693
12312.518617	1578.655000	1029.460938	138.816330
12312.518617	1578.655000	1028.304688	-187.822067
12312.518617	1578.655000	1027.147461	36.112633
12312.518617	1578.655000	1025.991211	63.934189
12312.518617	1578.655000	1024.833984	-8.964410
12312.518617	1578.655000	1023.675781	109.872177
12312.518617	1578.655000	1022.518555	-107.052574
12312.518617	1578.655000	1021.360352	-29.623266
12312.518617	1578.655000	1020.202148	162.188431
12312.518617	1578.655000	1019.043945	30.044069
12312.518617	1578.655000	1017.884766	58.732292
12312.518617	1578.655000	1016.726563	71.395729
12312.518617	1578.655000	1015.567383	114.285080
12312.518617	1578.655000	1014.407227	96.477760
12312.518617	1578.655000	1013.248047	22.234848
12312.518617	1578.655000	1012.087891	-17.568228
12312.518617	1578.655000	1010.927734	189.814041
12312.518617	1578.655000	1009.767578	119.975853
12312.518617	1578.655000	1008.606445	118.964294
12312.518617	1578.655000	1007.446289	194.457870
12312.518617	1578.655000	1006.285156	319.138245
12312.518617	1578.655000	1005.123047	163.482300
12312.518617	1578.655000	1003.961914	58.619930
12312.518617	1578.655000	1002.799805	166.990372
12312.518617	1578.655000	1001.637695	473.768219
12312.518617	1578.655000	1000.475586	172.098419
12312.518617	1578.655000	999.312500	245.727966
12312.518617	1578.655000	998.149414	244.029831
12312.518617	1578.655000	996.986328	214.328644
12312.518617	1578.655000	995.823242	163.048691
12312.518617	1578.655000	994.659180	-55.033882
12312.518617	1578.655000	993.496094	22.787729
12312.518617	1578.655000	992.332031	17.331942
12312.518617	1578.655000	991.166992	4.890102
12312.518617	1578.655000	990.002930	58.383114
12312.518617	1578.655000	988.837891	-76.162819
12312.518617	1578.655000	987.672852	209.979095
12312.518617	1578.655000	986.506836	-78.527534
12312.518617	1578.655000	985.341797	24.320499
12312.518617	1578.655000	984.175781	0.927042
12312.518617	1578.655000	983.009766	79.557129
12312.518617	1578.655000	981.843750	29.616478
12312.518617	1578.655000	980.676758	60.034122
12312.518617	1578.655000	979.509766	24.176767
12312.518617	1578.655000	978.342773	-23.347733
12312.518617	1578.655000	977.175781	72.025520
12312.518617	1578.655000	976.007813	198.271317
12312.518617	1578.655000	974.839844	235.759445
12312.518617	1578.655000	973.671875	318.215881
12312.518617	1578.655000	972.503906	151.996567
12312.518617	1578.655000	971.334961	220.378891
12312.518617	1578.655000	970.166016	484.859680
12312.518617	1578.655000	968.997070	312.105408
12312.518617	1578.655000	967.828125	216.100830
12312.518617	1578.655000	966.658203	398.379120
12312.518617	1578.655000	965.488281	445.861053
12312.518617	1578.655000	964.318359	265.863464
12312.518617	1578.655000	963.148438	238.773453
12312.518617	1578.655000	961.977539	145.294968
12312.518617	1578.655000	960.806641	437.042236
12312.518617	1578.655000	959.635742	311.501038
12312.518617	1578.655000	958.463867	430.384979
12312.518617	1578.655000	957.292969	169.478943
12312.518617	1578.655000	956.121094	-11.189679
12312.518617	1578.655000	954.948242	238.723175
12312.518617	1578.655000	953.776367	138.756485
12312.518617	1578.655000	952.603516	35.232372
12312.518617	1578.655000	951.430664	300.543579
12312.518617	1578.655000	950.257813	372.340881
12312.518617	1578.655000	949.084961	31.011366
12312.518617	1578.655000	947.911133	23.344576
12312.518617	1578.655000	946.737305	236.402283
12312.518617	1578.655000	945.563477	42.975876
12312.518617	1578.655000	944.388672	104.543266
12312.518617	1578.655000	943.213867	168.581329
12312.518617	1578.655000	942.039063	259.631470
12312.518617	1578.655000	940.864258	74.831688
12312.518617	1578.655000	939.688477	182.565125
12312.518617	1578.655000	938.513672	117.274620
12312.518617	1578.655000	937.337891	388.469147
12312.518617	1578.655000	936.161133	122.771019
12312.518617	1578.655000	934.985352	366.126190
12312.518617	1578.655000	933.808594	496.543457
12312.518617	1578.655000	932.631836	385.307495
12312.518617	1578.655000	931.454102	391.253326
12312.518617	1578.655000	930.277344	606.724487
12312.518617	1578.655000	929.099609	389.433716
12312.518617	1578.655000	927.921875	471.328796
12312.518617	1578.655000	926.743164	399.036713
12312.518617	1578.655000	925.565430	451.006592
12312.518617	1578.655000	924.386719	348.793732
12312.518617	1578.655000	923.208008	481.181946
12312.518617	1578.655000	922.028320	236.403580
12312.518617	1578.655000	920.849609	191.706696
12312.518617	1578.655000	919.669922	195.932587
12312.518617	1578.655000	919.474609	182.190094
12312.518617	1578.655000	918.309570	31.725321
12312.518617	1578.655000	917.143555	278.783936
12312.518617	1578.655000	915.977539	171.971100
12312.518617	1578.655000	914.810547	223.652771
12312.518617	1578.655000	913.644531	188.036209
12312.518617	1578.655000	912.477539	193.741730
12312.518617	1578.655000	911.310547	52.532753
12312.518617	1578.655000	910.143555	246.397766
12312.518617	1578.655000	908.975586	245.153793
12312.518617	1578.655000	907.807617	42.034996
12312.518617	1578.655000	906.639648	88.958542
12312.518617	1578.655000	905.471680	188.581848
12312.518617	1578.655000	904.303711	171.233246
12312.518617	1578.655000	903.134766	231.803879
12312.518617	1578.655000	901.965820	118.180252
12312.518617	1578.655000	900.796875	25.204348
12312.518617	1578.655000	899.626953	154.438141
12312.518617	1578.655000	898.457031	276.732056
12312.518617	1578.655000	897.287109	-40.649120
12312.518617	1578.655000	896.117188	47.264492
12312.518617	1578.655000	894.947266	119.105843
12312.518617	1578.655000	893.776367	115.392860
12312.518617	1578.655000	892.605469	-144.564026
12312.518617	1578.655000	891.434570	25.580990
12312.518617	1578.655000	890.262695	-135.946198
12312.518617	1578.655000	889.091797	212.432251
12312.518617	1578.655000	887.919922	311.494141
12312.518617	1578.655000	886.748047	-78.581932
12312.518617	1578.655000	885.575195	-169.180481
12312.518617	1578.655000	884.403320	-51.872051
12312.518617	1578.655000	883.230469	195.565384
12312.518617	1578.655000	882.057617	168.859283
12312.518617	1578.655000	880.883789	-86.157204
12312.518617	1578.655000	879.710938	35.546070
12312.518617	1578.655000	878.537109	177.727112
12312.518617	1578.655000	877.362305	-120.530090
12312.518617	1578.655000	876.188477	-94.748070
12312.518617	1578.655000	875.013672	51.891632
12312.518617	1578.655000	873.839844	100.399727
12312.518617	1578.655000	872.664063	-120.139786
12312.518617	1578.655000	871.489258	-37.452488
12312.518617	1578.655000	870.313477	-102.938820
12312.518617	1578.655000	869.138672	-49.938564
12312.518617	1578.655000	867.962891	66.809891
12312.518617	1578.655000	866.786133	30.907064
12312.518617	1578.655000	865.610352	-137.066864
12312.518617	1578.655000	864.433594	54.712143
12312.518617	1578.655000	863.256836	80.242142
12312.518617	1578.655000	862.079102	237.735855
12312.518617	1578.655000	860.902344	208.584076
12312.518617	1578.655000	859.724609	152.134155
12312.518617	1578.655000	858.546875	-47.584591
12312.518617	1578.655000	857.368164	-149.462051
12312.518617	1578.655000	856.190430	176.062592
12312.518617	1578.655000	855.011719	-3.127364
12312.518617	1578.655000	853.833008	-91.364830
12312.518617	1578.655000	852.654297	-159.135269
12312.518617	1578.655000	851.474609	36.594158
12312.518617	1578.655000	850.294922	207.246414
12312.518617	1578.655000	849.115234	-51.312439
12312.518617	1578.655000	847.935547	42.073734
12312.518617	1578.655000	846.754883	-111.975403
12312.518617	1578.655000	845.575195	38.077717
12312.518617	1578.655000	844.393555	15.642130
12312.518617	1578.655000	843.212891	-306.202271
12312.518617	1578.655000	842.032227	-104.094620
12312.518617	1578.655000	840.850586	-273.909515
12312.518617	1578.655000	839.668945	32.347363
12312.518617	1578.655000	838.486328	-60.406609
12312.518617	1578.655000	837.304688	9.998116
12312.518617	1578.655000	836.122070	35.049770
12312.518617	1578.655000	834.939453	130.283722
12312.518617	1578.655000	833.756836	-59.857883
12312.518617	1578.655000	832.573242	-191.075912
12312.518617	1578.655000	831.389648	-134.388718
12312.518617	1578.655000	830.206055	230.028687
12312.518617	1578.655000	829.022461	-113.907921
12312.518617	1578.655000	827.838867	-98.048393
12312.518617	1578.655000	826.654297	116.809570
12312.518617	1578.655000	825.469727	112.225838
12312.518617	1578.655000	824.284180	12.675123
12312.518617	1578.655000	823.099609	299.641754
12312.518617	1578.655000	821.914063	-12.367953
12312.518617	1578.655000	820.728516	-17.005035
12312.518617	1578.655000	819.542969	165.821045
12312.518617	1578.655000	818.356445	244.665955
12312.518617	1578.655000	817.169922	-125.867401
12312.518617	1578.655000	815.983398	61.316383
12312.518617	1578.655000	814.796875	-94.659950
12312.518617	1578.655000	813.609375	-65.560173
12312.518617	1578.655000	812.422852	19.902088
12312.518617	1578.655000	811.235352	62.451515
12312.518617	1578.655000	810.046875	-264.878082
12312.518617	1578.655000	808.859375	174.480988
12312.518617	1578.655000	807.670898	29.801170
12312.518617	1578.655000	806.482422	103.766533
12312.518617	1578.655000	805.293945	13.187283
12312.518617	1578.655000	804.104492	-90.894882
12312.518617	1578.655000	802.915039	178.922928
12312.518617	1578.655000	801.725586	-17.530537
12312.518617	1578.655000	800.536133	53.984604
12312.518617	1578.655000	799.345703	21.900564
12312.518617	1578.655000	798.155273	77.570496
12312.518617	1578.655000	796.964844	38.688381
12312.518617	1578.655000	795.774414	6.541927
12312.518617	1578.655000	794.583008	242.018326
12312.518617	1578.655000	793.392578	333.456329
12312.518617	1578.655000	792.200195	325.911682
12312.518617	1578.655000	791.008789	-12.067634
12312.518617	1578.655000	789.816406	90.512726
12312.518617	1578.655000	788.625000	190.770981
12312.518617	1578.655000	787.432617	160.674011
12312.518617	1578.655000	786.239258	-73.808914
12312.518617	1578.655000	785.046875	185.744293
12312.518617	1578.655000	783.853516	-71.160599
12312.518617	1578.655000	782.660156	-49.687725
12312.518617	1578.655000	781.465820	-79.867203
12312.518617	1578.655000	780.272461	42.486946
12312.518617	1578.655000	779.078125	-133.563095
12312.518617	1578.655000	777.883789	118.748329
12312.518617	1578.655000	776.688477	216.218124
12312.518617	1578.655000	775.494141	232.912384
12312.518617	1578.655000	774.298828	63.550262
12312.518617	1578.655000	773.103516	203.433685
12312.518617	1578.655000	771.907227	25.113314
12312.518617	1578.655000	770.711914	26.007057
12312.518617	1578.655000	769.515625	199.287933
12312.518617	1578.655000	768.318359	103.801163
12312.518617	1578.655000	767.122070	-99.126984
12312.518617	1578.655000	765.924805	107.523010
12312.518617	1578.655000	764.727539	-59.601036
12312.518617	1578.655000	763.530273	10.420401
12312.518617	1578.655000	762.333008	174.303711
12312.518617	1578.655000	761.134766	112.239914
12312.518617	1578.655000	759.936523	152.996109
12312.518617	1578.655000	758.738281	77.468369
12312.518617	1578.655000	757.540039	71.203171
12312.518617	1578.655000	756.340820	9.043758
12312.518617	1578.655000	755.141602	-55.367641
12312.518617	1578.655000	753.942383	58.862129
12312.518617	1578.655000	752.742188	90.388710
12312.518617	1578.655000	751.541992	90.605423
12312.518617	1578.655000	750.341797	-14.119965
12312.518617	1578.655000	749.141602	148.916275
12312.518617	1578.655000	747.941406	164.599503
12312.518617	1578.655000	746.740234	104.394745
12312.518617	1578.655000	745.539063	-7.120877
12312.518617	1578.655000	744.337891	318.345245
12312.518617	1578.655000	743.135742	142.094910
12312.518617	1578.655000	741.933594	-9.615882
12312.518617	1578.655000	740.731445	224.149979
12312.518617	1578.655000	739.529297	419.899963
12312.518617	1578.655000	738.326172	317.077393
12312.518617	1578.655000	737.124023	196.434174
12312.518617	1578.655000	735.919922	601.184631
12312.518617	1578.655000	734.716797	520.495667
12312.518617	1578.655000	733.513672	604.462891
12312.518617	1578.655000	732.309570	886.356506
12312.518617	1578.655000	731.105469	740.997437
12312.518617	1578.655000	729.900391	800.247620
12312.518617	1578.655000	728.696289	774.929871
12312.518617	1578.655000	727.491211	613.966858
12312.518617	1578.655000	726.286133	644.156006
12312.518617	1578.655000	725.080078	400.964752
12312.518617	1578.655000	723.874023	337.770752
12312.518617	1578.655000	722.668945	403.375732
12312.518617	1578.655000	721.461914	277.921295
12312.518617	1578.655000	720.255859	70.317108
12312.518617	1578.655000	719.048828	177.947052
12312.518617	1578.655000	717.841797	365.370758
12312.518617	1578.655000	716.634766	224.276459
12312.518617	1578.655000	715.427734	185.230347
12312.518617	1578.655000	714.219727	354.624237
12312.518617	1578.655000	713.011719	377.541382
12312.518617	1578.655000	711.803711	409.260864
12312.518617	1578.655000	710.594727	75.189102
12312.518617	1578.655000	709.385742	284.125275
12312.518617	1578.655000	708.176758	125.134697
12312.518617	1578.655000	706.967773	207.598022
12312.518617	1578.655000	705.758789	425.062012
12312.518617	1578.655000	704.548828	270.396667
12312.518617	1578.655000	703.338867	215.354691
12312.518617	1578.655000	702.127930	67.320671
12312.518617	1578.655000	700.917969	63.121658
12312.518617	1578.655000	699.707031	100.899071
12312.518617	1578.655000	698.496094	56.764172
12312.518617	1578.655000	697.285156	47.970795
12312.518617	1578.655000	696.073242	240.314529
12312.518617	1578.655000	694.861328	10.322827
12312.518617	1578.655000	693.649414	131.756393
12312.518617	1578.655000	692.436523	169.116776
12312.518617	1578.655000	691.224609	120.250374
12312.518617	1578.655000	690.011719	75.761856
12312.518617	1578.655000	688.798828	307.247314
12312.518617	1578.655000	687.584961	209.634918
12312.518617	1578.655000	686.372070	19.302757
12312.518617	1578.655000	685.158203	54.076839
12312.518617	1578.655000	683.943359	185.850647
12312.518617	1578.655000	682.729492	299.865875
12312.518617	1578.655000	681.514648	329.969757
12312.518617	1578.655000	680.299805	419.532288
12312.518617	1578.655000	679.084961	361.303589
12312.518617	1578.655000	677.869141	450.702728
12312.518617	1578.655000	676.653320	429.831329
12312.518617	1578.655000	675.437500	356.038177
12312.518617	1578.655000	674.221680	476.042206
12312.518617	1578.655000	673.004883	417.565155
12312.518617	1578.655000	671.789063	328.234406
12312.518617	1578.655000	670.571289	263.091614
12312.518617	1578.655000	669.354492	233.131744
12312.518617	1578.655000	668.136719	84.312531
12312.518617	1578.655000	666.919922	118.081131
12312.518617	1578.655000	665.701172	446.481659
12312.518617	1578.655000	664.483398	290.943237
12312.518617	1578.655000	663.264648	73.856949
12312.518617	1578.655000	662.045898	379.909058
12312.518617	1578.655000	660.827148	305.617493
12312.518617	1578.655000	659.608398	211.528534
12312.518617	1578.655000	658.388672	216.264938
12312.518617	1578.655000	657.168945	482.274933
12312.518617	1578.655000	655.949219	337.541382
12312.518617	1578.655000	654.728516	126.958420
12312.518617	1578.655000	653.507813	276.336792
12312.518617	1578.655000	652.287109	320.275635
12312.518617	1578.655000	651.066406	438.730438
12312.518617	1578.655000	649.844727	436.449829
12312.518617	1578.655000	648.623047	554.722229
12312.518617	1578.655000	647.401367	534.774841
12312.518617	1578.655000	646.179688	427.110077
12312.518617	1578.655000	644.957031	681.021362
12312.518617	1578.655000	643.734375	630.231995
12312.518617	1578.655000	642.511719	434.842224
12312.518617	1578.655000	641.289063	511.049866
12312.518617	1578.655000	640.065430	652.861145
12312.518617	1578.655000	638.841797	516.547485
12312.518617	1578.655000	637.618164	780.766724
12312.518617	1578.655000	636.393555	410.252533
12312.518617	1578.655000	635.168945	269.559723
12312.518617	1578.655000	633.944336	286.362762
12312.518617	1578.655000	632.719727	152.225922
12312.518617	1578.655000	631.494141	376.657227
12312.518617	1578.655000	630.269531	203.126190
12312.518617	1578.655000	629.042969	294.052887
12312.518617	1578.655000	627.817383	28.758108
12312.518617	1578.655000	626.590820	167.659454
12312.518617	1578.655000	625.365234	273.706268
12312.518617	1578.655000	624.137695	159.123001
12312.518617	1578.655000	622.911133	-5.656824
12312.518617	1578.655000	621.683594	84.958046
12312.518617	1578.655000	620.456055	107.852020
12312.518617	1578.655000	619.228516	-98.377304
12312.518617	1578.655000	618.000977	-7.906726
12312.518617	1578.655000	616.772461	-96.334793
12312.518617	1578.655000	615.543945	-25.595291
12312.518617	1578.655000	614.314453	132.271820
12312.518617	1578.655000	613.085938	-102.243378
12312.518617	1578.655000	611.856445	88.195198
12312.518617	1578.655000	610.626953	-30.815798
12312.518617	1578.655000	609.397461	-8.234323
12312.518617	1578.655000	608.166992	12.128152
12312.518617	1578.655000	606.936523	23.749233
12312.518617	1578.655000	605.706055	-151.848526
12312.518617	1578.655000	604.474609	-96.727577
12312.518617	1578.655000	603.244141	-113.446266
12312.518617	1578.655000	602.012695	-162.811264
12312.518617	1578.655000	600.780273	-64.297073
12312.518617	1578.655000	599.548828	29.811533
12312.518617	1578.655000	598.316406	219.505692
12312.518617	1578.655000	597.083984	-92.944786
12312.518617	1578.655000	595.851563	48.858753
12312.518617	1578.655000	594.618164	34.167309
12312.518617	1578.655000	593.384766	-21.799028
12312.518617	1578.655000	592.151367	-199.358398
12312.518617	1578.655000	590.917969	-426.787903
12312.518617	1578.655000	589.683594	-11.639295
12312.518617	1578.655000	588.449219	138.567383
12312.518617	1578.655000	587.214844	-38.916637
12312.518617	1578.655000	585.979492	-27.614750
12312.518617	1578.655000	584.745117	9.707111
12312.518617	1578.655000	583.509766	-72.250984
12312.518617	1578.655000	582.273438	-147.677246
12312.518617	1578.655000	581.038086	28.345041
12312.518617	1578.655000	579.801758	52.604813
12312.518617	1578.655000	578.565430	-113.789032
12312.518617	1578.655000	577.329102	-111.165321
12312.518617	1578.655000	576.091797	-60.900871
12312.518617	1578.655000	574.854492	149.560455
12312.518617	1578.655000	573.617188	98.023628
12312.518617	1578.655000	572.378906	-40.052208
12312.518617	1578.655000	571.141602	27.490776
12312.518617	1578.655000	569.903320	-28.290787
12312.518617	1578.655000	568.664063	-254.896576
12312.518617	1578.655000	567.425781	-22.987169
12312.518617	1578.655000	566.186523	-48.422882
12312.518617	1578.655000	564.947266	-71.671082
12312.518617	1578.655000	563.708008	-99.213928
12312.518617	1578.655000	562.467773	-107.287521
12312.518617	1578.655000	561.227539	38.018623
12312.518617	1578.655000	559.987305	-82.335281
12312.518617	1578.655000	558.747070	103.966423
12312.518617	1578.655000	557.505859	102.412285
12312.518617	1578.655000	556.264648	-54.502357
12312.518617	1578.655000	555.023438	2.283238
12312.518617	1578.655000	553.781250	156.141434
12312.518617	1578.655000	552.539063	195.653412
12312.518617	1578.655000	551.296875	204.990204
12312.518617	1578.655000	550.054688	188.483032
12312.518617	1578.655000	548.811523	215.116577
12312.518617	1578.655000	547.569336	112.481384
12312.518617	1578.655000	546.325195	74.548927
12312.518617	1578.655000	545.082031	96.981651
12312.518617	1578.655000	543.837891	37.603386
12312.518617	1578.655000	542.593750	-62.621277
12312.518617	1578.655000	541.349609	188.105499
12312.518617	1578.655000	540.105469	124.553185
12312.518617	1578.655000	538.860352	153.584473
12312.518617	1578.655000	537.615234	79.386368
12312.518617	1578.655000	536.369141	192.372330
12312.518617	1578.655000	535.124023	81.725761
12312.518617	1578.655000	533.877930	72.207298
12312.518617	1578.655000	532.631836	-145.751221
12312.518617	1578.655000	531.384766	139.265625
12312.518617	1578.655000	530.138672	-108.603142
12312.518617	1578.655000	528.891602	-100.714935
12312.518617	1578.655000	527.643555	-19.771206
12312.518617	1578.655000	526.396484	117.010239
12312.518617	1578.655000	525.148438	105.662727
12312.518617	1578.655000	523.900391	160.897812
12312.518617	1578.655000	522.652344	437.161194
12312.518617	1578.655000	521.403320	492.394592
12312.518617	1578.655000	520.154297	358.915741
12312.518617	1578.655000	518.905273	292.014862
12312.518617	1578.655000	517.656250	355.966553
12312.518617	1578.655000	516.406250	94.144112
12312.518617	1578.655000	515.156250	220.350204
12312.518617	1578.655000	513.906250	402.254730
12312.518617	1578.655000	512.655273	376.355896
12312.518617	1578.655000	511.404297	241.298813
12312.518617	1578.655000	510.153320	290.480743
12312.518617	1578.655000	508.902344	164.160141
12312.518617	1578.655000	507.650391	136.385849
12312.518617	1578.655000	506.398438	194.259598
12312.518617	1578.655000	505.146484	309.914612
12312.518617	1578.655000	503.893555	361.401581
12312.518617	1578.655000	502.641602	137.073181
12312.518617	1578.655000	501.388672	195.080154
12312.518617	1578.655000	500.134766	501.040833
12312.518617	1578.655000	498.881836	370.982239
12312.518617	1578.655000	497.627930	258.111603
12312.518617	1578.655000	496.374023	296.987701
12312.518617	1578.655000	495.119141	406.358002
12312.518617	1578.655000	493.865234	541.342590
12312.518617	1578.655000	492.610352	716.862488
12312.518617	1578.655000	491.355469	864.597839
12312.518617	1578.655000	490.099609	692.244202
12312.518617	1578.655000	488.843750	844.251953
12312.518617	1578.655000	487.587891	689.101440
12312.518617	1578.655000	486.332031	1013.820923
12312.518617	1578.655000	485.075195	1007.983337
12312.518617	1578.655000	483.818359	1098.086304
12312.518617	1578.655000	482.561523	904.753479
12312.518617	1578.655000	481.304688	1137.621704
12312.518617	1578.655000	480.046875	1123.318115
12312.518617	1578.655000	478.789063	1294.306763
12312.518617	1578.655000	477.531250	1224.642090
12312.518617	1578.655000	476.272461	1091.151001
12312.518617	1578.655000	475.013672	951.335876
12312.518617	1578.655000	473.754883	907.329041
12312.518617	1578.655000	472.496094	997.356140
12312.518617	1578.655000	471.236328	1131.996582
12312.518617	1578.655000	469.976563	1007.151428
12312.518617	1578.655000	468.716797	946.120117
12312.518617	1578.655000	467.456055	1040.250000
12312.518617	1578.655000	466.196289	1002.567505
12312.518617	1578.655000	464.935547	1243.181396
12312.518617	1578.655000	463.673828	1065.213501
12312.518617	1578.655000	462.413086	982.846130
12312.518617	1578.655000	461.151367	1165.860107
12312.518617	1578.655000	459.889648	818.071228
12312.518617	1578.655000	458.626953	983.953918
12312.518617	1578.655000	457.364258	1092.414551
12312.518617	1578.655000	456.101563	708.612732
12312.518617	1578.655000	454.838867	757.555847
12312.518617	1578.655000	453.575195	842.440063
12312.518617	1578.655000	452.312500	1005.638916
12312.518617	1578.655000	451.047852	876.176392
12312.518617	1578.655000	449.784180	1072.998413
12312.518617	1578.655000	448.519531	886.159912
12312.518617	1578.655000	447.254883	1016.999084
12312.518617	1578.655000	445.990234	1107.419067
12312.518617	1578.655000	444.725586	833.506226
12312.518617	1578.655000	443.459961	904.590576
12312.518617	1578.655000	442.194336	1068.606567
12312.518617	1578.655000	440.927734	1242.964478
12312.518617	1578.655000	439.662109	1027.850708
12312.518617	1578.655000	438.395508	1199.669678
12312.518617	1578.655000	437.127930	1153.430542
12312.518617	1578.655000	435.861328	1145.061646
12312.518617	1578.655000	434.593750	882.855408
12312.518617	1578.655000	433.326172	1030.472412
12312.518617	1578.655000	432.058594	1053.143555
12312.518617	1578.655000	430.790039	1079.775391
12312.518617	1578.655000	429.521484	1055.453979
12312.518617	1578.655000	428.252930	1212.435547
12312.518617	1578.655000	426.984375	1176.979858
12312.518617	1578.655000	425.714844	1291.068359
12312.518617	1578.655000	424.445313	1210.684937
12312.518617	1578.655000	423.174805	1043.516724
12312.518617	1578.655000	421.905273	1063.781250
12312.518617	1578.655000	420.634766	1265.005371
12312.518617	1578.655000	419.364258	1187.507324
12312.518617	1578.655000	418.092773	1145.477661
12312.518617	1578.655000	416.822266	1284.281616
12312.518617	1578.655000	415.550781	1567.958984
12312.518617	1578.655000	414.278320	1511.965820
12312.518617	1578.655000	413.006836	1453.445679
12312.518617	1578.655000	411.734375	1352.363525
12312.518617	1578.655000	410.461914	1400.277954
12312.518617	1578.655000	409.188477	1249.840820
12312.518617	1578.655000	407.916016	1016.896057
12312.518617	1578.655000	406.642578	1313.570679
12312.518617	1578.655000	405.368164	1184.726685
12312.518617	1578.655000	404.094727	1065.874023
12312.518617	1578.655000	402.820313	1240.746094
12312.518617	1578.655000	401.545898	1303.522095
12312.518617	1578.655000	400.270508	1258.443970
12312.518617	1578.655000	398.996094	1225.325195
12312.518617	1578.655000	397.720703	1000.382629
12312.518617	1578.655000	396.444336	1282.955688
12312.518617	1578.655000	395.168945	1373.629761
12312.518617	1578.655000	393.892578	1112.959595
12312.518617	1578.655000	392.616211	1076.136841
12312.518617	1578.655000	391.339844	1000.741577
12312.518617	1578.655000	390.062500	1136.362061
12312.518617	1578.655000	388.785156	1128.442017
12312.518617	1578.655000	387.507813	859.635742
12312.518617	1578.655000	386.229492	1059.535645
12312.518617	1578.655000	384.951172	1046.714111
12312.518617	1578.655000	383.672852	869.472351
12312.518617	1578.655000	382.394531	1076.727783
12312.518617	1578.655000	381.115234	947.717468
12312.518617	1578.655000	379.835938	1037.532837
12312.518617	1578.655000	378.556641	994.300598
12312.518617	1578.655000	377.277344	1085.977295
12312.518617	1578.655000	375.997070	923.203186
12312.518617	1578.655000	374.716797	903.628845
12312.518617	1578.655000	373.435547	786.561829
12312.518617	1578.655000	372.155273	954.767090
12312.518617	1578.655000	370.874023	1000.276550
12312.518617	1578.655000	369.591797	948.212524
12312.518617	1578.655000	368.310547	907.328979
12312.518617	1578.655000	367.028320	852.448303
12312.518617	1578.655000	365.746094	867.122986
12312.518617	1578.655000	364.463867	990.947815
12312.518617	1578.655000	363.180664	799.913757
12312.518617	1578.655000	361.897461	749.298889
12312.518617	1578.655000	360.614258	962.101685
12312.518617	1578.655000	359.330078	901.810730
12312.518617	1578.655000	358.045898	608.230408
12312.518617	1578.655000	356.761719	650.864502
12312.518617	1578.655000	355.477539	697.893799
12312.518617	1578.655000	354.192383	534.487122
12312.518617	1578.655000	352.907227	475.509155
12312.518617	1578.655000	351.622070	583.360413
12312.518617	1578.655000	350.336914	459.944550
12312.518617	1578.655000	349.050781	476.080719
12312.518617	1578.655000	347.764648	340.117981
12312.518617	1578.655000	346.477539	418.493317
12312.518617	1578.655000	345.191406	484.221436
12312.518617	1578.655000	343.904297	260.349976
12312.518617	1578.655000	342.616211	423.236084
12312.518617	1578.655000	341.329102	469.265045
12312.518617	1578.655000	340.041016	352.576172
12312.518617	1578.655000	338.752930	414.288544
12312.518617	1578.655000	337.463867	294.506348
12312.518617	1578.655000	336.175781	282.326813
12312.518617	1578.655000	334.886719	92.789299
12312.518617	1578.655000	333.596680	264.021545
12312.518617	1578.655000	332.307617	162.356186
12312.518617	1578.655000	331.017578	-46.113251
12312.518617	1578.655000	329.727539	-24.972752
12312.518617	1578.655000	328.436523	32.432739
12312.518617	1578.655000	327.146484	97.116730
12312.518617	1578.655000	325.855469	106.591171
12312.518617	1578.655000	324.563477	52.511345
12312.518617	1578.655000	323.272461	71.903313
12312.518617	1578.655000	321.980469	-18.009138
12312.518617	1578.655000	320.688477	-331.156189
12312.518617	1578.655000	319.395508	-63.421341
12312.518617	1578.655000	318.103516	159.160843
12312.518617	1578.655000	316.810547	91.877312
12312.518617	1578.655000	315.516602	182.202820
12312.518617	1578.655000	314.223633	-348.431458
12312.518617	1578.655000	312.929688	-48.656548
12312.518617	1578.655000	311.635742	83.342934
12312.518617	1578.655000	310.340820	88.855957
12312.518617	1578.655000	309.045898	-158.219070
12312.518617	1578.655000	307.750977	130.285629
12312.518617	1578.655000	306.456055	157.731674
12312.518617	1578.655000	305.160156	153.558517
12312.518617	1578.655000	303.865234	-78.416382
12312.518617	1578.655000	302.568359	-57.030533
12312.518617	1578.655000	301.272461	383.168030
12312.518617	1578.655000	299.975586	404.874908
12312.518617	1578.655000	298.678711	289.285675
