#X		#Y		#Wave		#Intensity
11968.177660	2652.303333	1999.980469	-39.344780
11968.177660	2652.303333	1999.016602	209.880219
11968.177660	2652.303333	1998.052734	-18.124811
11968.177660	2652.303333	1997.087891	133.263962
11968.177660	2652.303333	1996.123047	123.702194
11968.177660	2652.303333	1995.158203	-21.952866
11968.177660	2652.303333	1994.193359	112.464211
11968.177660	2652.303333	1993.228516	90.966118
11968.177660	2652.303333	1992.262695	-66.560440
11968.177660	2652.303333	1991.297852	194.444611
11968.177660	2652.303333	1990.332031	193.138672
11968.177660	2652.303333	1989.366211	28.643770
11968.177660	2652.303333	1988.399414	171.103790
11968.177660	2652.303333	1987.433594	246.844681
11968.177660	2652.303333	1986.466797	6.115048
11968.177660	2652.303333	1985.500977	37.574516
11968.177660	2652.303333	1984.534180	168.012314
11968.177660	2652.303333	1983.567383	150.202515
11968.177660	2652.303333	1982.599609	110.255974
11968.177660	2652.303333	1981.632813	95.129120
11968.177660	2652.303333	1980.665039	55.395996
11968.177660	2652.303333	1979.697266	124.440422
11968.177660	2652.303333	1978.729492	-4.006950
11968.177660	2652.303333	1977.761719	-73.069389
11968.177660	2652.303333	1976.792969	-16.133663
11968.177660	2652.303333	1975.825195	6.305843
11968.177660	2652.303333	1974.856445	-104.438576
11968.177660	2652.303333	1973.887695	-15.234196
11968.177660	2652.303333	1972.918945	9.872216
11968.177660	2652.303333	1971.949219	-63.613331
11968.177660	2652.303333	1970.980469	-38.378506
11968.177660	2652.303333	1970.010742	-0.766733
11968.177660	2652.303333	1969.041016	-76.492493
11968.177660	2652.303333	1968.071289	89.372841
11968.177660	2652.303333	1967.101563	-15.800145
11968.177660	2652.303333	1966.130859	214.145660
11968.177660	2652.303333	1965.161133	-97.804420
11968.177660	2652.303333	1964.190430	105.078011
11968.177660	2652.303333	1963.219727	-66.307259
11968.177660	2652.303333	1962.249023	104.578102
11968.177660	2652.303333	1961.277344	-29.744524
11968.177660	2652.303333	1960.306641	67.326714
11968.177660	2652.303333	1959.334961	88.129784
11968.177660	2652.303333	1958.363281	67.142159
11968.177660	2652.303333	1957.391602	-81.691322
11968.177660	2652.303333	1956.419922	175.275436
11968.177660	2652.303333	1955.447266	110.121910
11968.177660	2652.303333	1954.474609	197.412537
11968.177660	2652.303333	1953.501953	61.062569
11968.177660	2652.303333	1952.529297	67.294945
11968.177660	2652.303333	1951.556641	-46.826538
11968.177660	2652.303333	1950.583984	-6.149183
11968.177660	2652.303333	1949.610352	71.366859
11968.177660	2652.303333	1948.636719	75.213890
11968.177660	2652.303333	1947.663086	42.253235
11968.177660	2652.303333	1946.689453	28.953684
11968.177660	2652.303333	1945.715820	27.940329
11968.177660	2652.303333	1944.741211	98.087769
11968.177660	2652.303333	1943.767578	-3.487042
11968.177660	2652.303333	1942.792969	-4.463167
11968.177660	2652.303333	1941.818359	168.661636
11968.177660	2652.303333	1940.842773	143.152267
11968.177660	2652.303333	1939.868164	125.010559
11968.177660	2652.303333	1938.892578	89.725113
11968.177660	2652.303333	1937.916992	108.360306
11968.177660	2652.303333	1936.941406	217.630905
11968.177660	2652.303333	1935.965820	-8.690647
11968.177660	2652.303333	1934.990234	-16.981792
11968.177660	2652.303333	1934.013672	121.631531
11968.177660	2652.303333	1933.037109	37.431129
11968.177660	2652.303333	1932.060547	122.133904
11968.177660	2652.303333	1931.083984	-6.087658
11968.177660	2652.303333	1930.107422	-77.995102
11968.177660	2652.303333	1929.129883	187.679810
11968.177660	2652.303333	1928.153320	22.817215
11968.177660	2652.303333	1927.175781	-17.285801
11968.177660	2652.303333	1926.198242	-130.723175
11968.177660	2652.303333	1925.219727	120.070290
11968.177660	2652.303333	1924.242188	-183.984573
11968.177660	2652.303333	1923.263672	191.318069
11968.177660	2652.303333	1922.285156	82.776482
11968.177660	2652.303333	1921.306641	18.228996
11968.177660	2652.303333	1920.328125	0.092051
11968.177660	2652.303333	1919.349609	64.962791
11968.177660	2652.303333	1918.370117	19.948524
11968.177660	2652.303333	1917.391602	-93.399231
11968.177660	2652.303333	1916.412109	-11.503540
11968.177660	2652.303333	1915.431641	16.674696
11968.177660	2652.303333	1914.452148	103.370247
11968.177660	2652.303333	1913.472656	43.690994
11968.177660	2652.303333	1912.492188	3.526510
11968.177660	2652.303333	1911.511719	-17.135080
11968.177660	2652.303333	1910.531250	96.254738
11968.177660	2652.303333	1909.550781	17.065292
11968.177660	2652.303333	1908.569336	-3.633145
11968.177660	2652.303333	1907.588867	-26.776846
11968.177660	2652.303333	1906.607422	23.140245
11968.177660	2652.303333	1905.625977	34.060066
11968.177660	2652.303333	1904.644531	117.999504
11968.177660	2652.303333	1903.662109	58.270046
11968.177660	2652.303333	1902.680664	86.162231
11968.177660	2652.303333	1901.698242	-29.540131
11968.177660	2652.303333	1900.715820	-23.572668
11968.177660	2652.303333	1899.733398	113.726120
11968.177660	2652.303333	1898.750000	-108.976822
11968.177660	2652.303333	1897.767578	35.545330
11968.177660	2652.303333	1896.784180	63.304321
11968.177660	2652.303333	1895.800781	-6.189714
11968.177660	2652.303333	1894.817383	106.586121
11968.177660	2652.303333	1893.833984	44.362759
11968.177660	2652.303333	1892.850586	-32.430634
11968.177660	2652.303333	1891.866211	-121.358093
11968.177660	2652.303333	1890.881836	149.124359
11968.177660	2652.303333	1889.897461	40.736950
11968.177660	2652.303333	1888.913086	-157.443634
11968.177660	2652.303333	1887.927734	-44.914551
11968.177660	2652.303333	1886.943359	-141.127167
11968.177660	2652.303333	1885.958008	-96.609550
11968.177660	2652.303333	1884.972656	40.046234
11968.177660	2652.303333	1883.987305	18.997478
11968.177660	2652.303333	1883.001953	60.981583
11968.177660	2652.303333	1882.015625	107.779655
11968.177660	2652.303333	1881.029297	-44.208580
11968.177660	2652.303333	1880.042969	-33.793552
11968.177660	2652.303333	1879.056641	-154.236359
11968.177660	2652.303333	1878.070313	93.559303
11968.177660	2652.303333	1877.083984	4.588711
11968.177660	2652.303333	1876.096680	17.338482
11968.177660	2652.303333	1875.109375	42.171871
11968.177660	2652.303333	1874.122070	25.828791
11968.177660	2652.303333	1873.134766	-19.567545
11968.177660	2652.303333	1872.146484	43.923553
11968.177660	2652.303333	1871.159180	29.958822
11968.177660	2652.303333	1870.170898	23.238800
11968.177660	2652.303333	1869.182617	60.036057
11968.177660	2652.303333	1868.194336	-74.867958
11968.177660	2652.303333	1867.205078	-154.135620
11968.177660	2652.303333	1866.216797	46.982738
11968.177660	2652.303333	1865.227539	-39.558540
11968.177660	2652.303333	1864.238281	-39.103489
11968.177660	2652.303333	1863.249023	91.781219
11968.177660	2652.303333	1862.259766	7.650993
11968.177660	2652.303333	1861.269531	-4.020871
11968.177660	2652.303333	1860.279297	8.440232
11968.177660	2652.303333	1859.290039	18.469215
11968.177660	2652.303333	1858.298828	233.616302
11968.177660	2652.303333	1857.308594	79.493393
11968.177660	2652.303333	1856.318359	7.439480
11968.177660	2652.303333	1855.327148	65.646568
11968.177660	2652.303333	1854.335938	176.873840
11968.177660	2652.303333	1853.344727	42.114208
11968.177660	2652.303333	1852.353516	-56.446995
11968.177660	2652.303333	1851.362305	180.033752
11968.177660	2652.303333	1850.370117	67.000847
11968.177660	2652.303333	1849.377930	-24.317726
11968.177660	2652.303333	1848.385742	-125.248360
11968.177660	2652.303333	1847.393555	53.220455
11968.177660	2652.303333	1846.401367	-4.365612
11968.177660	2652.303333	1845.408203	39.172657
11968.177660	2652.303333	1844.415039	164.523270
11968.177660	2652.303333	1843.421875	85.258293
11968.177660	2652.303333	1842.428711	-92.637154
11968.177660	2652.303333	1841.435547	54.289845
11968.177660	2652.303333	1840.441406	-147.604767
11968.177660	2652.303333	1839.448242	-46.430981
11968.177660	2652.303333	1838.454102	-31.860012
11968.177660	2652.303333	1837.459961	-22.110529
11968.177660	2652.303333	1836.464844	35.694859
11968.177660	2652.303333	1835.470703	-105.973679
11968.177660	2652.303333	1834.475586	-72.214691
11968.177660	2652.303333	1833.480469	62.410431
11968.177660	2652.303333	1832.485352	170.560165
11968.177660	2652.303333	1831.490234	146.600006
11968.177660	2652.303333	1830.495117	-91.019081
11968.177660	2652.303333	1829.499023	19.478680
11968.177660	2652.303333	1828.502930	62.735039
11968.177660	2652.303333	1827.506836	45.986107
11968.177660	2652.303333	1826.510742	10.047088
11968.177660	2652.303333	1825.513672	84.443741
11968.177660	2652.303333	1824.517578	125.236198
11968.177660	2652.303333	1823.520508	175.598251
11968.177660	2652.303333	1822.523438	14.994903
11968.177660	2652.303333	1821.526367	62.953766
11968.177660	2652.303333	1820.529297	-20.898434
11968.177660	2652.303333	1819.531250	-23.268881
11968.177660	2652.303333	1818.533203	122.864082
11968.177660	2652.303333	1817.535156	316.835663
11968.177660	2652.303333	1816.537109	62.985977
11968.177660	2652.303333	1815.539063	96.498367
11968.177660	2652.303333	1814.540039	34.256939
11968.177660	2652.303333	1813.541992	-42.320721
11968.177660	2652.303333	1812.542969	77.317535
11968.177660	2652.303333	1811.543945	70.127922
11968.177660	2652.303333	1810.543945	-30.335531
11968.177660	2652.303333	1809.544922	-106.849586
11968.177660	2652.303333	1808.544922	194.401566
11968.177660	2652.303333	1807.544922	177.629013
11968.177660	2652.303333	1806.544922	239.727524
11968.177660	2652.303333	1805.544922	-15.986277
11968.177660	2652.303333	1804.544922	-75.710884
11968.177660	2652.303333	1803.543945	-197.513885
11968.177660	2652.303333	1802.542969	-85.243263
11968.177660	2652.303333	1801.541992	58.024517
11968.177660	2652.303333	1800.541016	163.045059
11968.177660	2652.303333	1799.539063	-51.789276
11968.177660	2652.303333	1798.538086	98.553314
11968.177660	2652.303333	1797.536133	-30.296446
11968.177660	2652.303333	1796.534180	43.656693
11968.177660	2652.303333	1795.532227	-42.202312
11968.177660	2652.303333	1794.529297	-87.492317
11968.177660	2652.303333	1793.527344	110.402908
11968.177660	2652.303333	1792.524414	50.804531
11968.177660	2652.303333	1791.521484	62.723881
11968.177660	2652.303333	1790.518555	-25.428219
11968.177660	2652.303333	1789.514648	43.677624
11968.177660	2652.303333	1788.511719	50.837269
11968.177660	2652.303333	1787.507813	74.665855
11968.177660	2652.303333	1786.503906	-46.740368
11968.177660	2652.303333	1785.500000	-15.754274
11968.177660	2652.303333	1784.496094	62.822536
11968.177660	2652.303333	1783.491211	300.796509
11968.177660	2652.303333	1782.486328	60.504108
11968.177660	2652.303333	1781.481445	-32.222488
11968.177660	2652.303333	1780.476563	32.046070
11968.177660	2652.303333	1779.471680	20.209831
11968.177660	2652.303333	1778.465820	25.022518
11968.177660	2652.303333	1777.460938	8.448306
11968.177660	2652.303333	1776.455078	-39.006966
11968.177660	2652.303333	1775.449219	32.353451
11968.177660	2652.303333	1774.442383	68.060638
11968.177660	2652.303333	1773.436523	-19.736731
11968.177660	2652.303333	1772.429688	-119.368217
11968.177660	2652.303333	1771.422852	-74.139076
11968.177660	2652.303333	1770.416016	23.297495
11968.177660	2652.303333	1769.409180	80.360069
11968.177660	2652.303333	1768.402344	113.679604
11968.177660	2652.303333	1767.394531	163.598251
11968.177660	2652.303333	1766.386719	-33.161945
11968.177660	2652.303333	1765.378906	-2.192685
11968.177660	2652.303333	1764.371094	-70.805389
11968.177660	2652.303333	1763.362305	57.360157
11968.177660	2652.303333	1762.354492	43.284973
11968.177660	2652.303333	1761.345703	43.438919
11968.177660	2652.303333	1760.336914	86.243202
11968.177660	2652.303333	1759.328125	39.029934
11968.177660	2652.303333	1758.318359	131.564133
11968.177660	2652.303333	1757.308594	25.181055
11968.177660	2652.303333	1756.299805	49.046459
11968.177660	2652.303333	1755.290039	35.040428
11968.177660	2652.303333	1754.279297	77.839821
11968.177660	2652.303333	1753.269531	141.924500
11968.177660	2652.303333	1752.258789	168.143845
11968.177660	2652.303333	1751.249023	26.443981
11968.177660	2652.303333	1750.238281	-37.163090
11968.177660	2652.303333	1749.226563	60.021431
11968.177660	2652.303333	1748.215820	17.720978
11968.177660	2652.303333	1747.204102	133.779602
11968.177660	2652.303333	1746.193359	-106.976746
11968.177660	2652.303333	1745.181641	212.237411
11968.177660	2652.303333	1744.168945	136.904068
11968.177660	2652.303333	1743.157227	123.005341
11968.177660	2652.303333	1742.144531	102.036255
11968.177660	2652.303333	1741.132813	137.736694
11968.177660	2652.303333	1740.120117	29.465961
11968.177660	2652.303333	1739.106445	154.847626
11968.177660	2652.303333	1738.093750	169.308548
11968.177660	2652.303333	1737.080078	-9.643510
11968.177660	2652.303333	1736.067383	-63.530460
11968.177660	2652.303333	1735.053711	64.163795
11968.177660	2652.303333	1734.040039	97.522293
11968.177660	2652.303333	1733.025391	121.448380
11968.177660	2652.303333	1732.011719	18.124640
11968.177660	2652.303333	1730.997070	197.570648
11968.177660	2652.303333	1729.982422	134.332306
11968.177660	2652.303333	1728.967773	146.490631
11968.177660	2652.303333	1727.952148	50.337212
11968.177660	2652.303333	1726.937500	86.065758
11968.177660	2652.303333	1725.921875	27.637815
11968.177660	2652.303333	1724.906250	-49.586334
11968.177660	2652.303333	1723.890625	61.456772
11968.177660	2652.303333	1722.875000	148.941925
11968.177660	2652.303333	1721.858398	137.618225
11968.177660	2652.303333	1720.841797	4.028052
11968.177660	2652.303333	1719.825195	-91.885262
11968.177660	2652.303333	1718.808594	164.839188
11968.177660	2652.303333	1717.791992	-8.607701
11968.177660	2652.303333	1716.774414	-12.800511
11968.177660	2652.303333	1715.756836	-75.714996
11968.177660	2652.303333	1714.739258	-131.550903
11968.177660	2652.303333	1713.721680	-135.693527
11968.177660	2652.303333	1712.704102	-95.216118
11968.177660	2652.303333	1711.685547	95.492294
11968.177660	2652.303333	1710.667969	-82.347031
11968.177660	2652.303333	1709.649414	-248.377289
11968.177660	2652.303333	1708.630859	-121.070869
11968.177660	2652.303333	1707.611328	39.033321
11968.177660	2652.303333	1706.592773	-61.235119
11968.177660	2652.303333	1705.573242	-102.838181
11968.177660	2652.303333	1704.553711	-48.300064
11968.177660	2652.303333	1703.534180	-115.656960
11968.177660	2652.303333	1702.513672	86.513237
11968.177660	2652.303333	1701.494141	115.233360
11968.177660	2652.303333	1700.473633	73.674324
11968.177660	2652.303333	1699.453125	156.268417
11968.177660	2652.303333	1698.432617	201.372513
11968.177660	2652.303333	1697.412109	164.525620
11968.177660	2652.303333	1696.390625	62.159626
11968.177660	2652.303333	1695.369141	51.110600
11968.177660	2652.303333	1694.347656	89.210022
11968.177660	2652.303333	1693.326172	24.368963
11968.177660	2652.303333	1692.304688	139.657181
11968.177660	2652.303333	1691.282227	123.953384
11968.177660	2652.303333	1690.260742	145.671356
11968.177660	2652.303333	1689.238281	17.782925
11968.177660	2652.303333	1688.214844	-18.901880
11968.177660	2652.303333	1687.192383	129.032135
11968.177660	2652.303333	1686.168945	80.672577
11968.177660	2652.303333	1685.146484	165.477585
11968.177660	2652.303333	1684.123047	-15.971079
11968.177660	2652.303333	1683.099609	71.167931
11968.177660	2652.303333	1682.075195	188.627380
11968.177660	2652.303333	1681.051758	121.663696
11968.177660	2652.303333	1680.027344	276.417297
11968.177660	2652.303333	1679.002930	-5.168490
11968.177660	2652.303333	1677.978516	212.543503
11968.177660	2652.303333	1676.953125	85.014572
11968.177660	2652.303333	1675.928711	139.416122
11968.177660	2652.303333	1674.903320	245.091248
11968.177660	2652.303333	1673.877930	257.497467
11968.177660	2652.303333	1672.852539	127.751846
11968.177660	2652.303333	1671.826172	217.075531
11968.177660	2652.303333	1670.800781	178.249207
11968.177660	2652.303333	1669.774414	174.378754
11968.177660	2652.303333	1668.748047	126.271713
11968.177660	2652.303333	1667.721680	178.299118
11968.177660	2652.303333	1666.694336	216.345657
11968.177660	2652.303333	1665.667969	131.039154
11968.177660	2652.303333	1664.640625	264.489441
11968.177660	2652.303333	1663.613281	202.480133
11968.177660	2652.303333	1662.585938	300.986694
11968.177660	2652.303333	1661.557617	155.288925
11968.177660	2652.303333	1660.530273	186.351486
11968.177660	2652.303333	1659.501953	198.811127
11968.177660	2652.303333	1658.473633	97.389381
11968.177660	2652.303333	1657.444336	109.870926
11968.177660	2652.303333	1656.416016	243.158386
11968.177660	2652.303333	1655.386719	204.515503
11968.177660	2652.303333	1654.358398	256.461578
11968.177660	2652.303333	1653.328125	215.518753
11968.177660	2652.303333	1652.298828	130.488953
11968.177660	2652.303333	1651.269531	235.814087
11968.177660	2652.303333	1650.239258	357.346710
11968.177660	2652.303333	1649.208984	186.510025
11968.177660	2652.303333	1648.178711	252.342987
11968.177660	2652.303333	1647.148438	165.090179
11968.177660	2652.303333	1646.117188	344.526062
11968.177660	2652.303333	1645.086914	326.845123
11968.177660	2652.303333	1644.055664	285.996307
11968.177660	2652.303333	1643.024414	279.927643
11968.177660	2652.303333	1641.992188	299.351135
11968.177660	2652.303333	1640.960938	395.213684
11968.177660	2652.303333	1639.928711	294.182526
11968.177660	2652.303333	1638.896484	457.167084
11968.177660	2652.303333	1637.864258	256.619965
11968.177660	2652.303333	1636.832031	495.940002
11968.177660	2652.303333	1635.798828	320.925659
11968.177660	2652.303333	1634.766602	453.713776
11968.177660	2652.303333	1633.733398	338.928589
11968.177660	2652.303333	1632.699219	402.281982
11968.177660	2652.303333	1631.666016	410.115845
11968.177660	2652.303333	1630.632813	330.094849
11968.177660	2652.303333	1629.598633	312.518921
11968.177660	2652.303333	1628.564453	352.729614
11968.177660	2652.303333	1627.530273	279.706879
11968.177660	2652.303333	1626.495117	301.432739
11968.177660	2652.303333	1625.460938	306.984894
11968.177660	2652.303333	1624.425781	312.537567
11968.177660	2652.303333	1623.390625	364.267212
11968.177660	2652.303333	1622.355469	344.419891
11968.177660	2652.303333	1621.319336	236.881485
11968.177660	2652.303333	1620.284180	272.451385
11968.177660	2652.303333	1619.248047	238.798859
11968.177660	2652.303333	1618.211914	295.118530
11968.177660	2652.303333	1617.174805	356.031586
11968.177660	2652.303333	1616.138672	347.752014
11968.177660	2652.303333	1615.101563	300.289398
11968.177660	2652.303333	1614.065430	407.268311
11968.177660	2652.303333	1613.027344	369.034546
11968.177660	2652.303333	1611.990234	333.121613
11968.177660	2652.303333	1610.953125	313.349060
11968.177660	2652.303333	1609.915039	461.705322
11968.177660	2652.303333	1608.876953	552.441589
11968.177660	2652.303333	1607.838867	447.466583
11968.177660	2652.303333	1606.800781	400.076141
11968.177660	2652.303333	1605.761719	562.115173
11968.177660	2652.303333	1604.723633	339.867401
11968.177660	2652.303333	1603.684570	304.032959
11968.177660	2652.303333	1602.644531	500.500031
11968.177660	2652.303333	1601.605469	437.059570
11968.177660	2652.303333	1600.566406	598.942810
11968.177660	2652.303333	1599.526367	376.914551
11968.177660	2652.303333	1598.486328	446.828125
11968.177660	2652.303333	1597.446289	250.194229
11968.177660	2652.303333	1596.405273	513.070740
11968.177660	2652.303333	1595.365234	389.999054
11968.177660	2652.303333	1594.324219	407.049072
11968.177660	2652.303333	1593.283203	302.415863
11968.177660	2652.303333	1592.242188	324.071014
11968.177660	2652.303333	1591.200195	354.899139
11968.177660	2652.303333	1590.159180	220.514877
11968.177660	2652.303333	1589.117188	340.821625
11968.177660	2652.303333	1588.075195	518.423096
11968.177660	2652.303333	1587.032227	407.022736
11968.177660	2652.303333	1585.990234	385.081360
11968.177660	2652.303333	1584.947266	356.274841
11968.177660	2652.303333	1583.904297	398.526276
11968.177660	2652.303333	1582.861328	358.274567
11968.177660	2652.303333	1581.818359	377.604248
11968.177660	2652.303333	1580.775391	474.802429
11968.177660	2652.303333	1579.731445	393.345978
11968.177660	2652.303333	1578.687500	366.871796
11968.177660	2652.303333	1577.643555	518.958496
11968.177660	2652.303333	1576.598633	421.526886
11968.177660	2652.303333	1575.554688	468.290680
11968.177660	2652.303333	1574.509766	402.938965
11968.177660	2652.303333	1573.464844	486.288879
11968.177660	2652.303333	1572.419922	338.636292
11968.177660	2652.303333	1571.374023	378.528961
11968.177660	2652.303333	1570.329102	313.253357
11968.177660	2652.303333	1569.283203	428.561127
11968.177660	2652.303333	1568.237305	404.437317
11968.177660	2652.303333	1567.191406	259.240387
11968.177660	2652.303333	1566.144531	292.267517
11968.177660	2652.303333	1565.098633	199.679291
11968.177660	2652.303333	1564.051758	189.327423
11968.177660	2652.303333	1563.004883	201.810272
11968.177660	2652.303333	1561.957031	314.714630
11968.177660	2652.303333	1560.910156	418.448578
11968.177660	2652.303333	1559.862305	426.323334
11968.177660	2652.303333	1558.814453	349.799591
11968.177660	2652.303333	1557.766602	229.977463
11968.177660	2652.303333	1556.718750	304.015686
11968.177660	2652.303333	1555.669922	295.958618
11968.177660	2652.303333	1554.621094	269.674103
11968.177660	2652.303333	1553.573242	407.473846
11968.177660	2652.303333	1552.523438	356.121704
11968.177660	2652.303333	1551.474609	491.579010
11968.177660	2652.303333	1550.424805	314.976471
11968.177660	2652.303333	1549.375000	265.958282
11968.177660	2652.303333	1548.325195	455.998627
11968.177660	2652.303333	1547.275391	438.843170
11968.177660	2652.303333	1546.225586	298.812286
11968.177660	2652.303333	1545.174805	406.836121
11968.177660	2652.303333	1544.124023	426.106720
11968.177660	2652.303333	1543.073242	479.486481
11968.177660	2652.303333	1542.022461	432.798676
11968.177660	2652.303333	1540.970703	415.688324
11968.177660	2652.303333	1539.919922	384.949127
11968.177660	2652.303333	1538.868164	361.043854
11968.177660	2652.303333	1537.815430	303.071259
11968.177660	2652.303333	1536.763672	213.322098
11968.177660	2652.303333	1535.710938	296.220581
11968.177660	2652.303333	1534.659180	313.239105
11968.177660	2652.303333	1533.606445	287.120789
11968.177660	2652.303333	1532.552734	297.333466
11968.177660	2652.303333	1531.500000	382.435486
11968.177660	2652.303333	1530.446289	172.548859
11968.177660	2652.303333	1529.393555	141.957962
11968.177660	2652.303333	1528.338867	258.806274
11968.177660	2652.303333	1527.285156	185.135544
11968.177660	2652.303333	1526.231445	190.848160
11968.177660	2652.303333	1525.176758	180.696594
11968.177660	2652.303333	1524.122070	98.034515
11968.177660	2652.303333	1523.067383	-57.095032
11968.177660	2652.303333	1522.012695	109.519478
11968.177660	2652.303333	1520.957031	60.908875
11968.177660	2652.303333	1519.901367	14.586950
11968.177660	2652.303333	1518.845703	92.808685
11968.177660	2652.303333	1517.790039	55.563431
11968.177660	2652.303333	1516.734375	-11.081827
11968.177660	2652.303333	1515.677734	175.722153
11968.177660	2652.303333	1514.621094	-148.799942
11968.177660	2652.303333	1513.564453	-66.072304
11968.177660	2652.303333	1512.507813	79.945183
11968.177660	2652.303333	1511.450195	22.434311
11968.177660	2652.303333	1510.393555	116.398529
11968.177660	2652.303333	1509.335938	11.456177
11968.177660	2652.303333	1508.278320	-95.698334
11968.177660	2652.303333	1507.219727	113.465919
11968.177660	2652.303333	1506.162109	-131.429001
11968.177660	2652.303333	1505.103516	-73.625038
11968.177660	2652.303333	1504.044922	-4.548437
11968.177660	2652.303333	1502.986328	-95.759132
11968.177660	2652.303333	1501.926758	135.800201
11968.177660	2652.303333	1500.868164	-93.027733
11968.177660	2652.303333	1499.808594	-136.769974
11968.177660	2652.303333	1498.749023	-69.969460
11968.177660	2652.303333	1497.688477	152.410156
11968.177660	2652.303333	1496.628906	-105.518944
11968.177660	2652.303333	1495.568359	-63.536663
11968.177660	2652.303333	1494.507813	176.761780
11968.177660	2652.303333	1493.447266	-90.007790
11968.177660	2652.303333	1492.386719	46.587368
11968.177660	2652.303333	1491.325195	38.986992
11968.177660	2652.303333	1490.263672	31.397579
11968.177660	2652.303333	1489.202148	-34.718346
11968.177660	2652.303333	1488.140625	128.803406
11968.177660	2652.303333	1487.079102	319.274933
11968.177660	2652.303333	1486.016602	30.406557
11968.177660	2652.303333	1484.954102	128.604431
11968.177660	2652.303333	1483.891602	60.330120
11968.177660	2652.303333	1482.829102	19.076399
11968.177660	2652.303333	1481.765625	-46.879993
11968.177660	2652.303333	1480.702148	-7.161238
11968.177660	2652.303333	1479.638672	70.767456
11968.177660	2652.303333	1478.575195	27.346642
11968.177660	2652.303333	1477.511719	-0.343487
11968.177660	2652.303333	1476.447266	-54.935333
11968.177660	2652.303333	1475.382813	-4.001312
11968.177660	2652.303333	1474.318359	-53.997356
11968.177660	2652.303333	1473.253906	84.479004
11968.177660	2652.303333	1472.189453	72.562645
11968.177660	2652.303333	1471.124023	186.291626
11968.177660	2652.303333	1470.058594	219.239487
11968.177660	2652.303333	1468.993164	106.455650
11968.177660	2652.303333	1467.927734	170.845535
11968.177660	2652.303333	1466.861328	94.113724
11968.177660	2652.303333	1465.794922	232.304901
11968.177660	2652.303333	1464.728516	121.995857
11968.177660	2652.303333	1463.662109	150.568069
11968.177660	2652.303333	1462.594727	143.048904
11968.177660	2652.303333	1461.528320	131.373230
11968.177660	2652.303333	1460.460938	307.748535
11968.177660	2652.303333	1459.393555	260.157959
11968.177660	2652.303333	1458.326172	277.357422
11968.177660	2652.303333	1457.257813	309.955475
11968.177660	2652.303333	1456.189453	197.879517
11968.177660	2652.303333	1455.121094	249.224380
11968.177660	2652.303333	1454.052734	279.622009
11968.177660	2652.303333	1452.984375	302.907043
11968.177660	2652.303333	1451.915039	327.224121
11968.177660	2652.303333	1450.845703	159.930283
11968.177660	2652.303333	1449.776367	259.546661
11968.177660	2652.303333	1448.707031	226.491333
11968.177660	2652.303333	1447.636719	240.381210
11968.177660	2652.303333	1446.567383	201.569244
11968.177660	2652.303333	1445.497070	229.766235
11968.177660	2652.303333	1444.425781	196.989883
11968.177660	2652.303333	1443.355469	28.695633
11968.177660	2652.303333	1442.285156	259.121490
11968.177660	2652.303333	1441.213867	231.330276
11968.177660	2652.303333	1440.142578	276.213531
11968.177660	2652.303333	1439.070313	175.146072
11968.177660	2652.303333	1437.999023	227.976288
11968.177660	2652.303333	1436.926758	81.433662
11968.177660	2652.303333	1435.854492	317.225647
11968.177660	2652.303333	1434.782227	75.906578
11968.177660	2652.303333	1433.709961	274.396454
11968.177660	2652.303333	1432.636719	248.938797
11968.177660	2652.303333	1431.563477	268.180969
11968.177660	2652.303333	1430.490234	74.338898
11968.177660	2652.303333	1429.416992	151.644104
11968.177660	2652.303333	1428.343750	329.387726
11968.177660	2652.303333	1427.269531	294.890015
11968.177660	2652.303333	1426.195313	361.203033
11968.177660	2652.303333	1425.121094	243.219437
11968.177660	2652.303333	1424.046875	390.858765
11968.177660	2652.303333	1422.971680	190.807556
11968.177660	2652.303333	1421.896484	275.200775
11968.177660	2652.303333	1420.821289	159.385208
11968.177660	2652.303333	1419.746094	333.433228
11968.177660	2652.303333	1418.669922	400.761383
11968.177660	2652.303333	1417.594727	238.751190
11968.177660	2652.303333	1416.518555	281.104370
11968.177660	2652.303333	1415.442383	246.682861
11968.177660	2652.303333	1414.365234	182.199173
11968.177660	2652.303333	1413.289063	401.741211
11968.177660	2652.303333	1412.211914	422.771606
11968.177660	2652.303333	1411.134766	275.533539
11968.177660	2652.303333	1410.057617	139.264877
11968.177660	2652.303333	1408.979492	214.339859
11968.177660	2652.303333	1407.902344	230.860382
11968.177660	2652.303333	1406.824219	212.467911
11968.177660	2652.303333	1405.746094	222.400192
11968.177660	2652.303333	1404.666992	373.614502
11968.177660	2652.303333	1403.588867	356.404053
11968.177660	2652.303333	1402.509766	348.686737
11968.177660	2652.303333	1401.430664	229.872635
11968.177660	2652.303333	1400.351563	266.694244
11968.177660	2652.303333	1399.271484	354.453644
11968.177660	2652.303333	1398.192383	365.369598
11968.177660	2652.303333	1397.112305	337.827545
11968.177660	2652.303333	1396.031250	154.997955
11968.177660	2652.303333	1394.951172	372.731873
11968.177660	2652.303333	1393.871094	101.197136
11968.177660	2652.303333	1392.790039	229.781845
11968.177660	2652.303333	1391.708984	78.491119
11968.177660	2652.303333	1390.626953	197.628616
11968.177660	2652.303333	1389.545898	119.430939
11968.177660	2652.303333	1388.463867	319.941895
11968.177660	2652.303333	1387.381836	306.562042
11968.177660	2652.303333	1386.299805	212.376389
11968.177660	2652.303333	1385.217773	310.562225
11968.177660	2652.303333	1384.134766	313.182098
11968.177660	2652.303333	1383.051758	344.411346
11968.177660	2652.303333	1381.968750	200.585526
11968.177660	2652.303333	1380.885742	230.639679
11968.177660	2652.303333	1379.802734	252.864395
11968.177660	2652.303333	1378.718750	251.819382
11968.177660	2652.303333	1377.634766	263.469452
11968.177660	2652.303333	1376.550781	273.294617
11968.177660	2652.303333	1375.465820	287.745239
11968.177660	2652.303333	1374.381836	299.408966
11968.177660	2652.303333	1373.296875	219.331573
11968.177660	2652.303333	1372.211914	316.307831
11968.177660	2652.303333	1371.126953	319.474976
11968.177660	2652.303333	1370.041016	385.548615
11968.177660	2652.303333	1368.955078	224.187225
11968.177660	2652.303333	1367.869141	369.546143
11968.177660	2652.303333	1366.783203	369.608246
11968.177660	2652.303333	1365.697266	442.773956
11968.177660	2652.303333	1364.610352	520.216492
11968.177660	2652.303333	1363.523438	376.787079
11968.177660	2652.303333	1362.436523	321.926666
11968.177660	2652.303333	1361.349609	535.025940
11968.177660	2652.303333	1360.261719	468.739502
11968.177660	2652.303333	1359.174805	383.004608
11968.177660	2652.303333	1358.086914	295.715637
11968.177660	2652.303333	1356.998047	408.604065
11968.177660	2652.303333	1355.910156	529.635803
11968.177660	2652.303333	1354.821289	468.576935
11968.177660	2652.303333	1353.732422	395.310760
11968.177660	2652.303333	1352.643555	316.682953
11968.177660	2652.303333	1351.554688	471.702789
11968.177660	2652.303333	1350.464844	311.911804
11968.177660	2652.303333	1349.375000	387.266541
11968.177660	2652.303333	1348.285156	367.976929
11968.177660	2652.303333	1347.195313	338.555115
11968.177660	2652.303333	1346.105469	401.732056
11968.177660	2652.303333	1345.014648	155.904861
11968.177660	2652.303333	1343.923828	411.011841
11968.177660	2652.303333	1342.833008	275.901611
11968.177660	2652.303333	1341.741211	244.248657
11968.177660	2652.303333	1340.650391	227.104782
11968.177660	2652.303333	1339.558594	282.750183
11968.177660	2652.303333	1338.466797	253.183121
11968.177660	2652.303333	1337.374023	259.183136
11968.177660	2652.303333	1336.282227	348.716980
11968.177660	2652.303333	1335.189453	258.344177
11968.177660	2652.303333	1334.096680	235.397003
11968.177660	2652.303333	1333.003906	248.534042
11968.177660	2652.303333	1331.910156	180.098389
11968.177660	2652.303333	1330.817383	138.648865
11968.177660	2652.303333	1329.723633	169.108017
11968.177660	2652.303333	1328.629883	185.552078
11968.177660	2652.303333	1327.535156	156.619614
11968.177660	2652.303333	1326.441406	135.642242
11968.177660	2652.303333	1325.346680	51.508930
11968.177660	2652.303333	1324.251953	194.929153
11968.177660	2652.303333	1323.156250	102.898956
11968.177660	2652.303333	1322.061523	241.678986
11968.177660	2652.303333	1320.965820	92.952805
11968.177660	2652.303333	1319.870117	65.037224
11968.177660	2652.303333	1318.774414	117.258812
11968.177660	2652.303333	1317.678711	94.934387
11968.177660	2652.303333	1316.582031	107.557632
11968.177660	2652.303333	1315.485352	202.855423
11968.177660	2652.303333	1314.388672	130.271530
11968.177660	2652.303333	1313.291016	162.097031
11968.177660	2652.303333	1312.194336	124.372070
11968.177660	2652.303333	1311.096680	120.786316
11968.177660	2652.303333	1309.999023	187.158859
11968.177660	2652.303333	1308.901367	-16.807764
11968.177660	2652.303333	1307.802734	65.577507
11968.177660	2652.303333	1306.705078	69.293098
11968.177660	2652.303333	1305.606445	239.863815
11968.177660	2652.303333	1304.506836	-27.509216
11968.177660	2652.303333	1303.408203	30.735329
11968.177660	2652.303333	1302.308594	75.627228
11968.177660	2652.303333	1301.208984	42.208073
11968.177660	2652.303333	1300.109375	-13.325967
11968.177660	2652.303333	1299.009766	-10.749419
11968.177660	2652.303333	1297.909180	112.000954
11968.177660	2652.303333	1296.808594	85.253792
11968.177660	2652.303333	1295.708008	85.561203
11968.177660	2652.303333	1294.607422	122.135475
11968.177660	2652.303333	1293.506836	117.335846
11968.177660	2652.303333	1292.405273	47.930214
11968.177660	2652.303333	1291.303711	114.759819
11968.177660	2652.303333	1290.202148	44.974434
11968.177660	2652.303333	1289.099609	-79.009087
11968.177660	2652.303333	1287.998047	58.089886
11968.177660	2652.303333	1286.895508	132.658432
11968.177660	2652.303333	1285.792969	-27.813835
11968.177660	2652.303333	1284.689453	-21.158072
11968.177660	2652.303333	1283.586914	89.973625
11968.177660	2652.303333	1282.483398	-158.158997
11968.177660	2652.303333	1281.379883	-3.558601
11968.177660	2652.303333	1280.276367	73.427505
11968.177660	2652.303333	1279.171875	32.098106
11968.177660	2652.303333	1278.067383	76.848465
11968.177660	2652.303333	1276.962891	-40.357712
11968.177660	2652.303333	1275.858398	22.843180
11968.177660	2652.303333	1274.753906	2.640436
11968.177660	2652.303333	1273.648438	-28.999619
11968.177660	2652.303333	1272.542969	-18.575356
11968.177660	2652.303333	1271.437500	104.972145
11968.177660	2652.303333	1270.331055	-66.294090
11968.177660	2652.303333	1269.225586	-23.057270
11968.177660	2652.303333	1268.119141	86.610619
11968.177660	2652.303333	1267.012695	-46.216114
11968.177660	2652.303333	1265.906250	11.013625
11968.177660	2652.303333	1264.798828	-116.656120
11968.177660	2652.303333	1263.691406	-27.587114
11968.177660	2652.303333	1262.583984	73.022713
11968.177660	2652.303333	1261.476563	-115.241379
11968.177660	2652.303333	1260.368164	5.102196
11968.177660	2652.303333	1259.260742	14.908093
11968.177660	2652.303333	1258.152344	-1.967765
11968.177660	2652.303333	1257.043945	-58.768559
11968.177660	2652.303333	1255.934570	-79.310524
11968.177660	2652.303333	1254.825195	-122.333946
11968.177660	2652.303333	1253.716797	63.995087
11968.177660	2652.303333	1252.606445	-81.774651
11968.177660	2652.303333	1251.497070	-38.770931
11968.177660	2652.303333	1250.387695	-20.903254
11968.177660	2652.303333	1249.277344	-29.434595
11968.177660	2652.303333	1248.166992	-183.940735
11968.177660	2652.303333	1247.055664	37.963791
11968.177660	2652.303333	1245.945313	7.183228
11968.177660	2652.303333	1244.833984	40.652298
11968.177660	2652.303333	1243.722656	10.532978
11968.177660	2652.303333	1242.611328	5.284528
11968.177660	2652.303333	1241.499023	61.386208
11968.177660	2652.303333	1240.387695	68.889626
11968.177660	2652.303333	1239.275391	1.449314
11968.177660	2652.303333	1238.162109	63.096329
11968.177660	2652.303333	1237.049805	170.584869
11968.177660	2652.303333	1235.936523	75.628098
11968.177660	2652.303333	1234.823242	34.696995
11968.177660	2652.303333	1233.709961	103.274261
11968.177660	2652.303333	1232.596680	43.801567
11968.177660	2652.303333	1231.482422	124.093666
11968.177660	2652.303333	1230.369141	64.779205
11968.177660	2652.303333	1229.253906	17.937645
11968.177660	2652.303333	1228.139648	-27.023619
11968.177660	2652.303333	1227.025391	-1.721960
11968.177660	2652.303333	1225.910156	27.422533
11968.177660	2652.303333	1224.794922	-44.513748
11968.177660	2652.303333	1223.679688	9.684306
11968.177660	2652.303333	1222.563477	-114.250549
11968.177660	2652.303333	1221.447266	-50.118900
11968.177660	2652.303333	1220.331055	-45.288147
11968.177660	2652.303333	1219.214844	-13.873760
11968.177660	2652.303333	1218.098633	31.796402
11968.177660	2652.303333	1216.981445	87.406281
11968.177660	2652.303333	1215.864258	-37.204109
11968.177660	2652.303333	1214.747070	113.812180
11968.177660	2652.303333	1213.629883	-55.971344
11968.177660	2652.303333	1212.511719	30.807478
11968.177660	2652.303333	1211.393555	56.985733
11968.177660	2652.303333	1210.275391	33.087601
11968.177660	2652.303333	1209.157227	48.534733
11968.177660	2652.303333	1208.038086	-123.553864
11968.177660	2652.303333	1206.918945	-58.714653
11968.177660	2652.303333	1205.799805	-33.694935
11968.177660	2652.303333	1204.680664	-37.451973
11968.177660	2652.303333	1203.560547	-117.394585
11968.177660	2652.303333	1202.441406	58.636456
11968.177660	2652.303333	1201.321289	37.765148
11968.177660	2652.303333	1200.200195	-73.979439
11968.177660	2652.303333	1199.080078	-2.063088
11968.177660	2652.303333	1197.958984	-58.203098
11968.177660	2652.303333	1196.837891	-60.813389
11968.177660	2652.303333	1195.716797	-70.805321
11968.177660	2652.303333	1194.594727	32.944508
11968.177660	2652.303333	1193.473633	3.027458
11968.177660	2652.303333	1192.351563	61.953266
11968.177660	2652.303333	1191.229492	30.575109
11968.177660	2652.303333	1190.106445	49.971958
11968.177660	2652.303333	1188.984375	53.635567
11968.177660	2652.303333	1187.861328	69.897446
11968.177660	2652.303333	1186.738281	-17.630926
11968.177660	2652.303333	1185.614258	10.273459
11968.177660	2652.303333	1184.491211	-27.841959
11968.177660	2652.303333	1183.367188	52.022274
11968.177660	2652.303333	1182.243164	17.722284
11968.177660	2652.303333	1181.119141	36.518585
11968.177660	2652.303333	1179.994141	-47.478142
11968.177660	2652.303333	1178.869141	-66.939102
11968.177660	2652.303333	1177.744141	-47.444607
11968.177660	2652.303333	1176.619141	100.654533
11968.177660	2652.303333	1175.493164	-95.040291
11968.177660	2652.303333	1174.368164	2.235230
11968.177660	2652.303333	1173.242188	-29.080065
11968.177660	2652.303333	1172.115234	-102.056725
11968.177660	2652.303333	1170.989258	-22.014885
11968.177660	2652.303333	1169.862305	-69.391708
11968.177660	2652.303333	1168.735352	-141.635208
11968.177660	2652.303333	1167.608398	-71.806160
11968.177660	2652.303333	1166.481445	-46.201168
11968.177660	2652.303333	1165.353516	88.521347
11968.177660	2652.303333	1164.225586	-11.413749
11968.177660	2652.303333	1163.097656	-89.451996
11968.177660	2652.303333	1161.968750	50.062145
11968.177660	2652.303333	1160.840820	-48.705513
11968.177660	2652.303333	1159.711914	-7.652682
11968.177660	2652.303333	1158.583008	-54.428974
11968.177660	2652.303333	1157.453125	-136.925766
11968.177660	2652.303333	1156.324219	-24.499134
11968.177660	2652.303333	1155.194336	31.342300
11968.177660	2652.303333	1154.064453	-100.681412
11968.177660	2652.303333	1152.933594	-25.406973
11968.177660	2652.303333	1151.803711	-34.480946
11968.177660	2652.303333	1150.672852	-2.438843
11968.177660	2652.303333	1149.541992	-15.719763
11968.177660	2652.303333	1148.411133	-87.737976
11968.177660	2652.303333	1147.279297	11.364118
11968.177660	2652.303333	1146.147461	49.549786
11968.177660	2652.303333	1145.015625	-20.436054
11968.177660	2652.303333	1143.883789	-59.746918
11968.177660	2652.303333	1142.750977	-46.030621
11968.177660	2652.303333	1141.619141	-38.719185
11968.177660	2652.303333	1140.486328	-109.940079
11968.177660	2652.303333	1139.352539	13.786947
11968.177660	2652.303333	1138.219727	20.099264
11968.177660	2652.303333	1137.085938	159.921112
11968.177660	2652.303333	1135.952148	76.313019
11968.177660	2652.303333	1134.818359	-4.057697
11968.177660	2652.303333	1133.683594	-125.368233
11968.177660	2652.303333	1132.549805	17.482779
11968.177660	2652.303333	1131.415039	85.106964
11968.177660	2652.303333	1130.279297	-1.038362
11968.177660	2652.303333	1129.144531	56.595493
11968.177660	2652.303333	1128.008789	-32.013203
11968.177660	2652.303333	1126.873047	96.151283
11968.177660	2652.303333	1125.737305	4.258204
11968.177660	2652.303333	1124.601563	9.179466
11968.177660	2652.303333	1123.464844	60.879398
11968.177660	2652.303333	1122.328125	-85.197510
11968.177660	2652.303333	1121.191406	10.746921
11968.177660	2652.303333	1120.054688	7.071414
11968.177660	2652.303333	1118.916992	78.230492
11968.177660	2652.303333	1117.779297	16.622801
11968.177660	2652.303333	1116.641602	167.402481
11968.177660	2652.303333	1115.503906	183.563538
11968.177660	2652.303333	1114.365234	23.484259
11968.177660	2652.303333	1113.226563	231.427612
11968.177660	2652.303333	1112.087891	226.052643
11968.177660	2652.303333	1110.949219	86.568665
11968.177660	2652.303333	1109.809570	186.142532
11968.177660	2652.303333	1108.669922	148.523087
11968.177660	2652.303333	1107.530273	241.814209
11968.177660	2652.303333	1106.390625	23.358555
11968.177660	2652.303333	1105.250000	-41.061882
11968.177660	2652.303333	1104.109375	28.976164
11968.177660	2652.303333	1102.968750	152.848541
11968.177660	2652.303333	1101.828125	209.834412
11968.177660	2652.303333	1100.686523	103.735291
11968.177660	2652.303333	1099.544922	88.135620
11968.177660	2652.303333	1098.403320	166.486938
11968.177660	2652.303333	1097.261719	182.517181
11968.177660	2652.303333	1096.120117	164.600723
11968.177660	2652.303333	1094.977539	187.791443
11968.177660	2652.303333	1093.834961	197.011307
11968.177660	2652.303333	1092.691406	242.131516
11968.177660	2652.303333	1091.548828	80.087029
11968.177660	2652.303333	1090.405273	245.482224
11968.177660	2652.303333	1089.261719	296.922211
11968.177660	2652.303333	1088.118164	204.462097
11968.177660	2652.303333	1086.973633	322.911987
11968.177660	2652.303333	1085.829102	345.811615
11968.177660	2652.303333	1084.684570	269.923157
11968.177660	2652.303333	1083.540039	187.790924
11968.177660	2652.303333	1082.395508	134.671661
11968.177660	2652.303333	1081.250000	144.831512
11968.177660	2652.303333	1080.104492	198.586182
11968.177660	2652.303333	1078.958984	102.643608
11968.177660	2652.303333	1077.812500	165.706390
11968.177660	2652.303333	1076.666016	71.150864
11968.177660	2652.303333	1075.519531	62.843163
11968.177660	2652.303333	1074.373047	38.450218
11968.177660	2652.303333	1073.226563	199.787399
11968.177660	2652.303333	1072.079102	179.927841
11968.177660	2652.303333	1070.931641	184.639084
11968.177660	2652.303333	1069.784180	71.177917
11968.177660	2652.303333	1068.635742	39.354725
11968.177660	2652.303333	1067.487305	106.868752
11968.177660	2652.303333	1066.338867	246.890366
11968.177660	2652.303333	1065.190430	285.758392
11968.177660	2652.303333	1064.041992	145.906860
11968.177660	2652.303333	1062.892578	295.337036
11968.177660	2652.303333	1061.743164	313.283875
11968.177660	2652.303333	1060.593750	266.679504
11968.177660	2652.303333	1059.443359	180.270233
11968.177660	2652.303333	1058.292969	203.460526
11968.177660	2652.303333	1057.142578	218.935913
11968.177660	2652.303333	1055.992188	300.172943
11968.177660	2652.303333	1054.841797	236.711655
11968.177660	2652.303333	1053.690430	132.064377
11968.177660	2652.303333	1052.539063	171.328568
11968.177660	2652.303333	1051.387695	193.556961
11968.177660	2652.303333	1050.235352	218.806793
11968.177660	2652.303333	1049.083984	-10.590159
11968.177660	2652.303333	1047.931641	165.460068
11968.177660	2652.303333	1046.778320	112.787514
11968.177660	2652.303333	1045.625977	168.665482
11968.177660	2652.303333	1044.472656	24.662437
11968.177660	2652.303333	1043.319336	17.399923
11968.177660	2652.303333	1042.166016	84.329613
11968.177660	2652.303333	1041.012695	-36.495735
11968.177660	2652.303333	1039.858398	63.841812
11968.177660	2652.303333	1038.704102	126.415054
11968.177660	2652.303333	1037.549805	256.774811
11968.177660	2652.303333	1036.394531	134.560623
11968.177660	2652.303333	1035.239258	198.335114
11968.177660	2652.303333	1034.083984	104.870308
11968.177660	2652.303333	1032.928711	2.494350
11968.177660	2652.303333	1031.773438	189.964615
11968.177660	2652.303333	1030.617188	109.635429
11968.177660	2652.303333	1029.460938	87.697937
11968.177660	2652.303333	1028.304688	239.556473
11968.177660	2652.303333	1027.147461	131.054123
11968.177660	2652.303333	1025.991211	290.006348
11968.177660	2652.303333	1024.833984	324.778900
11968.177660	2652.303333	1023.675781	173.645706
11968.177660	2652.303333	1022.518555	203.596207
11968.177660	2652.303333	1021.360352	301.584930
11968.177660	2652.303333	1020.202148	376.473541
11968.177660	2652.303333	1019.043945	281.798767
11968.177660	2652.303333	1017.884766	288.508026
11968.177660	2652.303333	1016.726563	414.081665
11968.177660	2652.303333	1015.567383	423.007233
11968.177660	2652.303333	1014.407227	346.145142
11968.177660	2652.303333	1013.248047	221.919174
11968.177660	2652.303333	1012.087891	494.496979
11968.177660	2652.303333	1010.927734	312.035797
11968.177660	2652.303333	1009.767578	179.384888
11968.177660	2652.303333	1008.606445	303.985718
11968.177660	2652.303333	1007.446289	429.485840
11968.177660	2652.303333	1006.285156	215.169998
11968.177660	2652.303333	1005.123047	165.421051
11968.177660	2652.303333	1003.961914	152.328583
11968.177660	2652.303333	1002.799805	115.773399
11968.177660	2652.303333	1001.637695	93.975410
11968.177660	2652.303333	1000.475586	226.094879
11968.177660	2652.303333	999.312500	254.102982
11968.177660	2652.303333	998.149414	295.555115
11968.177660	2652.303333	996.986328	243.581284
11968.177660	2652.303333	995.823242	271.868622
11968.177660	2652.303333	994.659180	54.031284
11968.177660	2652.303333	993.496094	119.625977
11968.177660	2652.303333	992.332031	122.312546
11968.177660	2652.303333	991.166992	46.349865
11968.177660	2652.303333	990.002930	195.227325
11968.177660	2652.303333	988.837891	59.603237
11968.177660	2652.303333	987.672852	262.265106
11968.177660	2652.303333	986.506836	112.200027
11968.177660	2652.303333	985.341797	143.881454
11968.177660	2652.303333	984.175781	8.994904
11968.177660	2652.303333	983.009766	41.433414
11968.177660	2652.303333	981.843750	304.654175
11968.177660	2652.303333	980.676758	23.916206
11968.177660	2652.303333	979.509766	11.576967
11968.177660	2652.303333	978.342773	70.284554
11968.177660	2652.303333	977.175781	34.990776
11968.177660	2652.303333	976.007813	90.954643
11968.177660	2652.303333	974.839844	164.939896
11968.177660	2652.303333	973.671875	96.531654
11968.177660	2652.303333	972.503906	45.238873
11968.177660	2652.303333	971.334961	155.849808
11968.177660	2652.303333	970.166016	46.717606
11968.177660	2652.303333	968.997070	97.035324
11968.177660	2652.303333	967.828125	305.711304
11968.177660	2652.303333	966.658203	144.489365
11968.177660	2652.303333	965.488281	85.417526
11968.177660	2652.303333	964.318359	-53.869282
11968.177660	2652.303333	963.148438	81.346893
11968.177660	2652.303333	961.977539	131.404999
11968.177660	2652.303333	960.806641	84.774048
11968.177660	2652.303333	959.635742	103.336029
11968.177660	2652.303333	958.463867	119.815125
11968.177660	2652.303333	957.292969	28.346525
11968.177660	2652.303333	956.121094	208.054169
11968.177660	2652.303333	954.948242	36.877167
11968.177660	2652.303333	953.776367	89.454193
11968.177660	2652.303333	952.603516	216.584915
11968.177660	2652.303333	951.430664	-26.487659
11968.177660	2652.303333	950.257813	-49.371246
11968.177660	2652.303333	949.084961	127.440201
11968.177660	2652.303333	947.911133	-17.973282
11968.177660	2652.303333	946.737305	-82.595184
11968.177660	2652.303333	945.563477	-33.130886
11968.177660	2652.303333	944.388672	-212.454956
11968.177660	2652.303333	943.213867	49.970123
11968.177660	2652.303333	942.039063	-66.755348
11968.177660	2652.303333	940.864258	-97.756172
11968.177660	2652.303333	939.688477	-74.218987
11968.177660	2652.303333	938.513672	40.293015
11968.177660	2652.303333	937.337891	53.483055
11968.177660	2652.303333	936.161133	-8.892844
11968.177660	2652.303333	934.985352	-11.511608
11968.177660	2652.303333	933.808594	45.829941
11968.177660	2652.303333	932.631836	40.790512
11968.177660	2652.303333	931.454102	-3.409341
11968.177660	2652.303333	930.277344	98.010056
11968.177660	2652.303333	929.099609	17.507687
11968.177660	2652.303333	927.921875	-8.371485
11968.177660	2652.303333	926.743164	256.548157
11968.177660	2652.303333	925.565430	-29.096260
11968.177660	2652.303333	924.386719	-73.185143
11968.177660	2652.303333	923.208008	33.273762
11968.177660	2652.303333	922.028320	77.411110
11968.177660	2652.303333	920.849609	64.438332
11968.177660	2652.303333	919.669922	65.719566
11968.177660	2652.303333	919.474609	43.892914
11968.177660	2652.303333	918.309570	67.214073
11968.177660	2652.303333	917.143555	54.214603
11968.177660	2652.303333	915.977539	59.363369
11968.177660	2652.303333	914.810547	139.676712
11968.177660	2652.303333	913.644531	134.426682
11968.177660	2652.303333	912.477539	-119.571487
11968.177660	2652.303333	911.310547	-150.683411
11968.177660	2652.303333	910.143555	-41.925491
11968.177660	2652.303333	908.975586	-26.439619
11968.177660	2652.303333	907.807617	43.404236
11968.177660	2652.303333	906.639648	-57.624222
11968.177660	2652.303333	905.471680	1.835047
11968.177660	2652.303333	904.303711	-86.216309
11968.177660	2652.303333	903.134766	-52.652134
11968.177660	2652.303333	901.965820	-104.456154
11968.177660	2652.303333	900.796875	-151.071564
11968.177660	2652.303333	899.626953	6.568229
11968.177660	2652.303333	898.457031	104.689453
11968.177660	2652.303333	897.287109	16.701458
11968.177660	2652.303333	896.117188	3.673260
11968.177660	2652.303333	894.947266	29.395065
11968.177660	2652.303333	893.776367	-63.698402
11968.177660	2652.303333	892.605469	83.381798
11968.177660	2652.303333	891.434570	-105.210854
11968.177660	2652.303333	890.262695	-125.957176
11968.177660	2652.303333	889.091797	-82.185089
11968.177660	2652.303333	887.919922	28.648481
11968.177660	2652.303333	886.748047	56.890396
11968.177660	2652.303333	885.575195	-69.619370
11968.177660	2652.303333	884.403320	2.460684
11968.177660	2652.303333	883.230469	17.795700
11968.177660	2652.303333	882.057617	-100.901749
11968.177660	2652.303333	880.883789	-13.401561
11968.177660	2652.303333	879.710938	-41.875412
11968.177660	2652.303333	878.537109	-60.034161
11968.177660	2652.303333	877.362305	22.250261
11968.177660	2652.303333	876.188477	186.891632
11968.177660	2652.303333	875.013672	-47.541134
11968.177660	2652.303333	873.839844	-119.735817
11968.177660	2652.303333	872.664063	-27.215843
11968.177660	2652.303333	871.489258	96.136223
11968.177660	2652.303333	870.313477	59.966911
11968.177660	2652.303333	869.138672	124.103569
11968.177660	2652.303333	867.962891	3.097030
11968.177660	2652.303333	866.786133	82.643692
11968.177660	2652.303333	865.610352	-125.685440
11968.177660	2652.303333	864.433594	20.662880
11968.177660	2652.303333	863.256836	148.968597
11968.177660	2652.303333	862.079102	64.041824
11968.177660	2652.303333	860.902344	7.396924
11968.177660	2652.303333	859.724609	-59.492947
11968.177660	2652.303333	858.546875	-44.214558
11968.177660	2652.303333	857.368164	-80.267853
11968.177660	2652.303333	856.190430	37.642746
11968.177660	2652.303333	855.011719	-252.373856
11968.177660	2652.303333	853.833008	93.790375
11968.177660	2652.303333	852.654297	142.362091
11968.177660	2652.303333	851.474609	-134.673798
11968.177660	2652.303333	850.294922	88.224800
11968.177660	2652.303333	849.115234	-55.425419
11968.177660	2652.303333	847.935547	103.315063
11968.177660	2652.303333	846.754883	5.833488
11968.177660	2652.303333	845.575195	-55.752834
11968.177660	2652.303333	844.393555	-2.085021
11968.177660	2652.303333	843.212891	61.801407
11968.177660	2652.303333	842.032227	-94.453384
11968.177660	2652.303333	840.850586	174.148209
11968.177660	2652.303333	839.668945	-125.333221
11968.177660	2652.303333	838.486328	-76.812172
11968.177660	2652.303333	837.304688	-15.522953
11968.177660	2652.303333	836.122070	53.414814
11968.177660	2652.303333	834.939453	73.756058
11968.177660	2652.303333	833.756836	17.416342
11968.177660	2652.303333	832.573242	-36.341621
11968.177660	2652.303333	831.389648	-0.658423
11968.177660	2652.303333	830.206055	-26.289417
11968.177660	2652.303333	829.022461	63.009064
11968.177660	2652.303333	827.838867	24.613985
11968.177660	2652.303333	826.654297	-39.288609
11968.177660	2652.303333	825.469727	70.381859
11968.177660	2652.303333	824.284180	-34.323830
11968.177660	2652.303333	823.099609	54.896557
11968.177660	2652.303333	821.914063	90.522026
11968.177660	2652.303333	820.728516	62.384113
11968.177660	2652.303333	819.542969	248.417847
11968.177660	2652.303333	818.356445	105.561226
11968.177660	2652.303333	817.169922	-39.783451
11968.177660	2652.303333	815.983398	87.562012
11968.177660	2652.303333	814.796875	-177.441971
11968.177660	2652.303333	813.609375	-65.396965
11968.177660	2652.303333	812.422852	36.417637
11968.177660	2652.303333	811.235352	26.177135
11968.177660	2652.303333	810.046875	15.943993
11968.177660	2652.303333	808.859375	-57.903488
11968.177660	2652.303333	807.670898	-14.682196
11968.177660	2652.303333	806.482422	79.397331
11968.177660	2652.303333	805.293945	28.477604
11968.177660	2652.303333	804.104492	-85.984375
11968.177660	2652.303333	802.915039	-58.038036
11968.177660	2652.303333	801.725586	-96.183449
11968.177660	2652.303333	800.536133	91.844437
11968.177660	2652.303333	799.345703	-70.799637
11968.177660	2652.303333	798.155273	89.208420
11968.177660	2652.303333	796.964844	-9.878067
11968.177660	2652.303333	795.774414	63.728397
11968.177660	2652.303333	794.583008	33.229908
11968.177660	2652.303333	793.392578	-40.401077
11968.177660	2652.303333	792.200195	114.367210
11968.177660	2652.303333	791.008789	182.817719
11968.177660	2652.303333	789.816406	-4.930449
11968.177660	2652.303333	788.625000	30.551218
11968.177660	2652.303333	787.432617	43.202133
11968.177660	2652.303333	786.239258	-40.472466
11968.177660	2652.303333	785.046875	-70.894196
11968.177660	2652.303333	783.853516	12.714735
11968.177660	2652.303333	782.660156	43.091923
11968.177660	2652.303333	781.465820	37.999474
11968.177660	2652.303333	780.272461	-96.231804
11968.177660	2652.303333	779.078125	-81.040939
11968.177660	2652.303333	777.883789	-108.886635
11968.177660	2652.303333	776.688477	32.827663
11968.177660	2652.303333	775.494141	27.738424
11968.177660	2652.303333	774.298828	55.534523
11968.177660	2652.303333	773.103516	58.027748
11968.177660	2652.303333	771.907227	40.291206
11968.177660	2652.303333	770.711914	121.148842
11968.177660	2652.303333	769.515625	126.149384
11968.177660	2652.303333	768.318359	-91.220070
11968.177660	2652.303333	767.122070	7.293141
11968.177660	2652.303333	765.924805	40.092209
11968.177660	2652.303333	764.727539	115.804337
11968.177660	2652.303333	763.530273	67.767693
11968.177660	2652.303333	762.333008	-61.029167
11968.177660	2652.303333	761.134766	188.786118
11968.177660	2652.303333	759.936523	85.243591
11968.177660	2652.303333	758.738281	160.851318
11968.177660	2652.303333	757.540039	100.226265
11968.177660	2652.303333	756.340820	1.798375
11968.177660	2652.303333	755.141602	64.757843
11968.177660	2652.303333	753.942383	117.603935
11968.177660	2652.303333	752.742188	180.503891
11968.177660	2652.303333	751.541992	-101.804268
11968.177660	2652.303333	750.341797	-41.415005
11968.177660	2652.303333	749.141602	26.498569
11968.177660	2652.303333	747.941406	-71.807457
11968.177660	2652.303333	746.740234	64.043106
11968.177660	2652.303333	745.539063	199.830276
11968.177660	2652.303333	744.337891	-9.190826
11968.177660	2652.303333	743.135742	129.057602
11968.177660	2652.303333	741.933594	161.596817
11968.177660	2652.303333	740.731445	113.640427
11968.177660	2652.303333	739.529297	309.581696
11968.177660	2652.303333	738.326172	196.241074
11968.177660	2652.303333	737.124023	105.557388
11968.177660	2652.303333	735.919922	243.560883
11968.177660	2652.303333	734.716797	248.351105
11968.177660	2652.303333	733.513672	137.592758
11968.177660	2652.303333	732.309570	260.407990
11968.177660	2652.303333	731.105469	209.929382
11968.177660	2652.303333	729.900391	151.931458
11968.177660	2652.303333	728.696289	164.214447
11968.177660	2652.303333	727.491211	379.713806
11968.177660	2652.303333	726.286133	261.479675
11968.177660	2652.303333	725.080078	200.967651
11968.177660	2652.303333	723.874023	82.797653
11968.177660	2652.303333	722.668945	84.996452
11968.177660	2652.303333	721.461914	132.298996
11968.177660	2652.303333	720.255859	74.320793
11968.177660	2652.303333	719.048828	51.429272
11968.177660	2652.303333	717.841797	88.649719
11968.177660	2652.303333	716.634766	60.728397
11968.177660	2652.303333	715.427734	55.338825
11968.177660	2652.303333	714.219727	9.885202
11968.177660	2652.303333	713.011719	62.043236
11968.177660	2652.303333	711.803711	-168.586807
11968.177660	2652.303333	710.594727	-23.881525
11968.177660	2652.303333	709.385742	-9.313127
11968.177660	2652.303333	708.176758	27.738672
11968.177660	2652.303333	706.967773	-0.244516
11968.177660	2652.303333	705.758789	-50.729809
11968.177660	2652.303333	704.548828	-8.744756
11968.177660	2652.303333	703.338867	38.202366
11968.177660	2652.303333	702.127930	30.156244
11968.177660	2652.303333	700.917969	77.039215
11968.177660	2652.303333	699.707031	6.526900
11968.177660	2652.303333	698.496094	133.244385
11968.177660	2652.303333	697.285156	-77.060135
11968.177660	2652.303333	696.073242	-27.773674
11968.177660	2652.303333	694.861328	-0.982044
11968.177660	2652.303333	693.649414	-29.097681
11968.177660	2652.303333	692.436523	10.111974
11968.177660	2652.303333	691.224609	-70.394844
11968.177660	2652.303333	690.011719	23.605570
11968.177660	2652.303333	688.798828	134.990875
11968.177660	2652.303333	687.584961	89.328522
11968.177660	2652.303333	686.372070	252.924530
11968.177660	2652.303333	685.158203	264.497620
11968.177660	2652.303333	683.943359	101.731979
11968.177660	2652.303333	682.729492	178.015793
11968.177660	2652.303333	681.514648	241.799088
11968.177660	2652.303333	680.299805	64.138855
11968.177660	2652.303333	679.084961	157.727661
11968.177660	2652.303333	677.869141	189.064468
11968.177660	2652.303333	676.653320	76.115997
11968.177660	2652.303333	675.437500	182.001556
11968.177660	2652.303333	674.221680	143.630554
11968.177660	2652.303333	673.004883	85.366592
11968.177660	2652.303333	671.789063	178.681244
11968.177660	2652.303333	670.571289	234.663956
11968.177660	2652.303333	669.354492	260.790161
11968.177660	2652.303333	668.136719	227.278015
11968.177660	2652.303333	666.919922	193.752090
11968.177660	2652.303333	665.701172	396.031586
11968.177660	2652.303333	664.483398	340.093201
11968.177660	2652.303333	663.264648	256.856049
11968.177660	2652.303333	662.045898	76.877510
11968.177660	2652.303333	660.827148	192.090439
11968.177660	2652.303333	659.608398	170.843201
11968.177660	2652.303333	658.388672	199.158401
11968.177660	2652.303333	657.168945	145.637421
11968.177660	2652.303333	655.949219	139.193100
11968.177660	2652.303333	654.728516	189.705902
11968.177660	2652.303333	653.507813	108.882744
11968.177660	2652.303333	652.287109	171.702438
11968.177660	2652.303333	651.066406	6.670597
11968.177660	2652.303333	649.844727	61.996712
11968.177660	2652.303333	648.623047	156.867813
11968.177660	2652.303333	647.401367	177.433594
11968.177660	2652.303333	646.179688	47.049347
11968.177660	2652.303333	644.957031	151.661270
11968.177660	2652.303333	643.734375	75.676254
11968.177660	2652.303333	642.511719	170.284058
11968.177660	2652.303333	641.289063	321.671539
11968.177660	2652.303333	640.065430	3.412246
11968.177660	2652.303333	638.841797	68.227180
11968.177660	2652.303333	637.618164	56.403294
11968.177660	2652.303333	636.393555	197.674255
11968.177660	2652.303333	635.168945	126.499428
11968.177660	2652.303333	633.944336	154.068619
11968.177660	2652.303333	632.719727	48.311405
11968.177660	2652.303333	631.494141	61.011665
11968.177660	2652.303333	630.269531	16.928896
11968.177660	2652.303333	629.042969	-130.768173
11968.177660	2652.303333	627.817383	-46.623936
11968.177660	2652.303333	626.590820	76.898132
11968.177660	2652.303333	625.365234	72.152023
11968.177660	2652.303333	624.137695	-78.034164
11968.177660	2652.303333	622.911133	111.839958
11968.177660	2652.303333	621.683594	74.958694
11968.177660	2652.303333	620.456055	156.279861
11968.177660	2652.303333	619.228516	-23.485147
11968.177660	2652.303333	618.000977	-21.028252
11968.177660	2652.303333	616.772461	-16.146839
11968.177660	2652.303333	615.543945	-158.953751
11968.177660	2652.303333	614.314453	-58.163410
11968.177660	2652.303333	613.085938	-70.600899
11968.177660	2652.303333	611.856445	96.458755
11968.177660	2652.303333	610.626953	12.618185
11968.177660	2652.303333	609.397461	135.270493
11968.177660	2652.303333	608.166992	53.843746
11968.177660	2652.303333	606.936523	24.017843
11968.177660	2652.303333	605.706055	102.263557
11968.177660	2652.303333	604.474609	-11.140508
11968.177660	2652.303333	603.244141	-50.860722
11968.177660	2652.303333	602.012695	213.833389
11968.177660	2652.303333	600.780273	105.281685
11968.177660	2652.303333	599.548828	139.078247
11968.177660	2652.303333	598.316406	118.846977
11968.177660	2652.303333	597.083984	115.760719
11968.177660	2652.303333	595.851563	83.211723
11968.177660	2652.303333	594.618164	-5.754442
11968.177660	2652.303333	593.384766	111.205597
11968.177660	2652.303333	592.151367	71.221909
11968.177660	2652.303333	590.917969	114.535896
11968.177660	2652.303333	589.683594	182.295105
11968.177660	2652.303333	588.449219	36.897270
11968.177660	2652.303333	587.214844	190.286942
11968.177660	2652.303333	585.979492	17.950026
11968.177660	2652.303333	584.745117	215.273315
11968.177660	2652.303333	583.509766	18.466158
11968.177660	2652.303333	582.273438	-51.059639
11968.177660	2652.303333	581.038086	-103.462006
11968.177660	2652.303333	579.801758	-9.132795
11968.177660	2652.303333	578.565430	-71.367844
11968.177660	2652.303333	577.329102	-87.159035
11968.177660	2652.303333	576.091797	-122.528885
11968.177660	2652.303333	574.854492	10.696108
11968.177660	2652.303333	573.617188	9.462568
11968.177660	2652.303333	572.378906	-84.620712
11968.177660	2652.303333	571.141602	-7.746361
11968.177660	2652.303333	569.903320	37.323849
11968.177660	2652.303333	568.664063	121.399803
11968.177660	2652.303333	567.425781	115.114708
11968.177660	2652.303333	566.186523	16.082678
11968.177660	2652.303333	564.947266	65.872498
11968.177660	2652.303333	563.708008	0.983596
11968.177660	2652.303333	562.467773	-85.852753
11968.177660	2652.303333	561.227539	-101.979797
11968.177660	2652.303333	559.987305	25.679090
11968.177660	2652.303333	558.747070	11.920253
11968.177660	2652.303333	557.505859	-77.386414
11968.177660	2652.303333	556.264648	57.414505
11968.177660	2652.303333	555.023438	-129.324951
11968.177660	2652.303333	553.781250	-74.968315
11968.177660	2652.303333	552.539063	13.421165
11968.177660	2652.303333	551.296875	74.978752
11968.177660	2652.303333	550.054688	-41.136848
11968.177660	2652.303333	548.811523	-47.755985
11968.177660	2652.303333	547.569336	-66.552330
11968.177660	2652.303333	546.325195	-12.416966
11968.177660	2652.303333	545.082031	56.263939
11968.177660	2652.303333	543.837891	105.448235
11968.177660	2652.303333	542.593750	-132.158096
11968.177660	2652.303333	541.349609	169.682312
11968.177660	2652.303333	540.105469	-9.576372
11968.177660	2652.303333	538.860352	66.217377
11968.177660	2652.303333	537.615234	32.700756
11968.177660	2652.303333	536.369141	-17.813120
11968.177660	2652.303333	535.124023	-41.622097
11968.177660	2652.303333	533.877930	-63.012146
11968.177660	2652.303333	532.631836	0.499221
11968.177660	2652.303333	531.384766	22.734367
11968.177660	2652.303333	530.138672	-139.342255
11968.177660	2652.303333	528.891602	135.020920
11968.177660	2652.303333	527.643555	-7.650633
11968.177660	2652.303333	526.396484	65.405930
11968.177660	2652.303333	525.148438	82.692619
11968.177660	2652.303333	523.900391	85.427338
11968.177660	2652.303333	522.652344	204.395355
11968.177660	2652.303333	521.403320	187.710495
11968.177660	2652.303333	520.154297	62.090679
11968.177660	2652.303333	518.905273	154.335342
11968.177660	2652.303333	517.656250	65.055893
11968.177660	2652.303333	516.406250	72.571701
11968.177660	2652.303333	515.156250	167.148560
11968.177660	2652.303333	513.906250	56.138115
11968.177660	2652.303333	512.655273	68.465172
11968.177660	2652.303333	511.404297	124.289070
11968.177660	2652.303333	510.153320	-138.902328
11968.177660	2652.303333	508.902344	-90.314034
11968.177660	2652.303333	507.650391	-36.921177
11968.177660	2652.303333	506.398438	-82.569824
11968.177660	2652.303333	505.146484	-24.378086
11968.177660	2652.303333	503.893555	21.714502
11968.177660	2652.303333	502.641602	34.000145
11968.177660	2652.303333	501.388672	48.690075
11968.177660	2652.303333	500.134766	-59.662003
11968.177660	2652.303333	498.881836	17.750713
11968.177660	2652.303333	497.627930	78.248795
11968.177660	2652.303333	496.374023	-32.448963
11968.177660	2652.303333	495.119141	196.757370
11968.177660	2652.303333	493.865234	119.822464
11968.177660	2652.303333	492.610352	-0.447315
11968.177660	2652.303333	491.355469	64.813698
11968.177660	2652.303333	490.099609	-60.206230
11968.177660	2652.303333	488.843750	-74.412491
11968.177660	2652.303333	487.587891	-115.088470
11968.177660	2652.303333	486.332031	186.009247
11968.177660	2652.303333	485.075195	20.178207
11968.177660	2652.303333	483.818359	176.782455
11968.177660	2652.303333	482.561523	-51.500584
11968.177660	2652.303333	481.304688	-68.073105
11968.177660	2652.303333	480.046875	62.015167
11968.177660	2652.303333	478.789063	143.979706
11968.177660	2652.303333	477.531250	50.489487
11968.177660	2652.303333	476.272461	209.310638
11968.177660	2652.303333	475.013672	77.420700
11968.177660	2652.303333	473.754883	60.865997
11968.177660	2652.303333	472.496094	123.556099
11968.177660	2652.303333	471.236328	212.626602
11968.177660	2652.303333	469.976563	203.264359
11968.177660	2652.303333	468.716797	273.092651
11968.177660	2652.303333	467.456055	146.179077
11968.177660	2652.303333	466.196289	108.067757
11968.177660	2652.303333	464.935547	252.213882
11968.177660	2652.303333	463.673828	307.595093
11968.177660	2652.303333	462.413086	295.845093
11968.177660	2652.303333	461.151367	394.331116
11968.177660	2652.303333	459.889648	214.859665
11968.177660	2652.303333	458.626953	619.919861
11968.177660	2652.303333	457.364258	375.815582
11968.177660	2652.303333	456.101563	574.757080
11968.177660	2652.303333	454.838867	543.809387
11968.177660	2652.303333	453.575195	649.285095
11968.177660	2652.303333	452.312500	749.928284
11968.177660	2652.303333	451.047852	962.952332
11968.177660	2652.303333	449.784180	1053.903809
11968.177660	2652.303333	448.519531	1183.065918
11968.177660	2652.303333	447.254883	1042.018677
11968.177660	2652.303333	445.990234	984.677856
11968.177660	2652.303333	444.725586	843.713867
11968.177660	2652.303333	443.459961	736.242737
11968.177660	2652.303333	442.194336	566.699951
11968.177660	2652.303333	440.927734	349.450867
11968.177660	2652.303333	439.662109	528.614380
11968.177660	2652.303333	438.395508	371.105499
11968.177660	2652.303333	437.127930	227.959259
11968.177660	2652.303333	435.861328	335.384125
11968.177660	2652.303333	434.593750	361.626770
11968.177660	2652.303333	433.326172	323.435394
11968.177660	2652.303333	432.058594	249.462387
11968.177660	2652.303333	430.790039	277.994537
11968.177660	2652.303333	429.521484	137.254883
11968.177660	2652.303333	428.252930	96.619095
11968.177660	2652.303333	426.984375	163.166275
11968.177660	2652.303333	425.714844	243.928238
11968.177660	2652.303333	424.445313	143.622757
11968.177660	2652.303333	423.174805	181.395569
11968.177660	2652.303333	421.905273	-7.031435
11968.177660	2652.303333	420.634766	228.167450
11968.177660	2652.303333	419.364258	168.169525
11968.177660	2652.303333	418.092773	81.961586
11968.177660	2652.303333	416.822266	197.875168
11968.177660	2652.303333	415.550781	168.618286
11968.177660	2652.303333	414.278320	15.675685
11968.177660	2652.303333	413.006836	52.855816
11968.177660	2652.303333	411.734375	130.323364
11968.177660	2652.303333	410.461914	96.006866
11968.177660	2652.303333	409.188477	194.612686
11968.177660	2652.303333	407.916016	181.466721
11968.177660	2652.303333	406.642578	-50.207592
11968.177660	2652.303333	405.368164	142.978989
11968.177660	2652.303333	404.094727	222.055374
11968.177660	2652.303333	402.820313	198.945129
11968.177660	2652.303333	401.545898	-52.007992
11968.177660	2652.303333	400.270508	240.092773
11968.177660	2652.303333	398.996094	285.334930
11968.177660	2652.303333	397.720703	164.463104
11968.177660	2652.303333	396.444336	225.970459
11968.177660	2652.303333	395.168945	325.199890
11968.177660	2652.303333	393.892578	284.436157
11968.177660	2652.303333	392.616211	267.191681
11968.177660	2652.303333	391.339844	209.508301
11968.177660	2652.303333	390.062500	106.663757
11968.177660	2652.303333	388.785156	342.127106
11968.177660	2652.303333	387.507813	127.652420
11968.177660	2652.303333	386.229492	21.870573
11968.177660	2652.303333	384.951172	280.168304
11968.177660	2652.303333	383.672852	235.405319
11968.177660	2652.303333	382.394531	171.491745
11968.177660	2652.303333	381.115234	147.520020
11968.177660	2652.303333	379.835938	28.749525
11968.177660	2652.303333	378.556641	226.361038
11968.177660	2652.303333	377.277344	95.228912
11968.177660	2652.303333	375.997070	-50.333393
11968.177660	2652.303333	374.716797	108.450691
11968.177660	2652.303333	373.435547	44.913029
11968.177660	2652.303333	372.155273	68.394249
11968.177660	2652.303333	370.874023	-14.689305
11968.177660	2652.303333	369.591797	62.309319
11968.177660	2652.303333	368.310547	-40.363388
11968.177660	2652.303333	367.028320	54.688126
11968.177660	2652.303333	365.746094	3.108486
11968.177660	2652.303333	364.463867	-15.876870
11968.177660	2652.303333	363.180664	58.959091
11968.177660	2652.303333	361.897461	53.194855
11968.177660	2652.303333	360.614258	58.736828
11968.177660	2652.303333	359.330078	-164.671661
11968.177660	2652.303333	358.045898	-56.492374
11968.177660	2652.303333	356.761719	-5.383100
11968.177660	2652.303333	355.477539	-124.295525
11968.177660	2652.303333	354.192383	12.754528
11968.177660	2652.303333	352.907227	12.718205
11968.177660	2652.303333	351.622070	-150.206604
11968.177660	2652.303333	350.336914	-64.415260
11968.177660	2652.303333	349.050781	86.515160
11968.177660	2652.303333	347.764648	79.239311
11968.177660	2652.303333	346.477539	71.272827
11968.177660	2652.303333	345.191406	-43.100521
11968.177660	2652.303333	343.904297	-33.666626
11968.177660	2652.303333	342.616211	-39.089088
11968.177660	2652.303333	341.329102	-5.344140
11968.177660	2652.303333	340.041016	81.568909
11968.177660	2652.303333	338.752930	90.180740
11968.177660	2652.303333	337.463867	-68.663818
11968.177660	2652.303333	336.175781	-57.034561
11968.177660	2652.303333	334.886719	52.185585
11968.177660	2652.303333	333.596680	-57.653137
11968.177660	2652.303333	332.307617	-34.737888
11968.177660	2652.303333	331.017578	-73.766586
11968.177660	2652.303333	329.727539	-181.734482
11968.177660	2652.303333	328.436523	67.742416
11968.177660	2652.303333	327.146484	-56.349686
11968.177660	2652.303333	325.855469	69.070831
11968.177660	2652.303333	324.563477	87.931938
11968.177660	2652.303333	323.272461	75.231010
11968.177660	2652.303333	321.980469	66.004578
11968.177660	2652.303333	320.688477	-54.402908
11968.177660	2652.303333	319.395508	-52.059109
11968.177660	2652.303333	318.103516	-34.598969
11968.177660	2652.303333	316.810547	18.913019
11968.177660	2652.303333	315.516602	148.156235
11968.177660	2652.303333	314.223633	147.437378
11968.177660	2652.303333	312.929688	21.409231
11968.177660	2652.303333	311.635742	-141.075470
11968.177660	2652.303333	310.340820	-20.085293
11968.177660	2652.303333	309.045898	-87.509193
11968.177660	2652.303333	307.750977	-56.105091
11968.177660	2652.303333	306.456055	34.341919
11968.177660	2652.303333	305.160156	-2.983149
11968.177660	2652.303333	303.865234	116.685921
11968.177660	2652.303333	302.568359	197.130005
11968.177660	2652.303333	301.272461	79.880165
11968.177660	2652.303333	299.975586	23.732094
11968.177660	2652.303333	298.678711	156.854797
