#X		#Y		#Wave		#Intensity
11876.593617	2928.965000	1999.980469	18.967899
11876.593617	2928.965000	1999.016602	-65.471832
11876.593617	2928.965000	1998.052734	14.745292
11876.593617	2928.965000	1997.087891	134.542984
11876.593617	2928.965000	1996.123047	58.522099
11876.593617	2928.965000	1995.158203	89.012787
11876.593617	2928.965000	1994.193359	-73.729561
11876.593617	2928.965000	1993.228516	45.851711
11876.593617	2928.965000	1992.262695	-84.703339
11876.593617	2928.965000	1991.297852	24.870697
11876.593617	2928.965000	1990.332031	-33.919838
11876.593617	2928.965000	1989.366211	-85.293877
11876.593617	2928.965000	1988.399414	24.133144
11876.593617	2928.965000	1987.433594	163.177032
11876.593617	2928.965000	1986.466797	146.340363
11876.593617	2928.965000	1985.500977	23.164579
11876.593617	2928.965000	1984.534180	-80.211655
11876.593617	2928.965000	1983.567383	14.166054
11876.593617	2928.965000	1982.599609	-17.545103
11876.593617	2928.965000	1981.632813	56.980549
11876.593617	2928.965000	1980.665039	25.236380
11876.593617	2928.965000	1979.697266	13.246575
11876.593617	2928.965000	1978.729492	92.612740
11876.593617	2928.965000	1977.761719	65.770447
11876.593617	2928.965000	1976.792969	46.328789
11876.593617	2928.965000	1975.825195	-5.201969
11876.593617	2928.965000	1974.856445	145.614563
11876.593617	2928.965000	1973.887695	-29.295141
11876.593617	2928.965000	1972.918945	69.648872
11876.593617	2928.965000	1971.949219	-159.458633
11876.593617	2928.965000	1970.980469	-80.270981
11876.593617	2928.965000	1970.010742	75.302292
11876.593617	2928.965000	1969.041016	-97.010674
11876.593617	2928.965000	1968.071289	-5.578746
11876.593617	2928.965000	1967.101563	51.318512
11876.593617	2928.965000	1966.130859	93.408501
11876.593617	2928.965000	1965.161133	172.424530
11876.593617	2928.965000	1964.190430	-39.172512
11876.593617	2928.965000	1963.219727	-162.058899
11876.593617	2928.965000	1962.249023	79.417854
11876.593617	2928.965000	1961.277344	-63.139019
11876.593617	2928.965000	1960.306641	8.437806
11876.593617	2928.965000	1959.334961	-102.071594
11876.593617	2928.965000	1958.363281	-45.273739
11876.593617	2928.965000	1957.391602	28.718103
11876.593617	2928.965000	1956.419922	-81.732300
11876.593617	2928.965000	1955.447266	102.869774
11876.593617	2928.965000	1954.474609	139.927002
11876.593617	2928.965000	1953.501953	39.351921
11876.593617	2928.965000	1952.529297	83.783112
11876.593617	2928.965000	1951.556641	66.786407
11876.593617	2928.965000	1950.583984	79.272804
11876.593617	2928.965000	1949.610352	138.415176
11876.593617	2928.965000	1948.636719	23.219080
11876.593617	2928.965000	1947.663086	-20.741432
11876.593617	2928.965000	1946.689453	53.125736
11876.593617	2928.965000	1945.715820	45.993225
11876.593617	2928.965000	1944.741211	217.965973
11876.593617	2928.965000	1943.767578	124.963303
11876.593617	2928.965000	1942.792969	90.860321
11876.593617	2928.965000	1941.818359	-46.209141
11876.593617	2928.965000	1940.842773	27.612249
11876.593617	2928.965000	1939.868164	101.413635
11876.593617	2928.965000	1938.892578	-64.970917
11876.593617	2928.965000	1937.916992	-106.326599
11876.593617	2928.965000	1936.941406	1.774449
11876.593617	2928.965000	1935.965820	163.725906
11876.593617	2928.965000	1934.990234	-63.739193
11876.593617	2928.965000	1934.013672	39.417080
11876.593617	2928.965000	1933.037109	137.646225
11876.593617	2928.965000	1932.060547	52.286713
11876.593617	2928.965000	1931.083984	-94.208794
11876.593617	2928.965000	1930.107422	-93.849030
11876.593617	2928.965000	1929.129883	-186.434464
11876.593617	2928.965000	1928.153320	68.303398
11876.593617	2928.965000	1927.175781	75.989647
11876.593617	2928.965000	1926.198242	34.786591
11876.593617	2928.965000	1925.219727	-45.503231
11876.593617	2928.965000	1924.242188	133.289429
11876.593617	2928.965000	1923.263672	65.243317
11876.593617	2928.965000	1922.285156	46.087532
11876.593617	2928.965000	1921.306641	56.256088
11876.593617	2928.965000	1920.328125	-109.395615
11876.593617	2928.965000	1919.349609	-13.733891
11876.593617	2928.965000	1918.370117	-20.627100
11876.593617	2928.965000	1917.391602	-95.847115
11876.593617	2928.965000	1916.412109	65.662880
11876.593617	2928.965000	1915.431641	88.055595
11876.593617	2928.965000	1914.452148	17.755394
11876.593617	2928.965000	1913.472656	15.773746
11876.593617	2928.965000	1912.492188	18.675861
11876.593617	2928.965000	1911.511719	-5.234151
11876.593617	2928.965000	1910.531250	-53.503834
11876.593617	2928.965000	1909.550781	-62.757881
11876.593617	2928.965000	1908.569336	98.553772
11876.593617	2928.965000	1907.588867	-52.006508
11876.593617	2928.965000	1906.607422	179.885712
11876.593617	2928.965000	1905.625977	29.376263
11876.593617	2928.965000	1904.644531	22.575741
11876.593617	2928.965000	1903.662109	64.466331
11876.593617	2928.965000	1902.680664	-102.960487
11876.593617	2928.965000	1901.698242	114.146591
11876.593617	2928.965000	1900.715820	124.381561
11876.593617	2928.965000	1899.733398	32.453632
11876.593617	2928.965000	1898.750000	-20.525640
11876.593617	2928.965000	1897.767578	108.882423
11876.593617	2928.965000	1896.784180	38.897289
11876.593617	2928.965000	1895.800781	-69.949593
11876.593617	2928.965000	1894.817383	202.781418
11876.593617	2928.965000	1893.833984	174.129089
11876.593617	2928.965000	1892.850586	150.347504
11876.593617	2928.965000	1891.866211	43.995979
11876.593617	2928.965000	1890.881836	153.808044
11876.593617	2928.965000	1889.897461	-158.872879
11876.593617	2928.965000	1888.913086	-0.514864
11876.593617	2928.965000	1887.927734	-162.577698
11876.593617	2928.965000	1886.943359	73.370377
11876.593617	2928.965000	1885.958008	-32.846722
11876.593617	2928.965000	1884.972656	-97.790382
11876.593617	2928.965000	1883.987305	9.476049
11876.593617	2928.965000	1883.001953	22.136318
11876.593617	2928.965000	1882.015625	-64.604828
11876.593617	2928.965000	1881.029297	83.792755
11876.593617	2928.965000	1880.042969	81.884377
11876.593617	2928.965000	1879.056641	-41.171154
11876.593617	2928.965000	1878.070313	-9.148609
11876.593617	2928.965000	1877.083984	100.362282
11876.593617	2928.965000	1876.096680	98.436363
11876.593617	2928.965000	1875.109375	14.189936
11876.593617	2928.965000	1874.122070	-26.458427
11876.593617	2928.965000	1873.134766	-40.475410
11876.593617	2928.965000	1872.146484	3.579511
11876.593617	2928.965000	1871.159180	-12.869224
11876.593617	2928.965000	1870.170898	9.382079
11876.593617	2928.965000	1869.182617	-98.973114
11876.593617	2928.965000	1868.194336	56.256229
11876.593617	2928.965000	1867.205078	97.799156
11876.593617	2928.965000	1866.216797	-66.126381
11876.593617	2928.965000	1865.227539	-5.260605
11876.593617	2928.965000	1864.238281	-7.244985
11876.593617	2928.965000	1863.249023	-50.304031
11876.593617	2928.965000	1862.259766	-57.129063
11876.593617	2928.965000	1861.269531	179.925446
11876.593617	2928.965000	1860.279297	-63.560287
11876.593617	2928.965000	1859.290039	-22.134373
11876.593617	2928.965000	1858.298828	-72.444527
11876.593617	2928.965000	1857.308594	116.131744
11876.593617	2928.965000	1856.318359	109.215530
11876.593617	2928.965000	1855.327148	133.644653
11876.593617	2928.965000	1854.335938	-25.226185
11876.593617	2928.965000	1853.344727	-41.796291
11876.593617	2928.965000	1852.353516	168.227402
11876.593617	2928.965000	1851.362305	28.678953
11876.593617	2928.965000	1850.370117	28.933247
11876.593617	2928.965000	1849.377930	82.176605
11876.593617	2928.965000	1848.385742	-52.504936
11876.593617	2928.965000	1847.393555	-177.518021
11876.593617	2928.965000	1846.401367	49.057377
11876.593617	2928.965000	1845.408203	20.337742
11876.593617	2928.965000	1844.415039	71.043671
11876.593617	2928.965000	1843.421875	-90.065468
11876.593617	2928.965000	1842.428711	-27.363102
11876.593617	2928.965000	1841.435547	-65.740242
11876.593617	2928.965000	1840.441406	47.406353
11876.593617	2928.965000	1839.448242	73.920311
11876.593617	2928.965000	1838.454102	76.361015
11876.593617	2928.965000	1837.459961	-29.392616
11876.593617	2928.965000	1836.464844	85.985718
11876.593617	2928.965000	1835.470703	-113.485863
11876.593617	2928.965000	1834.475586	66.690834
11876.593617	2928.965000	1833.480469	177.118454
11876.593617	2928.965000	1832.485352	6.496308
11876.593617	2928.965000	1831.490234	73.629723
11876.593617	2928.965000	1830.495117	54.289810
11876.593617	2928.965000	1829.499023	109.340851
11876.593617	2928.965000	1828.502930	-18.035322
11876.593617	2928.965000	1827.506836	-30.219912
11876.593617	2928.965000	1826.510742	43.936146
11876.593617	2928.965000	1825.513672	149.218430
11876.593617	2928.965000	1824.517578	144.130386
11876.593617	2928.965000	1823.520508	33.526737
11876.593617	2928.965000	1822.523438	88.337502
11876.593617	2928.965000	1821.526367	18.477398
11876.593617	2928.965000	1820.529297	161.876266
11876.593617	2928.965000	1819.531250	-3.853788
11876.593617	2928.965000	1818.533203	93.930771
11876.593617	2928.965000	1817.535156	-43.040386
11876.593617	2928.965000	1816.537109	73.814438
11876.593617	2928.965000	1815.539063	389.291809
11876.593617	2928.965000	1814.540039	32.059887
11876.593617	2928.965000	1813.541992	175.072906
11876.593617	2928.965000	1812.542969	128.990219
11876.593617	2928.965000	1811.543945	113.993172
11876.593617	2928.965000	1810.543945	96.578911
11876.593617	2928.965000	1809.544922	158.052017
11876.593617	2928.965000	1808.544922	123.841164
11876.593617	2928.965000	1807.544922	68.099495
11876.593617	2928.965000	1806.544922	29.077705
11876.593617	2928.965000	1805.544922	68.888809
11876.593617	2928.965000	1804.544922	94.320610
11876.593617	2928.965000	1803.543945	24.169422
11876.593617	2928.965000	1802.542969	-67.479324
11876.593617	2928.965000	1801.541992	86.795494
11876.593617	2928.965000	1800.541016	145.494598
11876.593617	2928.965000	1799.539063	94.349266
11876.593617	2928.965000	1798.538086	-4.532516
11876.593617	2928.965000	1797.536133	-0.823261
11876.593617	2928.965000	1796.534180	43.401054
11876.593617	2928.965000	1795.532227	-43.592705
11876.593617	2928.965000	1794.529297	-20.906435
11876.593617	2928.965000	1793.527344	168.617050
11876.593617	2928.965000	1792.524414	-16.180431
11876.593617	2928.965000	1791.521484	61.194679
11876.593617	2928.965000	1790.518555	-102.138206
11876.593617	2928.965000	1789.514648	29.941061
11876.593617	2928.965000	1788.511719	-23.836267
11876.593617	2928.965000	1787.507813	150.969971
11876.593617	2928.965000	1786.503906	13.788080
11876.593617	2928.965000	1785.500000	-47.206341
11876.593617	2928.965000	1784.496094	10.781452
11876.593617	2928.965000	1783.491211	147.230316
11876.593617	2928.965000	1782.486328	50.448093
11876.593617	2928.965000	1781.481445	20.265196
11876.593617	2928.965000	1780.476563	37.618969
11876.593617	2928.965000	1779.471680	-33.043964
11876.593617	2928.965000	1778.465820	-63.308376
11876.593617	2928.965000	1777.460938	44.256042
11876.593617	2928.965000	1776.455078	61.439342
11876.593617	2928.965000	1775.449219	-6.951812
11876.593617	2928.965000	1774.442383	-68.231804
11876.593617	2928.965000	1773.436523	1.097843
11876.593617	2928.965000	1772.429688	134.471451
11876.593617	2928.965000	1771.422852	89.702690
11876.593617	2928.965000	1770.416016	-7.306696
11876.593617	2928.965000	1769.409180	-4.645671
11876.593617	2928.965000	1768.402344	114.236946
11876.593617	2928.965000	1767.394531	-46.891907
11876.593617	2928.965000	1766.386719	86.103424
11876.593617	2928.965000	1765.378906	0.845905
11876.593617	2928.965000	1764.371094	-41.742168
11876.593617	2928.965000	1763.362305	50.757877
11876.593617	2928.965000	1762.354492	74.456703
11876.593617	2928.965000	1761.345703	76.778625
11876.593617	2928.965000	1760.336914	-63.085785
11876.593617	2928.965000	1759.328125	3.134924
11876.593617	2928.965000	1758.318359	-60.962997
11876.593617	2928.965000	1757.308594	-132.179077
11876.593617	2928.965000	1756.299805	-101.611992
11876.593617	2928.965000	1755.290039	-19.029259
11876.593617	2928.965000	1754.279297	151.034332
11876.593617	2928.965000	1753.269531	56.012909
11876.593617	2928.965000	1752.258789	81.623131
11876.593617	2928.965000	1751.249023	130.837372
11876.593617	2928.965000	1750.238281	97.229088
11876.593617	2928.965000	1749.226563	-94.806793
11876.593617	2928.965000	1748.215820	32.290710
11876.593617	2928.965000	1747.204102	93.125130
11876.593617	2928.965000	1746.193359	-46.935749
11876.593617	2928.965000	1745.181641	44.520550
11876.593617	2928.965000	1744.168945	1.271299
11876.593617	2928.965000	1743.157227	102.049271
11876.593617	2928.965000	1742.144531	-47.518917
11876.593617	2928.965000	1741.132813	-123.889786
11876.593617	2928.965000	1740.120117	-134.193192
11876.593617	2928.965000	1739.106445	-102.063934
11876.593617	2928.965000	1738.093750	7.870291
11876.593617	2928.965000	1737.080078	51.674259
11876.593617	2928.965000	1736.067383	-81.445076
11876.593617	2928.965000	1735.053711	-146.180405
11876.593617	2928.965000	1734.040039	-109.563698
11876.593617	2928.965000	1733.025391	-54.149857
11876.593617	2928.965000	1732.011719	69.545242
11876.593617	2928.965000	1730.997070	-162.609848
11876.593617	2928.965000	1729.982422	-234.537048
11876.593617	2928.965000	1728.967773	9.110441
11876.593617	2928.965000	1727.952148	-72.323517
11876.593617	2928.965000	1726.937500	114.620186
11876.593617	2928.965000	1725.921875	226.128143
11876.593617	2928.965000	1724.906250	22.209293
11876.593617	2928.965000	1723.890625	-19.322241
11876.593617	2928.965000	1722.875000	-56.171879
11876.593617	2928.965000	1721.858398	-116.570168
11876.593617	2928.965000	1720.841797	-115.843918
11876.593617	2928.965000	1719.825195	30.609556
11876.593617	2928.965000	1718.808594	-168.571869
11876.593617	2928.965000	1717.791992	-29.290844
11876.593617	2928.965000	1716.774414	-125.077866
11876.593617	2928.965000	1715.756836	70.443558
11876.593617	2928.965000	1714.739258	16.877630
11876.593617	2928.965000	1713.721680	45.487732
11876.593617	2928.965000	1712.704102	-40.997913
11876.593617	2928.965000	1711.685547	1.618091
11876.593617	2928.965000	1710.667969	11.327294
11876.593617	2928.965000	1709.649414	150.053055
11876.593617	2928.965000	1708.630859	56.423130
11876.593617	2928.965000	1707.611328	-4.373025
11876.593617	2928.965000	1706.592773	16.905935
11876.593617	2928.965000	1705.573242	-20.483368
11876.593617	2928.965000	1704.553711	136.684616
11876.593617	2928.965000	1703.534180	19.523895
11876.593617	2928.965000	1702.513672	38.286312
11876.593617	2928.965000	1701.494141	66.383461
11876.593617	2928.965000	1700.473633	10.099030
11876.593617	2928.965000	1699.453125	24.064009
11876.593617	2928.965000	1698.432617	138.679062
11876.593617	2928.965000	1697.412109	54.216427
11876.593617	2928.965000	1696.390625	98.486877
11876.593617	2928.965000	1695.369141	-21.112337
11876.593617	2928.965000	1694.347656	48.826786
11876.593617	2928.965000	1693.326172	-9.959620
11876.593617	2928.965000	1692.304688	20.122972
11876.593617	2928.965000	1691.282227	-43.382370
11876.593617	2928.965000	1690.260742	-6.355337
11876.593617	2928.965000	1689.238281	198.925629
11876.593617	2928.965000	1688.214844	25.475878
11876.593617	2928.965000	1687.192383	263.322662
11876.593617	2928.965000	1686.168945	68.839203
11876.593617	2928.965000	1685.146484	75.281876
11876.593617	2928.965000	1684.123047	2.285067
11876.593617	2928.965000	1683.099609	155.769852
11876.593617	2928.965000	1682.075195	-19.995331
11876.593617	2928.965000	1681.051758	84.361336
11876.593617	2928.965000	1680.027344	64.966728
11876.593617	2928.965000	1679.002930	-94.435211
11876.593617	2928.965000	1677.978516	198.727158
11876.593617	2928.965000	1676.953125	209.547882
11876.593617	2928.965000	1675.928711	12.818447
11876.593617	2928.965000	1674.903320	116.867165
11876.593617	2928.965000	1673.877930	78.667137
11876.593617	2928.965000	1672.852539	70.750969
11876.593617	2928.965000	1671.826172	204.931320
11876.593617	2928.965000	1670.800781	264.496063
11876.593617	2928.965000	1669.774414	86.444160
11876.593617	2928.965000	1668.748047	124.994972
11876.593617	2928.965000	1667.721680	91.332466
11876.593617	2928.965000	1666.694336	-33.127258
11876.593617	2928.965000	1665.667969	389.345276
11876.593617	2928.965000	1664.640625	118.240120
11876.593617	2928.965000	1663.613281	151.967117
11876.593617	2928.965000	1662.585938	294.974915
11876.593617	2928.965000	1661.557617	354.183472
11876.593617	2928.965000	1660.530273	257.577332
11876.593617	2928.965000	1659.501953	233.041840
11876.593617	2928.965000	1658.473633	241.030960
11876.593617	2928.965000	1657.444336	409.321960
11876.593617	2928.965000	1656.416016	145.418167
11876.593617	2928.965000	1655.386719	292.716461
11876.593617	2928.965000	1654.358398	161.268082
11876.593617	2928.965000	1653.328125	529.036743
11876.593617	2928.965000	1652.298828	355.763733
11876.593617	2928.965000	1651.269531	403.028992
11876.593617	2928.965000	1650.239258	385.277679
11876.593617	2928.965000	1649.208984	314.154388
11876.593617	2928.965000	1648.178711	291.753265
11876.593617	2928.965000	1647.148438	357.471252
11876.593617	2928.965000	1646.117188	330.392151
11876.593617	2928.965000	1645.086914	449.364319
11876.593617	2928.965000	1644.055664	457.013947
11876.593617	2928.965000	1643.024414	531.848877
11876.593617	2928.965000	1641.992188	465.301544
11876.593617	2928.965000	1640.960938	512.278992
11876.593617	2928.965000	1639.928711	380.884857
11876.593617	2928.965000	1638.896484	492.662231
11876.593617	2928.965000	1637.864258	504.833252
11876.593617	2928.965000	1636.832031	544.763611
11876.593617	2928.965000	1635.798828	512.918945
11876.593617	2928.965000	1634.766602	661.554932
11876.593617	2928.965000	1633.733398	476.997864
11876.593617	2928.965000	1632.699219	882.277405
11876.593617	2928.965000	1631.666016	706.977600
11876.593617	2928.965000	1630.632813	598.783630
11876.593617	2928.965000	1629.598633	733.326233
11876.593617	2928.965000	1628.564453	645.943359
11876.593617	2928.965000	1627.530273	701.845642
11876.593617	2928.965000	1626.495117	875.530640
11876.593617	2928.965000	1625.460938	880.537659
11876.593617	2928.965000	1624.425781	705.404602
11876.593617	2928.965000	1623.390625	717.349487
11876.593617	2928.965000	1622.355469	821.617981
11876.593617	2928.965000	1621.319336	838.132629
11876.593617	2928.965000	1620.284180	820.030273
11876.593617	2928.965000	1619.248047	677.343933
11876.593617	2928.965000	1618.211914	693.863037
11876.593617	2928.965000	1617.174805	747.265015
11876.593617	2928.965000	1616.138672	867.513794
11876.593617	2928.965000	1615.101563	754.876892
11876.593617	2928.965000	1614.065430	704.518494
11876.593617	2928.965000	1613.027344	909.946472
11876.593617	2928.965000	1611.990234	790.450745
11876.593617	2928.965000	1610.953125	666.394409
11876.593617	2928.965000	1609.915039	726.619873
11876.593617	2928.965000	1608.876953	745.375488
11876.593617	2928.965000	1607.838867	897.647156
11876.593617	2928.965000	1606.800781	1026.843506
11876.593617	2928.965000	1605.761719	930.468262
11876.593617	2928.965000	1604.723633	914.664917
11876.593617	2928.965000	1603.684570	983.975586
11876.593617	2928.965000	1602.644531	977.360596
11876.593617	2928.965000	1601.605469	984.554443
11876.593617	2928.965000	1600.566406	844.617432
11876.593617	2928.965000	1599.526367	801.269958
11876.593617	2928.965000	1598.486328	923.405884
11876.593617	2928.965000	1597.446289	958.190796
11876.593617	2928.965000	1596.405273	875.806030
11876.593617	2928.965000	1595.365234	912.896118
11876.593617	2928.965000	1594.324219	977.527588
11876.593617	2928.965000	1593.283203	970.972046
11876.593617	2928.965000	1592.242188	1072.309204
11876.593617	2928.965000	1591.200195	983.130615
11876.593617	2928.965000	1590.159180	793.046509
11876.593617	2928.965000	1589.117188	1038.903687
11876.593617	2928.965000	1588.075195	929.171265
11876.593617	2928.965000	1587.032227	931.849915
11876.593617	2928.965000	1585.990234	952.886719
11876.593617	2928.965000	1584.947266	1019.765381
11876.593617	2928.965000	1583.904297	974.332642
11876.593617	2928.965000	1582.861328	853.316589
11876.593617	2928.965000	1581.818359	778.178589
11876.593617	2928.965000	1580.775391	929.837158
11876.593617	2928.965000	1579.731445	857.026611
11876.593617	2928.965000	1578.687500	1036.107422
11876.593617	2928.965000	1577.643555	1082.367065
11876.593617	2928.965000	1576.598633	1121.751953
11876.593617	2928.965000	1575.554688	904.865906
11876.593617	2928.965000	1574.509766	877.958679
11876.593617	2928.965000	1573.464844	771.024292
11876.593617	2928.965000	1572.419922	1078.069092
11876.593617	2928.965000	1571.374023	886.570740
11876.593617	2928.965000	1570.329102	971.771667
11876.593617	2928.965000	1569.283203	828.403076
11876.593617	2928.965000	1568.237305	785.652344
11876.593617	2928.965000	1567.191406	886.868591
11876.593617	2928.965000	1566.144531	841.874268
11876.593617	2928.965000	1565.098633	712.427124
11876.593617	2928.965000	1564.051758	763.424805
11876.593617	2928.965000	1563.004883	832.687195
11876.593617	2928.965000	1561.957031	824.338745
11876.593617	2928.965000	1560.910156	806.894775
11876.593617	2928.965000	1559.862305	686.808716
11876.593617	2928.965000	1558.814453	719.623047
11876.593617	2928.965000	1557.766602	674.909607
11876.593617	2928.965000	1556.718750	445.548645
11876.593617	2928.965000	1555.669922	608.402039
11876.593617	2928.965000	1554.621094	654.977112
11876.593617	2928.965000	1553.573242	635.481140
11876.593617	2928.965000	1552.523438	631.956970
11876.593617	2928.965000	1551.474609	758.307068
11876.593617	2928.965000	1550.424805	454.194214
11876.593617	2928.965000	1549.375000	755.907837
11876.593617	2928.965000	1548.325195	670.519592
11876.593617	2928.965000	1547.275391	744.521179
11876.593617	2928.965000	1546.225586	570.477539
11876.593617	2928.965000	1545.174805	612.671570
11876.593617	2928.965000	1544.124023	654.878784
11876.593617	2928.965000	1543.073242	574.289185
11876.593617	2928.965000	1542.022461	468.749817
11876.593617	2928.965000	1540.970703	531.510559
11876.593617	2928.965000	1539.919922	739.753601
11876.593617	2928.965000	1538.868164	529.801514
11876.593617	2928.965000	1537.815430	551.709595
11876.593617	2928.965000	1536.763672	603.179260
11876.593617	2928.965000	1535.710938	454.795074
11876.593617	2928.965000	1534.659180	458.647064
11876.593617	2928.965000	1533.606445	460.257446
11876.593617	2928.965000	1532.552734	627.594421
11876.593617	2928.965000	1531.500000	658.742981
11876.593617	2928.965000	1530.446289	583.272339
11876.593617	2928.965000	1529.393555	621.296570
11876.593617	2928.965000	1528.338867	507.376190
11876.593617	2928.965000	1527.285156	309.641876
11876.593617	2928.965000	1526.231445	284.325287
11876.593617	2928.965000	1525.176758	533.321411
11876.593617	2928.965000	1524.122070	297.283905
11876.593617	2928.965000	1523.067383	303.817719
11876.593617	2928.965000	1522.012695	414.594086
11876.593617	2928.965000	1520.957031	366.819580
11876.593617	2928.965000	1519.901367	552.342163
11876.593617	2928.965000	1518.845703	314.464874
11876.593617	2928.965000	1517.790039	332.504486
11876.593617	2928.965000	1516.734375	350.577576
11876.593617	2928.965000	1515.677734	271.386993
11876.593617	2928.965000	1514.621094	300.855652
11876.593617	2928.965000	1513.564453	280.597198
11876.593617	2928.965000	1512.507813	364.409760
11876.593617	2928.965000	1511.450195	423.358704
11876.593617	2928.965000	1510.393555	310.541931
11876.593617	2928.965000	1509.335938	175.208939
11876.593617	2928.965000	1508.278320	150.690567
11876.593617	2928.965000	1507.219727	225.621643
11876.593617	2928.965000	1506.162109	-78.874908
11876.593617	2928.965000	1505.103516	-58.033604
11876.593617	2928.965000	1504.044922	274.411743
11876.593617	2928.965000	1502.986328	89.854965
11876.593617	2928.965000	1501.926758	88.217239
11876.593617	2928.965000	1500.868164	131.758743
11876.593617	2928.965000	1499.808594	116.671150
11876.593617	2928.965000	1498.749023	85.849297
11876.593617	2928.965000	1497.688477	194.896164
11876.593617	2928.965000	1496.628906	24.383068
11876.593617	2928.965000	1495.568359	-33.310474
11876.593617	2928.965000	1494.507813	-95.440193
11876.593617	2928.965000	1493.447266	58.815456
11876.593617	2928.965000	1492.386719	-82.056931
11876.593617	2928.965000	1491.325195	290.707977
11876.593617	2928.965000	1490.263672	-16.699451
11876.593617	2928.965000	1489.202148	-101.039734
11876.593617	2928.965000	1488.140625	75.820190
11876.593617	2928.965000	1487.079102	-26.408489
11876.593617	2928.965000	1486.016602	-13.792253
11876.593617	2928.965000	1484.954102	165.344345
11876.593617	2928.965000	1483.891602	-15.412550
11876.593617	2928.965000	1482.829102	100.792770
11876.593617	2928.965000	1481.765625	50.626442
11876.593617	2928.965000	1480.702148	200.595703
11876.593617	2928.965000	1479.638672	-51.713276
11876.593617	2928.965000	1478.575195	-58.966324
11876.593617	2928.965000	1477.511719	30.456881
11876.593617	2928.965000	1476.447266	-46.296822
11876.593617	2928.965000	1475.382813	40.940678
11876.593617	2928.965000	1474.318359	316.727173
11876.593617	2928.965000	1473.253906	291.820709
11876.593617	2928.965000	1472.189453	354.304413
11876.593617	2928.965000	1471.124023	414.693542
11876.593617	2928.965000	1470.058594	266.543610
11876.593617	2928.965000	1468.993164	365.250336
11876.593617	2928.965000	1467.927734	448.212280
11876.593617	2928.965000	1466.861328	259.867737
11876.593617	2928.965000	1465.794922	448.235870
11876.593617	2928.965000	1464.728516	347.829498
11876.593617	2928.965000	1463.662109	403.980835
11876.593617	2928.965000	1462.594727	484.767029
11876.593617	2928.965000	1461.528320	717.830139
11876.593617	2928.965000	1460.460938	500.749115
11876.593617	2928.965000	1459.393555	610.617065
11876.593617	2928.965000	1458.326172	541.860901
11876.593617	2928.965000	1457.257813	384.019806
11876.593617	2928.965000	1456.189453	288.465088
11876.593617	2928.965000	1455.121094	353.943848
11876.593617	2928.965000	1454.052734	280.370270
11876.593617	2928.965000	1452.984375	385.903656
11876.593617	2928.965000	1451.915039	409.189972
11876.593617	2928.965000	1450.845703	287.895050
11876.593617	2928.965000	1449.776367	371.234802
11876.593617	2928.965000	1448.707031	222.883118
11876.593617	2928.965000	1447.636719	357.661987
11876.593617	2928.965000	1446.567383	457.801727
11876.593617	2928.965000	1445.497070	200.110382
11876.593617	2928.965000	1444.425781	356.990448
11876.593617	2928.965000	1443.355469	405.581177
11876.593617	2928.965000	1442.285156	254.169418
11876.593617	2928.965000	1441.213867	245.838211
11876.593617	2928.965000	1440.142578	283.173706
11876.593617	2928.965000	1439.070313	406.364441
11876.593617	2928.965000	1437.999023	427.338104
11876.593617	2928.965000	1436.926758	371.472900
11876.593617	2928.965000	1435.854492	391.504089
11876.593617	2928.965000	1434.782227	422.291077
11876.593617	2928.965000	1433.709961	394.549683
11876.593617	2928.965000	1432.636719	412.431702
11876.593617	2928.965000	1431.563477	375.725891
11876.593617	2928.965000	1430.490234	324.094391
11876.593617	2928.965000	1429.416992	253.532288
11876.593617	2928.965000	1428.343750	231.544464
11876.593617	2928.965000	1427.269531	137.105209
11876.593617	2928.965000	1426.195313	142.328201
11876.593617	2928.965000	1425.121094	247.418488
11876.593617	2928.965000	1424.046875	298.939514
11876.593617	2928.965000	1422.971680	383.541595
11876.593617	2928.965000	1421.896484	347.805878
11876.593617	2928.965000	1420.821289	319.075134
11876.593617	2928.965000	1419.746094	268.308289
11876.593617	2928.965000	1418.669922	164.000565
11876.593617	2928.965000	1417.594727	243.626251
11876.593617	2928.965000	1416.518555	264.158325
11876.593617	2928.965000	1415.442383	207.277206
11876.593617	2928.965000	1414.365234	294.212708
11876.593617	2928.965000	1413.289063	244.187683
11876.593617	2928.965000	1412.211914	176.060287
11876.593617	2928.965000	1411.134766	163.561523
11876.593617	2928.965000	1410.057617	197.283066
11876.593617	2928.965000	1408.979492	321.441284
11876.593617	2928.965000	1407.902344	184.099365
11876.593617	2928.965000	1406.824219	274.403015
11876.593617	2928.965000	1405.746094	305.205017
11876.593617	2928.965000	1404.666992	401.728760
11876.593617	2928.965000	1403.588867	430.813324
11876.593617	2928.965000	1402.509766	316.050171
11876.593617	2928.965000	1401.430664	506.148285
11876.593617	2928.965000	1400.351563	365.356567
11876.593617	2928.965000	1399.271484	418.556885
11876.593617	2928.965000	1398.192383	118.170700
11876.593617	2928.965000	1397.112305	458.468750
11876.593617	2928.965000	1396.031250	429.758636
11876.593617	2928.965000	1394.951172	566.763306
11876.593617	2928.965000	1393.871094	504.117676
11876.593617	2928.965000	1392.790039	388.158844
11876.593617	2928.965000	1391.708984	412.244781
11876.593617	2928.965000	1390.626953	560.072144
11876.593617	2928.965000	1389.545898	417.646515
11876.593617	2928.965000	1388.463867	436.921997
11876.593617	2928.965000	1387.381836	259.387177
11876.593617	2928.965000	1386.299805	338.481262
11876.593617	2928.965000	1385.217773	289.704071
11876.593617	2928.965000	1384.134766	410.748688
11876.593617	2928.965000	1383.051758	643.376831
11876.593617	2928.965000	1381.968750	369.219116
11876.593617	2928.965000	1380.885742	563.818359
11876.593617	2928.965000	1379.802734	435.570831
11876.593617	2928.965000	1378.718750	527.203979
11876.593617	2928.965000	1377.634766	466.755676
11876.593617	2928.965000	1376.550781	623.347717
11876.593617	2928.965000	1375.465820	542.207703
11876.593617	2928.965000	1374.381836	477.624969
11876.593617	2928.965000	1373.296875	501.697510
11876.593617	2928.965000	1372.211914	459.150391
11876.593617	2928.965000	1371.126953	444.475586
11876.593617	2928.965000	1370.041016	418.524933
11876.593617	2928.965000	1368.955078	538.383667
11876.593617	2928.965000	1367.869141	443.546661
11876.593617	2928.965000	1366.783203	414.185547
11876.593617	2928.965000	1365.697266	462.000244
11876.593617	2928.965000	1364.610352	428.937561
11876.593617	2928.965000	1363.523438	276.036591
11876.593617	2928.965000	1362.436523	424.289246
11876.593617	2928.965000	1361.349609	489.008698
11876.593617	2928.965000	1360.261719	481.539429
11876.593617	2928.965000	1359.174805	332.364563
11876.593617	2928.965000	1358.086914	527.340332
11876.593617	2928.965000	1356.998047	423.814301
11876.593617	2928.965000	1355.910156	297.639343
11876.593617	2928.965000	1354.821289	401.133911
11876.593617	2928.965000	1353.732422	245.963547
11876.593617	2928.965000	1352.643555	327.988342
11876.593617	2928.965000	1351.554688	368.733307
11876.593617	2928.965000	1350.464844	367.334381
11876.593617	2928.965000	1349.375000	398.858246
11876.593617	2928.965000	1348.285156	366.286041
11876.593617	2928.965000	1347.195313	490.704346
11876.593617	2928.965000	1346.105469	356.728088
11876.593617	2928.965000	1345.014648	488.691559
11876.593617	2928.965000	1343.923828	329.082153
11876.593617	2928.965000	1342.833008	505.291168
11876.593617	2928.965000	1341.741211	393.702759
11876.593617	2928.965000	1340.650391	401.150116
11876.593617	2928.965000	1339.558594	390.763336
11876.593617	2928.965000	1338.466797	369.540344
11876.593617	2928.965000	1337.374023	395.026642
11876.593617	2928.965000	1336.282227	252.002304
11876.593617	2928.965000	1335.189453	270.184662
11876.593617	2928.965000	1334.096680	278.461121
11876.593617	2928.965000	1333.003906	441.137939
11876.593617	2928.965000	1331.910156	300.966919
11876.593617	2928.965000	1330.817383	213.297928
11876.593617	2928.965000	1329.723633	164.929825
11876.593617	2928.965000	1328.629883	137.358170
11876.593617	2928.965000	1327.535156	339.434448
11876.593617	2928.965000	1326.441406	414.649902
11876.593617	2928.965000	1325.346680	409.485260
11876.593617	2928.965000	1324.251953	379.168365
11876.593617	2928.965000	1323.156250	422.790100
11876.593617	2928.965000	1322.061523	412.192932
11876.593617	2928.965000	1320.965820	375.748566
11876.593617	2928.965000	1319.870117	466.388702
11876.593617	2928.965000	1318.774414	288.025116
11876.593617	2928.965000	1317.678711	320.785309
11876.593617	2928.965000	1316.582031	391.272095
11876.593617	2928.965000	1315.485352	461.909271
11876.593617	2928.965000	1314.388672	334.471832
11876.593617	2928.965000	1313.291016	410.959167
11876.593617	2928.965000	1312.194336	322.299042
11876.593617	2928.965000	1311.096680	196.552185
11876.593617	2928.965000	1309.999023	273.298492
11876.593617	2928.965000	1308.901367	317.858795
11876.593617	2928.965000	1307.802734	267.412384
11876.593617	2928.965000	1306.705078	214.053619
11876.593617	2928.965000	1305.606445	435.689301
11876.593617	2928.965000	1304.506836	359.690186
11876.593617	2928.965000	1303.408203	430.857513
11876.593617	2928.965000	1302.308594	439.743744
11876.593617	2928.965000	1301.208984	329.294678
11876.593617	2928.965000	1300.109375	399.800903
11876.593617	2928.965000	1299.009766	504.549103
11876.593617	2928.965000	1297.909180	487.600616
11876.593617	2928.965000	1296.808594	479.370819
11876.593617	2928.965000	1295.708008	548.151245
11876.593617	2928.965000	1294.607422	457.537231
11876.593617	2928.965000	1293.506836	464.279266
11876.593617	2928.965000	1292.405273	248.492538
11876.593617	2928.965000	1291.303711	228.581558
11876.593617	2928.965000	1290.202148	350.121063
11876.593617	2928.965000	1289.099609	455.116913
11876.593617	2928.965000	1287.998047	331.061951
11876.593617	2928.965000	1286.895508	133.988892
11876.593617	2928.965000	1285.792969	185.081375
11876.593617	2928.965000	1284.689453	151.665710
11876.593617	2928.965000	1283.586914	216.759857
11876.593617	2928.965000	1282.483398	268.447540
11876.593617	2928.965000	1281.379883	234.545120
11876.593617	2928.965000	1280.276367	190.706421
11876.593617	2928.965000	1279.171875	215.218811
11876.593617	2928.965000	1278.067383	392.870239
11876.593617	2928.965000	1276.962891	244.835083
11876.593617	2928.965000	1275.858398	133.659729
11876.593617	2928.965000	1274.753906	275.190430
11876.593617	2928.965000	1273.648438	167.681366
11876.593617	2928.965000	1272.542969	-20.608833
11876.593617	2928.965000	1271.437500	90.487305
11876.593617	2928.965000	1270.331055	-8.479048
11876.593617	2928.965000	1269.225586	33.087646
11876.593617	2928.965000	1268.119141	162.231583
11876.593617	2928.965000	1267.012695	119.506165
11876.593617	2928.965000	1265.906250	103.061310
11876.593617	2928.965000	1264.798828	100.594757
11876.593617	2928.965000	1263.691406	20.635422
11876.593617	2928.965000	1262.583984	40.899635
11876.593617	2928.965000	1261.476563	-6.000753
11876.593617	2928.965000	1260.368164	76.175011
11876.593617	2928.965000	1259.260742	-14.923144
11876.593617	2928.965000	1258.152344	101.865486
11876.593617	2928.965000	1257.043945	67.521866
11876.593617	2928.965000	1255.934570	116.614952
11876.593617	2928.965000	1254.825195	198.807312
11876.593617	2928.965000	1253.716797	-19.411366
11876.593617	2928.965000	1252.606445	27.880610
11876.593617	2928.965000	1251.497070	66.757690
11876.593617	2928.965000	1250.387695	25.806416
11876.593617	2928.965000	1249.277344	-90.995979
11876.593617	2928.965000	1248.166992	-25.262396
11876.593617	2928.965000	1247.055664	141.609421
11876.593617	2928.965000	1245.945313	-17.783657
11876.593617	2928.965000	1244.833984	-88.701515
11876.593617	2928.965000	1243.722656	3.754635
11876.593617	2928.965000	1242.611328	104.888046
11876.593617	2928.965000	1241.499023	-30.226332
11876.593617	2928.965000	1240.387695	38.580551
11876.593617	2928.965000	1239.275391	23.888742
11876.593617	2928.965000	1238.162109	-93.913513
11876.593617	2928.965000	1237.049805	15.035164
11876.593617	2928.965000	1235.936523	3.834410
11876.593617	2928.965000	1234.823242	122.599747
11876.593617	2928.965000	1233.709961	-64.257172
11876.593617	2928.965000	1232.596680	93.631363
11876.593617	2928.965000	1231.482422	81.714394
11876.593617	2928.965000	1230.369141	-8.643826
11876.593617	2928.965000	1229.253906	-68.103088
11876.593617	2928.965000	1228.139648	-36.195911
11876.593617	2928.965000	1227.025391	6.671285
11876.593617	2928.965000	1225.910156	17.518848
11876.593617	2928.965000	1224.794922	-30.799454
11876.593617	2928.965000	1223.679688	20.465935
11876.593617	2928.965000	1222.563477	-47.230057
11876.593617	2928.965000	1221.447266	-39.624489
11876.593617	2928.965000	1220.331055	-55.578152
11876.593617	2928.965000	1219.214844	153.107727
11876.593617	2928.965000	1218.098633	75.533318
11876.593617	2928.965000	1216.981445	30.005104
11876.593617	2928.965000	1215.864258	72.110252
11876.593617	2928.965000	1214.747070	-128.666321
11876.593617	2928.965000	1213.629883	-25.976412
11876.593617	2928.965000	1212.511719	-4.044765
11876.593617	2928.965000	1211.393555	22.974575
11876.593617	2928.965000	1210.275391	44.846806
11876.593617	2928.965000	1209.157227	38.276585
11876.593617	2928.965000	1208.038086	40.063576
11876.593617	2928.965000	1206.918945	-106.553673
11876.593617	2928.965000	1205.799805	-115.154686
11876.593617	2928.965000	1204.680664	-22.744753
11876.593617	2928.965000	1203.560547	26.997259
11876.593617	2928.965000	1202.441406	9.121185
11876.593617	2928.965000	1201.321289	76.217964
11876.593617	2928.965000	1200.200195	-106.952095
11876.593617	2928.965000	1199.080078	102.189201
11876.593617	2928.965000	1197.958984	23.470076
11876.593617	2928.965000	1196.837891	11.856661
11876.593617	2928.965000	1195.716797	-111.151436
11876.593617	2928.965000	1194.594727	6.124306
11876.593617	2928.965000	1193.473633	4.278763
11876.593617	2928.965000	1192.351563	-49.624561
11876.593617	2928.965000	1191.229492	39.021149
11876.593617	2928.965000	1190.106445	-14.551895
11876.593617	2928.965000	1188.984375	-98.900108
11876.593617	2928.965000	1187.861328	-48.475681
11876.593617	2928.965000	1186.738281	44.027477
11876.593617	2928.965000	1185.614258	62.875725
11876.593617	2928.965000	1184.491211	-15.490207
11876.593617	2928.965000	1183.367188	-14.454200
11876.593617	2928.965000	1182.243164	25.659985
11876.593617	2928.965000	1181.119141	-83.299385
11876.593617	2928.965000	1179.994141	30.640062
11876.593617	2928.965000	1178.869141	-99.378586
11876.593617	2928.965000	1177.744141	-0.480699
11876.593617	2928.965000	1176.619141	35.225948
11876.593617	2928.965000	1175.493164	21.588694
11876.593617	2928.965000	1174.368164	36.148113
11876.593617	2928.965000	1173.242188	-101.601944
11876.593617	2928.965000	1172.115234	-38.267334
11876.593617	2928.965000	1170.989258	-212.703873
11876.593617	2928.965000	1169.862305	-161.822083
11876.593617	2928.965000	1168.735352	-156.723862
11876.593617	2928.965000	1167.608398	-39.205448
11876.593617	2928.965000	1166.481445	-23.908770
11876.593617	2928.965000	1165.353516	-22.121357
11876.593617	2928.965000	1164.225586	-121.788300
11876.593617	2928.965000	1163.097656	-74.668716
11876.593617	2928.965000	1161.968750	-25.297245
11876.593617	2928.965000	1160.840820	53.220600
11876.593617	2928.965000	1159.711914	-153.456131
11876.593617	2928.965000	1158.583008	22.574726
11876.593617	2928.965000	1157.453125	4.509932
11876.593617	2928.965000	1156.324219	-109.994164
11876.593617	2928.965000	1155.194336	-62.264977
11876.593617	2928.965000	1154.064453	-67.127289
11876.593617	2928.965000	1152.933594	-101.768204
11876.593617	2928.965000	1151.803711	6.544472
11876.593617	2928.965000	1150.672852	84.803017
11876.593617	2928.965000	1149.541992	80.493767
11876.593617	2928.965000	1148.411133	26.294172
11876.593617	2928.965000	1147.279297	-36.528851
11876.593617	2928.965000	1146.147461	71.507187
11876.593617	2928.965000	1145.015625	-34.262047
11876.593617	2928.965000	1143.883789	48.164642
11876.593617	2928.965000	1142.750977	66.135162
11876.593617	2928.965000	1141.619141	39.711189
11876.593617	2928.965000	1140.486328	-17.878500
11876.593617	2928.965000	1139.352539	103.284233
11876.593617	2928.965000	1138.219727	-21.545435
11876.593617	2928.965000	1137.085938	86.208321
11876.593617	2928.965000	1135.952148	115.252815
11876.593617	2928.965000	1134.818359	253.763580
11876.593617	2928.965000	1133.683594	117.118668
11876.593617	2928.965000	1132.549805	274.309326
11876.593617	2928.965000	1131.415039	354.944366
11876.593617	2928.965000	1130.279297	392.653351
11876.593617	2928.965000	1129.144531	459.924835
11876.593617	2928.965000	1128.008789	443.860596
11876.593617	2928.965000	1126.873047	260.803955
11876.593617	2928.965000	1125.737305	215.126724
11876.593617	2928.965000	1124.601563	396.541626
11876.593617	2928.965000	1123.464844	324.929413
11876.593617	2928.965000	1122.328125	233.018234
11876.593617	2928.965000	1121.191406	270.967072
11876.593617	2928.965000	1120.054688	55.535034
11876.593617	2928.965000	1118.916992	238.597412
11876.593617	2928.965000	1117.779297	348.637848
11876.593617	2928.965000	1116.641602	244.289474
11876.593617	2928.965000	1115.503906	153.522781
11876.593617	2928.965000	1114.365234	46.546040
11876.593617	2928.965000	1113.226563	173.193573
11876.593617	2928.965000	1112.087891	194.227402
11876.593617	2928.965000	1110.949219	45.608822
11876.593617	2928.965000	1109.809570	45.580147
11876.593617	2928.965000	1108.669922	137.252686
11876.593617	2928.965000	1107.530273	156.602844
11876.593617	2928.965000	1106.390625	83.530861
11876.593617	2928.965000	1105.250000	191.349304
11876.593617	2928.965000	1104.109375	164.478180
11876.593617	2928.965000	1102.968750	230.465210
11876.593617	2928.965000	1101.828125	252.349808
11876.593617	2928.965000	1100.686523	162.954681
11876.593617	2928.965000	1099.544922	205.128693
11876.593617	2928.965000	1098.403320	229.957657
11876.593617	2928.965000	1097.261719	179.295944
11876.593617	2928.965000	1096.120117	243.165405
11876.593617	2928.965000	1094.977539	295.199219
11876.593617	2928.965000	1093.834961	164.937744
11876.593617	2928.965000	1092.691406	45.574165
11876.593617	2928.965000	1091.548828	260.610016
11876.593617	2928.965000	1090.405273	291.010315
11876.593617	2928.965000	1089.261719	64.617348
11876.593617	2928.965000	1088.118164	71.007683
11876.593617	2928.965000	1086.973633	20.006191
11876.593617	2928.965000	1085.829102	160.455261
11876.593617	2928.965000	1084.684570	164.723969
11876.593617	2928.965000	1083.540039	193.549042
11876.593617	2928.965000	1082.395508	230.431396
11876.593617	2928.965000	1081.250000	83.918915
11876.593617	2928.965000	1080.104492	122.092438
11876.593617	2928.965000	1078.958984	136.324951
11876.593617	2928.965000	1077.812500	215.261429
11876.593617	2928.965000	1076.666016	208.677139
11876.593617	2928.965000	1075.519531	250.948029
11876.593617	2928.965000	1074.373047	117.646301
11876.593617	2928.965000	1073.226563	242.155701
11876.593617	2928.965000	1072.079102	111.949715
11876.593617	2928.965000	1070.931641	227.414597
11876.593617	2928.965000	1069.784180	153.207062
11876.593617	2928.965000	1068.635742	63.523148
11876.593617	2928.965000	1067.487305	144.105682
11876.593617	2928.965000	1066.338867	233.219284
11876.593617	2928.965000	1065.190430	219.991379
11876.593617	2928.965000	1064.041992	370.628021
11876.593617	2928.965000	1062.892578	311.368073
11876.593617	2928.965000	1061.743164	190.501434
11876.593617	2928.965000	1060.593750	212.823456
11876.593617	2928.965000	1059.443359	174.717026
11876.593617	2928.965000	1058.292969	73.039963
11876.593617	2928.965000	1057.142578	241.853775
11876.593617	2928.965000	1055.992188	167.901672
11876.593617	2928.965000	1054.841797	262.522034
11876.593617	2928.965000	1053.690430	207.298248
11876.593617	2928.965000	1052.539063	86.514107
11876.593617	2928.965000	1051.387695	243.791702
11876.593617	2928.965000	1050.235352	53.704098
11876.593617	2928.965000	1049.083984	232.770248
11876.593617	2928.965000	1047.931641	199.932648
11876.593617	2928.965000	1046.778320	-72.071945
11876.593617	2928.965000	1045.625977	143.928925
11876.593617	2928.965000	1044.472656	110.006012
11876.593617	2928.965000	1043.319336	-62.801311
11876.593617	2928.965000	1042.166016	73.319031
11876.593617	2928.965000	1041.012695	25.586327
11876.593617	2928.965000	1039.858398	178.674011
11876.593617	2928.965000	1038.704102	75.575699
11876.593617	2928.965000	1037.549805	83.255333
11876.593617	2928.965000	1036.394531	218.862335
11876.593617	2928.965000	1035.239258	142.707794
11876.593617	2928.965000	1034.083984	74.457336
11876.593617	2928.965000	1032.928711	149.024109
11876.593617	2928.965000	1031.773438	165.343231
11876.593617	2928.965000	1030.617188	-73.591721
11876.593617	2928.965000	1029.460938	109.342499
11876.593617	2928.965000	1028.304688	119.813950
11876.593617	2928.965000	1027.147461	63.760914
11876.593617	2928.965000	1025.991211	49.051704
11876.593617	2928.965000	1024.833984	73.259056
11876.593617	2928.965000	1023.675781	225.105652
11876.593617	2928.965000	1022.518555	-5.257323
11876.593617	2928.965000	1021.360352	-16.215776
11876.593617	2928.965000	1020.202148	-2.080270
11876.593617	2928.965000	1019.043945	-29.917591
11876.593617	2928.965000	1017.884766	72.817764
11876.593617	2928.965000	1016.726563	84.243591
11876.593617	2928.965000	1015.567383	129.222748
11876.593617	2928.965000	1014.407227	-36.845829
11876.593617	2928.965000	1013.248047	-75.893463
11876.593617	2928.965000	1012.087891	92.369278
11876.593617	2928.965000	1010.927734	131.675537
11876.593617	2928.965000	1009.767578	-112.268997
11876.593617	2928.965000	1008.606445	38.971615
11876.593617	2928.965000	1007.446289	149.033676
11876.593617	2928.965000	1006.285156	36.926605
11876.593617	2928.965000	1005.123047	45.968807
11876.593617	2928.965000	1003.961914	8.690320
11876.593617	2928.965000	1002.799805	115.082817
11876.593617	2928.965000	1001.637695	19.462193
11876.593617	2928.965000	1000.475586	38.220673
11876.593617	2928.965000	999.312500	171.959518
11876.593617	2928.965000	998.149414	256.749115
11876.593617	2928.965000	996.986328	181.463104
11876.593617	2928.965000	995.823242	98.834595
11876.593617	2928.965000	994.659180	99.181534
11876.593617	2928.965000	993.496094	24.898207
11876.593617	2928.965000	992.332031	-70.507065
11876.593617	2928.965000	991.166992	82.511200
11876.593617	2928.965000	990.002930	-30.023628
11876.593617	2928.965000	988.837891	-4.247922
11876.593617	2928.965000	987.672852	155.523682
11876.593617	2928.965000	986.506836	106.871170
11876.593617	2928.965000	985.341797	66.216568
11876.593617	2928.965000	984.175781	79.827118
11876.593617	2928.965000	983.009766	274.771088
11876.593617	2928.965000	981.843750	137.992493
11876.593617	2928.965000	980.676758	31.680616
11876.593617	2928.965000	979.509766	-89.068367
11876.593617	2928.965000	978.342773	155.599228
11876.593617	2928.965000	977.175781	150.597641
11876.593617	2928.965000	976.007813	-16.762354
11876.593617	2928.965000	974.839844	28.720491
11876.593617	2928.965000	973.671875	-29.617218
11876.593617	2928.965000	972.503906	-89.727448
11876.593617	2928.965000	971.334961	117.538361
11876.593617	2928.965000	970.166016	-84.469009
11876.593617	2928.965000	968.997070	-166.432495
11876.593617	2928.965000	967.828125	24.006010
11876.593617	2928.965000	966.658203	-10.792134
11876.593617	2928.965000	965.488281	-90.003403
11876.593617	2928.965000	964.318359	-115.557793
11876.593617	2928.965000	963.148438	41.777798
11876.593617	2928.965000	961.977539	87.681061
11876.593617	2928.965000	960.806641	-42.244129
11876.593617	2928.965000	959.635742	-58.171890
11876.593617	2928.965000	958.463867	102.760948
11876.593617	2928.965000	957.292969	52.250446
11876.593617	2928.965000	956.121094	91.212204
11876.593617	2928.965000	954.948242	25.924669
11876.593617	2928.965000	953.776367	12.173380
11876.593617	2928.965000	952.603516	-55.352749
11876.593617	2928.965000	951.430664	-205.117538
11876.593617	2928.965000	950.257813	11.718081
11876.593617	2928.965000	949.084961	92.435532
11876.593617	2928.965000	947.911133	-5.294564
11876.593617	2928.965000	946.737305	-60.930576
11876.593617	2928.965000	945.563477	49.377296
11876.593617	2928.965000	944.388672	-22.493851
11876.593617	2928.965000	943.213867	-124.777718
11876.593617	2928.965000	942.039063	191.436539
11876.593617	2928.965000	940.864258	98.319504
11876.593617	2928.965000	939.688477	-6.132167
11876.593617	2928.965000	938.513672	67.289444
11876.593617	2928.965000	937.337891	-9.562210
11876.593617	2928.965000	936.161133	211.814453
11876.593617	2928.965000	934.985352	174.196335
11876.593617	2928.965000	933.808594	180.624237
11876.593617	2928.965000	932.631836	258.407135
11876.593617	2928.965000	931.454102	130.646027
11876.593617	2928.965000	930.277344	178.452911
11876.593617	2928.965000	929.099609	143.054977
11876.593617	2928.965000	927.921875	285.574249
11876.593617	2928.965000	926.743164	37.599445
11876.593617	2928.965000	925.565430	13.747577
11876.593617	2928.965000	924.386719	121.507431
11876.593617	2928.965000	923.208008	-27.079006
11876.593617	2928.965000	922.028320	2.134062
11876.593617	2928.965000	920.849609	181.360443
11876.593617	2928.965000	919.669922	182.048264
11876.593617	2928.965000	919.474609	217.527603
11876.593617	2928.965000	918.309570	-53.335403
11876.593617	2928.965000	917.143555	-56.512081
11876.593617	2928.965000	915.977539	-101.221573
11876.593617	2928.965000	914.810547	33.929844
11876.593617	2928.965000	913.644531	37.597088
11876.593617	2928.965000	912.477539	207.202682
11876.593617	2928.965000	911.310547	56.394711
11876.593617	2928.965000	910.143555	-147.363281
11876.593617	2928.965000	908.975586	75.104584
11876.593617	2928.965000	907.807617	78.669083
11876.593617	2928.965000	906.639648	29.253721
11876.593617	2928.965000	905.471680	-6.345950
11876.593617	2928.965000	904.303711	-37.345600
11876.593617	2928.965000	903.134766	-3.915147
11876.593617	2928.965000	901.965820	47.890491
11876.593617	2928.965000	900.796875	28.348314
11876.593617	2928.965000	899.626953	-64.796120
11876.593617	2928.965000	898.457031	-10.761747
11876.593617	2928.965000	897.287109	-76.307228
11876.593617	2928.965000	896.117188	-10.833790
11876.593617	2928.965000	894.947266	135.024414
11876.593617	2928.965000	893.776367	186.610550
11876.593617	2928.965000	892.605469	17.646626
11876.593617	2928.965000	891.434570	119.727013
11876.593617	2928.965000	890.262695	224.045898
11876.593617	2928.965000	889.091797	245.664001
11876.593617	2928.965000	887.919922	219.060364
11876.593617	2928.965000	886.748047	-160.926224
11876.593617	2928.965000	885.575195	124.542374
11876.593617	2928.965000	884.403320	-103.915367
11876.593617	2928.965000	883.230469	66.731697
11876.593617	2928.965000	882.057617	35.527973
11876.593617	2928.965000	880.883789	29.537628
11876.593617	2928.965000	879.710938	0.616022
11876.593617	2928.965000	878.537109	61.054462
11876.593617	2928.965000	877.362305	96.253891
11876.593617	2928.965000	876.188477	-113.653900
11876.593617	2928.965000	875.013672	49.775639
11876.593617	2928.965000	873.839844	41.410183
11876.593617	2928.965000	872.664063	19.299227
11876.593617	2928.965000	871.489258	1.760153
11876.593617	2928.965000	870.313477	107.770607
11876.593617	2928.965000	869.138672	-159.160538
11876.593617	2928.965000	867.962891	20.000463
11876.593617	2928.965000	866.786133	-52.463139
11876.593617	2928.965000	865.610352	-10.599545
11876.593617	2928.965000	864.433594	154.663498
11876.593617	2928.965000	863.256836	171.300201
11876.593617	2928.965000	862.079102	11.985375
11876.593617	2928.965000	860.902344	-126.719246
11876.593617	2928.965000	859.724609	113.743828
11876.593617	2928.965000	858.546875	141.736572
11876.593617	2928.965000	857.368164	41.858498
11876.593617	2928.965000	856.190430	-60.274349
11876.593617	2928.965000	855.011719	141.127838
11876.593617	2928.965000	853.833008	11.610166
11876.593617	2928.965000	852.654297	53.212219
11876.593617	2928.965000	851.474609	117.589622
11876.593617	2928.965000	850.294922	-119.051865
11876.593617	2928.965000	849.115234	-66.091110
11876.593617	2928.965000	847.935547	-6.328856
11876.593617	2928.965000	846.754883	-3.572928
11876.593617	2928.965000	845.575195	-37.283791
11876.593617	2928.965000	844.393555	-52.772194
11876.593617	2928.965000	843.212891	-163.915817
11876.593617	2928.965000	842.032227	-115.647018
11876.593617	2928.965000	840.850586	-40.094967
11876.593617	2928.965000	839.668945	-39.693474
11876.593617	2928.965000	838.486328	-16.551229
11876.593617	2928.965000	837.304688	-9.356606
11876.593617	2928.965000	836.122070	-15.826034
11876.593617	2928.965000	834.939453	150.521255
11876.593617	2928.965000	833.756836	9.852742
11876.593617	2928.965000	832.573242	7.888275
11876.593617	2928.965000	831.389648	-87.267822
11876.593617	2928.965000	830.206055	38.003590
11876.593617	2928.965000	829.022461	-84.407379
11876.593617	2928.965000	827.838867	95.293686
11876.593617	2928.965000	826.654297	106.869049
11876.593617	2928.965000	825.469727	36.695049
11876.593617	2928.965000	824.284180	70.947990
11876.593617	2928.965000	823.099609	-26.449926
11876.593617	2928.965000	821.914063	-39.872654
11876.593617	2928.965000	820.728516	-44.230446
11876.593617	2928.965000	819.542969	44.386818
11876.593617	2928.965000	818.356445	76.264732
11876.593617	2928.965000	817.169922	112.649826
11876.593617	2928.965000	815.983398	105.940956
11876.593617	2928.965000	814.796875	51.632214
11876.593617	2928.965000	813.609375	146.862671
11876.593617	2928.965000	812.422852	-95.469231
11876.593617	2928.965000	811.235352	-129.364120
11876.593617	2928.965000	810.046875	-97.597504
11876.593617	2928.965000	808.859375	-2.473010
11876.593617	2928.965000	807.670898	-20.567533
11876.593617	2928.965000	806.482422	45.054474
11876.593617	2928.965000	805.293945	94.798698
11876.593617	2928.965000	804.104492	139.982315
11876.593617	2928.965000	802.915039	1.957888
11876.593617	2928.965000	801.725586	-32.021248
11876.593617	2928.965000	800.536133	-23.052351
11876.593617	2928.965000	799.345703	55.957088
11876.593617	2928.965000	798.155273	51.315239
11876.593617	2928.965000	796.964844	37.623077
11876.593617	2928.965000	795.774414	-9.957875
11876.593617	2928.965000	794.583008	123.115517
11876.593617	2928.965000	793.392578	-62.213051
11876.593617	2928.965000	792.200195	217.501404
11876.593617	2928.965000	791.008789	14.142779
11876.593617	2928.965000	789.816406	20.684584
11876.593617	2928.965000	788.625000	223.463181
11876.593617	2928.965000	787.432617	-15.905910
11876.593617	2928.965000	786.239258	123.625023
11876.593617	2928.965000	785.046875	66.949043
11876.593617	2928.965000	783.853516	100.435989
11876.593617	2928.965000	782.660156	127.131966
11876.593617	2928.965000	781.465820	-161.621246
11876.593617	2928.965000	780.272461	54.295589
11876.593617	2928.965000	779.078125	-22.663801
11876.593617	2928.965000	777.883789	121.047684
11876.593617	2928.965000	776.688477	143.119919
11876.593617	2928.965000	775.494141	59.384655
11876.593617	2928.965000	774.298828	171.432205
11876.593617	2928.965000	773.103516	56.192032
11876.593617	2928.965000	771.907227	24.203575
11876.593617	2928.965000	770.711914	10.200534
11876.593617	2928.965000	769.515625	29.908842
11876.593617	2928.965000	768.318359	-4.359677
11876.593617	2928.965000	767.122070	1.821144
11876.593617	2928.965000	765.924805	-99.873146
11876.593617	2928.965000	764.727539	29.840057
11876.593617	2928.965000	763.530273	89.854141
11876.593617	2928.965000	762.333008	125.123062
11876.593617	2928.965000	761.134766	90.759331
11876.593617	2928.965000	759.936523	58.634457
11876.593617	2928.965000	758.738281	-38.576416
11876.593617	2928.965000	757.540039	-10.122970
11876.593617	2928.965000	756.340820	90.078438
11876.593617	2928.965000	755.141602	-54.238804
11876.593617	2928.965000	753.942383	149.032074
11876.593617	2928.965000	752.742188	89.907280
11876.593617	2928.965000	751.541992	106.990356
11876.593617	2928.965000	750.341797	-37.296501
11876.593617	2928.965000	749.141602	246.368332
11876.593617	2928.965000	747.941406	175.986130
11876.593617	2928.965000	746.740234	130.243942
11876.593617	2928.965000	745.539063	133.756104
11876.593617	2928.965000	744.337891	43.227058
11876.593617	2928.965000	743.135742	169.801758
11876.593617	2928.965000	741.933594	14.366136
11876.593617	2928.965000	740.731445	8.858964
11876.593617	2928.965000	739.529297	77.139938
11876.593617	2928.965000	738.326172	219.161591
11876.593617	2928.965000	737.124023	226.958771
11876.593617	2928.965000	735.919922	272.725739
11876.593617	2928.965000	734.716797	141.903152
11876.593617	2928.965000	733.513672	230.073410
11876.593617	2928.965000	732.309570	336.052216
11876.593617	2928.965000	731.105469	285.625488
11876.593617	2928.965000	729.900391	94.520103
11876.593617	2928.965000	728.696289	124.483551
11876.593617	2928.965000	727.491211	111.999863
11876.593617	2928.965000	726.286133	28.087517
11876.593617	2928.965000	725.080078	66.891197
11876.593617	2928.965000	723.874023	-37.104263
11876.593617	2928.965000	722.668945	-83.097565
11876.593617	2928.965000	721.461914	89.404175
11876.593617	2928.965000	720.255859	-143.900833
11876.593617	2928.965000	719.048828	-58.431202
11876.593617	2928.965000	717.841797	4.693522
11876.593617	2928.965000	716.634766	9.843291
11876.593617	2928.965000	715.427734	-25.127558
11876.593617	2928.965000	714.219727	-35.617470
11876.593617	2928.965000	713.011719	34.019215
11876.593617	2928.965000	711.803711	3.433708
11876.593617	2928.965000	710.594727	-129.539093
11876.593617	2928.965000	709.385742	8.962852
11876.593617	2928.965000	708.176758	-81.745178
11876.593617	2928.965000	706.967773	-21.208735
11876.593617	2928.965000	705.758789	134.887970
11876.593617	2928.965000	704.548828	12.999830
11876.593617	2928.965000	703.338867	26.715582
11876.593617	2928.965000	702.127930	-72.935684
11876.593617	2928.965000	700.917969	165.127075
11876.593617	2928.965000	699.707031	60.988033
11876.593617	2928.965000	698.496094	16.823910
11876.593617	2928.965000	697.285156	-122.823921
11876.593617	2928.965000	696.073242	3.936343
11876.593617	2928.965000	694.861328	26.302956
11876.593617	2928.965000	693.649414	2.033622
11876.593617	2928.965000	692.436523	59.824764
11876.593617	2928.965000	691.224609	102.037590
11876.593617	2928.965000	690.011719	20.019630
11876.593617	2928.965000	688.798828	24.471228
11876.593617	2928.965000	687.584961	24.454937
11876.593617	2928.965000	686.372070	62.084122
11876.593617	2928.965000	685.158203	126.252525
11876.593617	2928.965000	683.943359	126.120644
11876.593617	2928.965000	682.729492	90.524635
11876.593617	2928.965000	681.514648	-64.658958
11876.593617	2928.965000	680.299805	48.059452
11876.593617	2928.965000	679.084961	78.806763
11876.593617	2928.965000	677.869141	85.165878
11876.593617	2928.965000	676.653320	257.419952
11876.593617	2928.965000	675.437500	73.451233
11876.593617	2928.965000	674.221680	143.846115
11876.593617	2928.965000	673.004883	225.231888
11876.593617	2928.965000	671.789063	129.712738
11876.593617	2928.965000	670.571289	80.608002
11876.593617	2928.965000	669.354492	108.830719
11876.593617	2928.965000	668.136719	181.189575
11876.593617	2928.965000	666.919922	224.776779
11876.593617	2928.965000	665.701172	82.820076
11876.593617	2928.965000	664.483398	139.589279
11876.593617	2928.965000	663.264648	227.201965
11876.593617	2928.965000	662.045898	230.887436
11876.593617	2928.965000	660.827148	88.922066
11876.593617	2928.965000	659.608398	167.571014
11876.593617	2928.965000	658.388672	91.774338
11876.593617	2928.965000	657.168945	150.478699
11876.593617	2928.965000	655.949219	120.947342
11876.593617	2928.965000	654.728516	150.902481
11876.593617	2928.965000	653.507813	70.636093
11876.593617	2928.965000	652.287109	265.755676
11876.593617	2928.965000	651.066406	242.703201
11876.593617	2928.965000	649.844727	-60.045795
11876.593617	2928.965000	648.623047	-14.833944
11876.593617	2928.965000	647.401367	96.363251
11876.593617	2928.965000	646.179688	189.876450
11876.593617	2928.965000	644.957031	50.085934
11876.593617	2928.965000	643.734375	88.508064
11876.593617	2928.965000	642.511719	34.510147
11876.593617	2928.965000	641.289063	134.425781
11876.593617	2928.965000	640.065430	89.169395
11876.593617	2928.965000	638.841797	109.839470
11876.593617	2928.965000	637.618164	-1.378771
11876.593617	2928.965000	636.393555	146.664856
11876.593617	2928.965000	635.168945	79.352150
11876.593617	2928.965000	633.944336	183.333191
11876.593617	2928.965000	632.719727	-53.082279
11876.593617	2928.965000	631.494141	-41.377922
11876.593617	2928.965000	630.269531	18.578159
11876.593617	2928.965000	629.042969	111.385857
11876.593617	2928.965000	627.817383	50.564331
11876.593617	2928.965000	626.590820	-78.256332
11876.593617	2928.965000	625.365234	-42.585148
11876.593617	2928.965000	624.137695	-63.967468
11876.593617	2928.965000	622.911133	-45.911186
11876.593617	2928.965000	621.683594	31.274183
11876.593617	2928.965000	620.456055	-82.216202
11876.593617	2928.965000	619.228516	23.364002
11876.593617	2928.965000	618.000977	-153.644119
11876.593617	2928.965000	616.772461	188.322495
11876.593617	2928.965000	615.543945	-80.646835
11876.593617	2928.965000	614.314453	-1.537436
11876.593617	2928.965000	613.085938	49.068939
11876.593617	2928.965000	611.856445	-110.397240
11876.593617	2928.965000	610.626953	244.182739
11876.593617	2928.965000	609.397461	196.216919
11876.593617	2928.965000	608.166992	23.621284
11876.593617	2928.965000	606.936523	74.031258
11876.593617	2928.965000	605.706055	2.013083
11876.593617	2928.965000	604.474609	47.983234
11876.593617	2928.965000	603.244141	69.883736
11876.593617	2928.965000	602.012695	37.147766
11876.593617	2928.965000	600.780273	-32.722408
11876.593617	2928.965000	599.548828	-82.934532
11876.593617	2928.965000	598.316406	-135.334808
11876.593617	2928.965000	597.083984	-52.442436
11876.593617	2928.965000	595.851563	-28.512375
11876.593617	2928.965000	594.618164	-111.498344
11876.593617	2928.965000	593.384766	-155.216354
11876.593617	2928.965000	592.151367	-87.742126
11876.593617	2928.965000	590.917969	101.752876
11876.593617	2928.965000	589.683594	7.826627
11876.593617	2928.965000	588.449219	86.053352
11876.593617	2928.965000	587.214844	190.368561
11876.593617	2928.965000	585.979492	55.039688
11876.593617	2928.965000	584.745117	-4.032686
11876.593617	2928.965000	583.509766	-43.508987
11876.593617	2928.965000	582.273438	-48.164650
11876.593617	2928.965000	581.038086	-76.768433
11876.593617	2928.965000	579.801758	-48.813332
11876.593617	2928.965000	578.565430	-12.185904
11876.593617	2928.965000	577.329102	15.711513
11876.593617	2928.965000	576.091797	-43.392273
11876.593617	2928.965000	574.854492	10.551779
11876.593617	2928.965000	573.617188	144.871811
11876.593617	2928.965000	572.378906	168.300537
11876.593617	2928.965000	571.141602	87.435608
11876.593617	2928.965000	569.903320	-36.850853
11876.593617	2928.965000	568.664063	16.960709
11876.593617	2928.965000	567.425781	-9.585218
11876.593617	2928.965000	566.186523	65.880531
11876.593617	2928.965000	564.947266	65.350929
11876.593617	2928.965000	563.708008	30.097525
11876.593617	2928.965000	562.467773	124.995087
11876.593617	2928.965000	561.227539	-16.544430
11876.593617	2928.965000	559.987305	67.464386
11876.593617	2928.965000	558.747070	-65.347054
11876.593617	2928.965000	557.505859	-163.436493
11876.593617	2928.965000	556.264648	2.864369
11876.593617	2928.965000	555.023438	-32.385784
11876.593617	2928.965000	553.781250	-39.472847
11876.593617	2928.965000	552.539063	102.853065
11876.593617	2928.965000	551.296875	69.750710
11876.593617	2928.965000	550.054688	4.190859
11876.593617	2928.965000	548.811523	94.463303
11876.593617	2928.965000	547.569336	35.410519
11876.593617	2928.965000	546.325195	23.961329
11876.593617	2928.965000	545.082031	-61.011208
11876.593617	2928.965000	543.837891	-81.086266
11876.593617	2928.965000	542.593750	-57.918755
11876.593617	2928.965000	541.349609	131.657394
11876.593617	2928.965000	540.105469	126.679810
11876.593617	2928.965000	538.860352	5.041802
11876.593617	2928.965000	537.615234	-10.708442
11876.593617	2928.965000	536.369141	159.256943
11876.593617	2928.965000	535.124023	149.962982
11876.593617	2928.965000	533.877930	-21.216879
11876.593617	2928.965000	532.631836	42.906643
11876.593617	2928.965000	531.384766	-9.506080
11876.593617	2928.965000	530.138672	130.095779
11876.593617	2928.965000	528.891602	90.635986
11876.593617	2928.965000	527.643555	178.409943
11876.593617	2928.965000	526.396484	-70.137054
11876.593617	2928.965000	525.148438	4.714672
11876.593617	2928.965000	523.900391	154.958954
11876.593617	2928.965000	522.652344	-67.555145
11876.593617	2928.965000	521.403320	-197.352829
11876.593617	2928.965000	520.154297	69.141701
11876.593617	2928.965000	518.905273	-120.895882
11876.593617	2928.965000	517.656250	-20.256716
11876.593617	2928.965000	516.406250	-20.801476
11876.593617	2928.965000	515.156250	-60.064312
11876.593617	2928.965000	513.906250	-8.954099
11876.593617	2928.965000	512.655273	67.948257
11876.593617	2928.965000	511.404297	-9.985718
11876.593617	2928.965000	510.153320	15.311606
11876.593617	2928.965000	508.902344	10.519171
11876.593617	2928.965000	507.650391	-116.744759
11876.593617	2928.965000	506.398438	-205.273331
11876.593617	2928.965000	505.146484	-51.043434
11876.593617	2928.965000	503.893555	-6.388505
11876.593617	2928.965000	502.641602	-124.906433
11876.593617	2928.965000	501.388672	74.314842
11876.593617	2928.965000	500.134766	157.573273
11876.593617	2928.965000	498.881836	-61.713085
11876.593617	2928.965000	497.627930	118.092430
11876.593617	2928.965000	496.374023	53.343334
11876.593617	2928.965000	495.119141	-28.523912
11876.593617	2928.965000	493.865234	93.313812
11876.593617	2928.965000	492.610352	142.235321
11876.593617	2928.965000	491.355469	-23.131664
11876.593617	2928.965000	490.099609	57.948074
11876.593617	2928.965000	488.843750	49.045528
11876.593617	2928.965000	487.587891	59.429943
11876.593617	2928.965000	486.332031	24.860748
11876.593617	2928.965000	485.075195	43.824978
11876.593617	2928.965000	483.818359	-12.110484
11876.593617	2928.965000	482.561523	49.663273
11876.593617	2928.965000	481.304688	85.750237
11876.593617	2928.965000	480.046875	46.973225
11876.593617	2928.965000	478.789063	18.911589
11876.593617	2928.965000	477.531250	159.749252
11876.593617	2928.965000	476.272461	24.821581
11876.593617	2928.965000	475.013672	28.849363
11876.593617	2928.965000	473.754883	-112.389900
11876.593617	2928.965000	472.496094	150.115601
11876.593617	2928.965000	471.236328	23.861217
11876.593617	2928.965000	469.976563	121.833076
11876.593617	2928.965000	468.716797	36.198101
11876.593617	2928.965000	467.456055	-2.455788
11876.593617	2928.965000	466.196289	31.450918
11876.593617	2928.965000	464.935547	139.994476
11876.593617	2928.965000	463.673828	65.075920
11876.593617	2928.965000	462.413086	252.448364
11876.593617	2928.965000	461.151367	305.429047
11876.593617	2928.965000	459.889648	194.271179
11876.593617	2928.965000	458.626953	125.763283
11876.593617	2928.965000	457.364258	253.264847
11876.593617	2928.965000	456.101563	252.905930
11876.593617	2928.965000	454.838867	373.907318
11876.593617	2928.965000	453.575195	245.746674
11876.593617	2928.965000	452.312500	287.907074
11876.593617	2928.965000	451.047852	225.745132
11876.593617	2928.965000	449.784180	84.868645
11876.593617	2928.965000	448.519531	254.585052
11876.593617	2928.965000	447.254883	256.191650
11876.593617	2928.965000	445.990234	310.922272
11876.593617	2928.965000	444.725586	299.696198
11876.593617	2928.965000	443.459961	286.310516
11876.593617	2928.965000	442.194336	241.018204
11876.593617	2928.965000	440.927734	263.679565
11876.593617	2928.965000	439.662109	335.139404
11876.593617	2928.965000	438.395508	230.269333
11876.593617	2928.965000	437.127930	216.677307
11876.593617	2928.965000	435.861328	279.451141
11876.593617	2928.965000	434.593750	199.957031
11876.593617	2928.965000	433.326172	360.175934
11876.593617	2928.965000	432.058594	238.146057
11876.593617	2928.965000	430.790039	258.181488
11876.593617	2928.965000	429.521484	148.800003
11876.593617	2928.965000	428.252930	327.676208
11876.593617	2928.965000	426.984375	245.715942
11876.593617	2928.965000	425.714844	312.019592
11876.593617	2928.965000	424.445313	185.428864
11876.593617	2928.965000	423.174805	425.195007
11876.593617	2928.965000	421.905273	429.720093
11876.593617	2928.965000	420.634766	317.694550
11876.593617	2928.965000	419.364258	357.998840
11876.593617	2928.965000	418.092773	277.545380
11876.593617	2928.965000	416.822266	342.988190
11876.593617	2928.965000	415.550781	376.540863
11876.593617	2928.965000	414.278320	276.710876
11876.593617	2928.965000	413.006836	240.216766
11876.593617	2928.965000	411.734375	493.177246
11876.593617	2928.965000	410.461914	101.303215
11876.593617	2928.965000	409.188477	556.702393
11876.593617	2928.965000	407.916016	293.515381
11876.593617	2928.965000	406.642578	262.578857
11876.593617	2928.965000	405.368164	461.623627
11876.593617	2928.965000	404.094727	461.960297
11876.593617	2928.965000	402.820313	343.899841
11876.593617	2928.965000	401.545898	320.641846
11876.593617	2928.965000	400.270508	337.258484
11876.593617	2928.965000	398.996094	442.240417
11876.593617	2928.965000	397.720703	384.566437
11876.593617	2928.965000	396.444336	470.034943
11876.593617	2928.965000	395.168945	289.638031
11876.593617	2928.965000	393.892578	243.927841
11876.593617	2928.965000	392.616211	246.430756
11876.593617	2928.965000	391.339844	467.729004
11876.593617	2928.965000	390.062500	130.542648
11876.593617	2928.965000	388.785156	283.801270
11876.593617	2928.965000	387.507813	253.542389
11876.593617	2928.965000	386.229492	363.980713
11876.593617	2928.965000	384.951172	351.998779
11876.593617	2928.965000	383.672852	242.910645
11876.593617	2928.965000	382.394531	234.474457
11876.593617	2928.965000	381.115234	301.368622
11876.593617	2928.965000	379.835938	334.219635
11876.593617	2928.965000	378.556641	286.795563
11876.593617	2928.965000	377.277344	329.352417
11876.593617	2928.965000	375.997070	213.890381
11876.593617	2928.965000	374.716797	383.721497
11876.593617	2928.965000	373.435547	286.315430
11876.593617	2928.965000	372.155273	287.188873
11876.593617	2928.965000	370.874023	58.771141
11876.593617	2928.965000	369.591797	136.363098
11876.593617	2928.965000	368.310547	175.665237
11876.593617	2928.965000	367.028320	21.422955
11876.593617	2928.965000	365.746094	120.493256
11876.593617	2928.965000	364.463867	216.873993
11876.593617	2928.965000	363.180664	266.510406
11876.593617	2928.965000	361.897461	89.179550
11876.593617	2928.965000	360.614258	72.679886
11876.593617	2928.965000	359.330078	99.548912
11876.593617	2928.965000	358.045898	180.228836
11876.593617	2928.965000	356.761719	31.958408
11876.593617	2928.965000	355.477539	-75.048447
11876.593617	2928.965000	354.192383	206.620102
11876.593617	2928.965000	352.907227	137.960281
11876.593617	2928.965000	351.622070	41.396675
11876.593617	2928.965000	350.336914	-150.011734
11876.593617	2928.965000	349.050781	59.415382
11876.593617	2928.965000	347.764648	111.133652
11876.593617	2928.965000	346.477539	30.287092
11876.593617	2928.965000	345.191406	42.706734
11876.593617	2928.965000	343.904297	14.531596
11876.593617	2928.965000	342.616211	23.061066
11876.593617	2928.965000	341.329102	13.987018
11876.593617	2928.965000	340.041016	-87.925117
11876.593617	2928.965000	338.752930	-38.350510
11876.593617	2928.965000	337.463867	139.599594
11876.593617	2928.965000	336.175781	34.761402
11876.593617	2928.965000	334.886719	10.269439
11876.593617	2928.965000	333.596680	-205.128677
11876.593617	2928.965000	332.307617	6.020575
11876.593617	2928.965000	331.017578	42.866814
11876.593617	2928.965000	329.727539	-109.067299
11876.593617	2928.965000	328.436523	-5.805885
11876.593617	2928.965000	327.146484	60.807400
11876.593617	2928.965000	325.855469	17.787949
11876.593617	2928.965000	324.563477	6.799887
11876.593617	2928.965000	323.272461	113.234779
11876.593617	2928.965000	321.980469	24.634691
11876.593617	2928.965000	320.688477	-65.299805
11876.593617	2928.965000	319.395508	-110.861732
11876.593617	2928.965000	318.103516	-84.989861
11876.593617	2928.965000	316.810547	14.232829
11876.593617	2928.965000	315.516602	-129.373306
11876.593617	2928.965000	314.223633	-37.405533
11876.593617	2928.965000	312.929688	-7.391122
11876.593617	2928.965000	311.635742	-128.646225
11876.593617	2928.965000	310.340820	-0.153437
11876.593617	2928.965000	309.045898	-66.609825
11876.593617	2928.965000	307.750977	195.433014
11876.593617	2928.965000	306.456055	110.897415
11876.593617	2928.965000	305.160156	18.291594
11876.593617	2928.965000	303.865234	110.700630
11876.593617	2928.965000	302.568359	252.923309
11876.593617	2928.965000	301.272461	382.806854
11876.593617	2928.965000	299.975586	477.386993
11876.593617	2928.965000	298.678711	418.499573
