#X		#Y		#Wave		#Intensity
12473.995745	1443.996667	1999.980469	-155.733612
12473.995745	1443.996667	1999.016602	25.082321
12473.995745	1443.996667	1998.052734	65.666298
12473.995745	1443.996667	1997.087891	14.347752
12473.995745	1443.996667	1996.123047	91.690567
12473.995745	1443.996667	1995.158203	89.543076
12473.995745	1443.996667	1994.193359	-46.533127
12473.995745	1443.996667	1993.228516	25.269567
12473.995745	1443.996667	1992.262695	57.260609
12473.995745	1443.996667	1991.297852	-22.325037
12473.995745	1443.996667	1990.332031	-15.420945
12473.995745	1443.996667	1989.366211	18.539387
12473.995745	1443.996667	1988.399414	-2.093615
12473.995745	1443.996667	1987.433594	63.701618
12473.995745	1443.996667	1986.466797	-21.529173
12473.995745	1443.996667	1985.500977	73.629066
12473.995745	1443.996667	1984.534180	-31.627329
12473.995745	1443.996667	1983.567383	-43.053215
12473.995745	1443.996667	1982.599609	-39.774139
12473.995745	1443.996667	1981.632813	-31.680931
12473.995745	1443.996667	1980.665039	-80.526405
12473.995745	1443.996667	1979.697266	68.118881
12473.995745	1443.996667	1978.729492	137.575836
12473.995745	1443.996667	1977.761719	145.174576
12473.995745	1443.996667	1976.792969	-0.379082
12473.995745	1443.996667	1975.825195	-12.707009
12473.995745	1443.996667	1974.856445	115.525032
12473.995745	1443.996667	1973.887695	70.917572
12473.995745	1443.996667	1972.918945	13.902892
12473.995745	1443.996667	1971.949219	16.012598
12473.995745	1443.996667	1970.980469	57.488686
12473.995745	1443.996667	1970.010742	197.481491
12473.995745	1443.996667	1969.041016	206.709320
12473.995745	1443.996667	1968.071289	8.853101
12473.995745	1443.996667	1967.101563	20.431593
12473.995745	1443.996667	1966.130859	140.330521
12473.995745	1443.996667	1965.161133	13.820174
12473.995745	1443.996667	1964.190430	37.510067
12473.995745	1443.996667	1963.219727	56.207893
12473.995745	1443.996667	1962.249023	40.379330
12473.995745	1443.996667	1961.277344	14.658500
12473.995745	1443.996667	1960.306641	6.121159
12473.995745	1443.996667	1959.334961	-172.218811
12473.995745	1443.996667	1958.363281	1.211385
12473.995745	1443.996667	1957.391602	29.433275
12473.995745	1443.996667	1956.419922	72.356499
12473.995745	1443.996667	1955.447266	7.054004
12473.995745	1443.996667	1954.474609	-18.933205
12473.995745	1443.996667	1953.501953	109.877586
12473.995745	1443.996667	1952.529297	-122.577850
12473.995745	1443.996667	1951.556641	-23.337416
12473.995745	1443.996667	1950.583984	-88.722778
12473.995745	1443.996667	1949.610352	157.760849
12473.995745	1443.996667	1948.636719	57.942421
12473.995745	1443.996667	1947.663086	-73.773308
12473.995745	1443.996667	1946.689453	-50.839066
12473.995745	1443.996667	1945.715820	-84.370247
12473.995745	1443.996667	1944.741211	56.284317
12473.995745	1443.996667	1943.767578	93.848969
12473.995745	1443.996667	1942.792969	87.240387
12473.995745	1443.996667	1941.818359	21.774147
12473.995745	1443.996667	1940.842773	-43.679104
12473.995745	1443.996667	1939.868164	30.597073
12473.995745	1443.996667	1938.892578	72.979042
12473.995745	1443.996667	1937.916992	24.682129
12473.995745	1443.996667	1936.941406	140.530960
12473.995745	1443.996667	1935.965820	-10.639163
12473.995745	1443.996667	1934.990234	9.663774
12473.995745	1443.996667	1934.013672	-60.632797
12473.995745	1443.996667	1933.037109	160.399643
12473.995745	1443.996667	1932.060547	156.184616
12473.995745	1443.996667	1931.083984	105.481049
12473.995745	1443.996667	1930.107422	62.139618
12473.995745	1443.996667	1929.129883	92.201355
12473.995745	1443.996667	1928.153320	105.138557
12473.995745	1443.996667	1927.175781	39.830982
12473.995745	1443.996667	1926.198242	-54.780937
12473.995745	1443.996667	1925.219727	80.411560
12473.995745	1443.996667	1924.242188	2.952356
12473.995745	1443.996667	1923.263672	-45.148506
12473.995745	1443.996667	1922.285156	116.869049
12473.995745	1443.996667	1921.306641	124.963776
12473.995745	1443.996667	1920.328125	37.830223
12473.995745	1443.996667	1919.349609	70.377747
12473.995745	1443.996667	1918.370117	80.956673
12473.995745	1443.996667	1917.391602	8.565039
12473.995745	1443.996667	1916.412109	-51.584026
12473.995745	1443.996667	1915.431641	15.169730
12473.995745	1443.996667	1914.452148	-22.973188
12473.995745	1443.996667	1913.472656	26.711426
12473.995745	1443.996667	1912.492188	8.120189
12473.995745	1443.996667	1911.511719	-29.949244
12473.995745	1443.996667	1910.531250	78.259384
12473.995745	1443.996667	1909.550781	-1.202295
12473.995745	1443.996667	1908.569336	29.028118
12473.995745	1443.996667	1907.588867	110.424110
12473.995745	1443.996667	1906.607422	43.235970
12473.995745	1443.996667	1905.625977	5.313826
12473.995745	1443.996667	1904.644531	-166.482712
12473.995745	1443.996667	1903.662109	-136.152618
12473.995745	1443.996667	1902.680664	11.008725
12473.995745	1443.996667	1901.698242	77.835182
12473.995745	1443.996667	1900.715820	-40.242779
12473.995745	1443.996667	1899.733398	-43.931099
12473.995745	1443.996667	1898.750000	35.089607
12473.995745	1443.996667	1897.767578	36.292664
12473.995745	1443.996667	1896.784180	-52.433273
12473.995745	1443.996667	1895.800781	24.177008
12473.995745	1443.996667	1894.817383	42.455547
12473.995745	1443.996667	1893.833984	2.435047
12473.995745	1443.996667	1892.850586	1.318603
12473.995745	1443.996667	1891.866211	80.373848
12473.995745	1443.996667	1890.881836	93.855042
12473.995745	1443.996667	1889.897461	17.520401
12473.995745	1443.996667	1888.913086	-117.023727
12473.995745	1443.996667	1887.927734	-20.933542
12473.995745	1443.996667	1886.943359	133.377396
12473.995745	1443.996667	1885.958008	3.800914
12473.995745	1443.996667	1884.972656	51.363026
12473.995745	1443.996667	1883.987305	14.046456
12473.995745	1443.996667	1883.001953	-105.675858
12473.995745	1443.996667	1882.015625	-9.575302
12473.995745	1443.996667	1881.029297	25.913532
12473.995745	1443.996667	1880.042969	63.831905
12473.995745	1443.996667	1879.056641	-67.847786
12473.995745	1443.996667	1878.070313	67.008957
12473.995745	1443.996667	1877.083984	121.908188
12473.995745	1443.996667	1876.096680	87.208427
12473.995745	1443.996667	1875.109375	52.539356
12473.995745	1443.996667	1874.122070	-13.567124
12473.995745	1443.996667	1873.134766	-82.051781
12473.995745	1443.996667	1872.146484	-53.704990
12473.995745	1443.996667	1871.159180	107.706787
12473.995745	1443.996667	1870.170898	22.355570
12473.995745	1443.996667	1869.182617	28.950449
12473.995745	1443.996667	1868.194336	30.722000
12473.995745	1443.996667	1867.205078	8.333961
12473.995745	1443.996667	1866.216797	-69.622406
12473.995745	1443.996667	1865.227539	62.704201
12473.995745	1443.996667	1864.238281	-36.949886
12473.995745	1443.996667	1863.249023	-27.848776
12473.995745	1443.996667	1862.259766	17.489029
12473.995745	1443.996667	1861.269531	-38.595455
12473.995745	1443.996667	1860.279297	-97.061302
12473.995745	1443.996667	1859.290039	1.404315
12473.995745	1443.996667	1858.298828	-20.823036
12473.995745	1443.996667	1857.308594	-9.251204
12473.995745	1443.996667	1856.318359	-118.296501
12473.995745	1443.996667	1855.327148	6.674595
12473.995745	1443.996667	1854.335938	-17.908916
12473.995745	1443.996667	1853.344727	22.625807
12473.995745	1443.996667	1852.353516	24.582954
12473.995745	1443.996667	1851.362305	-103.603409
12473.995745	1443.996667	1850.370117	-12.447199
12473.995745	1443.996667	1849.377930	1.584513
12473.995745	1443.996667	1848.385742	-59.056641
12473.995745	1443.996667	1847.393555	-1.658777
12473.995745	1443.996667	1846.401367	17.196037
12473.995745	1443.996667	1845.408203	60.123775
12473.995745	1443.996667	1844.415039	-63.044830
12473.995745	1443.996667	1843.421875	15.988522
12473.995745	1443.996667	1842.428711	56.497219
12473.995745	1443.996667	1841.435547	99.399185
12473.995745	1443.996667	1840.441406	74.941246
12473.995745	1443.996667	1839.448242	127.446007
12473.995745	1443.996667	1838.454102	158.293884
12473.995745	1443.996667	1837.459961	73.745773
12473.995745	1443.996667	1836.464844	-8.367038
12473.995745	1443.996667	1835.470703	-116.882614
12473.995745	1443.996667	1834.475586	77.357315
12473.995745	1443.996667	1833.480469	117.791351
12473.995745	1443.996667	1832.485352	76.553230
12473.995745	1443.996667	1831.490234	97.757637
12473.995745	1443.996667	1830.495117	-46.696560
12473.995745	1443.996667	1829.499023	118.530716
12473.995745	1443.996667	1828.502930	-11.482265
12473.995745	1443.996667	1827.506836	230.445099
12473.995745	1443.996667	1826.510742	119.640877
12473.995745	1443.996667	1825.513672	155.176575
12473.995745	1443.996667	1824.517578	-17.932276
12473.995745	1443.996667	1823.520508	0.819675
12473.995745	1443.996667	1822.523438	96.262680
12473.995745	1443.996667	1821.526367	21.501684
12473.995745	1443.996667	1820.529297	9.060560
12473.995745	1443.996667	1819.531250	-3.384732
12473.995745	1443.996667	1818.533203	-46.973629
12473.995745	1443.996667	1817.535156	57.921768
12473.995745	1443.996667	1816.537109	203.470856
12473.995745	1443.996667	1815.539063	44.927021
12473.995745	1443.996667	1814.540039	61.153679
12473.995745	1443.996667	1813.541992	29.501545
12473.995745	1443.996667	1812.542969	-50.002235
12473.995745	1443.996667	1811.543945	18.820383
12473.995745	1443.996667	1810.543945	80.428474
12473.995745	1443.996667	1809.544922	-20.603003
12473.995745	1443.996667	1808.544922	64.867256
12473.995745	1443.996667	1807.544922	238.730255
12473.995745	1443.996667	1806.544922	77.933754
12473.995745	1443.996667	1805.544922	50.987030
12473.995745	1443.996667	1804.544922	-11.800336
12473.995745	1443.996667	1803.543945	140.382706
12473.995745	1443.996667	1802.542969	-27.506830
12473.995745	1443.996667	1801.541992	169.949051
12473.995745	1443.996667	1800.541016	35.499889
12473.995745	1443.996667	1799.539063	20.416151
12473.995745	1443.996667	1798.538086	64.973885
12473.995745	1443.996667	1797.536133	-19.337290
12473.995745	1443.996667	1796.534180	-1.068519
12473.995745	1443.996667	1795.532227	26.711405
12473.995745	1443.996667	1794.529297	40.153240
12473.995745	1443.996667	1793.527344	70.254951
12473.995745	1443.996667	1792.524414	-6.935440
12473.995745	1443.996667	1791.521484	37.416801
12473.995745	1443.996667	1790.518555	24.545641
12473.995745	1443.996667	1789.514648	145.057327
12473.995745	1443.996667	1788.511719	-34.597305
12473.995745	1443.996667	1787.507813	-33.232227
12473.995745	1443.996667	1786.503906	72.862427
12473.995745	1443.996667	1785.500000	-49.622803
12473.995745	1443.996667	1784.496094	-45.952446
12473.995745	1443.996667	1783.491211	-147.006210
12473.995745	1443.996667	1782.486328	-14.905154
12473.995745	1443.996667	1781.481445	157.553482
12473.995745	1443.996667	1780.476563	11.254137
12473.995745	1443.996667	1779.471680	-130.262527
12473.995745	1443.996667	1778.465820	13.510412
12473.995745	1443.996667	1777.460938	62.130375
12473.995745	1443.996667	1776.455078	-27.122379
12473.995745	1443.996667	1775.449219	-37.967323
12473.995745	1443.996667	1774.442383	62.805500
12473.995745	1443.996667	1773.436523	47.138527
12473.995745	1443.996667	1772.429688	-42.162304
12473.995745	1443.996667	1771.422852	72.708092
12473.995745	1443.996667	1770.416016	175.636154
12473.995745	1443.996667	1769.409180	-44.252884
12473.995745	1443.996667	1768.402344	18.259932
12473.995745	1443.996667	1767.394531	-21.288931
12473.995745	1443.996667	1766.386719	-63.226048
12473.995745	1443.996667	1765.378906	91.641212
12473.995745	1443.996667	1764.371094	-54.685425
12473.995745	1443.996667	1763.362305	152.205887
12473.995745	1443.996667	1762.354492	24.817884
12473.995745	1443.996667	1761.345703	115.441772
12473.995745	1443.996667	1760.336914	87.543686
12473.995745	1443.996667	1759.328125	109.364143
12473.995745	1443.996667	1758.318359	45.887142
12473.995745	1443.996667	1757.308594	70.006187
12473.995745	1443.996667	1756.299805	68.043129
12473.995745	1443.996667	1755.290039	-106.733643
12473.995745	1443.996667	1754.279297	-9.345366
12473.995745	1443.996667	1753.269531	76.142487
12473.995745	1443.996667	1752.258789	74.039154
12473.995745	1443.996667	1751.249023	-55.809052
12473.995745	1443.996667	1750.238281	-126.529541
12473.995745	1443.996667	1749.226563	164.452164
12473.995745	1443.996667	1748.215820	3.825876
12473.995745	1443.996667	1747.204102	72.457153
12473.995745	1443.996667	1746.193359	-7.827329
12473.995745	1443.996667	1745.181641	-26.697763
12473.995745	1443.996667	1744.168945	-17.255409
12473.995745	1443.996667	1743.157227	96.050743
12473.995745	1443.996667	1742.144531	-3.211397
12473.995745	1443.996667	1741.132813	-76.504822
12473.995745	1443.996667	1740.120117	-22.364288
12473.995745	1443.996667	1739.106445	45.875591
12473.995745	1443.996667	1738.093750	149.441971
12473.995745	1443.996667	1737.080078	-58.420761
12473.995745	1443.996667	1736.067383	-94.085396
12473.995745	1443.996667	1735.053711	-77.902420
12473.995745	1443.996667	1734.040039	30.175451
12473.995745	1443.996667	1733.025391	91.034866
12473.995745	1443.996667	1732.011719	24.586559
12473.995745	1443.996667	1730.997070	-34.807308
12473.995745	1443.996667	1729.982422	-14.125178
12473.995745	1443.996667	1728.967773	13.577313
12473.995745	1443.996667	1727.952148	-64.729820
12473.995745	1443.996667	1726.937500	-112.436729
12473.995745	1443.996667	1725.921875	35.198799
12473.995745	1443.996667	1724.906250	79.194633
12473.995745	1443.996667	1723.890625	31.375061
12473.995745	1443.996667	1722.875000	16.471098
12473.995745	1443.996667	1721.858398	57.981895
12473.995745	1443.996667	1720.841797	38.299995
12473.995745	1443.996667	1719.825195	-9.623344
12473.995745	1443.996667	1718.808594	-135.135193
12473.995745	1443.996667	1717.791992	-32.669041
12473.995745	1443.996667	1716.774414	-43.067181
12473.995745	1443.996667	1715.756836	63.965961
12473.995745	1443.996667	1714.739258	72.271332
12473.995745	1443.996667	1713.721680	-55.667542
12473.995745	1443.996667	1712.704102	-45.066341
12473.995745	1443.996667	1711.685547	-25.117592
12473.995745	1443.996667	1710.667969	-63.885059
12473.995745	1443.996667	1709.649414	5.266553
12473.995745	1443.996667	1708.630859	1.626757
12473.995745	1443.996667	1707.611328	-84.147957
12473.995745	1443.996667	1706.592773	-8.102019
12473.995745	1443.996667	1705.573242	13.947480
12473.995745	1443.996667	1704.553711	64.085129
12473.995745	1443.996667	1703.534180	50.884861
12473.995745	1443.996667	1702.513672	63.430283
12473.995745	1443.996667	1701.494141	-146.643494
12473.995745	1443.996667	1700.473633	-7.637233
12473.995745	1443.996667	1699.453125	-6.900729
12473.995745	1443.996667	1698.432617	64.050621
12473.995745	1443.996667	1697.412109	38.953381
12473.995745	1443.996667	1696.390625	95.754784
12473.995745	1443.996667	1695.369141	28.466995
12473.995745	1443.996667	1694.347656	43.065861
12473.995745	1443.996667	1693.326172	27.214724
12473.995745	1443.996667	1692.304688	88.521751
12473.995745	1443.996667	1691.282227	21.154276
12473.995745	1443.996667	1690.260742	-88.301170
12473.995745	1443.996667	1689.238281	-76.194298
12473.995745	1443.996667	1688.214844	76.100578
12473.995745	1443.996667	1687.192383	6.324481
12473.995745	1443.996667	1686.168945	60.361923
12473.995745	1443.996667	1685.146484	168.073181
12473.995745	1443.996667	1684.123047	-2.193952
12473.995745	1443.996667	1683.099609	12.030149
12473.995745	1443.996667	1682.075195	198.963394
12473.995745	1443.996667	1681.051758	140.730942
12473.995745	1443.996667	1680.027344	24.149633
12473.995745	1443.996667	1679.002930	178.222916
12473.995745	1443.996667	1677.978516	112.940376
12473.995745	1443.996667	1676.953125	157.263962
12473.995745	1443.996667	1675.928711	24.334764
12473.995745	1443.996667	1674.903320	115.229134
12473.995745	1443.996667	1673.877930	259.670410
12473.995745	1443.996667	1672.852539	94.087631
12473.995745	1443.996667	1671.826172	61.345512
12473.995745	1443.996667	1670.800781	121.772881
12473.995745	1443.996667	1669.774414	51.721775
12473.995745	1443.996667	1668.748047	84.130013
12473.995745	1443.996667	1667.721680	284.126892
12473.995745	1443.996667	1666.694336	246.594055
12473.995745	1443.996667	1665.667969	92.692673
12473.995745	1443.996667	1664.640625	101.698868
12473.995745	1443.996667	1663.613281	61.825008
12473.995745	1443.996667	1662.585938	94.045616
12473.995745	1443.996667	1661.557617	98.322372
12473.995745	1443.996667	1660.530273	228.128632
12473.995745	1443.996667	1659.501953	204.439102
12473.995745	1443.996667	1658.473633	183.060974
12473.995745	1443.996667	1657.444336	219.757645
12473.995745	1443.996667	1656.416016	212.282410
12473.995745	1443.996667	1655.386719	188.526337
12473.995745	1443.996667	1654.358398	169.408340
12473.995745	1443.996667	1653.328125	120.086693
12473.995745	1443.996667	1652.298828	186.838562
12473.995745	1443.996667	1651.269531	299.964905
12473.995745	1443.996667	1650.239258	315.564911
12473.995745	1443.996667	1649.208984	240.658417
12473.995745	1443.996667	1648.178711	272.465576
12473.995745	1443.996667	1647.148438	213.796432
12473.995745	1443.996667	1646.117188	245.559723
12473.995745	1443.996667	1645.086914	455.804047
12473.995745	1443.996667	1644.055664	392.446045
12473.995745	1443.996667	1643.024414	285.067169
12473.995745	1443.996667	1641.992188	309.775818
12473.995745	1443.996667	1640.960938	181.578247
12473.995745	1443.996667	1639.928711	199.321167
12473.995745	1443.996667	1638.896484	355.977661
12473.995745	1443.996667	1637.864258	417.641022
12473.995745	1443.996667	1636.832031	307.983063
12473.995745	1443.996667	1635.798828	223.807983
12473.995745	1443.996667	1634.766602	320.131927
12473.995745	1443.996667	1633.733398	384.017303
12473.995745	1443.996667	1632.699219	373.851807
12473.995745	1443.996667	1631.666016	315.123322
12473.995745	1443.996667	1630.632813	263.343536
12473.995745	1443.996667	1629.598633	477.396606
12473.995745	1443.996667	1628.564453	497.227478
12473.995745	1443.996667	1627.530273	339.124695
12473.995745	1443.996667	1626.495117	407.469086
12473.995745	1443.996667	1625.460938	392.633301
12473.995745	1443.996667	1624.425781	343.153870
12473.995745	1443.996667	1623.390625	425.290619
12473.995745	1443.996667	1622.355469	537.399048
12473.995745	1443.996667	1621.319336	534.058167
12473.995745	1443.996667	1620.284180	463.800842
12473.995745	1443.996667	1619.248047	423.554718
12473.995745	1443.996667	1618.211914	510.182159
12473.995745	1443.996667	1617.174805	453.788544
12473.995745	1443.996667	1616.138672	478.117798
12473.995745	1443.996667	1615.101563	509.346893
12473.995745	1443.996667	1614.065430	505.994202
12473.995745	1443.996667	1613.027344	620.155090
12473.995745	1443.996667	1611.990234	743.491028
12473.995745	1443.996667	1610.953125	696.323730
12473.995745	1443.996667	1609.915039	669.898254
12473.995745	1443.996667	1608.876953	754.006104
12473.995745	1443.996667	1607.838867	644.706543
12473.995745	1443.996667	1606.800781	772.521423
12473.995745	1443.996667	1605.761719	771.417603
12473.995745	1443.996667	1604.723633	689.795105
12473.995745	1443.996667	1603.684570	831.333435
12473.995745	1443.996667	1602.644531	687.634338
12473.995745	1443.996667	1601.605469	670.466858
12473.995745	1443.996667	1600.566406	687.795837
12473.995745	1443.996667	1599.526367	748.791138
12473.995745	1443.996667	1598.486328	892.499329
12473.995745	1443.996667	1597.446289	746.658630
12473.995745	1443.996667	1596.405273	851.268555
12473.995745	1443.996667	1595.365234	700.914124
12473.995745	1443.996667	1594.324219	780.248657
12473.995745	1443.996667	1593.283203	786.094971
12473.995745	1443.996667	1592.242188	805.720581
12473.995745	1443.996667	1591.200195	632.570435
12473.995745	1443.996667	1590.159180	629.293396
12473.995745	1443.996667	1589.117188	697.138977
12473.995745	1443.996667	1588.075195	673.225891
12473.995745	1443.996667	1587.032227	514.035706
12473.995745	1443.996667	1585.990234	740.093567
12473.995745	1443.996667	1584.947266	762.063843
12473.995745	1443.996667	1583.904297	708.409668
12473.995745	1443.996667	1582.861328	583.758667
12473.995745	1443.996667	1581.818359	585.169312
12473.995745	1443.996667	1580.775391	653.016602
12473.995745	1443.996667	1579.731445	615.509277
12473.995745	1443.996667	1578.687500	603.217468
12473.995745	1443.996667	1577.643555	501.671936
12473.995745	1443.996667	1576.598633	505.456879
12473.995745	1443.996667	1575.554688	623.670471
12473.995745	1443.996667	1574.509766	597.723816
12473.995745	1443.996667	1573.464844	651.861328
12473.995745	1443.996667	1572.419922	596.226990
12473.995745	1443.996667	1571.374023	574.926147
12473.995745	1443.996667	1570.329102	686.241760
12473.995745	1443.996667	1569.283203	520.984619
12473.995745	1443.996667	1568.237305	785.402893
12473.995745	1443.996667	1567.191406	718.470581
12473.995745	1443.996667	1566.144531	619.604248
12473.995745	1443.996667	1565.098633	673.810730
12473.995745	1443.996667	1564.051758	680.066467
12473.995745	1443.996667	1563.004883	654.383240
12473.995745	1443.996667	1561.957031	592.212158
12473.995745	1443.996667	1560.910156	687.544922
12473.995745	1443.996667	1559.862305	634.566101
12473.995745	1443.996667	1558.814453	713.931335
12473.995745	1443.996667	1557.766602	542.428223
12473.995745	1443.996667	1556.718750	503.264648
12473.995745	1443.996667	1555.669922	607.759705
12473.995745	1443.996667	1554.621094	760.103516
12473.995745	1443.996667	1553.573242	725.558044
12473.995745	1443.996667	1552.523438	864.200073
12473.995745	1443.996667	1551.474609	672.525452
12473.995745	1443.996667	1550.424805	558.384216
12473.995745	1443.996667	1549.375000	831.404968
12473.995745	1443.996667	1548.325195	858.480713
12473.995745	1443.996667	1547.275391	721.697266
12473.995745	1443.996667	1546.225586	910.414429
12473.995745	1443.996667	1545.174805	707.751160
12473.995745	1443.996667	1544.124023	889.630432
12473.995745	1443.996667	1543.073242	937.286377
12473.995745	1443.996667	1542.022461	805.320557
12473.995745	1443.996667	1540.970703	871.222229
12473.995745	1443.996667	1539.919922	805.301575
12473.995745	1443.996667	1538.868164	830.337585
12473.995745	1443.996667	1537.815430	859.938232
12473.995745	1443.996667	1536.763672	903.193665
12473.995745	1443.996667	1535.710938	857.887512
12473.995745	1443.996667	1534.659180	739.974243
12473.995745	1443.996667	1533.606445	831.003540
12473.995745	1443.996667	1532.552734	744.984192
12473.995745	1443.996667	1531.500000	600.033569
12473.995745	1443.996667	1530.446289	691.140991
12473.995745	1443.996667	1529.393555	732.345032
12473.995745	1443.996667	1528.338867	793.977112
12473.995745	1443.996667	1527.285156	726.371948
12473.995745	1443.996667	1526.231445	611.221924
12473.995745	1443.996667	1525.176758	557.352539
12473.995745	1443.996667	1524.122070	576.062439
12473.995745	1443.996667	1523.067383	343.301697
12473.995745	1443.996667	1522.012695	550.146729
12473.995745	1443.996667	1520.957031	392.299835
12473.995745	1443.996667	1519.901367	377.215179
12473.995745	1443.996667	1518.845703	314.632355
12473.995745	1443.996667	1517.790039	154.781586
12473.995745	1443.996667	1516.734375	273.396088
12473.995745	1443.996667	1515.677734	145.373627
12473.995745	1443.996667	1514.621094	94.357613
12473.995745	1443.996667	1513.564453	294.458191
12473.995745	1443.996667	1512.507813	157.586761
12473.995745	1443.996667	1511.450195	249.156830
12473.995745	1443.996667	1510.393555	309.088318
12473.995745	1443.996667	1509.335938	305.758301
12473.995745	1443.996667	1508.278320	216.611191
12473.995745	1443.996667	1507.219727	326.338989
12473.995745	1443.996667	1506.162109	277.964752
12473.995745	1443.996667	1505.103516	243.200851
12473.995745	1443.996667	1504.044922	237.845520
12473.995745	1443.996667	1502.986328	70.012764
12473.995745	1443.996667	1501.926758	225.015854
12473.995745	1443.996667	1500.868164	161.135208
12473.995745	1443.996667	1499.808594	203.352142
12473.995745	1443.996667	1498.749023	155.378754
12473.995745	1443.996667	1497.688477	-18.813866
12473.995745	1443.996667	1496.628906	-66.633110
12473.995745	1443.996667	1495.568359	174.141891
12473.995745	1443.996667	1494.507813	-20.095798
12473.995745	1443.996667	1493.447266	96.738457
12473.995745	1443.996667	1492.386719	-7.201348
12473.995745	1443.996667	1491.325195	114.181145
12473.995745	1443.996667	1490.263672	-104.474632
12473.995745	1443.996667	1489.202148	-55.072823
12473.995745	1443.996667	1488.140625	-217.238251
12473.995745	1443.996667	1487.079102	21.308512
12473.995745	1443.996667	1486.016602	77.548317
12473.995745	1443.996667	1484.954102	32.578842
12473.995745	1443.996667	1483.891602	163.114578
12473.995745	1443.996667	1482.829102	84.510628
12473.995745	1443.996667	1481.765625	26.219193
12473.995745	1443.996667	1480.702148	35.431980
12473.995745	1443.996667	1479.638672	-18.232237
12473.995745	1443.996667	1478.575195	-107.775787
12473.995745	1443.996667	1477.511719	-71.435867
12473.995745	1443.996667	1476.447266	-30.581373
12473.995745	1443.996667	1475.382813	-52.542820
12473.995745	1443.996667	1474.318359	-36.309864
12473.995745	1443.996667	1473.253906	-121.015221
12473.995745	1443.996667	1472.189453	-35.092411
12473.995745	1443.996667	1471.124023	77.718292
12473.995745	1443.996667	1470.058594	4.383004
12473.995745	1443.996667	1468.993164	18.548265
12473.995745	1443.996667	1467.927734	-47.812714
12473.995745	1443.996667	1466.861328	-49.092384
12473.995745	1443.996667	1465.794922	92.853371
12473.995745	1443.996667	1464.728516	-65.090141
12473.995745	1443.996667	1463.662109	-6.147986
12473.995745	1443.996667	1462.594727	109.023888
12473.995745	1443.996667	1461.528320	112.556877
12473.995745	1443.996667	1460.460938	80.121490
12473.995745	1443.996667	1459.393555	27.738981
12473.995745	1443.996667	1458.326172	265.761414
12473.995745	1443.996667	1457.257813	264.874847
12473.995745	1443.996667	1456.189453	292.349365
12473.995745	1443.996667	1455.121094	233.643494
12473.995745	1443.996667	1454.052734	369.302643
12473.995745	1443.996667	1452.984375	216.438583
12473.995745	1443.996667	1451.915039	209.156067
12473.995745	1443.996667	1450.845703	119.030609
12473.995745	1443.996667	1449.776367	209.578293
12473.995745	1443.996667	1448.707031	256.004639
12473.995745	1443.996667	1447.636719	353.513672
12473.995745	1443.996667	1446.567383	329.722229
12473.995745	1443.996667	1445.497070	294.105255
12473.995745	1443.996667	1444.425781	429.609131
12473.995745	1443.996667	1443.355469	287.660492
12473.995745	1443.996667	1442.285156	245.060059
12473.995745	1443.996667	1441.213867	266.879272
12473.995745	1443.996667	1440.142578	136.649673
12473.995745	1443.996667	1439.070313	221.867126
12473.995745	1443.996667	1437.999023	315.557312
12473.995745	1443.996667	1436.926758	320.856110
12473.995745	1443.996667	1435.854492	218.285522
12473.995745	1443.996667	1434.782227	210.886993
12473.995745	1443.996667	1433.709961	178.845001
12473.995745	1443.996667	1432.636719	148.762558
12473.995745	1443.996667	1431.563477	-44.471306
12473.995745	1443.996667	1430.490234	23.321045
12473.995745	1443.996667	1429.416992	25.374348
12473.995745	1443.996667	1428.343750	-15.027828
12473.995745	1443.996667	1427.269531	33.860813
12473.995745	1443.996667	1426.195313	-22.493793
12473.995745	1443.996667	1425.121094	49.913586
12473.995745	1443.996667	1424.046875	58.821571
12473.995745	1443.996667	1422.971680	5.810616
12473.995745	1443.996667	1421.896484	115.558357
12473.995745	1443.996667	1420.821289	50.038769
12473.995745	1443.996667	1419.746094	-98.460716
12473.995745	1443.996667	1418.669922	94.424683
12473.995745	1443.996667	1417.594727	143.219818
12473.995745	1443.996667	1416.518555	7.771655
12473.995745	1443.996667	1415.442383	217.649139
12473.995745	1443.996667	1414.365234	-3.392152
12473.995745	1443.996667	1413.289063	-37.947376
12473.995745	1443.996667	1412.211914	109.558311
12473.995745	1443.996667	1411.134766	30.357225
12473.995745	1443.996667	1410.057617	129.570755
12473.995745	1443.996667	1408.979492	174.639725
12473.995745	1443.996667	1407.902344	124.936790
12473.995745	1443.996667	1406.824219	207.150467
12473.995745	1443.996667	1405.746094	172.315598
12473.995745	1443.996667	1404.666992	235.046005
12473.995745	1443.996667	1403.588867	194.246216
12473.995745	1443.996667	1402.509766	279.168060
12473.995745	1443.996667	1401.430664	223.389130
12473.995745	1443.996667	1400.351563	237.013229
12473.995745	1443.996667	1399.271484	306.228058
12473.995745	1443.996667	1398.192383	217.932388
12473.995745	1443.996667	1397.112305	204.009262
12473.995745	1443.996667	1396.031250	143.814514
12473.995745	1443.996667	1394.951172	170.973190
12473.995745	1443.996667	1393.871094	74.264366
12473.995745	1443.996667	1392.790039	128.105530
12473.995745	1443.996667	1391.708984	-42.732765
12473.995745	1443.996667	1390.626953	-38.185043
12473.995745	1443.996667	1389.545898	9.031980
12473.995745	1443.996667	1388.463867	173.846451
12473.995745	1443.996667	1387.381836	21.999945
12473.995745	1443.996667	1386.299805	34.179180
12473.995745	1443.996667	1385.217773	83.868240
12473.995745	1443.996667	1384.134766	51.368164
12473.995745	1443.996667	1383.051758	163.658157
12473.995745	1443.996667	1381.968750	123.436623
12473.995745	1443.996667	1380.885742	185.649567
12473.995745	1443.996667	1379.802734	156.490997
12473.995745	1443.996667	1378.718750	123.227966
12473.995745	1443.996667	1377.634766	236.244217
12473.995745	1443.996667	1376.550781	201.790924
12473.995745	1443.996667	1375.465820	230.528763
12473.995745	1443.996667	1374.381836	323.635406
12473.995745	1443.996667	1373.296875	241.891083
12473.995745	1443.996667	1372.211914	243.862488
12473.995745	1443.996667	1371.126953	114.122513
12473.995745	1443.996667	1370.041016	69.927704
12473.995745	1443.996667	1368.955078	122.565826
12473.995745	1443.996667	1367.869141	268.204010
12473.995745	1443.996667	1366.783203	226.047470
12473.995745	1443.996667	1365.697266	205.316574
12473.995745	1443.996667	1364.610352	25.242609
12473.995745	1443.996667	1363.523438	269.286987
12473.995745	1443.996667	1362.436523	245.869751
12473.995745	1443.996667	1361.349609	218.807449
12473.995745	1443.996667	1360.261719	243.746536
12473.995745	1443.996667	1359.174805	256.378357
12473.995745	1443.996667	1358.086914	171.575333
12473.995745	1443.996667	1356.998047	129.964645
12473.995745	1443.996667	1355.910156	163.618301
12473.995745	1443.996667	1354.821289	176.124710
12473.995745	1443.996667	1353.732422	242.792633
12473.995745	1443.996667	1352.643555	81.100685
12473.995745	1443.996667	1351.554688	149.195953
12473.995745	1443.996667	1350.464844	116.714394
12473.995745	1443.996667	1349.375000	80.345490
12473.995745	1443.996667	1348.285156	-96.347664
12473.995745	1443.996667	1347.195313	26.271730
12473.995745	1443.996667	1346.105469	-35.091148
12473.995745	1443.996667	1345.014648	75.181244
12473.995745	1443.996667	1343.923828	-79.196869
12473.995745	1443.996667	1342.833008	39.143257
12473.995745	1443.996667	1341.741211	50.741596
12473.995745	1443.996667	1340.650391	-46.143143
12473.995745	1443.996667	1339.558594	10.884840
12473.995745	1443.996667	1338.466797	114.376068
12473.995745	1443.996667	1337.374023	30.475586
12473.995745	1443.996667	1336.282227	346.195313
12473.995745	1443.996667	1335.189453	38.795502
12473.995745	1443.996667	1334.096680	46.704987
12473.995745	1443.996667	1333.003906	16.261236
12473.995745	1443.996667	1331.910156	219.149445
12473.995745	1443.996667	1330.817383	53.864697
12473.995745	1443.996667	1329.723633	62.355446
12473.995745	1443.996667	1328.629883	79.933220
12473.995745	1443.996667	1327.535156	51.684170
12473.995745	1443.996667	1326.441406	59.674973
12473.995745	1443.996667	1325.346680	97.357185
12473.995745	1443.996667	1324.251953	165.279541
12473.995745	1443.996667	1323.156250	179.590790
12473.995745	1443.996667	1322.061523	14.290514
12473.995745	1443.996667	1320.965820	74.539429
12473.995745	1443.996667	1319.870117	162.862259
12473.995745	1443.996667	1318.774414	142.441193
12473.995745	1443.996667	1317.678711	96.674232
12473.995745	1443.996667	1316.582031	131.148697
12473.995745	1443.996667	1315.485352	110.046440
12473.995745	1443.996667	1314.388672	162.520859
12473.995745	1443.996667	1313.291016	197.522079
12473.995745	1443.996667	1312.194336	196.576767
12473.995745	1443.996667	1311.096680	22.984568
12473.995745	1443.996667	1309.999023	94.039589
12473.995745	1443.996667	1308.901367	164.524109
12473.995745	1443.996667	1307.802734	31.699877
12473.995745	1443.996667	1306.705078	105.858498
12473.995745	1443.996667	1305.606445	170.575195
12473.995745	1443.996667	1304.506836	101.985794
12473.995745	1443.996667	1303.408203	195.963867
12473.995745	1443.996667	1302.308594	60.369854
12473.995745	1443.996667	1301.208984	174.837097
12473.995745	1443.996667	1300.109375	199.845123
12473.995745	1443.996667	1299.009766	122.218697
12473.995745	1443.996667	1297.909180	251.481400
12473.995745	1443.996667	1296.808594	198.209869
12473.995745	1443.996667	1295.708008	172.993042
12473.995745	1443.996667	1294.607422	36.298710
12473.995745	1443.996667	1293.506836	104.969719
12473.995745	1443.996667	1292.405273	67.913963
12473.995745	1443.996667	1291.303711	13.131388
12473.995745	1443.996667	1290.202148	74.699188
12473.995745	1443.996667	1289.099609	61.392956
12473.995745	1443.996667	1287.998047	7.127981
12473.995745	1443.996667	1286.895508	23.296232
12473.995745	1443.996667	1285.792969	-146.263519
12473.995745	1443.996667	1284.689453	147.256577
12473.995745	1443.996667	1283.586914	-53.962151
12473.995745	1443.996667	1282.483398	-94.527649
12473.995745	1443.996667	1281.379883	-4.399047
12473.995745	1443.996667	1280.276367	-49.180279
12473.995745	1443.996667	1279.171875	-4.556140
12473.995745	1443.996667	1278.067383	-49.928135
12473.995745	1443.996667	1276.962891	0.891301
12473.995745	1443.996667	1275.858398	-24.193962
12473.995745	1443.996667	1274.753906	-22.314230
12473.995745	1443.996667	1273.648438	-12.740214
12473.995745	1443.996667	1272.542969	-24.282608
12473.995745	1443.996667	1271.437500	-13.789001
12473.995745	1443.996667	1270.331055	28.066586
12473.995745	1443.996667	1269.225586	-52.899818
12473.995745	1443.996667	1268.119141	5.288869
12473.995745	1443.996667	1267.012695	-90.487129
12473.995745	1443.996667	1265.906250	-14.575395
12473.995745	1443.996667	1264.798828	-21.130411
12473.995745	1443.996667	1263.691406	37.064472
12473.995745	1443.996667	1262.583984	107.874565
12473.995745	1443.996667	1261.476563	-21.634125
12473.995745	1443.996667	1260.368164	-1.739621
12473.995745	1443.996667	1259.260742	2.295030
12473.995745	1443.996667	1258.152344	-21.514027
12473.995745	1443.996667	1257.043945	-40.272388
12473.995745	1443.996667	1255.934570	110.701393
12473.995745	1443.996667	1254.825195	113.541481
12473.995745	1443.996667	1253.716797	73.101280
12473.995745	1443.996667	1252.606445	181.035294
12473.995745	1443.996667	1251.497070	69.894783
12473.995745	1443.996667	1250.387695	82.515015
12473.995745	1443.996667	1249.277344	215.824966
12473.995745	1443.996667	1248.166992	24.101435
12473.995745	1443.996667	1247.055664	123.643990
12473.995745	1443.996667	1245.945313	-30.301498
12473.995745	1443.996667	1244.833984	118.134552
12473.995745	1443.996667	1243.722656	149.988220
12473.995745	1443.996667	1242.611328	-16.938124
12473.995745	1443.996667	1241.499023	-107.660843
12473.995745	1443.996667	1240.387695	24.468857
12473.995745	1443.996667	1239.275391	64.397141
12473.995745	1443.996667	1238.162109	-1.369052
12473.995745	1443.996667	1237.049805	145.105255
12473.995745	1443.996667	1235.936523	-49.270428
12473.995745	1443.996667	1234.823242	10.796898
12473.995745	1443.996667	1233.709961	97.094971
12473.995745	1443.996667	1232.596680	109.058006
12473.995745	1443.996667	1231.482422	191.032394
12473.995745	1443.996667	1230.369141	243.433701
12473.995745	1443.996667	1229.253906	118.659630
12473.995745	1443.996667	1228.139648	179.238571
12473.995745	1443.996667	1227.025391	163.453918
12473.995745	1443.996667	1225.910156	160.424927
12473.995745	1443.996667	1224.794922	-0.036208
12473.995745	1443.996667	1223.679688	-90.781876
12473.995745	1443.996667	1222.563477	-99.716263
12473.995745	1443.996667	1221.447266	-23.726368
12473.995745	1443.996667	1220.331055	-54.030285
12473.995745	1443.996667	1219.214844	-11.940341
12473.995745	1443.996667	1218.098633	17.989450
12473.995745	1443.996667	1216.981445	61.390984
12473.995745	1443.996667	1215.864258	78.255745
12473.995745	1443.996667	1214.747070	-3.142631
12473.995745	1443.996667	1213.629883	96.021729
12473.995745	1443.996667	1212.511719	14.361140
12473.995745	1443.996667	1211.393555	14.030253
12473.995745	1443.996667	1210.275391	-9.649439
12473.995745	1443.996667	1209.157227	-8.680660
12473.995745	1443.996667	1208.038086	46.044460
12473.995745	1443.996667	1206.918945	64.380844
12473.995745	1443.996667	1205.799805	13.501065
12473.995745	1443.996667	1204.680664	-35.741131
12473.995745	1443.996667	1203.560547	49.983257
12473.995745	1443.996667	1202.441406	97.139435
12473.995745	1443.996667	1201.321289	55.613205
12473.995745	1443.996667	1200.200195	4.051235
12473.995745	1443.996667	1199.080078	2.689353
12473.995745	1443.996667	1197.958984	-48.117496
12473.995745	1443.996667	1196.837891	-31.535196
12473.995745	1443.996667	1195.716797	-68.341820
12473.995745	1443.996667	1194.594727	29.274920
12473.995745	1443.996667	1193.473633	93.355743
12473.995745	1443.996667	1192.351563	-57.413517
12473.995745	1443.996667	1191.229492	-2.776271
12473.995745	1443.996667	1190.106445	-0.692759
12473.995745	1443.996667	1188.984375	-21.954605
12473.995745	1443.996667	1187.861328	-159.586090
12473.995745	1443.996667	1186.738281	-72.744576
12473.995745	1443.996667	1185.614258	27.332275
12473.995745	1443.996667	1184.491211	-6.917000
12473.995745	1443.996667	1183.367188	58.366474
12473.995745	1443.996667	1182.243164	25.222198
12473.995745	1443.996667	1181.119141	-19.636150
12473.995745	1443.996667	1179.994141	-31.943382
12473.995745	1443.996667	1178.869141	24.004141
12473.995745	1443.996667	1177.744141	-73.687805
12473.995745	1443.996667	1176.619141	48.843895
12473.995745	1443.996667	1175.493164	-71.883690
12473.995745	1443.996667	1174.368164	-56.138638
12473.995745	1443.996667	1173.242188	-9.686444
12473.995745	1443.996667	1172.115234	-12.182120
12473.995745	1443.996667	1170.989258	-33.790077
12473.995745	1443.996667	1169.862305	-96.875549
12473.995745	1443.996667	1168.735352	-123.136040
12473.995745	1443.996667	1167.608398	-140.335846
12473.995745	1443.996667	1166.481445	-6.917482
12473.995745	1443.996667	1165.353516	22.722860
12473.995745	1443.996667	1164.225586	-90.737694
12473.995745	1443.996667	1163.097656	-23.568794
12473.995745	1443.996667	1161.968750	-39.304874
12473.995745	1443.996667	1160.840820	-1.513692
12473.995745	1443.996667	1159.711914	-73.848465
12473.995745	1443.996667	1158.583008	-89.177841
12473.995745	1443.996667	1157.453125	-115.352226
12473.995745	1443.996667	1156.324219	-60.558815
12473.995745	1443.996667	1155.194336	-35.558422
12473.995745	1443.996667	1154.064453	58.285801
12473.995745	1443.996667	1152.933594	-109.891785
12473.995745	1443.996667	1151.803711	-86.472984
12473.995745	1443.996667	1150.672852	-76.079628
12473.995745	1443.996667	1149.541992	19.644491
12473.995745	1443.996667	1148.411133	-10.848559
12473.995745	1443.996667	1147.279297	-14.772668
12473.995745	1443.996667	1146.147461	4.228941
12473.995745	1443.996667	1145.015625	-26.740278
12473.995745	1443.996667	1143.883789	12.662395
12473.995745	1443.996667	1142.750977	-49.406410
12473.995745	1443.996667	1141.619141	0.832640
12473.995745	1443.996667	1140.486328	84.182594
12473.995745	1443.996667	1139.352539	1.528582
12473.995745	1443.996667	1138.219727	62.244347
12473.995745	1443.996667	1137.085938	-53.051777
12473.995745	1443.996667	1135.952148	-1.851391
12473.995745	1443.996667	1134.818359	48.508572
12473.995745	1443.996667	1133.683594	48.964359
12473.995745	1443.996667	1132.549805	-28.834635
12473.995745	1443.996667	1131.415039	23.656940
12473.995745	1443.996667	1130.279297	100.465858
12473.995745	1443.996667	1129.144531	47.219219
12473.995745	1443.996667	1128.008789	63.555492
12473.995745	1443.996667	1126.873047	199.488190
12473.995745	1443.996667	1125.737305	66.571541
12473.995745	1443.996667	1124.601563	100.360718
12473.995745	1443.996667	1123.464844	-24.679909
12473.995745	1443.996667	1122.328125	78.948174
12473.995745	1443.996667	1121.191406	160.330917
12473.995745	1443.996667	1120.054688	151.518646
12473.995745	1443.996667	1118.916992	54.788158
12473.995745	1443.996667	1117.779297	58.445675
12473.995745	1443.996667	1116.641602	-7.219211
12473.995745	1443.996667	1115.503906	-31.171785
12473.995745	1443.996667	1114.365234	11.767974
12473.995745	1443.996667	1113.226563	115.948898
12473.995745	1443.996667	1112.087891	41.925240
12473.995745	1443.996667	1110.949219	-5.175014
12473.995745	1443.996667	1109.809570	22.111767
12473.995745	1443.996667	1108.669922	-18.405020
12473.995745	1443.996667	1107.530273	149.858185
12473.995745	1443.996667	1106.390625	-27.349516
12473.995745	1443.996667	1105.250000	12.890984
12473.995745	1443.996667	1104.109375	75.543976
12473.995745	1443.996667	1102.968750	37.597836
12473.995745	1443.996667	1101.828125	75.386131
12473.995745	1443.996667	1100.686523	66.577896
12473.995745	1443.996667	1099.544922	16.876314
12473.995745	1443.996667	1098.403320	115.306862
12473.995745	1443.996667	1097.261719	126.151382
12473.995745	1443.996667	1096.120117	91.665833
12473.995745	1443.996667	1094.977539	127.167580
12473.995745	1443.996667	1093.834961	64.512283
12473.995745	1443.996667	1092.691406	40.272621
12473.995745	1443.996667	1091.548828	121.777184
12473.995745	1443.996667	1090.405273	116.351868
12473.995745	1443.996667	1089.261719	119.698639
12473.995745	1443.996667	1088.118164	29.818115
12473.995745	1443.996667	1086.973633	99.380539
12473.995745	1443.996667	1085.829102	119.317436
12473.995745	1443.996667	1084.684570	200.575729
12473.995745	1443.996667	1083.540039	119.697052
12473.995745	1443.996667	1082.395508	82.730858
12473.995745	1443.996667	1081.250000	89.937637
12473.995745	1443.996667	1080.104492	-24.115705
12473.995745	1443.996667	1078.958984	-74.318176
12473.995745	1443.996667	1077.812500	22.865057
12473.995745	1443.996667	1076.666016	38.304207
12473.995745	1443.996667	1075.519531	-20.207106
12473.995745	1443.996667	1074.373047	43.798069
12473.995745	1443.996667	1073.226563	-28.468184
12473.995745	1443.996667	1072.079102	81.873589
12473.995745	1443.996667	1070.931641	-67.034782
12473.995745	1443.996667	1069.784180	90.542717
12473.995745	1443.996667	1068.635742	-9.464717
12473.995745	1443.996667	1067.487305	28.373888
12473.995745	1443.996667	1066.338867	62.933704
12473.995745	1443.996667	1065.190430	126.860428
12473.995745	1443.996667	1064.041992	47.916439
12473.995745	1443.996667	1062.892578	0.754004
12473.995745	1443.996667	1061.743164	-67.740234
12473.995745	1443.996667	1060.593750	-58.223797
12473.995745	1443.996667	1059.443359	28.439890
12473.995745	1443.996667	1058.292969	-2.358548
12473.995745	1443.996667	1057.142578	3.515362
12473.995745	1443.996667	1055.992188	28.989063
12473.995745	1443.996667	1054.841797	33.389904
12473.995745	1443.996667	1053.690430	155.452026
12473.995745	1443.996667	1052.539063	133.321548
12473.995745	1443.996667	1051.387695	38.202278
12473.995745	1443.996667	1050.235352	-20.706848
12473.995745	1443.996667	1049.083984	3.804323
12473.995745	1443.996667	1047.931641	52.615871
12473.995745	1443.996667	1046.778320	118.038986
12473.995745	1443.996667	1045.625977	177.485596
12473.995745	1443.996667	1044.472656	20.921597
12473.995745	1443.996667	1043.319336	137.217392
12473.995745	1443.996667	1042.166016	0.669588
12473.995745	1443.996667	1041.012695	16.339922
12473.995745	1443.996667	1039.858398	150.135193
12473.995745	1443.996667	1038.704102	74.808685
12473.995745	1443.996667	1037.549805	169.100845
12473.995745	1443.996667	1036.394531	80.995102
12473.995745	1443.996667	1035.239258	246.044586
12473.995745	1443.996667	1034.083984	312.943848
12473.995745	1443.996667	1032.928711	306.334259
12473.995745	1443.996667	1031.773438	176.568069
12473.995745	1443.996667	1030.617188	267.200409
12473.995745	1443.996667	1029.460938	282.155090
12473.995745	1443.996667	1028.304688	244.699966
12473.995745	1443.996667	1027.147461	217.856384
12473.995745	1443.996667	1025.991211	155.116440
12473.995745	1443.996667	1024.833984	358.519257
12473.995745	1443.996667	1023.675781	262.995667
12473.995745	1443.996667	1022.518555	200.637985
12473.995745	1443.996667	1021.360352	220.157074
12473.995745	1443.996667	1020.202148	211.181488
12473.995745	1443.996667	1019.043945	251.254929
12473.995745	1443.996667	1017.884766	102.942596
12473.995745	1443.996667	1016.726563	145.187531
12473.995745	1443.996667	1015.567383	112.585236
12473.995745	1443.996667	1014.407227	215.033371
12473.995745	1443.996667	1013.248047	154.960876
12473.995745	1443.996667	1012.087891	88.045715
12473.995745	1443.996667	1010.927734	75.461456
12473.995745	1443.996667	1009.767578	97.975433
12473.995745	1443.996667	1008.606445	115.257256
12473.995745	1443.996667	1007.446289	-64.105316
12473.995745	1443.996667	1006.285156	180.605087
12473.995745	1443.996667	1005.123047	58.149910
12473.995745	1443.996667	1003.961914	50.177521
12473.995745	1443.996667	1002.799805	-3.947305
12473.995745	1443.996667	1001.637695	177.103409
12473.995745	1443.996667	1000.475586	41.847954
12473.995745	1443.996667	999.312500	-49.729198
12473.995745	1443.996667	998.149414	7.345452
12473.995745	1443.996667	996.986328	-131.426392
12473.995745	1443.996667	995.823242	-52.279842
12473.995745	1443.996667	994.659180	-22.033222
12473.995745	1443.996667	993.496094	96.997177
12473.995745	1443.996667	992.332031	46.416664
12473.995745	1443.996667	991.166992	117.724953
12473.995745	1443.996667	990.002930	-11.099753
12473.995745	1443.996667	988.837891	22.223083
12473.995745	1443.996667	987.672852	109.000061
12473.995745	1443.996667	986.506836	185.101761
12473.995745	1443.996667	985.341797	59.457615
12473.995745	1443.996667	984.175781	69.269974
12473.995745	1443.996667	983.009766	14.257077
12473.995745	1443.996667	981.843750	55.221889
12473.995745	1443.996667	980.676758	73.498314
12473.995745	1443.996667	979.509766	7.186956
12473.995745	1443.996667	978.342773	74.395935
12473.995745	1443.996667	977.175781	9.888158
12473.995745	1443.996667	976.007813	15.996044
12473.995745	1443.996667	974.839844	59.419815
12473.995745	1443.996667	973.671875	22.358904
12473.995745	1443.996667	972.503906	1.169961
12473.995745	1443.996667	971.334961	135.030090
12473.995745	1443.996667	970.166016	60.242577
12473.995745	1443.996667	968.997070	91.166008
12473.995745	1443.996667	967.828125	13.251275
12473.995745	1443.996667	966.658203	8.757973
12473.995745	1443.996667	965.488281	71.134407
12473.995745	1443.996667	964.318359	63.759193
12473.995745	1443.996667	963.148438	-64.190231
12473.995745	1443.996667	961.977539	46.479294
12473.995745	1443.996667	960.806641	17.521267
12473.995745	1443.996667	959.635742	61.261555
12473.995745	1443.996667	958.463867	-86.517342
12473.995745	1443.996667	957.292969	-53.681156
12473.995745	1443.996667	956.121094	-9.875520
12473.995745	1443.996667	954.948242	51.850899
12473.995745	1443.996667	953.776367	69.636292
12473.995745	1443.996667	952.603516	38.467804
12473.995745	1443.996667	951.430664	-101.242363
12473.995745	1443.996667	950.257813	33.095303
12473.995745	1443.996667	949.084961	-69.911125
12473.995745	1443.996667	947.911133	-148.062195
12473.995745	1443.996667	946.737305	-102.423271
12473.995745	1443.996667	945.563477	-44.030312
12473.995745	1443.996667	944.388672	34.653496
12473.995745	1443.996667	943.213867	18.282059
12473.995745	1443.996667	942.039063	65.848679
12473.995745	1443.996667	940.864258	-8.218271
12473.995745	1443.996667	939.688477	-30.890787
12473.995745	1443.996667	938.513672	16.741827
12473.995745	1443.996667	937.337891	-26.460838
12473.995745	1443.996667	936.161133	-73.761353
12473.995745	1443.996667	934.985352	-34.360359
12473.995745	1443.996667	933.808594	-21.710777
12473.995745	1443.996667	932.631836	9.522919
12473.995745	1443.996667	931.454102	63.337460
12473.995745	1443.996667	930.277344	69.702126
12473.995745	1443.996667	929.099609	40.895420
12473.995745	1443.996667	927.921875	113.340744
12473.995745	1443.996667	926.743164	37.033836
12473.995745	1443.996667	925.565430	74.355110
12473.995745	1443.996667	924.386719	111.658722
12473.995745	1443.996667	923.208008	22.993065
12473.995745	1443.996667	922.028320	-3.707661
12473.995745	1443.996667	920.849609	107.874451
12473.995745	1443.996667	919.669922	109.080345
12473.995745	1443.996667	919.474609	19.463850
12473.995745	1443.996667	918.309570	-151.644821
12473.995745	1443.996667	917.143555	7.320670
12473.995745	1443.996667	915.977539	50.743649
12473.995745	1443.996667	914.810547	73.532402
12473.995745	1443.996667	913.644531	162.270935
12473.995745	1443.996667	912.477539	46.950066
12473.995745	1443.996667	911.310547	-64.203125
12473.995745	1443.996667	910.143555	3.910038
12473.995745	1443.996667	908.975586	-101.009697
12473.995745	1443.996667	907.807617	0.030366
12473.995745	1443.996667	906.639648	49.560535
12473.995745	1443.996667	905.471680	53.786900
12473.995745	1443.996667	904.303711	0.390144
12473.995745	1443.996667	903.134766	-36.523727
12473.995745	1443.996667	901.965820	45.887569
12473.995745	1443.996667	900.796875	-69.173798
12473.995745	1443.996667	899.626953	-3.238080
12473.995745	1443.996667	898.457031	-31.896589
12473.995745	1443.996667	897.287109	-25.601471
12473.995745	1443.996667	896.117188	-80.958687
12473.995745	1443.996667	894.947266	95.872589
12473.995745	1443.996667	893.776367	26.135521
12473.995745	1443.996667	892.605469	104.294930
12473.995745	1443.996667	891.434570	-41.387493
12473.995745	1443.996667	890.262695	-55.625118
12473.995745	1443.996667	889.091797	-41.123085
12473.995745	1443.996667	887.919922	-98.447792
12473.995745	1443.996667	886.748047	-196.781433
12473.995745	1443.996667	885.575195	-22.263647
12473.995745	1443.996667	884.403320	-63.150879
12473.995745	1443.996667	883.230469	4.649153
12473.995745	1443.996667	882.057617	82.671051
12473.995745	1443.996667	880.883789	-93.480728
12473.995745	1443.996667	879.710938	-7.275031
12473.995745	1443.996667	878.537109	13.337928
12473.995745	1443.996667	877.362305	25.749680
12473.995745	1443.996667	876.188477	111.877609
12473.995745	1443.996667	875.013672	-21.104996
12473.995745	1443.996667	873.839844	105.936531
12473.995745	1443.996667	872.664063	44.640335
12473.995745	1443.996667	871.489258	28.382753
12473.995745	1443.996667	870.313477	57.139305
12473.995745	1443.996667	869.138672	69.518768
12473.995745	1443.996667	867.962891	-14.218203
12473.995745	1443.996667	866.786133	12.482007
12473.995745	1443.996667	865.610352	8.507947
12473.995745	1443.996667	864.433594	61.757469
12473.995745	1443.996667	863.256836	47.556629
12473.995745	1443.996667	862.079102	-23.838833
12473.995745	1443.996667	860.902344	-66.613609
12473.995745	1443.996667	859.724609	-46.070072
12473.995745	1443.996667	858.546875	-101.075050
12473.995745	1443.996667	857.368164	-35.630634
12473.995745	1443.996667	856.190430	-125.312630
12473.995745	1443.996667	855.011719	-108.862900
12473.995745	1443.996667	853.833008	-72.022781
12473.995745	1443.996667	852.654297	52.496628
12473.995745	1443.996667	851.474609	9.760112
12473.995745	1443.996667	850.294922	22.080999
12473.995745	1443.996667	849.115234	-36.944187
12473.995745	1443.996667	847.935547	7.979801
12473.995745	1443.996667	846.754883	99.742905
12473.995745	1443.996667	845.575195	26.468544
12473.995745	1443.996667	844.393555	165.023636
12473.995745	1443.996667	843.212891	63.253323
12473.995745	1443.996667	842.032227	6.306308
12473.995745	1443.996667	840.850586	-58.761967
12473.995745	1443.996667	839.668945	-74.971672
12473.995745	1443.996667	838.486328	6.476268
12473.995745	1443.996667	837.304688	59.407444
12473.995745	1443.996667	836.122070	-9.704330
12473.995745	1443.996667	834.939453	18.800467
12473.995745	1443.996667	833.756836	45.254639
12473.995745	1443.996667	832.573242	-46.183403
12473.995745	1443.996667	831.389648	-52.248665
12473.995745	1443.996667	830.206055	35.132370
12473.995745	1443.996667	829.022461	51.382828
12473.995745	1443.996667	827.838867	89.956589
12473.995745	1443.996667	826.654297	-3.458676
12473.995745	1443.996667	825.469727	-19.708807
12473.995745	1443.996667	824.284180	95.954872
12473.995745	1443.996667	823.099609	-19.745461
12473.995745	1443.996667	821.914063	12.682390
12473.995745	1443.996667	820.728516	4.524930
12473.995745	1443.996667	819.542969	-27.970522
12473.995745	1443.996667	818.356445	-90.870270
12473.995745	1443.996667	817.169922	-36.191513
12473.995745	1443.996667	815.983398	-38.287029
12473.995745	1443.996667	814.796875	-68.755707
12473.995745	1443.996667	813.609375	81.063660
12473.995745	1443.996667	812.422852	52.588150
12473.995745	1443.996667	811.235352	-50.803452
12473.995745	1443.996667	810.046875	46.255264
12473.995745	1443.996667	808.859375	17.774218
12473.995745	1443.996667	807.670898	-75.459679
12473.995745	1443.996667	806.482422	-89.763367
12473.995745	1443.996667	805.293945	9.201751
12473.995745	1443.996667	804.104492	102.047462
12473.995745	1443.996667	802.915039	43.199528
12473.995745	1443.996667	801.725586	-47.980026
12473.995745	1443.996667	800.536133	-46.165295
12473.995745	1443.996667	799.345703	-113.065331
12473.995745	1443.996667	798.155273	-6.210898
12473.995745	1443.996667	796.964844	-71.098366
12473.995745	1443.996667	795.774414	-16.828581
12473.995745	1443.996667	794.583008	-43.353828
12473.995745	1443.996667	793.392578	49.212521
12473.995745	1443.996667	792.200195	48.892086
12473.995745	1443.996667	791.008789	-42.241116
12473.995745	1443.996667	789.816406	54.258678
12473.995745	1443.996667	788.625000	-111.493294
12473.995745	1443.996667	787.432617	-73.528381
12473.995745	1443.996667	786.239258	-96.075897
12473.995745	1443.996667	785.046875	14.400856
12473.995745	1443.996667	783.853516	44.206879
12473.995745	1443.996667	782.660156	39.731964
12473.995745	1443.996667	781.465820	-53.390358
12473.995745	1443.996667	780.272461	101.225334
12473.995745	1443.996667	779.078125	68.500168
12473.995745	1443.996667	777.883789	100.190186
12473.995745	1443.996667	776.688477	37.251614
12473.995745	1443.996667	775.494141	-5.556459
12473.995745	1443.996667	774.298828	86.429634
12473.995745	1443.996667	773.103516	69.740425
12473.995745	1443.996667	771.907227	51.027393
12473.995745	1443.996667	770.711914	78.546333
12473.995745	1443.996667	769.515625	33.666840
12473.995745	1443.996667	768.318359	51.089279
12473.995745	1443.996667	767.122070	-68.153587
12473.995745	1443.996667	765.924805	-40.714233
12473.995745	1443.996667	764.727539	203.613297
12473.995745	1443.996667	763.530273	74.309692
12473.995745	1443.996667	762.333008	37.391289
12473.995745	1443.996667	761.134766	64.699364
12473.995745	1443.996667	759.936523	-14.389650
12473.995745	1443.996667	758.738281	169.374969
12473.995745	1443.996667	757.540039	-72.236046
12473.995745	1443.996667	756.340820	69.300652
12473.995745	1443.996667	755.141602	194.713135
12473.995745	1443.996667	753.942383	145.635437
12473.995745	1443.996667	752.742188	138.645035
12473.995745	1443.996667	751.541992	223.814804
12473.995745	1443.996667	750.341797	118.589821
12473.995745	1443.996667	749.141602	61.459103
12473.995745	1443.996667	747.941406	94.447327
12473.995745	1443.996667	746.740234	137.407761
12473.995745	1443.996667	745.539063	178.323059
12473.995745	1443.996667	744.337891	1.039698
12473.995745	1443.996667	743.135742	27.907465
12473.995745	1443.996667	741.933594	52.737221
12473.995745	1443.996667	740.731445	9.524354
12473.995745	1443.996667	739.529297	100.286240
12473.995745	1443.996667	738.326172	178.987366
12473.995745	1443.996667	737.124023	81.723534
12473.995745	1443.996667	735.919922	120.370956
12473.995745	1443.996667	734.716797	127.005180
12473.995745	1443.996667	733.513672	125.618034
12473.995745	1443.996667	732.309570	160.154388
12473.995745	1443.996667	731.105469	256.549347
12473.995745	1443.996667	729.900391	241.076340
12473.995745	1443.996667	728.696289	83.865707
12473.995745	1443.996667	727.491211	-15.436385
12473.995745	1443.996667	726.286133	62.843555
12473.995745	1443.996667	725.080078	43.318752
12473.995745	1443.996667	723.874023	95.569008
12473.995745	1443.996667	722.668945	20.157633
12473.995745	1443.996667	721.461914	72.331184
12473.995745	1443.996667	720.255859	-13.068769
12473.995745	1443.996667	719.048828	9.140759
12473.995745	1443.996667	717.841797	13.380059
12473.995745	1443.996667	716.634766	11.612894
12473.995745	1443.996667	715.427734	-35.987007
12473.995745	1443.996667	714.219727	105.546936
12473.995745	1443.996667	713.011719	127.556519
12473.995745	1443.996667	711.803711	67.929840
12473.995745	1443.996667	710.594727	77.937637
12473.995745	1443.996667	709.385742	-67.256912
12473.995745	1443.996667	708.176758	-63.252998
12473.995745	1443.996667	706.967773	22.246220
12473.995745	1443.996667	705.758789	52.012672
12473.995745	1443.996667	704.548828	79.747177
12473.995745	1443.996667	703.338867	-31.667690
12473.995745	1443.996667	702.127930	35.746197
12473.995745	1443.996667	700.917969	7.754202
12473.995745	1443.996667	699.707031	81.026939
12473.995745	1443.996667	698.496094	84.743027
12473.995745	1443.996667	697.285156	52.693478
12473.995745	1443.996667	696.073242	147.648834
12473.995745	1443.996667	694.861328	87.755569
12473.995745	1443.996667	693.649414	45.711975
12473.995745	1443.996667	692.436523	27.455521
12473.995745	1443.996667	691.224609	-123.688889
12473.995745	1443.996667	690.011719	-15.074397
12473.995745	1443.996667	688.798828	-39.346344
12473.995745	1443.996667	687.584961	-25.985777
12473.995745	1443.996667	686.372070	-30.493242
12473.995745	1443.996667	685.158203	54.113903
12473.995745	1443.996667	683.943359	-41.577869
12473.995745	1443.996667	682.729492	52.835365
12473.995745	1443.996667	681.514648	48.190624
12473.995745	1443.996667	680.299805	39.558620
12473.995745	1443.996667	679.084961	-32.424255
12473.995745	1443.996667	677.869141	-82.645409
12473.995745	1443.996667	676.653320	62.953766
12473.995745	1443.996667	675.437500	131.333420
12473.995745	1443.996667	674.221680	112.656342
12473.995745	1443.996667	673.004883	133.493103
12473.995745	1443.996667	671.789063	89.071854
12473.995745	1443.996667	670.571289	129.604294
12473.995745	1443.996667	669.354492	181.946579
12473.995745	1443.996667	668.136719	-60.061241
12473.995745	1443.996667	666.919922	150.220856
12473.995745	1443.996667	665.701172	210.334396
12473.995745	1443.996667	664.483398	74.980606
12473.995745	1443.996667	663.264648	148.844116
12473.995745	1443.996667	662.045898	102.292046
12473.995745	1443.996667	660.827148	32.061028
12473.995745	1443.996667	659.608398	117.639694
12473.995745	1443.996667	658.388672	126.253738
12473.995745	1443.996667	657.168945	168.351456
12473.995745	1443.996667	655.949219	25.133400
12473.995745	1443.996667	654.728516	112.505440
12473.995745	1443.996667	653.507813	54.024357
12473.995745	1443.996667	652.287109	113.727661
12473.995745	1443.996667	651.066406	151.719269
12473.995745	1443.996667	649.844727	22.312260
12473.995745	1443.996667	648.623047	36.636761
12473.995745	1443.996667	647.401367	-35.663216
12473.995745	1443.996667	646.179688	27.813171
12473.995745	1443.996667	644.957031	156.158264
12473.995745	1443.996667	643.734375	129.048218
12473.995745	1443.996667	642.511719	39.003548
12473.995745	1443.996667	641.289063	19.752295
12473.995745	1443.996667	640.065430	222.597717
12473.995745	1443.996667	638.841797	134.493439
12473.995745	1443.996667	637.618164	126.962440
12473.995745	1443.996667	636.393555	-25.946405
12473.995745	1443.996667	635.168945	182.551651
12473.995745	1443.996667	633.944336	-15.499866
12473.995745	1443.996667	632.719727	8.343982
12473.995745	1443.996667	631.494141	-30.646280
12473.995745	1443.996667	630.269531	22.593098
12473.995745	1443.996667	629.042969	48.324661
12473.995745	1443.996667	627.817383	26.958984
12473.995745	1443.996667	626.590820	-25.789640
12473.995745	1443.996667	625.365234	25.384361
12473.995745	1443.996667	624.137695	-15.608098
12473.995745	1443.996667	622.911133	96.268227
12473.995745	1443.996667	621.683594	-7.443785
12473.995745	1443.996667	620.456055	4.454452
12473.995745	1443.996667	619.228516	6.545673
12473.995745	1443.996667	618.000977	61.495144
12473.995745	1443.996667	616.772461	-14.753229
12473.995745	1443.996667	615.543945	42.116394
12473.995745	1443.996667	614.314453	40.248131
12473.995745	1443.996667	613.085938	22.725134
12473.995745	1443.996667	611.856445	16.937925
12473.995745	1443.996667	610.626953	-98.364487
12473.995745	1443.996667	609.397461	28.820635
12473.995745	1443.996667	608.166992	-131.404068
12473.995745	1443.996667	606.936523	-86.355957
12473.995745	1443.996667	605.706055	-51.097706
12473.995745	1443.996667	604.474609	-82.277130
12473.995745	1443.996667	603.244141	-9.926203
12473.995745	1443.996667	602.012695	-123.112854
12473.995745	1443.996667	600.780273	-87.878716
12473.995745	1443.996667	599.548828	50.794052
12473.995745	1443.996667	598.316406	-13.540856
12473.995745	1443.996667	597.083984	-73.941956
12473.995745	1443.996667	595.851563	17.836250
12473.995745	1443.996667	594.618164	60.824257
12473.995745	1443.996667	593.384766	-44.382149
12473.995745	1443.996667	592.151367	-137.840195
12473.995745	1443.996667	590.917969	119.563332
12473.995745	1443.996667	589.683594	80.686119
12473.995745	1443.996667	588.449219	-24.399490
12473.995745	1443.996667	587.214844	-41.781952
12473.995745	1443.996667	585.979492	96.637207
12473.995745	1443.996667	584.745117	22.802959
12473.995745	1443.996667	583.509766	7.406458
12473.995745	1443.996667	582.273438	-68.297432
12473.995745	1443.996667	581.038086	-153.679230
12473.995745	1443.996667	579.801758	-61.993984
12473.995745	1443.996667	578.565430	70.511246
12473.995745	1443.996667	577.329102	12.428696
12473.995745	1443.996667	576.091797	-144.753387
12473.995745	1443.996667	574.854492	42.162716
12473.995745	1443.996667	573.617188	-0.270308
12473.995745	1443.996667	572.378906	56.415337
12473.995745	1443.996667	571.141602	62.601788
12473.995745	1443.996667	569.903320	-3.041405
12473.995745	1443.996667	568.664063	-51.159252
12473.995745	1443.996667	567.425781	-33.231564
12473.995745	1443.996667	566.186523	-40.514454
12473.995745	1443.996667	564.947266	105.513840
12473.995745	1443.996667	563.708008	129.299545
12473.995745	1443.996667	562.467773	79.406303
12473.995745	1443.996667	561.227539	-117.798492
12473.995745	1443.996667	559.987305	39.874996
12473.995745	1443.996667	558.747070	59.903725
12473.995745	1443.996667	557.505859	-57.624645
12473.995745	1443.996667	556.264648	-60.764740
12473.995745	1443.996667	555.023438	79.465729
12473.995745	1443.996667	553.781250	169.321487
12473.995745	1443.996667	552.539063	19.099821
12473.995745	1443.996667	551.296875	47.064259
12473.995745	1443.996667	550.054688	28.609154
12473.995745	1443.996667	548.811523	-16.887167
12473.995745	1443.996667	547.569336	-13.960712
12473.995745	1443.996667	546.325195	-43.874981
12473.995745	1443.996667	545.082031	-11.857156
12473.995745	1443.996667	543.837891	138.114365
12473.995745	1443.996667	542.593750	2.012762
12473.995745	1443.996667	541.349609	97.899292
12473.995745	1443.996667	540.105469	-12.929967
12473.995745	1443.996667	538.860352	67.556770
12473.995745	1443.996667	537.615234	18.669392
12473.995745	1443.996667	536.369141	-18.566135
12473.995745	1443.996667	535.124023	65.872360
12473.995745	1443.996667	533.877930	34.528854
12473.995745	1443.996667	532.631836	30.260851
12473.995745	1443.996667	531.384766	-99.346062
12473.995745	1443.996667	530.138672	60.452026
12473.995745	1443.996667	528.891602	-18.870510
12473.995745	1443.996667	527.643555	73.468109
12473.995745	1443.996667	526.396484	-59.687946
12473.995745	1443.996667	525.148438	9.599220
12473.995745	1443.996667	523.900391	82.762291
12473.995745	1443.996667	522.652344	32.671673
12473.995745	1443.996667	521.403320	113.606369
12473.995745	1443.996667	520.154297	-46.108089
12473.995745	1443.996667	518.905273	136.936661
12473.995745	1443.996667	517.656250	50.524426
12473.995745	1443.996667	516.406250	-37.721519
12473.995745	1443.996667	515.156250	-81.631271
12473.995745	1443.996667	513.906250	59.166756
12473.995745	1443.996667	512.655273	61.511627
12473.995745	1443.996667	511.404297	-3.376718
12473.995745	1443.996667	510.153320	12.542586
12473.995745	1443.996667	508.902344	90.000290
12473.995745	1443.996667	507.650391	121.368645
12473.995745	1443.996667	506.398438	35.607933
12473.995745	1443.996667	505.146484	132.374039
12473.995745	1443.996667	503.893555	121.631920
12473.995745	1443.996667	502.641602	162.774582
12473.995745	1443.996667	501.388672	138.700073
12473.995745	1443.996667	500.134766	164.573929
12473.995745	1443.996667	498.881836	140.610474
12473.995745	1443.996667	497.627930	260.550110
12473.995745	1443.996667	496.374023	169.562744
12473.995745	1443.996667	495.119141	176.433456
12473.995745	1443.996667	493.865234	189.098190
12473.995745	1443.996667	492.610352	299.533173
12473.995745	1443.996667	491.355469	95.766785
12473.995745	1443.996667	490.099609	200.517044
12473.995745	1443.996667	488.843750	142.488327
12473.995745	1443.996667	487.587891	184.085571
12473.995745	1443.996667	486.332031	241.018280
12473.995745	1443.996667	485.075195	209.931534
12473.995745	1443.996667	483.818359	347.271912
12473.995745	1443.996667	482.561523	297.117798
12473.995745	1443.996667	481.304688	338.821442
12473.995745	1443.996667	480.046875	344.208771
12473.995745	1443.996667	478.789063	311.388977
12473.995745	1443.996667	477.531250	242.296021
12473.995745	1443.996667	476.272461	289.824005
12473.995745	1443.996667	475.013672	274.308258
12473.995745	1443.996667	473.754883	224.438797
12473.995745	1443.996667	472.496094	273.911804
12473.995745	1443.996667	471.236328	153.456497
12473.995745	1443.996667	469.976563	363.295349
12473.995745	1443.996667	468.716797	221.903061
12473.995745	1443.996667	467.456055	340.069519
12473.995745	1443.996667	466.196289	358.993500
12473.995745	1443.996667	464.935547	316.880554
12473.995745	1443.996667	463.673828	351.055389
12473.995745	1443.996667	462.413086	387.114441
12473.995745	1443.996667	461.151367	539.413147
12473.995745	1443.996667	459.889648	628.749146
12473.995745	1443.996667	458.626953	512.275574
12473.995745	1443.996667	457.364258	454.877686
12473.995745	1443.996667	456.101563	452.703674
12473.995745	1443.996667	454.838867	416.230560
12473.995745	1443.996667	453.575195	307.406708
12473.995745	1443.996667	452.312500	388.897430
12473.995745	1443.996667	451.047852	515.974304
12473.995745	1443.996667	449.784180	382.337891
12473.995745	1443.996667	448.519531	509.257172
12473.995745	1443.996667	447.254883	432.609467
12473.995745	1443.996667	445.990234	439.574371
12473.995745	1443.996667	444.725586	497.781403
12473.995745	1443.996667	443.459961	542.585449
12473.995745	1443.996667	442.194336	439.104004
12473.995745	1443.996667	440.927734	432.445770
12473.995745	1443.996667	439.662109	494.057465
12473.995745	1443.996667	438.395508	422.641266
12473.995745	1443.996667	437.127930	588.414246
12473.995745	1443.996667	435.861328	448.464050
12473.995745	1443.996667	434.593750	405.213470
12473.995745	1443.996667	433.326172	428.241974
12473.995745	1443.996667	432.058594	479.568726
12473.995745	1443.996667	430.790039	390.414825
12473.995745	1443.996667	429.521484	505.876923
12473.995745	1443.996667	428.252930	480.875366
12473.995745	1443.996667	426.984375	461.396240
12473.995745	1443.996667	425.714844	583.826599
12473.995745	1443.996667	424.445313	539.337341
12473.995745	1443.996667	423.174805	538.219055
12473.995745	1443.996667	421.905273	552.037537
12473.995745	1443.996667	420.634766	571.307373
12473.995745	1443.996667	419.364258	561.951965
12473.995745	1443.996667	418.092773	645.064331
12473.995745	1443.996667	416.822266	620.072021
12473.995745	1443.996667	415.550781	642.103638
12473.995745	1443.996667	414.278320	620.361328
12473.995745	1443.996667	413.006836	604.016052
12473.995745	1443.996667	411.734375	589.266724
12473.995745	1443.996667	410.461914	619.561523
12473.995745	1443.996667	409.188477	568.284729
12473.995745	1443.996667	407.916016	690.458130
12473.995745	1443.996667	406.642578	708.369324
12473.995745	1443.996667	405.368164	603.192566
12473.995745	1443.996667	404.094727	576.962952
12473.995745	1443.996667	402.820313	497.511322
12473.995745	1443.996667	401.545898	610.126160
12473.995745	1443.996667	400.270508	710.948730
12473.995745	1443.996667	398.996094	632.142151
12473.995745	1443.996667	397.720703	573.651978
12473.995745	1443.996667	396.444336	656.088379
12473.995745	1443.996667	395.168945	564.627625
12473.995745	1443.996667	393.892578	610.243835
12473.995745	1443.996667	392.616211	564.900085
12473.995745	1443.996667	391.339844	581.191406
12473.995745	1443.996667	390.062500	704.241455
12473.995745	1443.996667	388.785156	653.470215
12473.995745	1443.996667	387.507813	718.821777
12473.995745	1443.996667	386.229492	791.051270
12473.995745	1443.996667	384.951172	762.907593
12473.995745	1443.996667	383.672852	767.981812
12473.995745	1443.996667	382.394531	708.444336
12473.995745	1443.996667	381.115234	582.425049
12473.995745	1443.996667	379.835938	694.466858
12473.995745	1443.996667	378.556641	723.035095
12473.995745	1443.996667	377.277344	636.220703
12473.995745	1443.996667	375.997070	606.880432
12473.995745	1443.996667	374.716797	580.503784
12473.995745	1443.996667	373.435547	665.952576
12473.995745	1443.996667	372.155273	587.205505
12473.995745	1443.996667	370.874023	494.460052
12473.995745	1443.996667	369.591797	545.316895
12473.995745	1443.996667	368.310547	602.742920
12473.995745	1443.996667	367.028320	539.128723
12473.995745	1443.996667	365.746094	517.687378
12473.995745	1443.996667	364.463867	630.227417
12473.995745	1443.996667	363.180664	473.621246
12473.995745	1443.996667	361.897461	450.938416
12473.995745	1443.996667	360.614258	554.569214
12473.995745	1443.996667	359.330078	542.738892
12473.995745	1443.996667	358.045898	522.262207
12473.995745	1443.996667	356.761719	392.007202
12473.995745	1443.996667	355.477539	393.492767
12473.995745	1443.996667	354.192383	367.493713
12473.995745	1443.996667	352.907227	300.922577
12473.995745	1443.996667	351.622070	416.387146
12473.995745	1443.996667	350.336914	362.116699
12473.995745	1443.996667	349.050781	401.811096
12473.995745	1443.996667	347.764648	283.021851
12473.995745	1443.996667	346.477539	252.501419
12473.995745	1443.996667	345.191406	211.181381
12473.995745	1443.996667	343.904297	198.196121
12473.995745	1443.996667	342.616211	336.763489
12473.995745	1443.996667	341.329102	255.196320
12473.995745	1443.996667	340.041016	341.867371
12473.995745	1443.996667	338.752930	169.204147
12473.995745	1443.996667	337.463867	127.333214
12473.995745	1443.996667	336.175781	206.882202
12473.995745	1443.996667	334.886719	-21.403208
12473.995745	1443.996667	333.596680	78.597183
12473.995745	1443.996667	332.307617	55.483192
12473.995745	1443.996667	331.017578	45.281242
12473.995745	1443.996667	329.727539	46.119453
12473.995745	1443.996667	328.436523	31.803083
12473.995745	1443.996667	327.146484	9.849762
12473.995745	1443.996667	325.855469	2.459950
12473.995745	1443.996667	324.563477	39.363102
12473.995745	1443.996667	323.272461	-45.102116
12473.995745	1443.996667	321.980469	46.789871
12473.995745	1443.996667	320.688477	24.622763
12473.995745	1443.996667	319.395508	-199.091537
12473.995745	1443.996667	318.103516	32.474976
12473.995745	1443.996667	316.810547	-56.663807
12473.995745	1443.996667	315.516602	-5.251399
12473.995745	1443.996667	314.223633	6.388016
12473.995745	1443.996667	312.929688	0.381829
12473.995745	1443.996667	311.635742	-84.564873
12473.995745	1443.996667	310.340820	-47.910004
12473.995745	1443.996667	309.045898	-95.876205
12473.995745	1443.996667	307.750977	90.909439
12473.995745	1443.996667	306.456055	-91.122536
12473.995745	1443.996667	305.160156	-111.047089
12473.995745	1443.996667	303.865234	-2.266052
12473.995745	1443.996667	302.568359	19.589323
12473.995745	1443.996667	301.272461	6.714787
12473.995745	1443.996667	299.975586	212.934448
12473.995745	1443.996667	298.678711	313.670746
