#X		#Y		#Wave		#Intensity
11881.413830	2853.066667	1999.980469	-12.288998
11881.413830	2853.066667	1999.016602	-93.579323
11881.413830	2853.066667	1998.052734	46.429447
11881.413830	2853.066667	1997.087891	-153.396942
11881.413830	2853.066667	1996.123047	-182.467285
11881.413830	2853.066667	1995.158203	130.058548
11881.413830	2853.066667	1994.193359	211.869125
11881.413830	2853.066667	1993.228516	236.441483
11881.413830	2853.066667	1992.262695	10.703230
11881.413830	2853.066667	1991.297852	-185.489944
11881.413830	2853.066667	1990.332031	51.271595
11881.413830	2853.066667	1989.366211	109.558907
11881.413830	2853.066667	1988.399414	71.124321
11881.413830	2853.066667	1987.433594	-21.928108
11881.413830	2853.066667	1986.466797	1.086233
11881.413830	2853.066667	1985.500977	1.638657
11881.413830	2853.066667	1984.534180	81.109955
11881.413830	2853.066667	1983.567383	140.593185
11881.413830	2853.066667	1982.599609	-37.363426
11881.413830	2853.066667	1981.632813	118.126976
11881.413830	2853.066667	1980.665039	-8.223307
11881.413830	2853.066667	1979.697266	107.358238
11881.413830	2853.066667	1978.729492	158.535568
11881.413830	2853.066667	1977.761719	98.441238
11881.413830	2853.066667	1976.792969	141.901566
11881.413830	2853.066667	1975.825195	24.782158
11881.413830	2853.066667	1974.856445	280.175995
11881.413830	2853.066667	1973.887695	187.481354
11881.413830	2853.066667	1972.918945	250.096786
11881.413830	2853.066667	1971.949219	41.285862
11881.413830	2853.066667	1970.980469	103.669807
11881.413830	2853.066667	1970.010742	-9.116245
11881.413830	2853.066667	1969.041016	186.136566
11881.413830	2853.066667	1968.071289	265.390747
11881.413830	2853.066667	1967.101563	38.992504
11881.413830	2853.066667	1966.130859	231.372070
11881.413830	2853.066667	1965.161133	-7.432690
11881.413830	2853.066667	1964.190430	145.308228
11881.413830	2853.066667	1963.219727	125.566360
11881.413830	2853.066667	1962.249023	255.913971
11881.413830	2853.066667	1961.277344	14.501605
11881.413830	2853.066667	1960.306641	48.709747
11881.413830	2853.066667	1959.334961	188.627975
11881.413830	2853.066667	1958.363281	23.417692
11881.413830	2853.066667	1957.391602	86.927055
11881.413830	2853.066667	1956.419922	-11.929489
11881.413830	2853.066667	1955.447266	53.910332
11881.413830	2853.066667	1954.474609	23.815342
11881.413830	2853.066667	1953.501953	74.781776
11881.413830	2853.066667	1952.529297	-36.479370
11881.413830	2853.066667	1951.556641	46.329716
11881.413830	2853.066667	1950.583984	104.508728
11881.413830	2853.066667	1949.610352	-159.064896
11881.413830	2853.066667	1948.636719	-7.641199
11881.413830	2853.066667	1947.663086	209.974289
11881.413830	2853.066667	1946.689453	59.334862
11881.413830	2853.066667	1945.715820	70.679756
11881.413830	2853.066667	1944.741211	-70.114594
11881.413830	2853.066667	1943.767578	103.099449
11881.413830	2853.066667	1942.792969	163.415512
11881.413830	2853.066667	1941.818359	-36.222927
11881.413830	2853.066667	1940.842773	-74.000328
11881.413830	2853.066667	1939.868164	27.939301
11881.413830	2853.066667	1938.892578	-58.871849
11881.413830	2853.066667	1937.916992	167.965057
11881.413830	2853.066667	1936.941406	147.287781
11881.413830	2853.066667	1935.965820	-69.331184
11881.413830	2853.066667	1934.990234	191.648926
11881.413830	2853.066667	1934.013672	95.065605
11881.413830	2853.066667	1933.037109	3.413603
11881.413830	2853.066667	1932.060547	-142.047287
11881.413830	2853.066667	1931.083984	-84.350304
11881.413830	2853.066667	1930.107422	-97.621040
11881.413830	2853.066667	1929.129883	148.401581
11881.413830	2853.066667	1928.153320	-31.199118
11881.413830	2853.066667	1927.175781	43.571205
11881.413830	2853.066667	1926.198242	115.877289
11881.413830	2853.066667	1925.219727	80.617226
11881.413830	2853.066667	1924.242188	-111.020958
11881.413830	2853.066667	1923.263672	29.718184
11881.413830	2853.066667	1922.285156	48.273560
11881.413830	2853.066667	1921.306641	-21.093195
11881.413830	2853.066667	1920.328125	7.260859
11881.413830	2853.066667	1919.349609	135.721771
11881.413830	2853.066667	1918.370117	-131.304779
11881.413830	2853.066667	1917.391602	168.011734
11881.413830	2853.066667	1916.412109	64.603905
11881.413830	2853.066667	1915.431641	-70.465088
11881.413830	2853.066667	1914.452148	14.070588
11881.413830	2853.066667	1913.472656	69.327858
11881.413830	2853.066667	1912.492188	31.925627
11881.413830	2853.066667	1911.511719	23.812382
11881.413830	2853.066667	1910.531250	-50.088123
11881.413830	2853.066667	1909.550781	-138.561646
11881.413830	2853.066667	1908.569336	36.163006
11881.413830	2853.066667	1907.588867	137.763199
11881.413830	2853.066667	1906.607422	-57.798656
11881.413830	2853.066667	1905.625977	24.342550
11881.413830	2853.066667	1904.644531	-343.944336
11881.413830	2853.066667	1903.662109	-125.418442
11881.413830	2853.066667	1902.680664	-130.858871
11881.413830	2853.066667	1901.698242	19.458076
11881.413830	2853.066667	1900.715820	26.202419
11881.413830	2853.066667	1899.733398	40.263840
11881.413830	2853.066667	1898.750000	158.916351
11881.413830	2853.066667	1897.767578	46.555290
11881.413830	2853.066667	1896.784180	-39.000839
11881.413830	2853.066667	1895.800781	-5.402111
11881.413830	2853.066667	1894.817383	-47.127148
11881.413830	2853.066667	1893.833984	-81.525200
11881.413830	2853.066667	1892.850586	-23.575443
11881.413830	2853.066667	1891.866211	82.948753
11881.413830	2853.066667	1890.881836	102.036240
11881.413830	2853.066667	1889.897461	62.868416
11881.413830	2853.066667	1888.913086	96.560257
11881.413830	2853.066667	1887.927734	-42.055164
11881.413830	2853.066667	1886.943359	161.543167
11881.413830	2853.066667	1885.958008	13.305319
11881.413830	2853.066667	1884.972656	83.449379
11881.413830	2853.066667	1883.987305	61.431023
11881.413830	2853.066667	1883.001953	37.016479
11881.413830	2853.066667	1882.015625	-33.431404
11881.413830	2853.066667	1881.029297	-28.696180
11881.413830	2853.066667	1880.042969	-130.570770
11881.413830	2853.066667	1879.056641	17.168480
11881.413830	2853.066667	1878.070313	-21.657110
11881.413830	2853.066667	1877.083984	135.729797
11881.413830	2853.066667	1876.096680	-145.223465
11881.413830	2853.066667	1875.109375	17.002573
11881.413830	2853.066667	1874.122070	-106.450554
11881.413830	2853.066667	1873.134766	-16.867081
11881.413830	2853.066667	1872.146484	67.857079
11881.413830	2853.066667	1871.159180	-140.165649
11881.413830	2853.066667	1870.170898	58.262703
11881.413830	2853.066667	1869.182617	-118.216522
11881.413830	2853.066667	1868.194336	-60.080009
11881.413830	2853.066667	1867.205078	-101.069855
11881.413830	2853.066667	1866.216797	-173.453232
11881.413830	2853.066667	1865.227539	-54.892429
11881.413830	2853.066667	1864.238281	-42.674465
11881.413830	2853.066667	1863.249023	-8.711118
11881.413830	2853.066667	1862.259766	32.494011
11881.413830	2853.066667	1861.269531	-92.926170
11881.413830	2853.066667	1860.279297	-71.020462
11881.413830	2853.066667	1859.290039	66.747261
11881.413830	2853.066667	1858.298828	148.961166
11881.413830	2853.066667	1857.308594	-34.271431
11881.413830	2853.066667	1856.318359	151.675995
11881.413830	2853.066667	1855.327148	137.360657
11881.413830	2853.066667	1854.335938	43.471981
11881.413830	2853.066667	1853.344727	113.575630
11881.413830	2853.066667	1852.353516	48.658184
11881.413830	2853.066667	1851.362305	15.098795
11881.413830	2853.066667	1850.370117	65.893143
11881.413830	2853.066667	1849.377930	119.076302
11881.413830	2853.066667	1848.385742	68.658272
11881.413830	2853.066667	1847.393555	114.592400
11881.413830	2853.066667	1846.401367	186.994156
11881.413830	2853.066667	1845.408203	-7.866381
11881.413830	2853.066667	1844.415039	175.245056
11881.413830	2853.066667	1843.421875	-26.768944
11881.413830	2853.066667	1842.428711	76.865265
11881.413830	2853.066667	1841.435547	175.642044
11881.413830	2853.066667	1840.441406	60.308983
11881.413830	2853.066667	1839.448242	26.773922
11881.413830	2853.066667	1838.454102	-100.525818
11881.413830	2853.066667	1837.459961	-177.306122
11881.413830	2853.066667	1836.464844	65.583862
11881.413830	2853.066667	1835.470703	-16.027025
11881.413830	2853.066667	1834.475586	104.191025
11881.413830	2853.066667	1833.480469	-25.462206
11881.413830	2853.066667	1832.485352	-63.819492
11881.413830	2853.066667	1831.490234	94.717064
11881.413830	2853.066667	1830.495117	142.747299
11881.413830	2853.066667	1829.499023	-92.484726
11881.413830	2853.066667	1828.502930	202.708054
11881.413830	2853.066667	1827.506836	101.882034
11881.413830	2853.066667	1826.510742	113.823112
11881.413830	2853.066667	1825.513672	15.413478
11881.413830	2853.066667	1824.517578	106.461769
11881.413830	2853.066667	1823.520508	84.772133
11881.413830	2853.066667	1822.523438	211.687515
11881.413830	2853.066667	1821.526367	106.060738
11881.413830	2853.066667	1820.529297	55.564915
11881.413830	2853.066667	1819.531250	-71.599495
11881.413830	2853.066667	1818.533203	76.715240
11881.413830	2853.066667	1817.535156	107.604149
11881.413830	2853.066667	1816.537109	47.470837
11881.413830	2853.066667	1815.539063	-17.452938
11881.413830	2853.066667	1814.540039	111.489243
11881.413830	2853.066667	1813.541992	209.248154
11881.413830	2853.066667	1812.542969	65.293549
11881.413830	2853.066667	1811.543945	-9.263769
11881.413830	2853.066667	1810.543945	54.891731
11881.413830	2853.066667	1809.544922	-7.739127
11881.413830	2853.066667	1808.544922	116.100311
11881.413830	2853.066667	1807.544922	91.663582
11881.413830	2853.066667	1806.544922	-6.879995
11881.413830	2853.066667	1805.544922	102.457260
11881.413830	2853.066667	1804.544922	18.217728
11881.413830	2853.066667	1803.543945	55.786098
11881.413830	2853.066667	1802.542969	78.979576
11881.413830	2853.066667	1801.541992	104.516357
11881.413830	2853.066667	1800.541016	98.974960
11881.413830	2853.066667	1799.539063	119.652115
11881.413830	2853.066667	1798.538086	75.858963
11881.413830	2853.066667	1797.536133	36.814465
11881.413830	2853.066667	1796.534180	-38.032101
11881.413830	2853.066667	1795.532227	-81.885345
11881.413830	2853.066667	1794.529297	-99.533661
11881.413830	2853.066667	1793.527344	-21.854931
11881.413830	2853.066667	1792.524414	-18.134443
11881.413830	2853.066667	1791.521484	-47.820137
11881.413830	2853.066667	1790.518555	74.953728
11881.413830	2853.066667	1789.514648	-143.012512
11881.413830	2853.066667	1788.511719	117.788437
11881.413830	2853.066667	1787.507813	-50.180981
11881.413830	2853.066667	1786.503906	138.992859
11881.413830	2853.066667	1785.500000	94.776314
11881.413830	2853.066667	1784.496094	-77.981392
11881.413830	2853.066667	1783.491211	82.403671
11881.413830	2853.066667	1782.486328	-38.038471
11881.413830	2853.066667	1781.481445	224.467209
11881.413830	2853.066667	1780.476563	-150.503510
11881.413830	2853.066667	1779.471680	-133.065216
11881.413830	2853.066667	1778.465820	24.573278
11881.413830	2853.066667	1777.460938	-157.767197
11881.413830	2853.066667	1776.455078	61.506802
11881.413830	2853.066667	1775.449219	5.051675
11881.413830	2853.066667	1774.442383	-41.929413
11881.413830	2853.066667	1773.436523	-110.312500
11881.413830	2853.066667	1772.429688	186.951599
11881.413830	2853.066667	1771.422852	87.589828
11881.413830	2853.066667	1770.416016	33.314789
11881.413830	2853.066667	1769.409180	38.340111
11881.413830	2853.066667	1768.402344	-18.375471
11881.413830	2853.066667	1767.394531	57.723515
11881.413830	2853.066667	1766.386719	-44.140625
11881.413830	2853.066667	1765.378906	-25.077467
11881.413830	2853.066667	1764.371094	209.679382
11881.413830	2853.066667	1763.362305	-39.276649
11881.413830	2853.066667	1762.354492	-15.635923
11881.413830	2853.066667	1761.345703	124.048309
11881.413830	2853.066667	1760.336914	0.659839
11881.413830	2853.066667	1759.328125	178.084274
11881.413830	2853.066667	1758.318359	-6.946515
11881.413830	2853.066667	1757.308594	182.143845
11881.413830	2853.066667	1756.299805	212.506119
11881.413830	2853.066667	1755.290039	-17.549206
11881.413830	2853.066667	1754.279297	-136.353409
11881.413830	2853.066667	1753.269531	-20.933781
11881.413830	2853.066667	1752.258789	56.538483
11881.413830	2853.066667	1751.249023	-109.664841
11881.413830	2853.066667	1750.238281	-174.184875
11881.413830	2853.066667	1749.226563	-33.056961
11881.413830	2853.066667	1748.215820	103.241013
11881.413830	2853.066667	1747.204102	-195.403030
11881.413830	2853.066667	1746.193359	40.005871
11881.413830	2853.066667	1745.181641	159.513687
11881.413830	2853.066667	1744.168945	19.114407
11881.413830	2853.066667	1743.157227	18.042606
11881.413830	2853.066667	1742.144531	-32.664818
11881.413830	2853.066667	1741.132813	-52.715473
11881.413830	2853.066667	1740.120117	71.149040
11881.413830	2853.066667	1739.106445	79.289009
11881.413830	2853.066667	1738.093750	-28.222584
11881.413830	2853.066667	1737.080078	-55.553371
11881.413830	2853.066667	1736.067383	-42.831326
11881.413830	2853.066667	1735.053711	-82.042610
11881.413830	2853.066667	1734.040039	-41.140759
11881.413830	2853.066667	1733.025391	-101.658501
11881.413830	2853.066667	1732.011719	-11.386465
11881.413830	2853.066667	1730.997070	29.317747
11881.413830	2853.066667	1729.982422	8.709814
11881.413830	2853.066667	1728.967773	6.899290
11881.413830	2853.066667	1727.952148	33.288807
11881.413830	2853.066667	1726.937500	21.954475
11881.413830	2853.066667	1725.921875	85.888855
11881.413830	2853.066667	1724.906250	43.848881
11881.413830	2853.066667	1723.890625	-99.400566
11881.413830	2853.066667	1722.875000	-61.508663
11881.413830	2853.066667	1721.858398	13.945558
11881.413830	2853.066667	1720.841797	138.701691
11881.413830	2853.066667	1719.825195	195.178925
11881.413830	2853.066667	1718.808594	-63.398804
11881.413830	2853.066667	1717.791992	51.750992
11881.413830	2853.066667	1716.774414	-23.525106
11881.413830	2853.066667	1715.756836	-119.965752
11881.413830	2853.066667	1714.739258	39.604172
11881.413830	2853.066667	1713.721680	-26.380447
11881.413830	2853.066667	1712.704102	-68.907562
11881.413830	2853.066667	1711.685547	-97.387611
11881.413830	2853.066667	1710.667969	59.516876
11881.413830	2853.066667	1709.649414	-58.240917
11881.413830	2853.066667	1708.630859	37.496239
11881.413830	2853.066667	1707.611328	93.267960
11881.413830	2853.066667	1706.592773	10.610347
11881.413830	2853.066667	1705.573242	-55.653614
11881.413830	2853.066667	1704.553711	-58.641884
11881.413830	2853.066667	1703.534180	93.021927
11881.413830	2853.066667	1702.513672	155.526688
11881.413830	2853.066667	1701.494141	53.960697
11881.413830	2853.066667	1700.473633	188.978622
11881.413830	2853.066667	1699.453125	7.721517
11881.413830	2853.066667	1698.432617	130.901764
11881.413830	2853.066667	1697.412109	-127.619850
11881.413830	2853.066667	1696.390625	32.900059
11881.413830	2853.066667	1695.369141	-10.288846
11881.413830	2853.066667	1694.347656	-30.103086
11881.413830	2853.066667	1693.326172	-59.308781
11881.413830	2853.066667	1692.304688	140.670731
11881.413830	2853.066667	1691.282227	-24.274834
11881.413830	2853.066667	1690.260742	28.245491
11881.413830	2853.066667	1689.238281	-17.477652
11881.413830	2853.066667	1688.214844	34.931152
11881.413830	2853.066667	1687.192383	12.514458
11881.413830	2853.066667	1686.168945	-131.421646
11881.413830	2853.066667	1685.146484	14.304214
11881.413830	2853.066667	1684.123047	180.948196
11881.413830	2853.066667	1683.099609	219.072983
11881.413830	2853.066667	1682.075195	173.102219
11881.413830	2853.066667	1681.051758	85.109161
11881.413830	2853.066667	1680.027344	104.450340
11881.413830	2853.066667	1679.002930	-32.565331
11881.413830	2853.066667	1677.978516	108.020729
11881.413830	2853.066667	1676.953125	94.590080
11881.413830	2853.066667	1675.928711	211.715317
11881.413830	2853.066667	1674.903320	132.928482
11881.413830	2853.066667	1673.877930	242.940048
11881.413830	2853.066667	1672.852539	129.160751
11881.413830	2853.066667	1671.826172	-52.179298
11881.413830	2853.066667	1670.800781	71.690033
11881.413830	2853.066667	1669.774414	-4.820518
11881.413830	2853.066667	1668.748047	90.985970
11881.413830	2853.066667	1667.721680	205.352325
11881.413830	2853.066667	1666.694336	70.578857
11881.413830	2853.066667	1665.667969	156.925232
11881.413830	2853.066667	1664.640625	140.826370
11881.413830	2853.066667	1663.613281	138.667831
11881.413830	2853.066667	1662.585938	271.386810
11881.413830	2853.066667	1661.557617	22.650684
11881.413830	2853.066667	1660.530273	183.193985
11881.413830	2853.066667	1659.501953	571.451477
11881.413830	2853.066667	1658.473633	264.631042
11881.413830	2853.066667	1657.444336	150.764359
11881.413830	2853.066667	1656.416016	278.541138
11881.413830	2853.066667	1655.386719	266.876495
11881.413830	2853.066667	1654.358398	297.006134
11881.413830	2853.066667	1653.328125	248.147461
11881.413830	2853.066667	1652.298828	345.545380
11881.413830	2853.066667	1651.269531	273.459045
11881.413830	2853.066667	1650.239258	277.954163
11881.413830	2853.066667	1649.208984	261.550354
11881.413830	2853.066667	1648.178711	298.489532
11881.413830	2853.066667	1647.148438	446.718689
11881.413830	2853.066667	1646.117188	328.218597
11881.413830	2853.066667	1645.086914	416.083557
11881.413830	2853.066667	1644.055664	527.073181
11881.413830	2853.066667	1643.024414	355.290222
11881.413830	2853.066667	1641.992188	570.479004
11881.413830	2853.066667	1640.960938	584.050415
11881.413830	2853.066667	1639.928711	748.139893
11881.413830	2853.066667	1638.896484	398.101257
11881.413830	2853.066667	1637.864258	508.899017
11881.413830	2853.066667	1636.832031	492.339630
11881.413830	2853.066667	1635.798828	751.164490
11881.413830	2853.066667	1634.766602	648.942749
11881.413830	2853.066667	1633.733398	625.400635
11881.413830	2853.066667	1632.699219	553.285950
11881.413830	2853.066667	1631.666016	384.080994
11881.413830	2853.066667	1630.632813	337.473389
11881.413830	2853.066667	1629.598633	519.715332
11881.413830	2853.066667	1628.564453	618.686035
11881.413830	2853.066667	1627.530273	583.601074
11881.413830	2853.066667	1626.495117	469.976257
11881.413830	2853.066667	1625.460938	411.836823
11881.413830	2853.066667	1624.425781	365.261566
11881.413830	2853.066667	1623.390625	775.853271
11881.413830	2853.066667	1622.355469	629.970154
11881.413830	2853.066667	1621.319336	574.148621
11881.413830	2853.066667	1620.284180	520.667603
11881.413830	2853.066667	1619.248047	469.512329
11881.413830	2853.066667	1618.211914	623.669312
11881.413830	2853.066667	1617.174805	265.803009
11881.413830	2853.066667	1616.138672	431.482269
11881.413830	2853.066667	1615.101563	576.349670
11881.413830	2853.066667	1614.065430	564.451599
11881.413830	2853.066667	1613.027344	428.118774
11881.413830	2853.066667	1611.990234	536.068848
11881.413830	2853.066667	1610.953125	482.747437
11881.413830	2853.066667	1609.915039	487.026093
11881.413830	2853.066667	1608.876953	636.375610
11881.413830	2853.066667	1607.838867	688.992065
11881.413830	2853.066667	1606.800781	693.267700
11881.413830	2853.066667	1605.761719	485.838776
11881.413830	2853.066667	1604.723633	724.858887
11881.413830	2853.066667	1603.684570	627.950378
11881.413830	2853.066667	1602.644531	698.979126
11881.413830	2853.066667	1601.605469	834.388733
11881.413830	2853.066667	1600.566406	788.145569
11881.413830	2853.066667	1599.526367	663.783325
11881.413830	2853.066667	1598.486328	744.016785
11881.413830	2853.066667	1597.446289	792.073181
11881.413830	2853.066667	1596.405273	784.993286
11881.413830	2853.066667	1595.365234	842.252502
11881.413830	2853.066667	1594.324219	711.211731
11881.413830	2853.066667	1593.283203	766.205811
11881.413830	2853.066667	1592.242188	942.858459
11881.413830	2853.066667	1591.200195	729.322754
11881.413830	2853.066667	1590.159180	669.632507
11881.413830	2853.066667	1589.117188	816.447754
11881.413830	2853.066667	1588.075195	630.663635
11881.413830	2853.066667	1587.032227	591.733093
11881.413830	2853.066667	1585.990234	908.218079
11881.413830	2853.066667	1584.947266	591.946777
11881.413830	2853.066667	1583.904297	791.479309
11881.413830	2853.066667	1582.861328	711.421692
11881.413830	2853.066667	1581.818359	922.368469
11881.413830	2853.066667	1580.775391	860.703064
11881.413830	2853.066667	1579.731445	789.928406
11881.413830	2853.066667	1578.687500	661.974670
11881.413830	2853.066667	1577.643555	900.360901
11881.413830	2853.066667	1576.598633	980.765076
11881.413830	2853.066667	1575.554688	823.206421
11881.413830	2853.066667	1574.509766	1008.901428
11881.413830	2853.066667	1573.464844	721.090454
11881.413830	2853.066667	1572.419922	915.953857
11881.413830	2853.066667	1571.374023	680.929443
11881.413830	2853.066667	1570.329102	834.653259
11881.413830	2853.066667	1569.283203	935.783508
11881.413830	2853.066667	1568.237305	963.791870
11881.413830	2853.066667	1567.191406	783.930847
11881.413830	2853.066667	1566.144531	713.814270
11881.413830	2853.066667	1565.098633	668.895142
11881.413830	2853.066667	1564.051758	624.028320
11881.413830	2853.066667	1563.004883	860.009521
11881.413830	2853.066667	1561.957031	680.545349
11881.413830	2853.066667	1560.910156	638.115845
11881.413830	2853.066667	1559.862305	595.742310
11881.413830	2853.066667	1558.814453	669.763000
11881.413830	2853.066667	1557.766602	755.203979
11881.413830	2853.066667	1556.718750	589.844116
11881.413830	2853.066667	1555.669922	693.592529
11881.413830	2853.066667	1554.621094	635.522705
11881.413830	2853.066667	1553.573242	600.317383
11881.413830	2853.066667	1552.523438	633.513611
11881.413830	2853.066667	1551.474609	725.976807
11881.413830	2853.066667	1550.424805	768.345215
11881.413830	2853.066667	1549.375000	567.110107
11881.413830	2853.066667	1548.325195	454.790527
11881.413830	2853.066667	1547.275391	699.912415
11881.413830	2853.066667	1546.225586	287.329712
11881.413830	2853.066667	1545.174805	557.515564
11881.413830	2853.066667	1544.124023	495.536011
11881.413830	2853.066667	1543.073242	465.474640
11881.413830	2853.066667	1542.022461	551.446167
11881.413830	2853.066667	1540.970703	601.059509
11881.413830	2853.066667	1539.919922	616.618774
11881.413830	2853.066667	1538.868164	727.668640
11881.413830	2853.066667	1537.815430	697.859009
11881.413830	2853.066667	1536.763672	668.123596
11881.413830	2853.066667	1535.710938	545.334473
11881.413830	2853.066667	1534.659180	688.329346
11881.413830	2853.066667	1533.606445	540.728455
11881.413830	2853.066667	1532.552734	642.920166
11881.413830	2853.066667	1531.500000	726.980042
11881.413830	2853.066667	1530.446289	697.616699
11881.413830	2853.066667	1529.393555	668.329285
11881.413830	2853.066667	1528.338867	616.424988
11881.413830	2853.066667	1527.285156	519.255554
11881.413830	2853.066667	1526.231445	472.063416
11881.413830	2853.066667	1525.176758	402.281464
11881.413830	2853.066667	1524.122070	214.744202
11881.413830	2853.066667	1523.067383	199.544800
11881.413830	2853.066667	1522.012695	327.130859
11881.413830	2853.066667	1520.957031	171.615295
11881.413830	2853.066667	1519.901367	455.526642
11881.413830	2853.066667	1518.845703	300.175842
11881.413830	2853.066667	1517.790039	101.944031
11881.413830	2853.066667	1516.734375	139.218292
11881.413830	2853.066667	1515.677734	176.540482
11881.413830	2853.066667	1514.621094	84.968140
11881.413830	2853.066667	1513.564453	65.874619
11881.413830	2853.066667	1512.507813	214.191849
11881.413830	2853.066667	1511.450195	159.037140
11881.413830	2853.066667	1510.393555	135.621170
11881.413830	2853.066667	1509.335938	112.278870
11881.413830	2853.066667	1508.278320	100.312469
11881.413830	2853.066667	1507.219727	169.741837
11881.413830	2853.066667	1506.162109	119.508545
11881.413830	2853.066667	1505.103516	356.149200
11881.413830	2853.066667	1504.044922	132.190369
11881.413830	2853.066667	1502.986328	217.636154
11881.413830	2853.066667	1501.926758	393.389557
11881.413830	2853.066667	1500.868164	212.637573
11881.413830	2853.066667	1499.808594	59.096111
11881.413830	2853.066667	1498.749023	167.323593
11881.413830	2853.066667	1497.688477	167.334549
11881.413830	2853.066667	1496.628906	198.983398
11881.413830	2853.066667	1495.568359	99.948463
11881.413830	2853.066667	1494.507813	273.722443
11881.413830	2853.066667	1493.447266	107.258629
11881.413830	2853.066667	1492.386719	172.972229
11881.413830	2853.066667	1491.325195	-29.299576
11881.413830	2853.066667	1490.263672	16.290079
11881.413830	2853.066667	1489.202148	-302.799683
11881.413830	2853.066667	1488.140625	-65.691734
11881.413830	2853.066667	1487.079102	-87.418205
11881.413830	2853.066667	1486.016602	-57.312500
11881.413830	2853.066667	1484.954102	-240.862106
11881.413830	2853.066667	1483.891602	-116.122589
11881.413830	2853.066667	1482.829102	-166.762772
11881.413830	2853.066667	1481.765625	-10.466428
11881.413830	2853.066667	1480.702148	-148.626617
11881.413830	2853.066667	1479.638672	-82.138756
11881.413830	2853.066667	1478.575195	0.128082
11881.413830	2853.066667	1477.511719	1.549939
11881.413830	2853.066667	1476.447266	-248.486313
11881.413830	2853.066667	1475.382813	-159.277435
11881.413830	2853.066667	1474.318359	26.502766
11881.413830	2853.066667	1473.253906	34.884624
11881.413830	2853.066667	1472.189453	43.487309
11881.413830	2853.066667	1471.124023	18.453863
11881.413830	2853.066667	1470.058594	-10.997247
11881.413830	2853.066667	1468.993164	141.303909
11881.413830	2853.066667	1467.927734	-0.111401
11881.413830	2853.066667	1466.861328	19.990925
11881.413830	2853.066667	1465.794922	-13.469779
11881.413830	2853.066667	1464.728516	134.335571
11881.413830	2853.066667	1463.662109	317.965546
11881.413830	2853.066667	1462.594727	286.811768
11881.413830	2853.066667	1461.528320	202.135880
11881.413830	2853.066667	1460.460938	-34.452614
11881.413830	2853.066667	1459.393555	75.503212
11881.413830	2853.066667	1458.326172	232.289444
11881.413830	2853.066667	1457.257813	241.912247
11881.413830	2853.066667	1456.189453	79.066620
11881.413830	2853.066667	1455.121094	240.408737
11881.413830	2853.066667	1454.052734	312.793030
11881.413830	2853.066667	1452.984375	282.458618
11881.413830	2853.066667	1451.915039	79.200081
11881.413830	2853.066667	1450.845703	19.456209
11881.413830	2853.066667	1449.776367	56.252262
11881.413830	2853.066667	1448.707031	259.057861
11881.413830	2853.066667	1447.636719	241.432434
11881.413830	2853.066667	1446.567383	185.388596
11881.413830	2853.066667	1445.497070	207.842346
11881.413830	2853.066667	1444.425781	303.214630
11881.413830	2853.066667	1443.355469	278.044922
11881.413830	2853.066667	1442.285156	214.217056
11881.413830	2853.066667	1441.213867	380.173645
11881.413830	2853.066667	1440.142578	282.312683
11881.413830	2853.066667	1439.070313	148.774200
11881.413830	2853.066667	1437.999023	247.051071
11881.413830	2853.066667	1436.926758	224.776169
11881.413830	2853.066667	1435.854492	367.479950
11881.413830	2853.066667	1434.782227	425.258911
11881.413830	2853.066667	1433.709961	320.767090
11881.413830	2853.066667	1432.636719	188.588333
11881.413830	2853.066667	1431.563477	232.501785
11881.413830	2853.066667	1430.490234	304.255310
11881.413830	2853.066667	1429.416992	328.375946
11881.413830	2853.066667	1428.343750	362.529541
11881.413830	2853.066667	1427.269531	206.884109
11881.413830	2853.066667	1426.195313	28.405039
11881.413830	2853.066667	1425.121094	186.826416
11881.413830	2853.066667	1424.046875	250.807190
11881.413830	2853.066667	1422.971680	141.536133
11881.413830	2853.066667	1421.896484	203.403137
11881.413830	2853.066667	1420.821289	140.687210
11881.413830	2853.066667	1419.746094	196.710327
11881.413830	2853.066667	1418.669922	158.749435
11881.413830	2853.066667	1417.594727	129.008621
11881.413830	2853.066667	1416.518555	-83.994026
11881.413830	2853.066667	1415.442383	46.609447
11881.413830	2853.066667	1414.365234	110.544449
11881.413830	2853.066667	1413.289063	41.906162
11881.413830	2853.066667	1412.211914	16.458256
11881.413830	2853.066667	1411.134766	51.796940
11881.413830	2853.066667	1410.057617	111.820320
11881.413830	2853.066667	1408.979492	76.005051
11881.413830	2853.066667	1407.902344	-23.815083
11881.413830	2853.066667	1406.824219	198.678879
11881.413830	2853.066667	1405.746094	-134.494339
11881.413830	2853.066667	1404.666992	217.671448
11881.413830	2853.066667	1403.588867	165.632553
11881.413830	2853.066667	1402.509766	248.558014
11881.413830	2853.066667	1401.430664	167.803192
11881.413830	2853.066667	1400.351563	246.134323
11881.413830	2853.066667	1399.271484	391.984619
11881.413830	2853.066667	1398.192383	353.095917
11881.413830	2853.066667	1397.112305	289.461029
11881.413830	2853.066667	1396.031250	492.917633
11881.413830	2853.066667	1394.951172	159.627136
11881.413830	2853.066667	1393.871094	404.369507
11881.413830	2853.066667	1392.790039	388.251129
11881.413830	2853.066667	1391.708984	239.962753
11881.413830	2853.066667	1390.626953	290.441895
11881.413830	2853.066667	1389.545898	319.994904
11881.413830	2853.066667	1388.463867	183.474823
11881.413830	2853.066667	1387.381836	303.092712
11881.413830	2853.066667	1386.299805	181.549240
11881.413830	2853.066667	1385.217773	251.210220
11881.413830	2853.066667	1384.134766	334.793732
11881.413830	2853.066667	1383.051758	111.363121
11881.413830	2853.066667	1381.968750	260.618103
11881.413830	2853.066667	1380.885742	406.006439
11881.413830	2853.066667	1379.802734	337.107758
11881.413830	2853.066667	1378.718750	244.901154
11881.413830	2853.066667	1377.634766	225.732864
11881.413830	2853.066667	1376.550781	226.780136
11881.413830	2853.066667	1375.465820	368.530029
11881.413830	2853.066667	1374.381836	300.917175
11881.413830	2853.066667	1373.296875	127.235542
11881.413830	2853.066667	1372.211914	346.559631
11881.413830	2853.066667	1371.126953	80.584213
11881.413830	2853.066667	1370.041016	225.308319
11881.413830	2853.066667	1368.955078	311.020111
11881.413830	2853.066667	1367.869141	279.507202
11881.413830	2853.066667	1366.783203	265.717285
11881.413830	2853.066667	1365.697266	363.824646
11881.413830	2853.066667	1364.610352	244.261169
11881.413830	2853.066667	1363.523438	384.580353
11881.413830	2853.066667	1362.436523	236.602997
11881.413830	2853.066667	1361.349609	124.369576
11881.413830	2853.066667	1360.261719	177.102142
11881.413830	2853.066667	1359.174805	287.727142
11881.413830	2853.066667	1358.086914	293.576904
11881.413830	2853.066667	1356.998047	223.538712
11881.413830	2853.066667	1355.910156	241.939163
11881.413830	2853.066667	1354.821289	362.906738
11881.413830	2853.066667	1353.732422	352.378357
11881.413830	2853.066667	1352.643555	371.451111
11881.413830	2853.066667	1351.554688	160.511185
11881.413830	2853.066667	1350.464844	97.852257
11881.413830	2853.066667	1349.375000	201.639587
11881.413830	2853.066667	1348.285156	245.794510
11881.413830	2853.066667	1347.195313	281.792999
11881.413830	2853.066667	1346.105469	328.673615
11881.413830	2853.066667	1345.014648	260.730164
11881.413830	2853.066667	1343.923828	240.829865
11881.413830	2853.066667	1342.833008	256.566895
11881.413830	2853.066667	1341.741211	278.993988
11881.413830	2853.066667	1340.650391	113.000076
11881.413830	2853.066667	1339.558594	345.996948
11881.413830	2853.066667	1338.466797	397.959991
11881.413830	2853.066667	1337.374023	250.906921
11881.413830	2853.066667	1336.282227	139.359222
11881.413830	2853.066667	1335.189453	330.559998
11881.413830	2853.066667	1334.096680	264.654388
11881.413830	2853.066667	1333.003906	287.073486
11881.413830	2853.066667	1331.910156	209.705292
11881.413830	2853.066667	1330.817383	371.092407
11881.413830	2853.066667	1329.723633	203.863022
11881.413830	2853.066667	1328.629883	284.088898
11881.413830	2853.066667	1327.535156	75.905205
11881.413830	2853.066667	1326.441406	304.185394
11881.413830	2853.066667	1325.346680	377.294220
11881.413830	2853.066667	1324.251953	294.922394
11881.413830	2853.066667	1323.156250	338.301971
11881.413830	2853.066667	1322.061523	241.895004
11881.413830	2853.066667	1320.965820	76.747063
11881.413830	2853.066667	1319.870117	198.183624
11881.413830	2853.066667	1318.774414	241.995132
11881.413830	2853.066667	1317.678711	261.110657
11881.413830	2853.066667	1316.582031	267.713531
11881.413830	2853.066667	1315.485352	317.109528
11881.413830	2853.066667	1314.388672	271.718018
11881.413830	2853.066667	1313.291016	208.123718
11881.413830	2853.066667	1312.194336	132.770676
11881.413830	2853.066667	1311.096680	226.300644
11881.413830	2853.066667	1309.999023	275.718506
11881.413830	2853.066667	1308.901367	222.844025
11881.413830	2853.066667	1307.802734	163.263977
11881.413830	2853.066667	1306.705078	143.696609
11881.413830	2853.066667	1305.606445	340.330750
11881.413830	2853.066667	1304.506836	300.973480
11881.413830	2853.066667	1303.408203	166.177917
11881.413830	2853.066667	1302.308594	253.300949
11881.413830	2853.066667	1301.208984	196.273117
11881.413830	2853.066667	1300.109375	341.103638
11881.413830	2853.066667	1299.009766	419.202026
11881.413830	2853.066667	1297.909180	292.254913
11881.413830	2853.066667	1296.808594	267.955414
11881.413830	2853.066667	1295.708008	189.978760
11881.413830	2853.066667	1294.607422	205.298019
11881.413830	2853.066667	1293.506836	205.752426
11881.413830	2853.066667	1292.405273	197.055008
11881.413830	2853.066667	1291.303711	280.806091
11881.413830	2853.066667	1290.202148	164.147675
11881.413830	2853.066667	1289.099609	194.460770
11881.413830	2853.066667	1287.998047	61.067616
11881.413830	2853.066667	1286.895508	83.865555
11881.413830	2853.066667	1285.792969	131.848419
11881.413830	2853.066667	1284.689453	93.320129
11881.413830	2853.066667	1283.586914	23.807915
11881.413830	2853.066667	1282.483398	-51.479271
11881.413830	2853.066667	1281.379883	214.145737
11881.413830	2853.066667	1280.276367	22.007593
11881.413830	2853.066667	1279.171875	48.920967
11881.413830	2853.066667	1278.067383	43.463634
11881.413830	2853.066667	1276.962891	94.432899
11881.413830	2853.066667	1275.858398	67.434654
11881.413830	2853.066667	1274.753906	0.200768
11881.413830	2853.066667	1273.648438	-6.122972
11881.413830	2853.066667	1272.542969	73.702316
11881.413830	2853.066667	1271.437500	139.804993
11881.413830	2853.066667	1270.331055	34.697067
11881.413830	2853.066667	1269.225586	-60.442005
11881.413830	2853.066667	1268.119141	-82.592552
11881.413830	2853.066667	1267.012695	82.576103
11881.413830	2853.066667	1265.906250	-44.022503
11881.413830	2853.066667	1264.798828	-41.517960
11881.413830	2853.066667	1263.691406	49.242683
11881.413830	2853.066667	1262.583984	-10.155157
11881.413830	2853.066667	1261.476563	59.252838
11881.413830	2853.066667	1260.368164	18.211126
11881.413830	2853.066667	1259.260742	-66.266838
11881.413830	2853.066667	1258.152344	63.531998
11881.413830	2853.066667	1257.043945	-54.241356
11881.413830	2853.066667	1255.934570	27.682953
11881.413830	2853.066667	1254.825195	-42.691528
11881.413830	2853.066667	1253.716797	-8.266498
11881.413830	2853.066667	1252.606445	-38.820290
11881.413830	2853.066667	1251.497070	0.975220
11881.413830	2853.066667	1250.387695	100.669182
11881.413830	2853.066667	1249.277344	-87.515434
11881.413830	2853.066667	1248.166992	90.086098
11881.413830	2853.066667	1247.055664	-32.921436
11881.413830	2853.066667	1245.945313	-6.001010
11881.413830	2853.066667	1244.833984	17.534977
11881.413830	2853.066667	1243.722656	-116.273712
11881.413830	2853.066667	1242.611328	34.113480
11881.413830	2853.066667	1241.499023	84.100143
11881.413830	2853.066667	1240.387695	-44.677967
11881.413830	2853.066667	1239.275391	40.184452
11881.413830	2853.066667	1238.162109	-105.903893
11881.413830	2853.066667	1237.049805	20.157652
11881.413830	2853.066667	1235.936523	23.844664
11881.413830	2853.066667	1234.823242	106.842514
11881.413830	2853.066667	1233.709961	67.753304
11881.413830	2853.066667	1232.596680	93.729919
11881.413830	2853.066667	1231.482422	-55.422733
11881.413830	2853.066667	1230.369141	-169.699539
11881.413830	2853.066667	1229.253906	-66.837334
11881.413830	2853.066667	1228.139648	-77.507339
11881.413830	2853.066667	1227.025391	42.995716
11881.413830	2853.066667	1225.910156	-12.509631
11881.413830	2853.066667	1224.794922	43.211933
11881.413830	2853.066667	1223.679688	0.751809
11881.413830	2853.066667	1222.563477	-17.621321
11881.413830	2853.066667	1221.447266	-91.352745
11881.413830	2853.066667	1220.331055	-126.460434
11881.413830	2853.066667	1219.214844	31.343319
11881.413830	2853.066667	1218.098633	-52.377422
11881.413830	2853.066667	1216.981445	53.601055
11881.413830	2853.066667	1215.864258	22.703674
11881.413830	2853.066667	1214.747070	-159.469345
11881.413830	2853.066667	1213.629883	-13.625410
11881.413830	2853.066667	1212.511719	-73.949059
11881.413830	2853.066667	1211.393555	-28.886374
11881.413830	2853.066667	1210.275391	-31.540253
11881.413830	2853.066667	1209.157227	16.695406
11881.413830	2853.066667	1208.038086	-58.632557
11881.413830	2853.066667	1206.918945	-171.433029
11881.413830	2853.066667	1205.799805	-61.971973
11881.413830	2853.066667	1204.680664	-2.136426
11881.413830	2853.066667	1203.560547	-3.845440
11881.413830	2853.066667	1202.441406	-107.536324
11881.413830	2853.066667	1201.321289	-22.615219
11881.413830	2853.066667	1200.200195	10.803247
11881.413830	2853.066667	1199.080078	-77.563805
11881.413830	2853.066667	1197.958984	-34.231018
11881.413830	2853.066667	1196.837891	-114.797493
11881.413830	2853.066667	1195.716797	-19.404137
11881.413830	2853.066667	1194.594727	-46.442795
11881.413830	2853.066667	1193.473633	-33.695122
11881.413830	2853.066667	1192.351563	-84.520691
11881.413830	2853.066667	1191.229492	-8.859278
11881.413830	2853.066667	1190.106445	-9.741470
11881.413830	2853.066667	1188.984375	-98.684074
11881.413830	2853.066667	1187.861328	-41.655224
11881.413830	2853.066667	1186.738281	44.499157
11881.413830	2853.066667	1185.614258	145.924194
11881.413830	2853.066667	1184.491211	5.599387
11881.413830	2853.066667	1183.367188	205.459732
11881.413830	2853.066667	1182.243164	18.438744
11881.413830	2853.066667	1181.119141	108.737343
11881.413830	2853.066667	1179.994141	132.561111
11881.413830	2853.066667	1178.869141	-91.863403
11881.413830	2853.066667	1177.744141	-66.606735
11881.413830	2853.066667	1176.619141	-140.755508
11881.413830	2853.066667	1175.493164	-98.022720
11881.413830	2853.066667	1174.368164	-16.683723
11881.413830	2853.066667	1173.242188	69.096947
11881.413830	2853.066667	1172.115234	-89.444176
11881.413830	2853.066667	1170.989258	21.324949
11881.413830	2853.066667	1169.862305	63.944717
11881.413830	2853.066667	1168.735352	-46.051891
11881.413830	2853.066667	1167.608398	-139.198242
11881.413830	2853.066667	1166.481445	35.729115
11881.413830	2853.066667	1165.353516	-91.465897
11881.413830	2853.066667	1164.225586	0.780593
11881.413830	2853.066667	1163.097656	78.220383
11881.413830	2853.066667	1161.968750	46.478615
11881.413830	2853.066667	1160.840820	24.895365
11881.413830	2853.066667	1159.711914	-26.814127
11881.413830	2853.066667	1158.583008	-22.420294
11881.413830	2853.066667	1157.453125	-4.236086
11881.413830	2853.066667	1156.324219	-57.265411
11881.413830	2853.066667	1155.194336	12.390356
11881.413830	2853.066667	1154.064453	-70.935570
11881.413830	2853.066667	1152.933594	90.241608
11881.413830	2853.066667	1151.803711	71.028595
11881.413830	2853.066667	1150.672852	-38.428158
11881.413830	2853.066667	1149.541992	-0.658583
11881.413830	2853.066667	1148.411133	62.311840
11881.413830	2853.066667	1147.279297	63.595722
11881.413830	2853.066667	1146.147461	132.723770
11881.413830	2853.066667	1145.015625	-89.587280
11881.413830	2853.066667	1143.883789	-12.940051
11881.413830	2853.066667	1142.750977	-65.693710
11881.413830	2853.066667	1141.619141	-61.951931
11881.413830	2853.066667	1140.486328	-129.805557
11881.413830	2853.066667	1139.352539	3.664702
11881.413830	2853.066667	1138.219727	-15.379009
11881.413830	2853.066667	1137.085938	4.084113
11881.413830	2853.066667	1135.952148	54.773567
11881.413830	2853.066667	1134.818359	65.013542
11881.413830	2853.066667	1133.683594	27.278154
11881.413830	2853.066667	1132.549805	200.676163
11881.413830	2853.066667	1131.415039	170.181229
11881.413830	2853.066667	1130.279297	193.318619
11881.413830	2853.066667	1129.144531	255.600128
11881.413830	2853.066667	1128.008789	254.970917
11881.413830	2853.066667	1126.873047	312.989136
11881.413830	2853.066667	1125.737305	258.603027
11881.413830	2853.066667	1124.601563	233.426865
11881.413830	2853.066667	1123.464844	432.192322
11881.413830	2853.066667	1122.328125	232.817108
11881.413830	2853.066667	1121.191406	239.157654
11881.413830	2853.066667	1120.054688	243.555786
11881.413830	2853.066667	1118.916992	278.997986
11881.413830	2853.066667	1117.779297	332.345428
11881.413830	2853.066667	1116.641602	308.892059
11881.413830	2853.066667	1115.503906	269.611603
11881.413830	2853.066667	1114.365234	184.121246
11881.413830	2853.066667	1113.226563	259.725677
11881.413830	2853.066667	1112.087891	179.648590
11881.413830	2853.066667	1110.949219	157.122421
11881.413830	2853.066667	1109.809570	-9.148274
11881.413830	2853.066667	1108.669922	82.267281
11881.413830	2853.066667	1107.530273	168.577164
11881.413830	2853.066667	1106.390625	161.471863
11881.413830	2853.066667	1105.250000	178.712936
11881.413830	2853.066667	1104.109375	181.628265
11881.413830	2853.066667	1102.968750	179.252121
11881.413830	2853.066667	1101.828125	159.957138
11881.413830	2853.066667	1100.686523	280.384674
11881.413830	2853.066667	1099.544922	266.151764
11881.413830	2853.066667	1098.403320	109.327385
11881.413830	2853.066667	1097.261719	234.021484
11881.413830	2853.066667	1096.120117	193.260544
11881.413830	2853.066667	1094.977539	190.863007
11881.413830	2853.066667	1093.834961	138.228333
11881.413830	2853.066667	1092.691406	123.176422
11881.413830	2853.066667	1091.548828	82.554634
11881.413830	2853.066667	1090.405273	93.907852
11881.413830	2853.066667	1089.261719	166.180115
11881.413830	2853.066667	1088.118164	350.193817
11881.413830	2853.066667	1086.973633	294.835083
11881.413830	2853.066667	1085.829102	350.803467
11881.413830	2853.066667	1084.684570	199.681549
11881.413830	2853.066667	1083.540039	255.795700
11881.413830	2853.066667	1082.395508	116.545914
11881.413830	2853.066667	1081.250000	195.578979
11881.413830	2853.066667	1080.104492	191.210281
11881.413830	2853.066667	1078.958984	113.108902
11881.413830	2853.066667	1077.812500	6.687164
11881.413830	2853.066667	1076.666016	250.310822
11881.413830	2853.066667	1075.519531	219.840393
11881.413830	2853.066667	1074.373047	194.112457
11881.413830	2853.066667	1073.226563	248.011444
11881.413830	2853.066667	1072.079102	241.160995
11881.413830	2853.066667	1070.931641	103.471436
11881.413830	2853.066667	1069.784180	47.294022
11881.413830	2853.066667	1068.635742	131.730820
11881.413830	2853.066667	1067.487305	167.571152
11881.413830	2853.066667	1066.338867	205.040787
11881.413830	2853.066667	1065.190430	255.223892
11881.413830	2853.066667	1064.041992	86.017632
11881.413830	2853.066667	1062.892578	318.341797
11881.413830	2853.066667	1061.743164	262.952698
11881.413830	2853.066667	1060.593750	175.859268
11881.413830	2853.066667	1059.443359	332.733246
11881.413830	2853.066667	1058.292969	125.561424
11881.413830	2853.066667	1057.142578	179.141388
11881.413830	2853.066667	1055.992188	96.309761
11881.413830	2853.066667	1054.841797	208.633133
11881.413830	2853.066667	1053.690430	306.619507
11881.413830	2853.066667	1052.539063	-14.466803
11881.413830	2853.066667	1051.387695	37.595116
11881.413830	2853.066667	1050.235352	86.185753
11881.413830	2853.066667	1049.083984	18.361105
11881.413830	2853.066667	1047.931641	139.518173
11881.413830	2853.066667	1046.778320	185.957397
11881.413830	2853.066667	1045.625977	217.379913
11881.413830	2853.066667	1044.472656	108.036125
11881.413830	2853.066667	1043.319336	93.570427
11881.413830	2853.066667	1042.166016	56.080681
11881.413830	2853.066667	1041.012695	69.503624
11881.413830	2853.066667	1039.858398	249.021805
11881.413830	2853.066667	1038.704102	74.216248
11881.413830	2853.066667	1037.549805	37.169678
11881.413830	2853.066667	1036.394531	199.332657
11881.413830	2853.066667	1035.239258	152.901001
11881.413830	2853.066667	1034.083984	152.277298
11881.413830	2853.066667	1032.928711	115.875801
11881.413830	2853.066667	1031.773438	-83.945343
11881.413830	2853.066667	1030.617188	99.746735
11881.413830	2853.066667	1029.460938	197.660675
11881.413830	2853.066667	1028.304688	79.640930
11881.413830	2853.066667	1027.147461	206.695511
11881.413830	2853.066667	1025.991211	164.364227
11881.413830	2853.066667	1024.833984	133.858154
11881.413830	2853.066667	1023.675781	61.416233
11881.413830	2853.066667	1022.518555	60.611591
11881.413830	2853.066667	1021.360352	98.744545
11881.413830	2853.066667	1020.202148	101.455063
11881.413830	2853.066667	1019.043945	87.151070
11881.413830	2853.066667	1017.884766	82.890724
11881.413830	2853.066667	1016.726563	-61.490948
11881.413830	2853.066667	1015.567383	45.104538
11881.413830	2853.066667	1014.407227	-23.139551
11881.413830	2853.066667	1013.248047	-12.491090
11881.413830	2853.066667	1012.087891	81.253258
11881.413830	2853.066667	1010.927734	133.322968
11881.413830	2853.066667	1009.767578	-41.040543
11881.413830	2853.066667	1008.606445	21.103540
11881.413830	2853.066667	1007.446289	-61.381126
11881.413830	2853.066667	1006.285156	82.368767
11881.413830	2853.066667	1005.123047	29.082394
11881.413830	2853.066667	1003.961914	93.227997
11881.413830	2853.066667	1002.799805	14.283047
11881.413830	2853.066667	1001.637695	-61.808014
11881.413830	2853.066667	1000.475586	5.722119
11881.413830	2853.066667	999.312500	139.900055
11881.413830	2853.066667	998.149414	163.715698
11881.413830	2853.066667	996.986328	232.529114
11881.413830	2853.066667	995.823242	-16.896301
11881.413830	2853.066667	994.659180	-102.726868
11881.413830	2853.066667	993.496094	-60.187912
11881.413830	2853.066667	992.332031	-20.298357
11881.413830	2853.066667	991.166992	142.503479
11881.413830	2853.066667	990.002930	-113.744934
11881.413830	2853.066667	988.837891	-35.274044
11881.413830	2853.066667	987.672852	84.347580
11881.413830	2853.066667	986.506836	244.929092
11881.413830	2853.066667	985.341797	75.858643
11881.413830	2853.066667	984.175781	-134.802826
11881.413830	2853.066667	983.009766	66.073433
11881.413830	2853.066667	981.843750	55.290840
11881.413830	2853.066667	980.676758	-53.089092
11881.413830	2853.066667	979.509766	-94.993240
11881.413830	2853.066667	978.342773	-210.159210
11881.413830	2853.066667	977.175781	51.266197
11881.413830	2853.066667	976.007813	58.830780
11881.413830	2853.066667	974.839844	-57.779510
11881.413830	2853.066667	973.671875	-30.915077
11881.413830	2853.066667	972.503906	-107.276428
11881.413830	2853.066667	971.334961	-34.951092
11881.413830	2853.066667	970.166016	2.188335
11881.413830	2853.066667	968.997070	-2.628482
11881.413830	2853.066667	967.828125	-62.683109
11881.413830	2853.066667	966.658203	145.163910
11881.413830	2853.066667	965.488281	14.607888
11881.413830	2853.066667	964.318359	-90.593185
11881.413830	2853.066667	963.148438	-44.941116
11881.413830	2853.066667	961.977539	35.329483
11881.413830	2853.066667	960.806641	-18.699314
11881.413830	2853.066667	959.635742	162.495590
11881.413830	2853.066667	958.463867	81.236183
11881.413830	2853.066667	957.292969	134.913589
11881.413830	2853.066667	956.121094	169.655029
11881.413830	2853.066667	954.948242	-0.484235
11881.413830	2853.066667	953.776367	30.537390
11881.413830	2853.066667	952.603516	-126.764793
11881.413830	2853.066667	951.430664	-51.958538
11881.413830	2853.066667	950.257813	154.311264
11881.413830	2853.066667	949.084961	47.747849
11881.413830	2853.066667	947.911133	18.343994
11881.413830	2853.066667	946.737305	-7.906518
11881.413830	2853.066667	945.563477	-128.147125
11881.413830	2853.066667	944.388672	-49.957363
11881.413830	2853.066667	943.213867	-76.537277
11881.413830	2853.066667	942.039063	136.657181
11881.413830	2853.066667	940.864258	150.944977
11881.413830	2853.066667	939.688477	-81.408768
11881.413830	2853.066667	938.513672	31.424858
11881.413830	2853.066667	937.337891	68.657654
11881.413830	2853.066667	936.161133	14.367307
11881.413830	2853.066667	934.985352	51.745083
11881.413830	2853.066667	933.808594	114.018822
11881.413830	2853.066667	932.631836	267.635040
11881.413830	2853.066667	931.454102	78.742531
11881.413830	2853.066667	930.277344	152.410095
11881.413830	2853.066667	929.099609	-8.964131
11881.413830	2853.066667	927.921875	123.972641
11881.413830	2853.066667	926.743164	161.018616
11881.413830	2853.066667	925.565430	4.278721
11881.413830	2853.066667	924.386719	-31.617500
11881.413830	2853.066667	923.208008	19.135374
11881.413830	2853.066667	922.028320	58.460987
11881.413830	2853.066667	920.849609	95.483871
11881.413830	2853.066667	919.669922	97.545868
11881.413830	2853.066667	919.474609	-95.018486
11881.413830	2853.066667	918.309570	-142.306442
11881.413830	2853.066667	917.143555	63.222828
11881.413830	2853.066667	915.977539	40.951942
11881.413830	2853.066667	914.810547	9.576437
11881.413830	2853.066667	913.644531	21.449430
11881.413830	2853.066667	912.477539	-46.339302
11881.413830	2853.066667	911.310547	-218.769440
11881.413830	2853.066667	910.143555	-45.376144
11881.413830	2853.066667	908.975586	-60.827198
11881.413830	2853.066667	907.807617	-30.804911
11881.413830	2853.066667	906.639648	-39.451374
11881.413830	2853.066667	905.471680	-68.560051
11881.413830	2853.066667	904.303711	56.860264
11881.413830	2853.066667	903.134766	-174.479385
11881.413830	2853.066667	901.965820	82.641563
11881.413830	2853.066667	900.796875	5.804135
11881.413830	2853.066667	899.626953	-84.633682
11881.413830	2853.066667	898.457031	33.807457
11881.413830	2853.066667	897.287109	-49.809483
11881.413830	2853.066667	896.117188	11.826984
11881.413830	2853.066667	894.947266	-15.052217
11881.413830	2853.066667	893.776367	28.388376
11881.413830	2853.066667	892.605469	10.570032
11881.413830	2853.066667	891.434570	128.790558
11881.413830	2853.066667	890.262695	81.471794
11881.413830	2853.066667	889.091797	54.558456
11881.413830	2853.066667	887.919922	23.115473
11881.413830	2853.066667	886.748047	95.888840
11881.413830	2853.066667	885.575195	102.937096
11881.413830	2853.066667	884.403320	64.680069
11881.413830	2853.066667	883.230469	21.900888
11881.413830	2853.066667	882.057617	-81.989388
11881.413830	2853.066667	880.883789	-74.949867
11881.413830	2853.066667	879.710938	36.159565
11881.413830	2853.066667	878.537109	-42.815060
11881.413830	2853.066667	877.362305	-74.269371
11881.413830	2853.066667	876.188477	-40.144268
11881.413830	2853.066667	875.013672	-270.564972
11881.413830	2853.066667	873.839844	-35.258999
11881.413830	2853.066667	872.664063	71.125359
11881.413830	2853.066667	871.489258	107.409042
11881.413830	2853.066667	870.313477	163.998962
11881.413830	2853.066667	869.138672	213.777573
11881.413830	2853.066667	867.962891	103.200050
11881.413830	2853.066667	866.786133	78.447891
11881.413830	2853.066667	865.610352	8.548612
11881.413830	2853.066667	864.433594	-0.401065
11881.413830	2853.066667	863.256836	-2.591062
11881.413830	2853.066667	862.079102	-85.999237
11881.413830	2853.066667	860.902344	-54.365116
11881.413830	2853.066667	859.724609	71.947990
11881.413830	2853.066667	858.546875	119.293144
11881.413830	2853.066667	857.368164	-115.135201
11881.413830	2853.066667	856.190430	-297.651703
11881.413830	2853.066667	855.011719	-191.720322
11881.413830	2853.066667	853.833008	74.085732
11881.413830	2853.066667	852.654297	-90.379684
11881.413830	2853.066667	851.474609	-9.363602
11881.413830	2853.066667	850.294922	26.582327
11881.413830	2853.066667	849.115234	-146.815506
11881.413830	2853.066667	847.935547	64.633652
11881.413830	2853.066667	846.754883	-135.725983
11881.413830	2853.066667	845.575195	111.593864
11881.413830	2853.066667	844.393555	-61.735172
11881.413830	2853.066667	843.212891	-140.576981
11881.413830	2853.066667	842.032227	-127.237251
11881.413830	2853.066667	840.850586	187.243378
11881.413830	2853.066667	839.668945	76.895363
11881.413830	2853.066667	838.486328	49.700039
11881.413830	2853.066667	837.304688	-11.192542
11881.413830	2853.066667	836.122070	-13.689199
11881.413830	2853.066667	834.939453	-88.046539
11881.413830	2853.066667	833.756836	86.770882
11881.413830	2853.066667	832.573242	5.658376
11881.413830	2853.066667	831.389648	34.506824
11881.413830	2853.066667	830.206055	-51.082901
11881.413830	2853.066667	829.022461	87.629227
11881.413830	2853.066667	827.838867	71.542908
11881.413830	2853.066667	826.654297	-132.875351
11881.413830	2853.066667	825.469727	-66.011940
11881.413830	2853.066667	824.284180	-3.675286
11881.413830	2853.066667	823.099609	65.337723
11881.413830	2853.066667	821.914063	-69.542206
11881.413830	2853.066667	820.728516	89.002693
11881.413830	2853.066667	819.542969	-21.234348
11881.413830	2853.066667	818.356445	-21.749334
11881.413830	2853.066667	817.169922	76.197418
11881.413830	2853.066667	815.983398	-38.503208
11881.413830	2853.066667	814.796875	61.603649
11881.413830	2853.066667	813.609375	101.254822
11881.413830	2853.066667	812.422852	31.286022
11881.413830	2853.066667	811.235352	-27.494904
11881.413830	2853.066667	810.046875	21.029448
11881.413830	2853.066667	808.859375	134.325745
11881.413830	2853.066667	807.670898	12.929274
11881.413830	2853.066667	806.482422	-16.842508
11881.413830	2853.066667	805.293945	123.129318
11881.413830	2853.066667	804.104492	113.401253
11881.413830	2853.066667	802.915039	54.535446
11881.413830	2853.066667	801.725586	134.068283
11881.413830	2853.066667	800.536133	81.871620
11881.413830	2853.066667	799.345703	-95.278877
11881.413830	2853.066667	798.155273	89.014450
11881.413830	2853.066667	796.964844	43.479408
11881.413830	2853.066667	795.774414	11.318897
11881.413830	2853.066667	794.583008	28.195230
11881.413830	2853.066667	793.392578	-79.783806
11881.413830	2853.066667	792.200195	84.137665
11881.413830	2853.066667	791.008789	149.930862
11881.413830	2853.066667	789.816406	204.533310
11881.413830	2853.066667	788.625000	96.506607
11881.413830	2853.066667	787.432617	-33.767967
11881.413830	2853.066667	786.239258	-161.787750
11881.413830	2853.066667	785.046875	52.984047
11881.413830	2853.066667	783.853516	-23.872658
11881.413830	2853.066667	782.660156	126.208534
11881.413830	2853.066667	781.465820	149.411194
11881.413830	2853.066667	780.272461	-47.589516
11881.413830	2853.066667	779.078125	77.863297
11881.413830	2853.066667	777.883789	123.208687
11881.413830	2853.066667	776.688477	177.397232
11881.413830	2853.066667	775.494141	-52.888409
11881.413830	2853.066667	774.298828	3.479212
11881.413830	2853.066667	773.103516	59.794697
11881.413830	2853.066667	771.907227	-3.858634
11881.413830	2853.066667	770.711914	1.311934
11881.413830	2853.066667	769.515625	-108.976494
11881.413830	2853.066667	768.318359	22.654234
11881.413830	2853.066667	767.122070	16.633223
11881.413830	2853.066667	765.924805	30.549505
11881.413830	2853.066667	764.727539	20.033327
11881.413830	2853.066667	763.530273	11.708049
11881.413830	2853.066667	762.333008	-74.238518
11881.413830	2853.066667	761.134766	8.275285
11881.413830	2853.066667	759.936523	33.105888
11881.413830	2853.066667	758.738281	-68.393845
11881.413830	2853.066667	757.540039	-90.138138
11881.413830	2853.066667	756.340820	9.902339
11881.413830	2853.066667	755.141602	45.656879
11881.413830	2853.066667	753.942383	83.578461
11881.413830	2853.066667	752.742188	61.692932
11881.413830	2853.066667	751.541992	33.145496
11881.413830	2853.066667	750.341797	155.018539
11881.413830	2853.066667	749.141602	97.643944
11881.413830	2853.066667	747.941406	46.895145
11881.413830	2853.066667	746.740234	-70.195793
11881.413830	2853.066667	745.539063	-127.587013
11881.413830	2853.066667	744.337891	31.598803
11881.413830	2853.066667	743.135742	0.658817
11881.413830	2853.066667	741.933594	-81.112106
11881.413830	2853.066667	740.731445	57.985641
11881.413830	2853.066667	739.529297	192.575012
11881.413830	2853.066667	738.326172	287.334442
11881.413830	2853.066667	737.124023	99.486862
11881.413830	2853.066667	735.919922	441.322540
11881.413830	2853.066667	734.716797	542.487610
11881.413830	2853.066667	733.513672	367.836731
11881.413830	2853.066667	732.309570	561.534058
11881.413830	2853.066667	731.105469	565.487122
11881.413830	2853.066667	729.900391	377.608978
11881.413830	2853.066667	728.696289	388.142059
11881.413830	2853.066667	727.491211	374.395630
11881.413830	2853.066667	726.286133	111.663933
11881.413830	2853.066667	725.080078	58.262409
11881.413830	2853.066667	723.874023	130.375076
11881.413830	2853.066667	722.668945	222.239792
11881.413830	2853.066667	721.461914	-93.212013
11881.413830	2853.066667	720.255859	69.017441
11881.413830	2853.066667	719.048828	101.320526
11881.413830	2853.066667	717.841797	-2.819729
11881.413830	2853.066667	716.634766	-45.366673
11881.413830	2853.066667	715.427734	-41.751419
11881.413830	2853.066667	714.219727	-77.747131
11881.413830	2853.066667	713.011719	44.498989
11881.413830	2853.066667	711.803711	-4.755186
11881.413830	2853.066667	710.594727	-14.475749
11881.413830	2853.066667	709.385742	-107.701401
11881.413830	2853.066667	708.176758	-5.457441
11881.413830	2853.066667	706.967773	182.344589
11881.413830	2853.066667	705.758789	-5.365991
11881.413830	2853.066667	704.548828	-129.382538
11881.413830	2853.066667	703.338867	-27.358782
11881.413830	2853.066667	702.127930	-162.358139
11881.413830	2853.066667	700.917969	-185.466339
11881.413830	2853.066667	699.707031	6.314680
11881.413830	2853.066667	698.496094	51.080830
11881.413830	2853.066667	697.285156	-165.064697
11881.413830	2853.066667	696.073242	-78.709808
11881.413830	2853.066667	694.861328	86.458305
11881.413830	2853.066667	693.649414	181.420303
11881.413830	2853.066667	692.436523	103.278168
11881.413830	2853.066667	691.224609	27.327515
11881.413830	2853.066667	690.011719	80.545082
11881.413830	2853.066667	688.798828	78.985550
11881.413830	2853.066667	687.584961	70.827507
11881.413830	2853.066667	686.372070	29.823328
11881.413830	2853.066667	685.158203	135.364639
11881.413830	2853.066667	683.943359	138.037582
11881.413830	2853.066667	682.729492	48.844212
11881.413830	2853.066667	681.514648	44.913334
11881.413830	2853.066667	680.299805	-28.987247
11881.413830	2853.066667	679.084961	-19.850389
11881.413830	2853.066667	677.869141	19.836863
11881.413830	2853.066667	676.653320	-32.262081
11881.413830	2853.066667	675.437500	101.254959
11881.413830	2853.066667	674.221680	27.268219
11881.413830	2853.066667	673.004883	95.169502
11881.413830	2853.066667	671.789063	265.589325
11881.413830	2853.066667	670.571289	10.421093
11881.413830	2853.066667	669.354492	89.105644
11881.413830	2853.066667	668.136719	102.295319
11881.413830	2853.066667	666.919922	2.064178
11881.413830	2853.066667	665.701172	2.129687
11881.413830	2853.066667	664.483398	113.333809
11881.413830	2853.066667	663.264648	74.097816
11881.413830	2853.066667	662.045898	102.393608
11881.413830	2853.066667	660.827148	206.892532
11881.413830	2853.066667	659.608398	165.408035
11881.413830	2853.066667	658.388672	150.042740
11881.413830	2853.066667	657.168945	132.483047
11881.413830	2853.066667	655.949219	38.731850
11881.413830	2853.066667	654.728516	106.018250
11881.413830	2853.066667	653.507813	160.200562
11881.413830	2853.066667	652.287109	38.157249
11881.413830	2853.066667	651.066406	207.542145
11881.413830	2853.066667	649.844727	150.720078
11881.413830	2853.066667	648.623047	156.939087
11881.413830	2853.066667	647.401367	34.915081
11881.413830	2853.066667	646.179688	99.781448
11881.413830	2853.066667	644.957031	-33.080917
11881.413830	2853.066667	643.734375	51.280254
11881.413830	2853.066667	642.511719	172.501801
11881.413830	2853.066667	641.289063	70.048668
11881.413830	2853.066667	640.065430	73.973640
11881.413830	2853.066667	638.841797	-28.450134
11881.413830	2853.066667	637.618164	224.962555
11881.413830	2853.066667	636.393555	204.944168
11881.413830	2853.066667	635.168945	135.041824
11881.413830	2853.066667	633.944336	171.396362
11881.413830	2853.066667	632.719727	90.666626
11881.413830	2853.066667	631.494141	96.646606
11881.413830	2853.066667	630.269531	154.619034
11881.413830	2853.066667	629.042969	58.740852
11881.413830	2853.066667	627.817383	-119.407150
11881.413830	2853.066667	626.590820	77.127045
11881.413830	2853.066667	625.365234	5.116014
11881.413830	2853.066667	624.137695	67.322601
11881.413830	2853.066667	622.911133	129.498123
11881.413830	2853.066667	621.683594	70.477882
11881.413830	2853.066667	620.456055	9.314106
11881.413830	2853.066667	619.228516	-8.574975
11881.413830	2853.066667	618.000977	44.892464
11881.413830	2853.066667	616.772461	20.508478
11881.413830	2853.066667	615.543945	-83.835312
11881.413830	2853.066667	614.314453	-23.915686
11881.413830	2853.066667	613.085938	-82.840309
11881.413830	2853.066667	611.856445	-7.827555
11881.413830	2853.066667	610.626953	-34.340282
11881.413830	2853.066667	609.397461	23.360594
11881.413830	2853.066667	608.166992	-95.963081
11881.413830	2853.066667	606.936523	-128.909882
11881.413830	2853.066667	605.706055	-86.321785
11881.413830	2853.066667	604.474609	-123.564339
11881.413830	2853.066667	603.244141	-44.320431
11881.413830	2853.066667	602.012695	-133.293686
11881.413830	2853.066667	600.780273	14.912738
11881.413830	2853.066667	599.548828	-80.485619
11881.413830	2853.066667	598.316406	-5.602010
11881.413830	2853.066667	597.083984	-167.725464
11881.413830	2853.066667	595.851563	-64.832664
11881.413830	2853.066667	594.618164	-192.398468
11881.413830	2853.066667	593.384766	-201.480499
11881.413830	2853.066667	592.151367	-29.728277
11881.413830	2853.066667	590.917969	58.032379
11881.413830	2853.066667	589.683594	-34.971664
11881.413830	2853.066667	588.449219	74.293243
11881.413830	2853.066667	587.214844	-48.752117
11881.413830	2853.066667	585.979492	-4.006826
11881.413830	2853.066667	584.745117	152.530991
11881.413830	2853.066667	583.509766	-39.178844
11881.413830	2853.066667	582.273438	39.974419
11881.413830	2853.066667	581.038086	-127.955215
11881.413830	2853.066667	579.801758	28.554192
11881.413830	2853.066667	578.565430	-72.685051
11881.413830	2853.066667	577.329102	-68.650139
11881.413830	2853.066667	576.091797	-152.606232
11881.413830	2853.066667	574.854492	-64.807961
11881.413830	2853.066667	573.617188	65.893425
11881.413830	2853.066667	572.378906	147.223053
11881.413830	2853.066667	571.141602	22.648138
11881.413830	2853.066667	569.903320	112.586411
11881.413830	2853.066667	568.664063	86.744766
11881.413830	2853.066667	567.425781	88.810486
11881.413830	2853.066667	566.186523	24.472879
11881.413830	2853.066667	564.947266	-48.375473
11881.413830	2853.066667	563.708008	225.851624
11881.413830	2853.066667	562.467773	82.382843
11881.413830	2853.066667	561.227539	103.877243
11881.413830	2853.066667	559.987305	61.176842
11881.413830	2853.066667	558.747070	-52.096569
11881.413830	2853.066667	557.505859	91.483505
11881.413830	2853.066667	556.264648	1.855741
11881.413830	2853.066667	555.023438	96.244911
11881.413830	2853.066667	553.781250	32.389568
11881.413830	2853.066667	552.539063	96.876198
11881.413830	2853.066667	551.296875	-16.034826
11881.413830	2853.066667	550.054688	-188.694016
11881.413830	2853.066667	548.811523	-87.760193
11881.413830	2853.066667	547.569336	-106.448669
11881.413830	2853.066667	546.325195	-50.342491
11881.413830	2853.066667	545.082031	65.569168
11881.413830	2853.066667	543.837891	-38.404411
11881.413830	2853.066667	542.593750	28.451735
11881.413830	2853.066667	541.349609	118.795738
11881.413830	2853.066667	540.105469	-112.991623
11881.413830	2853.066667	538.860352	-35.365982
11881.413830	2853.066667	537.615234	52.934254
11881.413830	2853.066667	536.369141	126.316757
11881.413830	2853.066667	535.124023	-64.594391
11881.413830	2853.066667	533.877930	25.923052
11881.413830	2853.066667	532.631836	135.623566
11881.413830	2853.066667	531.384766	-50.769722
11881.413830	2853.066667	530.138672	125.014793
11881.413830	2853.066667	528.891602	-133.596375
11881.413830	2853.066667	527.643555	42.222637
11881.413830	2853.066667	526.396484	111.598091
11881.413830	2853.066667	525.148438	32.038639
11881.413830	2853.066667	523.900391	116.371979
11881.413830	2853.066667	522.652344	-124.708611
11881.413830	2853.066667	521.403320	-65.801758
11881.413830	2853.066667	520.154297	-47.268005
11881.413830	2853.066667	518.905273	7.439813
11881.413830	2853.066667	517.656250	28.168619
11881.413830	2853.066667	516.406250	-72.172447
11881.413830	2853.066667	515.156250	144.085526
11881.413830	2853.066667	513.906250	11.998297
11881.413830	2853.066667	512.655273	94.467644
11881.413830	2853.066667	511.404297	-3.496467
11881.413830	2853.066667	510.153320	172.415466
11881.413830	2853.066667	508.902344	199.759979
11881.413830	2853.066667	507.650391	138.033478
11881.413830	2853.066667	506.398438	201.516556
11881.413830	2853.066667	505.146484	-29.745176
11881.413830	2853.066667	503.893555	324.285645
11881.413830	2853.066667	502.641602	197.041519
11881.413830	2853.066667	501.388672	110.156487
11881.413830	2853.066667	500.134766	48.771221
11881.413830	2853.066667	498.881836	-29.496128
11881.413830	2853.066667	497.627930	91.383003
11881.413830	2853.066667	496.374023	15.328550
11881.413830	2853.066667	495.119141	180.670090
11881.413830	2853.066667	493.865234	83.530136
11881.413830	2853.066667	492.610352	198.064621
11881.413830	2853.066667	491.355469	185.645218
11881.413830	2853.066667	490.099609	209.215561
11881.413830	2853.066667	488.843750	270.865845
11881.413830	2853.066667	487.587891	288.115265
11881.413830	2853.066667	486.332031	167.987366
11881.413830	2853.066667	485.075195	436.775604
11881.413830	2853.066667	483.818359	196.274796
11881.413830	2853.066667	482.561523	141.783142
11881.413830	2853.066667	481.304688	391.444885
11881.413830	2853.066667	480.046875	412.973053
11881.413830	2853.066667	478.789063	214.956528
11881.413830	2853.066667	477.531250	316.730682
11881.413830	2853.066667	476.272461	334.061462
11881.413830	2853.066667	475.013672	260.671722
11881.413830	2853.066667	473.754883	345.501465
11881.413830	2853.066667	472.496094	354.375885
11881.413830	2853.066667	471.236328	525.576660
11881.413830	2853.066667	469.976563	473.264130
11881.413830	2853.066667	468.716797	593.764587
11881.413830	2853.066667	467.456055	484.541962
11881.413830	2853.066667	466.196289	375.346100
11881.413830	2853.066667	464.935547	400.957092
11881.413830	2853.066667	463.673828	529.700623
11881.413830	2853.066667	462.413086	452.057892
11881.413830	2853.066667	461.151367	515.423035
11881.413830	2853.066667	459.889648	429.323334
11881.413830	2853.066667	458.626953	538.863586
11881.413830	2853.066667	457.364258	581.001465
11881.413830	2853.066667	456.101563	337.084961
11881.413830	2853.066667	454.838867	423.286560
11881.413830	2853.066667	453.575195	549.323242
11881.413830	2853.066667	452.312500	374.729767
11881.413830	2853.066667	451.047852	500.580811
11881.413830	2853.066667	449.784180	470.858124
11881.413830	2853.066667	448.519531	592.270569
11881.413830	2853.066667	447.254883	511.974152
11881.413830	2853.066667	445.990234	490.393799
11881.413830	2853.066667	444.725586	466.622620
11881.413830	2853.066667	443.459961	524.584778
11881.413830	2853.066667	442.194336	651.636597
11881.413830	2853.066667	440.927734	600.234375
11881.413830	2853.066667	439.662109	565.502441
11881.413830	2853.066667	438.395508	710.945374
11881.413830	2853.066667	437.127930	812.166260
11881.413830	2853.066667	435.861328	712.022949
11881.413830	2853.066667	434.593750	762.610535
11881.413830	2853.066667	433.326172	800.445313
11881.413830	2853.066667	432.058594	729.192444
11881.413830	2853.066667	430.790039	749.913147
11881.413830	2853.066667	429.521484	720.196777
11881.413830	2853.066667	428.252930	757.267334
11881.413830	2853.066667	426.984375	815.039185
11881.413830	2853.066667	425.714844	751.236084
11881.413830	2853.066667	424.445313	814.817261
11881.413830	2853.066667	423.174805	763.127869
11881.413830	2853.066667	421.905273	696.587158
11881.413830	2853.066667	420.634766	803.297363
11881.413830	2853.066667	419.364258	953.581665
11881.413830	2853.066667	418.092773	813.123352
11881.413830	2853.066667	416.822266	785.237854
11881.413830	2853.066667	415.550781	848.950562
11881.413830	2853.066667	414.278320	722.330933
11881.413830	2853.066667	413.006836	800.017334
11881.413830	2853.066667	411.734375	641.511414
11881.413830	2853.066667	410.461914	862.474060
11881.413830	2853.066667	409.188477	793.022583
11881.413830	2853.066667	407.916016	704.471069
11881.413830	2853.066667	406.642578	661.445068
11881.413830	2853.066667	405.368164	638.886902
11881.413830	2853.066667	404.094727	903.562866
11881.413830	2853.066667	402.820313	813.456116
11881.413830	2853.066667	401.545898	975.038025
11881.413830	2853.066667	400.270508	850.741028
11881.413830	2853.066667	398.996094	821.835693
11881.413830	2853.066667	397.720703	871.572876
11881.413830	2853.066667	396.444336	756.347717
11881.413830	2853.066667	395.168945	630.268005
11881.413830	2853.066667	393.892578	705.530579
11881.413830	2853.066667	392.616211	823.903931
11881.413830	2853.066667	391.339844	775.292847
11881.413830	2853.066667	390.062500	746.912231
11881.413830	2853.066667	388.785156	539.176147
11881.413830	2853.066667	387.507813	694.633972
11881.413830	2853.066667	386.229492	791.204163
11881.413830	2853.066667	384.951172	689.730896
11881.413830	2853.066667	383.672852	849.340393
11881.413830	2853.066667	382.394531	763.165588
11881.413830	2853.066667	381.115234	694.997375
11881.413830	2853.066667	379.835938	491.220398
11881.413830	2853.066667	378.556641	776.534729
11881.413830	2853.066667	377.277344	758.051208
11881.413830	2853.066667	375.997070	771.965149
11881.413830	2853.066667	374.716797	629.529968
11881.413830	2853.066667	373.435547	612.787598
11881.413830	2853.066667	372.155273	665.700745
11881.413830	2853.066667	370.874023	665.888672
11881.413830	2853.066667	369.591797	491.109985
11881.413830	2853.066667	368.310547	617.958191
11881.413830	2853.066667	367.028320	627.804871
11881.413830	2853.066667	365.746094	495.872711
11881.413830	2853.066667	364.463867	487.218536
11881.413830	2853.066667	363.180664	403.014801
11881.413830	2853.066667	361.897461	630.270142
11881.413830	2853.066667	360.614258	457.063416
11881.413830	2853.066667	359.330078	359.339569
11881.413830	2853.066667	358.045898	527.300598
11881.413830	2853.066667	356.761719	433.526794
11881.413830	2853.066667	355.477539	444.032684
11881.413830	2853.066667	354.192383	434.694214
11881.413830	2853.066667	352.907227	374.530182
11881.413830	2853.066667	351.622070	472.182465
11881.413830	2853.066667	350.336914	289.679108
11881.413830	2853.066667	349.050781	438.326691
11881.413830	2853.066667	347.764648	383.236450
11881.413830	2853.066667	346.477539	392.783051
11881.413830	2853.066667	345.191406	326.646545
11881.413830	2853.066667	343.904297	252.850357
11881.413830	2853.066667	342.616211	334.305603
11881.413830	2853.066667	341.329102	88.416924
11881.413830	2853.066667	340.041016	162.648529
11881.413830	2853.066667	338.752930	163.101456
11881.413830	2853.066667	337.463867	81.501572
11881.413830	2853.066667	336.175781	220.818298
11881.413830	2853.066667	334.886719	55.514496
11881.413830	2853.066667	333.596680	185.038589
11881.413830	2853.066667	332.307617	119.217415
11881.413830	2853.066667	331.017578	88.598816
11881.413830	2853.066667	329.727539	-102.351425
11881.413830	2853.066667	328.436523	77.245728
11881.413830	2853.066667	327.146484	119.088860
11881.413830	2853.066667	325.855469	-20.073208
11881.413830	2853.066667	324.563477	25.848322
11881.413830	2853.066667	323.272461	-74.185211
11881.413830	2853.066667	321.980469	-182.529892
11881.413830	2853.066667	320.688477	-71.070999
11881.413830	2853.066667	319.395508	-122.193291
11881.413830	2853.066667	318.103516	-35.823833
11881.413830	2853.066667	316.810547	78.931000
11881.413830	2853.066667	315.516602	16.687550
11881.413830	2853.066667	314.223633	-132.033691
11881.413830	2853.066667	312.929688	-188.821609
11881.413830	2853.066667	311.635742	24.789818
11881.413830	2853.066667	310.340820	161.816910
11881.413830	2853.066667	309.045898	-179.641418
11881.413830	2853.066667	307.750977	-64.323700
11881.413830	2853.066667	306.456055	72.817871
11881.413830	2853.066667	305.160156	-155.733093
11881.413830	2853.066667	303.865234	61.817436
11881.413830	2853.066667	302.568359	11.929454
11881.413830	2853.066667	301.272461	254.142029
11881.413830	2853.066667	299.975586	306.802551
11881.413830	2853.066667	298.678711	407.553711
