#X		#Y		#Wave		#Intensity
11375.176596	2942.765000	1999.980469	-45.853062
11375.176596	2942.765000	1999.016602	39.782207
11375.176596	2942.765000	1998.052734	50.433781
11375.176596	2942.765000	1997.087891	93.235970
11375.176596	2942.765000	1996.123047	49.241932
11375.176596	2942.765000	1995.158203	-51.771706
11375.176596	2942.765000	1994.193359	25.519037
11375.176596	2942.765000	1993.228516	40.815811
11375.176596	2942.765000	1992.262695	-25.651255
11375.176596	2942.765000	1991.297852	-10.462931
11375.176596	2942.765000	1990.332031	-22.557945
11375.176596	2942.765000	1989.366211	4.889138
11375.176596	2942.765000	1988.399414	-36.997051
11375.176596	2942.765000	1987.433594	-41.816925
11375.176596	2942.765000	1986.466797	-63.996029
11375.176596	2942.765000	1985.500977	72.030930
11375.176596	2942.765000	1984.534180	101.657021
11375.176596	2942.765000	1983.567383	101.564850
11375.176596	2942.765000	1982.599609	69.300537
11375.176596	2942.765000	1981.632813	7.353766
11375.176596	2942.765000	1980.665039	-15.088869
11375.176596	2942.765000	1979.697266	53.818935
11375.176596	2942.765000	1978.729492	139.944626
11375.176596	2942.765000	1977.761719	119.832642
11375.176596	2942.765000	1976.792969	15.759224
11375.176596	2942.765000	1975.825195	52.362694
11375.176596	2942.765000	1974.856445	66.706245
11375.176596	2942.765000	1973.887695	115.546272
11375.176596	2942.765000	1972.918945	124.865128
11375.176596	2942.765000	1971.949219	111.948822
11375.176596	2942.765000	1970.980469	84.208199
11375.176596	2942.765000	1970.010742	147.658905
11375.176596	2942.765000	1969.041016	4.007388
11375.176596	2942.765000	1968.071289	-31.190804
11375.176596	2942.765000	1967.101563	182.446991
11375.176596	2942.765000	1966.130859	19.066370
11375.176596	2942.765000	1965.161133	52.756233
11375.176596	2942.765000	1964.190430	-98.286354
11375.176596	2942.765000	1963.219727	43.685959
11375.176596	2942.765000	1962.249023	-31.044804
11375.176596	2942.765000	1961.277344	73.889656
11375.176596	2942.765000	1960.306641	38.498871
11375.176596	2942.765000	1959.334961	67.061836
11375.176596	2942.765000	1958.363281	-10.181810
11375.176596	2942.765000	1957.391602	-45.612473
11375.176596	2942.765000	1956.419922	91.068161
11375.176596	2942.765000	1955.447266	6.416646
11375.176596	2942.765000	1954.474609	-61.019966
11375.176596	2942.765000	1953.501953	38.657188
11375.176596	2942.765000	1952.529297	22.795439
11375.176596	2942.765000	1951.556641	19.201822
11375.176596	2942.765000	1950.583984	74.537369
11375.176596	2942.765000	1949.610352	65.984924
11375.176596	2942.765000	1948.636719	199.819855
11375.176596	2942.765000	1947.663086	51.289371
11375.176596	2942.765000	1946.689453	23.057856
11375.176596	2942.765000	1945.715820	139.597092
11375.176596	2942.765000	1944.741211	106.419106
11375.176596	2942.765000	1943.767578	16.820839
11375.176596	2942.765000	1942.792969	-21.257723
11375.176596	2942.765000	1941.818359	-22.556284
11375.176596	2942.765000	1940.842773	115.869972
11375.176596	2942.765000	1939.868164	116.969643
11375.176596	2942.765000	1938.892578	-75.546425
11375.176596	2942.765000	1937.916992	121.577690
11375.176596	2942.765000	1936.941406	205.928406
11375.176596	2942.765000	1935.965820	25.713245
11375.176596	2942.765000	1934.990234	68.397270
11375.176596	2942.765000	1934.013672	130.640961
11375.176596	2942.765000	1933.037109	99.830147
11375.176596	2942.765000	1932.060547	176.709396
11375.176596	2942.765000	1931.083984	33.320164
11375.176596	2942.765000	1930.107422	122.397247
11375.176596	2942.765000	1929.129883	89.127174
11375.176596	2942.765000	1928.153320	126.785583
11375.176596	2942.765000	1927.175781	159.530716
11375.176596	2942.765000	1926.198242	94.467400
11375.176596	2942.765000	1925.219727	7.421733
11375.176596	2942.765000	1924.242188	74.363235
11375.176596	2942.765000	1923.263672	-12.659066
11375.176596	2942.765000	1922.285156	105.548744
11375.176596	2942.765000	1921.306641	8.771446
11375.176596	2942.765000	1920.328125	129.362396
11375.176596	2942.765000	1919.349609	3.308270
11375.176596	2942.765000	1918.370117	-49.472160
11375.176596	2942.765000	1917.391602	105.216728
11375.176596	2942.765000	1916.412109	74.390137
11375.176596	2942.765000	1915.431641	-10.103249
11375.176596	2942.765000	1914.452148	176.189758
11375.176596	2942.765000	1913.472656	167.306290
11375.176596	2942.765000	1912.492188	12.121139
11375.176596	2942.765000	1911.511719	-38.179382
11375.176596	2942.765000	1910.531250	26.096155
11375.176596	2942.765000	1909.550781	-38.814445
11375.176596	2942.765000	1908.569336	69.289978
11375.176596	2942.765000	1907.588867	33.624794
11375.176596	2942.765000	1906.607422	95.395523
11375.176596	2942.765000	1905.625977	25.643190
11375.176596	2942.765000	1904.644531	-39.214508
11375.176596	2942.765000	1903.662109	42.005249
11375.176596	2942.765000	1902.680664	-17.964865
11375.176596	2942.765000	1901.698242	-26.813652
11375.176596	2942.765000	1900.715820	90.850952
11375.176596	2942.765000	1899.733398	43.066246
11375.176596	2942.765000	1898.750000	34.210091
11375.176596	2942.765000	1897.767578	18.064440
11375.176596	2942.765000	1896.784180	106.460487
11375.176596	2942.765000	1895.800781	95.168922
11375.176596	2942.765000	1894.817383	-47.345978
11375.176596	2942.765000	1893.833984	-2.719306
11375.176596	2942.765000	1892.850586	90.477310
11375.176596	2942.765000	1891.866211	37.911484
11375.176596	2942.765000	1890.881836	-38.916386
11375.176596	2942.765000	1889.897461	-35.593563
11375.176596	2942.765000	1888.913086	-109.948044
11375.176596	2942.765000	1887.927734	-16.811985
11375.176596	2942.765000	1886.943359	-37.754597
11375.176596	2942.765000	1885.958008	45.633175
11375.176596	2942.765000	1884.972656	46.520866
11375.176596	2942.765000	1883.987305	54.686420
11375.176596	2942.765000	1883.001953	-89.905464
11375.176596	2942.765000	1882.015625	17.681110
11375.176596	2942.765000	1881.029297	16.158873
11375.176596	2942.765000	1880.042969	143.077469
11375.176596	2942.765000	1879.056641	-13.526895
11375.176596	2942.765000	1878.070313	103.665688
11375.176596	2942.765000	1877.083984	44.012711
11375.176596	2942.765000	1876.096680	57.030144
11375.176596	2942.765000	1875.109375	57.940437
11375.176596	2942.765000	1874.122070	49.171135
11375.176596	2942.765000	1873.134766	-3.154418
11375.176596	2942.765000	1872.146484	48.589619
11375.176596	2942.765000	1871.159180	148.703720
11375.176596	2942.765000	1870.170898	33.509083
11375.176596	2942.765000	1869.182617	-11.506751
11375.176596	2942.765000	1868.194336	-61.337894
11375.176596	2942.765000	1867.205078	-4.780138
11375.176596	2942.765000	1866.216797	92.849747
11375.176596	2942.765000	1865.227539	9.205262
11375.176596	2942.765000	1864.238281	-42.994900
11375.176596	2942.765000	1863.249023	69.091072
11375.176596	2942.765000	1862.259766	-60.379333
11375.176596	2942.765000	1861.269531	-90.794685
11375.176596	2942.765000	1860.279297	26.075897
11375.176596	2942.765000	1859.290039	111.527466
11375.176596	2942.765000	1858.298828	-73.348099
11375.176596	2942.765000	1857.308594	-19.271336
11375.176596	2942.765000	1856.318359	15.489053
11375.176596	2942.765000	1855.327148	-26.944988
11375.176596	2942.765000	1854.335938	51.218403
11375.176596	2942.765000	1853.344727	59.434044
11375.176596	2942.765000	1852.353516	113.452652
11375.176596	2942.765000	1851.362305	104.789589
11375.176596	2942.765000	1850.370117	84.083649
11375.176596	2942.765000	1849.377930	65.798279
11375.176596	2942.765000	1848.385742	-15.106081
11375.176596	2942.765000	1847.393555	46.117840
11375.176596	2942.765000	1846.401367	39.900188
11375.176596	2942.765000	1845.408203	72.207405
11375.176596	2942.765000	1844.415039	-30.287619
11375.176596	2942.765000	1843.421875	33.312790
11375.176596	2942.765000	1842.428711	55.988564
11375.176596	2942.765000	1841.435547	61.819248
11375.176596	2942.765000	1840.441406	-55.015327
11375.176596	2942.765000	1839.448242	27.793015
11375.176596	2942.765000	1838.454102	21.613245
11375.176596	2942.765000	1837.459961	-23.022890
11375.176596	2942.765000	1836.464844	50.126942
11375.176596	2942.765000	1835.470703	-49.759487
11375.176596	2942.765000	1834.475586	-63.116161
11375.176596	2942.765000	1833.480469	50.843525
11375.176596	2942.765000	1832.485352	27.872194
11375.176596	2942.765000	1831.490234	-62.319523
11375.176596	2942.765000	1830.495117	63.587402
11375.176596	2942.765000	1829.499023	-7.370501
11375.176596	2942.765000	1828.502930	51.289150
11375.176596	2942.765000	1827.506836	-0.440307
11375.176596	2942.765000	1826.510742	-8.967632
11375.176596	2942.765000	1825.513672	-3.099554
11375.176596	2942.765000	1824.517578	79.504463
11375.176596	2942.765000	1823.520508	99.742996
11375.176596	2942.765000	1822.523438	48.064224
11375.176596	2942.765000	1821.526367	89.875053
11375.176596	2942.765000	1820.529297	31.033081
11375.176596	2942.765000	1819.531250	8.150278
11375.176596	2942.765000	1818.533203	85.878914
11375.176596	2942.765000	1817.535156	10.312169
11375.176596	2942.765000	1816.537109	-48.463860
11375.176596	2942.765000	1815.539063	10.085173
11375.176596	2942.765000	1814.540039	15.956994
11375.176596	2942.765000	1813.541992	-9.280389
11375.176596	2942.765000	1812.542969	-8.189290
11375.176596	2942.765000	1811.543945	35.960171
11375.176596	2942.765000	1810.543945	75.310265
11375.176596	2942.765000	1809.544922	57.258564
11375.176596	2942.765000	1808.544922	-54.025055
11375.176596	2942.765000	1807.544922	47.470287
11375.176596	2942.765000	1806.544922	-25.530157
11375.176596	2942.765000	1805.544922	-2.926870
11375.176596	2942.765000	1804.544922	-1.831758
11375.176596	2942.765000	1803.543945	-86.722664
11375.176596	2942.765000	1802.542969	-116.656357
11375.176596	2942.765000	1801.541992	73.079002
11375.176596	2942.765000	1800.541016	47.901520
11375.176596	2942.765000	1799.539063	70.466415
11375.176596	2942.765000	1798.538086	-40.605129
11375.176596	2942.765000	1797.536133	67.856049
11375.176596	2942.765000	1796.534180	121.413544
11375.176596	2942.765000	1795.532227	50.937378
11375.176596	2942.765000	1794.529297	40.097176
11375.176596	2942.765000	1793.527344	127.004341
11375.176596	2942.765000	1792.524414	78.017014
11375.176596	2942.765000	1791.521484	50.495159
11375.176596	2942.765000	1790.518555	-19.904076
11375.176596	2942.765000	1789.514648	31.212311
11375.176596	2942.765000	1788.511719	-24.867754
11375.176596	2942.765000	1787.507813	80.997307
11375.176596	2942.765000	1786.503906	41.592030
11375.176596	2942.765000	1785.500000	11.721993
11375.176596	2942.765000	1784.496094	36.599995
11375.176596	2942.765000	1783.491211	49.569229
11375.176596	2942.765000	1782.486328	-120.651428
11375.176596	2942.765000	1781.481445	1.753366
11375.176596	2942.765000	1780.476563	21.851629
11375.176596	2942.765000	1779.471680	77.605431
11375.176596	2942.765000	1778.465820	119.072327
11375.176596	2942.765000	1777.460938	3.656960
11375.176596	2942.765000	1776.455078	-28.546963
11375.176596	2942.765000	1775.449219	103.193115
11375.176596	2942.765000	1774.442383	-24.038162
11375.176596	2942.765000	1773.436523	-13.475780
11375.176596	2942.765000	1772.429688	-10.043865
11375.176596	2942.765000	1771.422852	59.857822
11375.176596	2942.765000	1770.416016	-22.179743
11375.176596	2942.765000	1769.409180	52.438820
11375.176596	2942.765000	1768.402344	110.417526
11375.176596	2942.765000	1767.394531	7.058290
11375.176596	2942.765000	1766.386719	-3.764457
11375.176596	2942.765000	1765.378906	35.211895
11375.176596	2942.765000	1764.371094	67.057823
11375.176596	2942.765000	1763.362305	103.628708
11375.176596	2942.765000	1762.354492	59.603920
11375.176596	2942.765000	1761.345703	32.178436
11375.176596	2942.765000	1760.336914	-78.157822
11375.176596	2942.765000	1759.328125	-10.807763
11375.176596	2942.765000	1758.318359	84.930420
11375.176596	2942.765000	1757.308594	55.138935
11375.176596	2942.765000	1756.299805	-104.844612
11375.176596	2942.765000	1755.290039	21.614906
11375.176596	2942.765000	1754.279297	-27.090498
11375.176596	2942.765000	1753.269531	16.490824
11375.176596	2942.765000	1752.258789	-74.781403
11375.176596	2942.765000	1751.249023	-33.580513
11375.176596	2942.765000	1750.238281	-30.233320
11375.176596	2942.765000	1749.226563	79.493500
11375.176596	2942.765000	1748.215820	9.535531
11375.176596	2942.765000	1747.204102	-53.311264
11375.176596	2942.765000	1746.193359	63.433392
11375.176596	2942.765000	1745.181641	45.475861
11375.176596	2942.765000	1744.168945	48.776760
11375.176596	2942.765000	1743.157227	19.012682
11375.176596	2942.765000	1742.144531	1.059641
11375.176596	2942.765000	1741.132813	-35.774895
11375.176596	2942.765000	1740.120117	33.602608
11375.176596	2942.765000	1739.106445	20.361271
11375.176596	2942.765000	1738.093750	-54.217777
11375.176596	2942.765000	1737.080078	-17.913830
11375.176596	2942.765000	1736.067383	91.478577
11375.176596	2942.765000	1735.053711	0.408415
11375.176596	2942.765000	1734.040039	46.095455
11375.176596	2942.765000	1733.025391	-61.440693
11375.176596	2942.765000	1732.011719	-91.176651
11375.176596	2942.765000	1730.997070	81.710785
11375.176596	2942.765000	1729.982422	11.902837
11375.176596	2942.765000	1728.967773	15.125049
11375.176596	2942.765000	1727.952148	44.241257
11375.176596	2942.765000	1726.937500	7.423805
11375.176596	2942.765000	1725.921875	-17.617170
11375.176596	2942.765000	1724.906250	-45.007549
11375.176596	2942.765000	1723.890625	54.662304
11375.176596	2942.765000	1722.875000	-48.019760
11375.176596	2942.765000	1721.858398	-51.886211
11375.176596	2942.765000	1720.841797	-79.272133
11375.176596	2942.765000	1719.825195	-5.556949
11375.176596	2942.765000	1718.808594	35.215366
11375.176596	2942.765000	1717.791992	83.016953
11375.176596	2942.765000	1716.774414	20.356623
11375.176596	2942.765000	1715.756836	-4.697102
11375.176596	2942.765000	1714.739258	-25.049276
11375.176596	2942.765000	1713.721680	-14.870823
11375.176596	2942.765000	1712.704102	21.125105
11375.176596	2942.765000	1711.685547	106.397255
11375.176596	2942.765000	1710.667969	34.381340
11375.176596	2942.765000	1709.649414	28.090092
11375.176596	2942.765000	1708.630859	-27.473362
11375.176596	2942.765000	1707.611328	67.100891
11375.176596	2942.765000	1706.592773	77.205635
11375.176596	2942.765000	1705.573242	-39.318314
11375.176596	2942.765000	1704.553711	-33.898453
11375.176596	2942.765000	1703.534180	53.548706
11375.176596	2942.765000	1702.513672	-18.397522
11375.176596	2942.765000	1701.494141	19.798538
11375.176596	2942.765000	1700.473633	104.823364
11375.176596	2942.765000	1699.453125	-119.344269
11375.176596	2942.765000	1698.432617	-1.554696
11375.176596	2942.765000	1697.412109	78.724792
11375.176596	2942.765000	1696.390625	16.182138
11375.176596	2942.765000	1695.369141	-48.682858
11375.176596	2942.765000	1694.347656	111.094170
11375.176596	2942.765000	1693.326172	78.974884
11375.176596	2942.765000	1692.304688	28.150721
11375.176596	2942.765000	1691.282227	-39.030499
11375.176596	2942.765000	1690.260742	24.738516
11375.176596	2942.765000	1689.238281	69.775490
11375.176596	2942.765000	1688.214844	32.988388
11375.176596	2942.765000	1687.192383	54.627644
11375.176596	2942.765000	1686.168945	94.941376
11375.176596	2942.765000	1685.146484	142.241821
11375.176596	2942.765000	1684.123047	58.738495
11375.176596	2942.765000	1683.099609	66.321915
11375.176596	2942.765000	1682.075195	34.209995
11375.176596	2942.765000	1681.051758	-4.896318
11375.176596	2942.765000	1680.027344	114.685371
11375.176596	2942.765000	1679.002930	136.225967
11375.176596	2942.765000	1677.978516	38.787998
11375.176596	2942.765000	1676.953125	71.982918
11375.176596	2942.765000	1675.928711	9.559340
11375.176596	2942.765000	1674.903320	42.735504
11375.176596	2942.765000	1673.877930	82.885620
11375.176596	2942.765000	1672.852539	32.129593
11375.176596	2942.765000	1671.826172	97.883064
11375.176596	2942.765000	1670.800781	84.404213
11375.176596	2942.765000	1669.774414	84.898071
11375.176596	2942.765000	1668.748047	31.828712
11375.176596	2942.765000	1667.721680	76.556038
11375.176596	2942.765000	1666.694336	121.259354
11375.176596	2942.765000	1665.667969	42.597527
11375.176596	2942.765000	1664.640625	75.645653
11375.176596	2942.765000	1663.613281	250.582199
11375.176596	2942.765000	1662.585938	169.597900
11375.176596	2942.765000	1661.557617	200.259705
11375.176596	2942.765000	1660.530273	133.255859
11375.176596	2942.765000	1659.501953	152.279587
11375.176596	2942.765000	1658.473633	136.429535
11375.176596	2942.765000	1657.444336	104.313934
11375.176596	2942.765000	1656.416016	151.195511
11375.176596	2942.765000	1655.386719	107.465698
11375.176596	2942.765000	1654.358398	128.773468
11375.176596	2942.765000	1653.328125	268.480225
11375.176596	2942.765000	1652.298828	113.311356
11375.176596	2942.765000	1651.269531	143.873871
11375.176596	2942.765000	1650.239258	118.726654
11375.176596	2942.765000	1649.208984	225.827789
11375.176596	2942.765000	1648.178711	191.386826
11375.176596	2942.765000	1647.148438	163.912369
11375.176596	2942.765000	1646.117188	164.267487
11375.176596	2942.765000	1645.086914	243.440125
11375.176596	2942.765000	1644.055664	259.995697
11375.176596	2942.765000	1643.024414	320.570587
11375.176596	2942.765000	1641.992188	267.587860
11375.176596	2942.765000	1640.960938	265.585297
11375.176596	2942.765000	1639.928711	224.205734
11375.176596	2942.765000	1638.896484	208.309860
11375.176596	2942.765000	1637.864258	187.785934
11375.176596	2942.765000	1636.832031	227.447540
11375.176596	2942.765000	1635.798828	188.405777
11375.176596	2942.765000	1634.766602	265.064880
11375.176596	2942.765000	1633.733398	186.697311
11375.176596	2942.765000	1632.699219	351.206909
11375.176596	2942.765000	1631.666016	256.659363
11375.176596	2942.765000	1630.632813	268.495819
11375.176596	2942.765000	1629.598633	254.896759
11375.176596	2942.765000	1628.564453	199.700439
11375.176596	2942.765000	1627.530273	283.160370
11375.176596	2942.765000	1626.495117	352.722382
11375.176596	2942.765000	1625.460938	269.813965
11375.176596	2942.765000	1624.425781	270.067627
11375.176596	2942.765000	1623.390625	298.024811
11375.176596	2942.765000	1622.355469	254.408722
11375.176596	2942.765000	1621.319336	240.808975
11375.176596	2942.765000	1620.284180	307.975372
11375.176596	2942.765000	1619.248047	257.453522
11375.176596	2942.765000	1618.211914	121.605347
11375.176596	2942.765000	1617.174805	262.543213
11375.176596	2942.765000	1616.138672	336.560608
11375.176596	2942.765000	1615.101563	345.999481
11375.176596	2942.765000	1614.065430	279.376007
11375.176596	2942.765000	1613.027344	192.035217
11375.176596	2942.765000	1611.990234	256.785370
11375.176596	2942.765000	1610.953125	263.922577
11375.176596	2942.765000	1609.915039	243.418564
11375.176596	2942.765000	1608.876953	342.653656
11375.176596	2942.765000	1607.838867	358.973663
11375.176596	2942.765000	1606.800781	260.203613
11375.176596	2942.765000	1605.761719	159.168762
11375.176596	2942.765000	1604.723633	262.940674
11375.176596	2942.765000	1603.684570	412.676514
11375.176596	2942.765000	1602.644531	311.667633
11375.176596	2942.765000	1601.605469	245.190216
11375.176596	2942.765000	1600.566406	307.480133
11375.176596	2942.765000	1599.526367	188.161896
11375.176596	2942.765000	1598.486328	188.389282
11375.176596	2942.765000	1597.446289	161.045227
11375.176596	2942.765000	1596.405273	214.111435
11375.176596	2942.765000	1595.365234	246.488113
11375.176596	2942.765000	1594.324219	189.296783
11375.176596	2942.765000	1593.283203	283.652130
11375.176596	2942.765000	1592.242188	171.388062
11375.176596	2942.765000	1591.200195	245.056061
11375.176596	2942.765000	1590.159180	208.562469
11375.176596	2942.765000	1589.117188	334.958710
11375.176596	2942.765000	1588.075195	153.967209
11375.176596	2942.765000	1587.032227	250.514969
11375.176596	2942.765000	1585.990234	250.735092
11375.176596	2942.765000	1584.947266	342.644379
11375.176596	2942.765000	1583.904297	274.094849
11375.176596	2942.765000	1582.861328	171.203583
11375.176596	2942.765000	1581.818359	269.952118
11375.176596	2942.765000	1580.775391	494.638184
11375.176596	2942.765000	1579.731445	394.058716
11375.176596	2942.765000	1578.687500	355.338196
11375.176596	2942.765000	1577.643555	314.346100
11375.176596	2942.765000	1576.598633	330.587402
11375.176596	2942.765000	1575.554688	262.162933
11375.176596	2942.765000	1574.509766	269.262115
11375.176596	2942.765000	1573.464844	427.323151
11375.176596	2942.765000	1572.419922	386.369385
11375.176596	2942.765000	1571.374023	347.719696
11375.176596	2942.765000	1570.329102	299.945587
11375.176596	2942.765000	1569.283203	268.191162
11375.176596	2942.765000	1568.237305	215.887039
11375.176596	2942.765000	1567.191406	202.445160
11375.176596	2942.765000	1566.144531	225.557785
11375.176596	2942.765000	1565.098633	278.354462
11375.176596	2942.765000	1564.051758	276.334839
11375.176596	2942.765000	1563.004883	128.219955
11375.176596	2942.765000	1561.957031	260.897400
11375.176596	2942.765000	1560.910156	151.644913
11375.176596	2942.765000	1559.862305	224.956268
11375.176596	2942.765000	1558.814453	234.374542
11375.176596	2942.765000	1557.766602	182.218735
11375.176596	2942.765000	1556.718750	193.931564
11375.176596	2942.765000	1555.669922	237.559113
11375.176596	2942.765000	1554.621094	246.986008
11375.176596	2942.765000	1553.573242	251.858307
11375.176596	2942.765000	1552.523438	377.483154
11375.176596	2942.765000	1551.474609	348.169159
11375.176596	2942.765000	1550.424805	257.380646
11375.176596	2942.765000	1549.375000	255.435791
11375.176596	2942.765000	1548.325195	205.690445
11375.176596	2942.765000	1547.275391	335.781952
11375.176596	2942.765000	1546.225586	286.052460
11375.176596	2942.765000	1545.174805	334.180908
11375.176596	2942.765000	1544.124023	293.581879
11375.176596	2942.765000	1543.073242	400.834869
11375.176596	2942.765000	1542.022461	344.334961
11375.176596	2942.765000	1540.970703	287.862732
11375.176596	2942.765000	1539.919922	254.150726
11375.176596	2942.765000	1538.868164	329.537903
11375.176596	2942.765000	1537.815430	295.842804
11375.176596	2942.765000	1536.763672	266.712708
11375.176596	2942.765000	1535.710938	237.600204
11375.176596	2942.765000	1534.659180	297.065857
11375.176596	2942.765000	1533.606445	333.811829
11375.176596	2942.765000	1532.552734	318.344299
11375.176596	2942.765000	1531.500000	366.434326
11375.176596	2942.765000	1530.446289	230.729584
11375.176596	2942.765000	1529.393555	328.740570
11375.176596	2942.765000	1528.338867	315.585693
11375.176596	2942.765000	1527.285156	279.769806
11375.176596	2942.765000	1526.231445	262.113556
11375.176596	2942.765000	1525.176758	271.672211
11375.176596	2942.765000	1524.122070	242.709869
11375.176596	2942.765000	1523.067383	177.515442
11375.176596	2942.765000	1522.012695	218.826584
11375.176596	2942.765000	1520.957031	117.441559
11375.176596	2942.765000	1519.901367	355.772308
11375.176596	2942.765000	1518.845703	118.579475
11375.176596	2942.765000	1517.790039	291.191742
11375.176596	2942.765000	1516.734375	266.856110
11375.176596	2942.765000	1515.677734	156.558060
11375.176596	2942.765000	1514.621094	77.984436
11375.176596	2942.765000	1513.564453	236.936127
11375.176596	2942.765000	1512.507813	110.910332
11375.176596	2942.765000	1511.450195	91.204376
11375.176596	2942.765000	1510.393555	159.673370
11375.176596	2942.765000	1509.335938	85.747360
11375.176596	2942.765000	1508.278320	59.310852
11375.176596	2942.765000	1507.219727	-32.618061
11375.176596	2942.765000	1506.162109	101.363007
11375.176596	2942.765000	1505.103516	142.716156
11375.176596	2942.765000	1504.044922	238.249191
11375.176596	2942.765000	1502.986328	94.484444
11375.176596	2942.765000	1501.926758	25.262548
11375.176596	2942.765000	1500.868164	66.642769
11375.176596	2942.765000	1499.808594	71.922516
11375.176596	2942.765000	1498.749023	-24.285042
11375.176596	2942.765000	1497.688477	32.899117
11375.176596	2942.765000	1496.628906	56.254372
11375.176596	2942.765000	1495.568359	-1.537502
11375.176596	2942.765000	1494.507813	-18.727886
11375.176596	2942.765000	1493.447266	42.964321
11375.176596	2942.765000	1492.386719	-3.490080
11375.176596	2942.765000	1491.325195	-112.980072
11375.176596	2942.765000	1490.263672	45.562485
11375.176596	2942.765000	1489.202148	-34.599854
11375.176596	2942.765000	1488.140625	-146.231400
11375.176596	2942.765000	1487.079102	5.509469
11375.176596	2942.765000	1486.016602	-13.806191
11375.176596	2942.765000	1484.954102	-19.603226
11375.176596	2942.765000	1483.891602	-29.883497
11375.176596	2942.765000	1482.829102	29.565968
11375.176596	2942.765000	1481.765625	-99.854889
11375.176596	2942.765000	1480.702148	-40.393959
11375.176596	2942.765000	1479.638672	21.306019
11375.176596	2942.765000	1478.575195	13.344740
11375.176596	2942.765000	1477.511719	45.819450
11375.176596	2942.765000	1476.447266	76.056656
11375.176596	2942.765000	1475.382813	45.672672
11375.176596	2942.765000	1474.318359	-11.645916
11375.176596	2942.765000	1473.253906	20.893457
11375.176596	2942.765000	1472.189453	-110.380035
11375.176596	2942.765000	1471.124023	-37.460617
11375.176596	2942.765000	1470.058594	37.639034
11375.176596	2942.765000	1468.993164	-26.104454
11375.176596	2942.765000	1467.927734	-27.217127
11375.176596	2942.765000	1466.861328	-3.708789
11375.176596	2942.765000	1465.794922	6.398300
11375.176596	2942.765000	1464.728516	-1.340615
11375.176596	2942.765000	1463.662109	-38.021416
11375.176596	2942.765000	1462.594727	5.504593
11375.176596	2942.765000	1461.528320	-10.946978
11375.176596	2942.765000	1460.460938	-3.257502
11375.176596	2942.765000	1459.393555	49.798962
11375.176596	2942.765000	1458.326172	44.255924
11375.176596	2942.765000	1457.257813	43.063896
11375.176596	2942.765000	1456.189453	93.534233
11375.176596	2942.765000	1455.121094	139.853256
11375.176596	2942.765000	1454.052734	101.060837
11375.176596	2942.765000	1452.984375	-35.686733
11375.176596	2942.765000	1451.915039	57.005219
11375.176596	2942.765000	1450.845703	76.108856
11375.176596	2942.765000	1449.776367	148.612503
11375.176596	2942.765000	1448.707031	150.132172
11375.176596	2942.765000	1447.636719	102.666862
11375.176596	2942.765000	1446.567383	146.498779
11375.176596	2942.765000	1445.497070	71.811646
11375.176596	2942.765000	1444.425781	183.903152
11375.176596	2942.765000	1443.355469	134.362076
11375.176596	2942.765000	1442.285156	94.972343
11375.176596	2942.765000	1441.213867	16.017418
11375.176596	2942.765000	1440.142578	22.824530
11375.176596	2942.765000	1439.070313	73.039246
11375.176596	2942.765000	1437.999023	41.037060
11375.176596	2942.765000	1436.926758	26.738962
11375.176596	2942.765000	1435.854492	33.036568
11375.176596	2942.765000	1434.782227	121.943825
11375.176596	2942.765000	1433.709961	99.883362
11375.176596	2942.765000	1432.636719	114.626816
11375.176596	2942.765000	1431.563477	3.295954
11375.176596	2942.765000	1430.490234	27.506765
11375.176596	2942.765000	1429.416992	-89.027588
11375.176596	2942.765000	1428.343750	-49.410110
11375.176596	2942.765000	1427.269531	-80.509972
11375.176596	2942.765000	1426.195313	57.630203
11375.176596	2942.765000	1425.121094	-11.550847
11375.176596	2942.765000	1424.046875	57.446655
11375.176596	2942.765000	1422.971680	-16.191477
11375.176596	2942.765000	1421.896484	-7.460567
11375.176596	2942.765000	1420.821289	43.403557
11375.176596	2942.765000	1419.746094	171.720734
11375.176596	2942.765000	1418.669922	21.699535
11375.176596	2942.765000	1417.594727	14.174809
11375.176596	2942.765000	1416.518555	77.143547
11375.176596	2942.765000	1415.442383	109.562714
11375.176596	2942.765000	1414.365234	72.418037
11375.176596	2942.765000	1413.289063	-1.093942
11375.176596	2942.765000	1412.211914	-83.503220
11375.176596	2942.765000	1411.134766	68.934456
11375.176596	2942.765000	1410.057617	-55.668613
11375.176596	2942.765000	1408.979492	9.978067
11375.176596	2942.765000	1407.902344	10.370425
11375.176596	2942.765000	1406.824219	-23.428854
11375.176596	2942.765000	1405.746094	41.519466
11375.176596	2942.765000	1404.666992	-15.742599
11375.176596	2942.765000	1403.588867	-10.576922
11375.176596	2942.765000	1402.509766	18.347126
11375.176596	2942.765000	1401.430664	47.220425
11375.176596	2942.765000	1400.351563	3.867175
11375.176596	2942.765000	1399.271484	43.980827
11375.176596	2942.765000	1398.192383	-13.560900
11375.176596	2942.765000	1397.112305	-76.882065
11375.176596	2942.765000	1396.031250	149.029556
11375.176596	2942.765000	1394.951172	81.212006
11375.176596	2942.765000	1393.871094	34.463711
11375.176596	2942.765000	1392.790039	-22.101614
11375.176596	2942.765000	1391.708984	-21.484409
11375.176596	2942.765000	1390.626953	-39.669823
11375.176596	2942.765000	1389.545898	-18.057987
11375.176596	2942.765000	1388.463867	24.363018
11375.176596	2942.765000	1387.381836	-46.346764
11375.176596	2942.765000	1386.299805	60.337044
11375.176596	2942.765000	1385.217773	72.814072
11375.176596	2942.765000	1384.134766	7.940553
11375.176596	2942.765000	1383.051758	-25.641743
11375.176596	2942.765000	1381.968750	2.728034
11375.176596	2942.765000	1380.885742	32.358925
11375.176596	2942.765000	1379.802734	12.959137
11375.176596	2942.765000	1378.718750	-29.252710
11375.176596	2942.765000	1377.634766	54.453197
11375.176596	2942.765000	1376.550781	70.506500
11375.176596	2942.765000	1375.465820	144.712036
11375.176596	2942.765000	1374.381836	79.773964
11375.176596	2942.765000	1373.296875	82.659943
11375.176596	2942.765000	1372.211914	166.060623
11375.176596	2942.765000	1371.126953	135.818741
11375.176596	2942.765000	1370.041016	40.775806
11375.176596	2942.765000	1368.955078	89.232811
11375.176596	2942.765000	1367.869141	152.945541
11375.176596	2942.765000	1366.783203	147.840469
11375.176596	2942.765000	1365.697266	98.728798
11375.176596	2942.765000	1364.610352	-8.792988
11375.176596	2942.765000	1363.523438	112.435623
11375.176596	2942.765000	1362.436523	111.825211
11375.176596	2942.765000	1361.349609	247.842987
11375.176596	2942.765000	1360.261719	110.203178
11375.176596	2942.765000	1359.174805	175.369263
11375.176596	2942.765000	1358.086914	230.181351
11375.176596	2942.765000	1356.998047	114.576912
11375.176596	2942.765000	1355.910156	97.811111
11375.176596	2942.765000	1354.821289	149.669693
11375.176596	2942.765000	1353.732422	93.460960
11375.176596	2942.765000	1352.643555	153.622849
11375.176596	2942.765000	1351.554688	97.388420
11375.176596	2942.765000	1350.464844	135.700989
11375.176596	2942.765000	1349.375000	138.205521
11375.176596	2942.765000	1348.285156	145.688995
11375.176596	2942.765000	1347.195313	251.577637
11375.176596	2942.765000	1346.105469	132.801773
11375.176596	2942.765000	1345.014648	178.656357
11375.176596	2942.765000	1343.923828	208.035965
11375.176596	2942.765000	1342.833008	169.769165
11375.176596	2942.765000	1341.741211	140.015427
11375.176596	2942.765000	1340.650391	172.994339
11375.176596	2942.765000	1339.558594	127.247643
11375.176596	2942.765000	1338.466797	166.580750
11375.176596	2942.765000	1337.374023	191.314087
11375.176596	2942.765000	1336.282227	159.690094
11375.176596	2942.765000	1335.189453	77.787201
11375.176596	2942.765000	1334.096680	111.777008
11375.176596	2942.765000	1333.003906	22.781229
11375.176596	2942.765000	1331.910156	88.548325
11375.176596	2942.765000	1330.817383	30.358458
11375.176596	2942.765000	1329.723633	-6.134144
11375.176596	2942.765000	1328.629883	161.685150
11375.176596	2942.765000	1327.535156	78.373688
11375.176596	2942.765000	1326.441406	124.850426
11375.176596	2942.765000	1325.346680	84.574387
11375.176596	2942.765000	1324.251953	-29.703617
11375.176596	2942.765000	1323.156250	85.178032
11375.176596	2942.765000	1322.061523	119.781525
11375.176596	2942.765000	1320.965820	42.635307
11375.176596	2942.765000	1319.870117	57.264297
11375.176596	2942.765000	1318.774414	74.317558
11375.176596	2942.765000	1317.678711	120.179749
11375.176596	2942.765000	1316.582031	47.504002
11375.176596	2942.765000	1315.485352	20.525898
11375.176596	2942.765000	1314.388672	-32.016403
11375.176596	2942.765000	1313.291016	-58.149658
11375.176596	2942.765000	1312.194336	30.515501
11375.176596	2942.765000	1311.096680	78.760635
11375.176596	2942.765000	1309.999023	130.635712
11375.176596	2942.765000	1308.901367	85.908913
11375.176596	2942.765000	1307.802734	85.837967
11375.176596	2942.765000	1306.705078	19.859970
11375.176596	2942.765000	1305.606445	88.773926
11375.176596	2942.765000	1304.506836	118.731102
11375.176596	2942.765000	1303.408203	58.969582
11375.176596	2942.765000	1302.308594	127.015213
11375.176596	2942.765000	1301.208984	52.858555
11375.176596	2942.765000	1300.109375	50.533661
11375.176596	2942.765000	1299.009766	28.274530
11375.176596	2942.765000	1297.909180	40.346283
11375.176596	2942.765000	1296.808594	49.255291
11375.176596	2942.765000	1295.708008	-5.568392
11375.176596	2942.765000	1294.607422	26.449320
11375.176596	2942.765000	1293.506836	31.811716
11375.176596	2942.765000	1292.405273	-46.632797
11375.176596	2942.765000	1291.303711	-5.111780
11375.176596	2942.765000	1290.202148	-80.530876
11375.176596	2942.765000	1289.099609	0.881188
11375.176596	2942.765000	1287.998047	12.620772
11375.176596	2942.765000	1286.895508	30.754015
11375.176596	2942.765000	1285.792969	22.184414
11375.176596	2942.765000	1284.689453	68.477470
11375.176596	2942.765000	1283.586914	-0.615642
11375.176596	2942.765000	1282.483398	-7.637370
11375.176596	2942.765000	1281.379883	0.175617
11375.176596	2942.765000	1280.276367	25.628113
11375.176596	2942.765000	1279.171875	-5.643546
11375.176596	2942.765000	1278.067383	-79.998123
11375.176596	2942.765000	1276.962891	-7.511207
11375.176596	2942.765000	1275.858398	32.553158
11375.176596	2942.765000	1274.753906	-30.134275
11375.176596	2942.765000	1273.648438	-98.063599
11375.176596	2942.765000	1272.542969	-63.750851
11375.176596	2942.765000	1271.437500	-55.077030
11375.176596	2942.765000	1270.331055	-52.067368
11375.176596	2942.765000	1269.225586	-29.347105
11375.176596	2942.765000	1268.119141	72.875221
11375.176596	2942.765000	1267.012695	74.351387
11375.176596	2942.765000	1265.906250	22.388844
11375.176596	2942.765000	1264.798828	107.480461
11375.176596	2942.765000	1263.691406	11.498097
11375.176596	2942.765000	1262.583984	60.594437
11375.176596	2942.765000	1261.476563	47.900921
11375.176596	2942.765000	1260.368164	62.437050
11375.176596	2942.765000	1259.260742	5.636061
11375.176596	2942.765000	1258.152344	80.415260
11375.176596	2942.765000	1257.043945	-5.718760
11375.176596	2942.765000	1255.934570	-28.205482
11375.176596	2942.765000	1254.825195	-20.780275
11375.176596	2942.765000	1253.716797	17.893990
11375.176596	2942.765000	1252.606445	-16.503487
11375.176596	2942.765000	1251.497070	51.221333
11375.176596	2942.765000	1250.387695	38.168045
11375.176596	2942.765000	1249.277344	42.781475
11375.176596	2942.765000	1248.166992	31.705624
11375.176596	2942.765000	1247.055664	-17.491144
11375.176596	2942.765000	1245.945313	-60.735798
11375.176596	2942.765000	1244.833984	7.934479
11375.176596	2942.765000	1243.722656	97.950775
11375.176596	2942.765000	1242.611328	-55.724403
11375.176596	2942.765000	1241.499023	21.175808
11375.176596	2942.765000	1240.387695	12.775190
11375.176596	2942.765000	1239.275391	70.244598
11375.176596	2942.765000	1238.162109	-7.422706
11375.176596	2942.765000	1237.049805	-4.613939
11375.176596	2942.765000	1235.936523	11.170622
11375.176596	2942.765000	1234.823242	65.682358
11375.176596	2942.765000	1233.709961	55.902328
11375.176596	2942.765000	1232.596680	78.465141
11375.176596	2942.765000	1231.482422	98.920166
11375.176596	2942.765000	1230.369141	31.852324
11375.176596	2942.765000	1229.253906	40.308186
11375.176596	2942.765000	1228.139648	10.271646
11375.176596	2942.765000	1227.025391	-55.223560
11375.176596	2942.765000	1225.910156	50.026482
11375.176596	2942.765000	1224.794922	52.403751
11375.176596	2942.765000	1223.679688	26.925682
11375.176596	2942.765000	1222.563477	20.485638
11375.176596	2942.765000	1221.447266	2.166037
11375.176596	2942.765000	1220.331055	5.711364
11375.176596	2942.765000	1219.214844	36.888077
11375.176596	2942.765000	1218.098633	2.064921
11375.176596	2942.765000	1216.981445	13.053487
11375.176596	2942.765000	1215.864258	6.283355
11375.176596	2942.765000	1214.747070	-0.733899
11375.176596	2942.765000	1213.629883	-37.549446
11375.176596	2942.765000	1212.511719	-46.193985
11375.176596	2942.765000	1211.393555	-39.895889
11375.176596	2942.765000	1210.275391	-102.592560
11375.176596	2942.765000	1209.157227	-25.517288
11375.176596	2942.765000	1208.038086	-19.252296
11375.176596	2942.765000	1206.918945	-77.097725
11375.176596	2942.765000	1205.799805	12.933578
11375.176596	2942.765000	1204.680664	-38.294994
11375.176596	2942.765000	1203.560547	58.499577
11375.176596	2942.765000	1202.441406	47.104107
11375.176596	2942.765000	1201.321289	8.950491
11375.176596	2942.765000	1200.200195	35.048840
11375.176596	2942.765000	1199.080078	-28.341116
11375.176596	2942.765000	1197.958984	68.940048
11375.176596	2942.765000	1196.837891	26.525795
11375.176596	2942.765000	1195.716797	19.240938
11375.176596	2942.765000	1194.594727	3.735670
11375.176596	2942.765000	1193.473633	74.582733
11375.176596	2942.765000	1192.351563	-79.898796
11375.176596	2942.765000	1191.229492	2.078850
11375.176596	2942.765000	1190.106445	-58.950840
11375.176596	2942.765000	1188.984375	-13.891666
11375.176596	2942.765000	1187.861328	47.099354
11375.176596	2942.765000	1186.738281	63.376904
11375.176596	2942.765000	1185.614258	18.000330
11375.176596	2942.765000	1184.491211	29.675732
11375.176596	2942.765000	1183.367188	11.052464
11375.176596	2942.765000	1182.243164	11.193958
11375.176596	2942.765000	1181.119141	21.223381
11375.176596	2942.765000	1179.994141	-11.070924
11375.176596	2942.765000	1178.869141	43.101788
11375.176596	2942.765000	1177.744141	-9.120186
11375.176596	2942.765000	1176.619141	21.010349
11375.176596	2942.765000	1175.493164	56.574940
11375.176596	2942.765000	1174.368164	11.237757
11375.176596	2942.765000	1173.242188	-41.486179
11375.176596	2942.765000	1172.115234	71.168861
11375.176596	2942.765000	1170.989258	-73.181496
11375.176596	2942.765000	1169.862305	16.319050
11375.176596	2942.765000	1168.735352	-31.663473
11375.176596	2942.765000	1167.608398	-29.521517
11375.176596	2942.765000	1166.481445	-56.276192
11375.176596	2942.765000	1165.353516	-39.877724
11375.176596	2942.765000	1164.225586	-1.026759
11375.176596	2942.765000	1163.097656	-6.385278
11375.176596	2942.765000	1161.968750	-30.415483
11375.176596	2942.765000	1160.840820	-56.854687
11375.176596	2942.765000	1159.711914	85.953629
11375.176596	2942.765000	1158.583008	-20.452633
11375.176596	2942.765000	1157.453125	31.906446
11375.176596	2942.765000	1156.324219	19.554596
11375.176596	2942.765000	1155.194336	-18.480623
11375.176596	2942.765000	1154.064453	40.285259
11375.176596	2942.765000	1152.933594	-29.254532
11375.176596	2942.765000	1151.803711	15.562944
11375.176596	2942.765000	1150.672852	-40.519463
11375.176596	2942.765000	1149.541992	-19.263834
11375.176596	2942.765000	1148.411133	-47.258163
11375.176596	2942.765000	1147.279297	-42.695671
11375.176596	2942.765000	1146.147461	20.545610
11375.176596	2942.765000	1145.015625	-67.907707
11375.176596	2942.765000	1143.883789	6.946730
11375.176596	2942.765000	1142.750977	-128.003281
11375.176596	2942.765000	1141.619141	-13.407896
11375.176596	2942.765000	1140.486328	-13.817596
11375.176596	2942.765000	1139.352539	-37.578438
11375.176596	2942.765000	1138.219727	-18.566366
11375.176596	2942.765000	1137.085938	5.272108
11375.176596	2942.765000	1135.952148	-62.533501
11375.176596	2942.765000	1134.818359	-54.962521
11375.176596	2942.765000	1133.683594	-46.679203
11375.176596	2942.765000	1132.549805	74.743073
11375.176596	2942.765000	1131.415039	30.985668
11375.176596	2942.765000	1130.279297	123.394417
11375.176596	2942.765000	1129.144531	97.160896
11375.176596	2942.765000	1128.008789	45.986176
11375.176596	2942.765000	1126.873047	42.410835
11375.176596	2942.765000	1125.737305	75.859604
11375.176596	2942.765000	1124.601563	71.741592
11375.176596	2942.765000	1123.464844	80.855865
11375.176596	2942.765000	1122.328125	94.814575
11375.176596	2942.765000	1121.191406	114.058075
11375.176596	2942.765000	1120.054688	120.778427
11375.176596	2942.765000	1118.916992	136.008575
11375.176596	2942.765000	1117.779297	119.077263
11375.176596	2942.765000	1116.641602	37.984158
11375.176596	2942.765000	1115.503906	135.691605
11375.176596	2942.765000	1114.365234	114.377296
11375.176596	2942.765000	1113.226563	83.358276
11375.176596	2942.765000	1112.087891	117.879845
11375.176596	2942.765000	1110.949219	99.551323
11375.176596	2942.765000	1109.809570	114.959290
11375.176596	2942.765000	1108.669922	190.379349
11375.176596	2942.765000	1107.530273	0.737936
11375.176596	2942.765000	1106.390625	129.384872
11375.176596	2942.765000	1105.250000	152.076630
11375.176596	2942.765000	1104.109375	78.669884
11375.176596	2942.765000	1102.968750	116.434624
11375.176596	2942.765000	1101.828125	123.198425
11375.176596	2942.765000	1100.686523	107.317101
11375.176596	2942.765000	1099.544922	78.600502
11375.176596	2942.765000	1098.403320	100.167732
11375.176596	2942.765000	1097.261719	103.974312
11375.176596	2942.765000	1096.120117	78.025574
11375.176596	2942.765000	1094.977539	119.842079
11375.176596	2942.765000	1093.834961	122.917824
11375.176596	2942.765000	1092.691406	143.402740
11375.176596	2942.765000	1091.548828	132.764908
11375.176596	2942.765000	1090.405273	130.408722
11375.176596	2942.765000	1089.261719	123.583832
11375.176596	2942.765000	1088.118164	57.695240
11375.176596	2942.765000	1086.973633	156.433868
11375.176596	2942.765000	1085.829102	138.759338
11375.176596	2942.765000	1084.684570	114.855728
11375.176596	2942.765000	1083.540039	170.710312
11375.176596	2942.765000	1082.395508	168.114563
11375.176596	2942.765000	1081.250000	-16.358320
11375.176596	2942.765000	1080.104492	114.632477
11375.176596	2942.765000	1078.958984	111.753922
11375.176596	2942.765000	1077.812500	136.863602
11375.176596	2942.765000	1076.666016	123.658089
11375.176596	2942.765000	1075.519531	129.146378
11375.176596	2942.765000	1074.373047	185.444183
11375.176596	2942.765000	1073.226563	64.571518
11375.176596	2942.765000	1072.079102	73.996048
11375.176596	2942.765000	1070.931641	142.176086
11375.176596	2942.765000	1069.784180	157.910461
11375.176596	2942.765000	1068.635742	172.151672
11375.176596	2942.765000	1067.487305	126.673264
11375.176596	2942.765000	1066.338867	137.266968
11375.176596	2942.765000	1065.190430	151.795837
11375.176596	2942.765000	1064.041992	132.977631
11375.176596	2942.765000	1062.892578	257.423737
11375.176596	2942.765000	1061.743164	199.006180
11375.176596	2942.765000	1060.593750	227.619202
11375.176596	2942.765000	1059.443359	220.555115
11375.176596	2942.765000	1058.292969	296.616089
11375.176596	2942.765000	1057.142578	294.668854
11375.176596	2942.765000	1055.992188	261.612091
11375.176596	2942.765000	1054.841797	236.187027
11375.176596	2942.765000	1053.690430	327.445648
11375.176596	2942.765000	1052.539063	420.214142
11375.176596	2942.765000	1051.387695	355.406342
11375.176596	2942.765000	1050.235352	327.975586
11375.176596	2942.765000	1049.083984	436.653900
11375.176596	2942.765000	1047.931641	460.006897
11375.176596	2942.765000	1046.778320	387.548706
11375.176596	2942.765000	1045.625977	455.435974
11375.176596	2942.765000	1044.472656	380.968384
11375.176596	2942.765000	1043.319336	381.761047
11375.176596	2942.765000	1042.166016	376.577362
11375.176596	2942.765000	1041.012695	277.412292
11375.176596	2942.765000	1039.858398	224.198776
11375.176596	2942.765000	1038.704102	307.006073
11375.176596	2942.765000	1037.549805	259.096680
11375.176596	2942.765000	1036.394531	176.313950
11375.176596	2942.765000	1035.239258	172.386108
11375.176596	2942.765000	1034.083984	153.666916
11375.176596	2942.765000	1032.928711	250.638367
11375.176596	2942.765000	1031.773438	179.647903
11375.176596	2942.765000	1030.617188	83.152863
11375.176596	2942.765000	1029.460938	99.345383
11375.176596	2942.765000	1028.304688	51.725254
11375.176596	2942.765000	1027.147461	52.097702
11375.176596	2942.765000	1025.991211	98.718109
11375.176596	2942.765000	1024.833984	126.347031
11375.176596	2942.765000	1023.675781	-48.183487
11375.176596	2942.765000	1022.518555	30.814369
11375.176596	2942.765000	1021.360352	19.317900
11375.176596	2942.765000	1020.202148	-24.171122
11375.176596	2942.765000	1019.043945	68.825630
11375.176596	2942.765000	1017.884766	39.332787
11375.176596	2942.765000	1016.726563	69.700630
11375.176596	2942.765000	1015.567383	2.546499
11375.176596	2942.765000	1014.407227	40.595520
11375.176596	2942.765000	1013.248047	11.528341
11375.176596	2942.765000	1012.087891	-5.053368
11375.176596	2942.765000	1010.927734	18.871048
11375.176596	2942.765000	1009.767578	89.165665
11375.176596	2942.765000	1008.606445	39.254227
11375.176596	2942.765000	1007.446289	52.512299
11375.176596	2942.765000	1006.285156	7.445287
11375.176596	2942.765000	1005.123047	10.630125
11375.176596	2942.765000	1003.961914	-80.016068
11375.176596	2942.765000	1002.799805	40.119492
11375.176596	2942.765000	1001.637695	85.118561
11375.176596	2942.765000	1000.475586	-6.138912
11375.176596	2942.765000	999.312500	36.476337
11375.176596	2942.765000	998.149414	80.228470
11375.176596	2942.765000	996.986328	5.258677
11375.176596	2942.765000	995.823242	56.220341
11375.176596	2942.765000	994.659180	76.331314
11375.176596	2942.765000	993.496094	70.066246
11375.176596	2942.765000	992.332031	-4.540836
11375.176596	2942.765000	991.166992	77.642921
11375.176596	2942.765000	990.002930	29.837585
11375.176596	2942.765000	988.837891	97.488503
11375.176596	2942.765000	987.672852	-0.785334
11375.176596	2942.765000	986.506836	-27.306412
11375.176596	2942.765000	985.341797	54.941296
11375.176596	2942.765000	984.175781	45.127941
11375.176596	2942.765000	983.009766	124.578835
11375.176596	2942.765000	981.843750	113.842400
11375.176596	2942.765000	980.676758	38.302414
11375.176596	2942.765000	979.509766	114.394821
11375.176596	2942.765000	978.342773	64.241524
11375.176596	2942.765000	977.175781	36.192707
11375.176596	2942.765000	976.007813	30.267868
11375.176596	2942.765000	974.839844	96.362198
11375.176596	2942.765000	973.671875	20.917686
11375.176596	2942.765000	972.503906	4.494954
11375.176596	2942.765000	971.334961	70.517044
11375.176596	2942.765000	970.166016	54.293976
11375.176596	2942.765000	968.997070	15.884433
11375.176596	2942.765000	967.828125	-75.904373
11375.176596	2942.765000	966.658203	27.644516
11375.176596	2942.765000	965.488281	39.771332
11375.176596	2942.765000	964.318359	49.328941
11375.176596	2942.765000	963.148438	38.810596
11375.176596	2942.765000	961.977539	85.646614
11375.176596	2942.765000	960.806641	77.282570
11375.176596	2942.765000	959.635742	33.674114
11375.176596	2942.765000	958.463867	75.348236
11375.176596	2942.765000	957.292969	151.991943
11375.176596	2942.765000	956.121094	36.156921
11375.176596	2942.765000	954.948242	147.448700
11375.176596	2942.765000	953.776367	53.484261
11375.176596	2942.765000	952.603516	-13.973565
11375.176596	2942.765000	951.430664	120.680267
11375.176596	2942.765000	950.257813	9.324264
11375.176596	2942.765000	949.084961	-57.981670
11375.176596	2942.765000	947.911133	37.827972
11375.176596	2942.765000	946.737305	105.301376
11375.176596	2942.765000	945.563477	48.858803
11375.176596	2942.765000	944.388672	35.669254
11375.176596	2942.765000	943.213867	181.671555
11375.176596	2942.765000	942.039063	-40.664211
11375.176596	2942.765000	940.864258	124.832184
11375.176596	2942.765000	939.688477	-10.205412
11375.176596	2942.765000	938.513672	31.116735
11375.176596	2942.765000	937.337891	28.854763
11375.176596	2942.765000	936.161133	87.658653
11375.176596	2942.765000	934.985352	63.675339
11375.176596	2942.765000	933.808594	168.164063
11375.176596	2942.765000	932.631836	43.932846
11375.176596	2942.765000	931.454102	85.260490
11375.176596	2942.765000	930.277344	128.707809
11375.176596	2942.765000	929.099609	119.912651
11375.176596	2942.765000	927.921875	13.119328
11375.176596	2942.765000	926.743164	36.974319
11375.176596	2942.765000	925.565430	41.240116
11375.176596	2942.765000	924.386719	110.811134
11375.176596	2942.765000	923.208008	97.641655
11375.176596	2942.765000	922.028320	54.012188
11375.176596	2942.765000	920.849609	32.150326
11375.176596	2942.765000	919.669922	32.594501
11375.176596	2942.765000	919.474609	110.428734
11375.176596	2942.765000	918.309570	25.483553
11375.176596	2942.765000	917.143555	-5.072300
11375.176596	2942.765000	915.977539	-70.402199
11375.176596	2942.765000	914.810547	-11.822116
11375.176596	2942.765000	913.644531	42.383881
11375.176596	2942.765000	912.477539	-81.586655
11375.176596	2942.765000	911.310547	33.423973
11375.176596	2942.765000	910.143555	31.112864
11375.176596	2942.765000	908.975586	-29.824255
11375.176596	2942.765000	907.807617	-42.982368
11375.176596	2942.765000	906.639648	-38.775459
11375.176596	2942.765000	905.471680	-19.384361
11375.176596	2942.765000	904.303711	13.012541
11375.176596	2942.765000	903.134766	-28.353884
11375.176596	2942.765000	901.965820	-41.514889
11375.176596	2942.765000	900.796875	-22.151314
11375.176596	2942.765000	899.626953	1.537046
11375.176596	2942.765000	898.457031	-50.641464
11375.176596	2942.765000	897.287109	16.374022
11375.176596	2942.765000	896.117188	22.700521
11375.176596	2942.765000	894.947266	-14.297147
11375.176596	2942.765000	893.776367	-85.930130
11375.176596	2942.765000	892.605469	-27.632496
11375.176596	2942.765000	891.434570	11.157098
11375.176596	2942.765000	890.262695	-45.295105
11375.176596	2942.765000	889.091797	8.623641
11375.176596	2942.765000	887.919922	-11.033504
11375.176596	2942.765000	886.748047	-2.567799
11375.176596	2942.765000	885.575195	-37.355839
11375.176596	2942.765000	884.403320	-33.216251
11375.176596	2942.765000	883.230469	-31.241903
11375.176596	2942.765000	882.057617	11.790614
11375.176596	2942.765000	880.883789	-14.336856
11375.176596	2942.765000	879.710938	-79.339424
11375.176596	2942.765000	878.537109	9.026222
11375.176596	2942.765000	877.362305	-90.506714
11375.176596	2942.765000	876.188477	58.270252
11375.176596	2942.765000	875.013672	4.092117
11375.176596	2942.765000	873.839844	-50.065792
11375.176596	2942.765000	872.664063	-15.742873
11375.176596	2942.765000	871.489258	-43.991653
11375.176596	2942.765000	870.313477	39.916737
11375.176596	2942.765000	869.138672	-20.678347
11375.176596	2942.765000	867.962891	52.409481
11375.176596	2942.765000	866.786133	4.766944
11375.176596	2942.765000	865.610352	-85.955818
11375.176596	2942.765000	864.433594	-120.625893
11375.176596	2942.765000	863.256836	-36.811867
11375.176596	2942.765000	862.079102	-67.172592
11375.176596	2942.765000	860.902344	91.954025
11375.176596	2942.765000	859.724609	-20.225128
11375.176596	2942.765000	858.546875	26.907885
11375.176596	2942.765000	857.368164	-7.748193
11375.176596	2942.765000	856.190430	0.636473
11375.176596	2942.765000	855.011719	86.450882
11375.176596	2942.765000	853.833008	58.253147
11375.176596	2942.765000	852.654297	45.116558
11375.176596	2942.765000	851.474609	-23.904879
11375.176596	2942.765000	850.294922	-52.064323
11375.176596	2942.765000	849.115234	-60.874191
11375.176596	2942.765000	847.935547	42.029560
11375.176596	2942.765000	846.754883	35.350838
11375.176596	2942.765000	845.575195	17.937050
11375.176596	2942.765000	844.393555	-5.910215
11375.176596	2942.765000	843.212891	4.595643
11375.176596	2942.765000	842.032227	4.366531
11375.176596	2942.765000	840.850586	55.632469
11375.176596	2942.765000	839.668945	-60.448093
11375.176596	2942.765000	838.486328	-22.058706
11375.176596	2942.765000	837.304688	31.324297
11375.176596	2942.765000	836.122070	22.512976
11375.176596	2942.765000	834.939453	17.991953
11375.176596	2942.765000	833.756836	11.329358
11375.176596	2942.765000	832.573242	-106.742599
11375.176596	2942.765000	831.389648	-16.982229
11375.176596	2942.765000	830.206055	-34.342396
11375.176596	2942.765000	829.022461	-2.447355
11375.176596	2942.765000	827.838867	-36.929916
11375.176596	2942.765000	826.654297	119.092026
11375.176596	2942.765000	825.469727	41.800343
11375.176596	2942.765000	824.284180	35.142811
11375.176596	2942.765000	823.099609	2.819107
11375.176596	2942.765000	821.914063	-33.768150
11375.176596	2942.765000	820.728516	-48.959305
11375.176596	2942.765000	819.542969	-32.079071
11375.176596	2942.765000	818.356445	91.656990
11375.176596	2942.765000	817.169922	114.911697
11375.176596	2942.765000	815.983398	-45.571541
11375.176596	2942.765000	814.796875	-67.153336
11375.176596	2942.765000	813.609375	13.777403
11375.176596	2942.765000	812.422852	-5.673160
11375.176596	2942.765000	811.235352	-59.269417
11375.176596	2942.765000	810.046875	-12.537749
11375.176596	2942.765000	808.859375	55.511307
11375.176596	2942.765000	807.670898	14.734931
11375.176596	2942.765000	806.482422	-36.689411
11375.176596	2942.765000	805.293945	-26.253201
11375.176596	2942.765000	804.104492	-56.328758
11375.176596	2942.765000	802.915039	-37.367290
11375.176596	2942.765000	801.725586	39.125072
11375.176596	2942.765000	800.536133	-48.473766
11375.176596	2942.765000	799.345703	-38.047371
11375.176596	2942.765000	798.155273	-48.923656
11375.176596	2942.765000	796.964844	-21.468134
11375.176596	2942.765000	795.774414	-38.731129
11375.176596	2942.765000	794.583008	27.021706
11375.176596	2942.765000	793.392578	43.802773
11375.176596	2942.765000	792.200195	3.132560
11375.176596	2942.765000	791.008789	15.656034
11375.176596	2942.765000	789.816406	9.033809
11375.176596	2942.765000	788.625000	85.336143
11375.176596	2942.765000	787.432617	-21.211647
11375.176596	2942.765000	786.239258	46.562748
11375.176596	2942.765000	785.046875	14.437114
11375.176596	2942.765000	783.853516	7.817898
11375.176596	2942.765000	782.660156	45.804661
11375.176596	2942.765000	781.465820	-18.157089
11375.176596	2942.765000	780.272461	49.541237
11375.176596	2942.765000	779.078125	-22.888014
11375.176596	2942.765000	777.883789	74.492607
11375.176596	2942.765000	776.688477	2.085875
11375.176596	2942.765000	775.494141	101.539688
11375.176596	2942.765000	774.298828	48.243130
11375.176596	2942.765000	773.103516	26.774773
11375.176596	2942.765000	771.907227	43.475117
11375.176596	2942.765000	770.711914	-18.259403
11375.176596	2942.765000	769.515625	66.253754
11375.176596	2942.765000	768.318359	-6.056282
11375.176596	2942.765000	767.122070	10.630270
11375.176596	2942.765000	765.924805	78.136559
11375.176596	2942.765000	764.727539	27.037720
11375.176596	2942.765000	763.530273	-40.977833
11375.176596	2942.765000	762.333008	22.258036
11375.176596	2942.765000	761.134766	74.885376
11375.176596	2942.765000	759.936523	-7.913506
11375.176596	2942.765000	758.738281	19.311035
11375.176596	2942.765000	757.540039	31.718340
11375.176596	2942.765000	756.340820	-36.226604
11375.176596	2942.765000	755.141602	-9.020438
11375.176596	2942.765000	753.942383	-24.097319
11375.176596	2942.765000	752.742188	55.915195
11375.176596	2942.765000	751.541992	9.137174
11375.176596	2942.765000	750.341797	8.842702
11375.176596	2942.765000	749.141602	122.576859
11375.176596	2942.765000	747.941406	84.250214
11375.176596	2942.765000	746.740234	45.936607
11375.176596	2942.765000	745.539063	37.181152
11375.176596	2942.765000	744.337891	38.975471
11375.176596	2942.765000	743.135742	110.379227
11375.176596	2942.765000	741.933594	78.406059
11375.176596	2942.765000	740.731445	-48.444855
11375.176596	2942.765000	739.529297	77.734108
11375.176596	2942.765000	738.326172	161.702057
11375.176596	2942.765000	737.124023	66.511299
11375.176596	2942.765000	735.919922	133.583878
11375.176596	2942.765000	734.716797	147.964096
11375.176596	2942.765000	733.513672	162.334167
11375.176596	2942.765000	732.309570	113.528152
11375.176596	2942.765000	731.105469	163.677612
11375.176596	2942.765000	729.900391	93.836563
11375.176596	2942.765000	728.696289	125.021935
11375.176596	2942.765000	727.491211	46.793983
11375.176596	2942.765000	726.286133	33.796993
11375.176596	2942.765000	725.080078	-0.228026
11375.176596	2942.765000	723.874023	100.312912
11375.176596	2942.765000	722.668945	-11.496430
11375.176596	2942.765000	721.461914	11.236567
11375.176596	2942.765000	720.255859	42.359314
11375.176596	2942.765000	719.048828	54.557503
11375.176596	2942.765000	717.841797	96.148293
11375.176596	2942.765000	716.634766	24.326654
11375.176596	2942.765000	715.427734	-41.172657
11375.176596	2942.765000	714.219727	-31.088654
11375.176596	2942.765000	713.011719	4.167076
11375.176596	2942.765000	711.803711	51.990181
11375.176596	2942.765000	710.594727	-5.093229
11375.176596	2942.765000	709.385742	74.157127
11375.176596	2942.765000	708.176758	54.821705
11375.176596	2942.765000	706.967773	16.621117
11375.176596	2942.765000	705.758789	-46.720135
11375.176596	2942.765000	704.548828	-47.179142
11375.176596	2942.765000	703.338867	-30.884741
11375.176596	2942.765000	702.127930	79.649834
11375.176596	2942.765000	700.917969	49.826721
11375.176596	2942.765000	699.707031	-13.489343
11375.176596	2942.765000	698.496094	4.849198
11375.176596	2942.765000	697.285156	33.636677
11375.176596	2942.765000	696.073242	-54.766148
11375.176596	2942.765000	694.861328	-13.441685
11375.176596	2942.765000	693.649414	23.674910
11375.176596	2942.765000	692.436523	50.312790
11375.176596	2942.765000	691.224609	72.750893
11375.176596	2942.765000	690.011719	15.746201
11375.176596	2942.765000	688.798828	19.358431
11375.176596	2942.765000	687.584961	112.799377
11375.176596	2942.765000	686.372070	87.130013
11375.176596	2942.765000	685.158203	78.170265
11375.176596	2942.765000	683.943359	75.469330
11375.176596	2942.765000	682.729492	56.061134
11375.176596	2942.765000	681.514648	40.826591
11375.176596	2942.765000	680.299805	-28.662571
11375.176596	2942.765000	679.084961	-41.804390
11375.176596	2942.765000	677.869141	-50.778240
11375.176596	2942.765000	676.653320	100.811127
11375.176596	2942.765000	675.437500	-29.129160
11375.176596	2942.765000	674.221680	72.347107
11375.176596	2942.765000	673.004883	104.999741
11375.176596	2942.765000	671.789063	112.626709
11375.176596	2942.765000	670.571289	53.581120
11375.176596	2942.765000	669.354492	71.609795
11375.176596	2942.765000	668.136719	45.894054
11375.176596	2942.765000	666.919922	120.105713
11375.176596	2942.765000	665.701172	13.198111
11375.176596	2942.765000	664.483398	-20.842062
11375.176596	2942.765000	663.264648	-38.234432
11375.176596	2942.765000	662.045898	89.972984
11375.176596	2942.765000	660.827148	95.419754
11375.176596	2942.765000	659.608398	15.608506
11375.176596	2942.765000	658.388672	-5.975442
11375.176596	2942.765000	657.168945	5.691953
11375.176596	2942.765000	655.949219	-40.835907
11375.176596	2942.765000	654.728516	43.521500
11375.176596	2942.765000	653.507813	26.061440
11375.176596	2942.765000	652.287109	-1.784755
11375.176596	2942.765000	651.066406	-25.477589
11375.176596	2942.765000	649.844727	145.939163
11375.176596	2942.765000	648.623047	72.398071
11375.176596	2942.765000	647.401367	21.699610
11375.176596	2942.765000	646.179688	-66.326439
11375.176596	2942.765000	644.957031	73.801285
11375.176596	2942.765000	643.734375	101.892326
11375.176596	2942.765000	642.511719	78.134636
11375.176596	2942.765000	641.289063	2.561611
11375.176596	2942.765000	640.065430	40.976364
11375.176596	2942.765000	638.841797	77.291756
11375.176596	2942.765000	637.618164	68.012878
11375.176596	2942.765000	636.393555	87.717484
11375.176596	2942.765000	635.168945	18.375835
11375.176596	2942.765000	633.944336	15.290156
11375.176596	2942.765000	632.719727	-2.292265
11375.176596	2942.765000	631.494141	9.087880
11375.176596	2942.765000	630.269531	-0.234435
11375.176596	2942.765000	629.042969	35.934898
11375.176596	2942.765000	627.817383	41.061405
11375.176596	2942.765000	626.590820	62.712376
11375.176596	2942.765000	625.365234	-6.599889
11375.176596	2942.765000	624.137695	48.091080
11375.176596	2942.765000	622.911133	-29.476604
11375.176596	2942.765000	621.683594	85.073845
11375.176596	2942.765000	620.456055	-23.469521
11375.176596	2942.765000	619.228516	43.519760
11375.176596	2942.765000	618.000977	60.926952
11375.176596	2942.765000	616.772461	98.952499
11375.176596	2942.765000	615.543945	37.908417
11375.176596	2942.765000	614.314453	75.898697
11375.176596	2942.765000	613.085938	103.549141
11375.176596	2942.765000	611.856445	83.748375
11375.176596	2942.765000	610.626953	-6.150755
11375.176596	2942.765000	609.397461	31.769983
11375.176596	2942.765000	608.166992	53.176327
11375.176596	2942.765000	606.936523	8.632087
11375.176596	2942.765000	605.706055	-40.024323
11375.176596	2942.765000	604.474609	-6.295151
11375.176596	2942.765000	603.244141	-67.304924
11375.176596	2942.765000	602.012695	-19.197357
11375.176596	2942.765000	600.780273	-1.994145
11375.176596	2942.765000	599.548828	-44.481865
11375.176596	2942.765000	598.316406	-6.730782
11375.176596	2942.765000	597.083984	59.787853
11375.176596	2942.765000	595.851563	19.336313
11375.176596	2942.765000	594.618164	-70.452446
11375.176596	2942.765000	593.384766	-1.941238
11375.176596	2942.765000	592.151367	124.071182
11375.176596	2942.765000	590.917969	46.612232
11375.176596	2942.765000	589.683594	53.395664
11375.176596	2942.765000	588.449219	4.714469
11375.176596	2942.765000	587.214844	7.375863
11375.176596	2942.765000	585.979492	1.813309
11375.176596	2942.765000	584.745117	22.924795
11375.176596	2942.765000	583.509766	-23.699697
11375.176596	2942.765000	582.273438	9.695032
11375.176596	2942.765000	581.038086	4.094922
11375.176596	2942.765000	579.801758	-9.716725
11375.176596	2942.765000	578.565430	-3.030085
11375.176596	2942.765000	577.329102	38.490406
11375.176596	2942.765000	576.091797	18.501322
11375.176596	2942.765000	574.854492	-58.858768
11375.176596	2942.765000	573.617188	19.489605
11375.176596	2942.765000	572.378906	36.352657
11375.176596	2942.765000	571.141602	6.104655
11375.176596	2942.765000	569.903320	61.841061
11375.176596	2942.765000	568.664063	56.141094
11375.176596	2942.765000	567.425781	-64.157555
11375.176596	2942.765000	566.186523	7.896991
11375.176596	2942.765000	564.947266	43.094265
11375.176596	2942.765000	563.708008	21.007896
11375.176596	2942.765000	562.467773	50.035629
11375.176596	2942.765000	561.227539	-55.869652
11375.176596	2942.765000	559.987305	-51.378685
11375.176596	2942.765000	558.747070	40.961803
11375.176596	2942.765000	557.505859	-85.326675
11375.176596	2942.765000	556.264648	0.837957
11375.176596	2942.765000	555.023438	7.322801
11375.176596	2942.765000	553.781250	79.124214
11375.176596	2942.765000	552.539063	28.423893
11375.176596	2942.765000	551.296875	-5.936672
11375.176596	2942.765000	550.054688	-3.566201
11375.176596	2942.765000	548.811523	-17.522549
11375.176596	2942.765000	547.569336	27.661592
11375.176596	2942.765000	546.325195	34.079624
11375.176596	2942.765000	545.082031	-4.356365
11375.176596	2942.765000	543.837891	30.585371
11375.176596	2942.765000	542.593750	59.393478
11375.176596	2942.765000	541.349609	16.883572
11375.176596	2942.765000	540.105469	76.221611
11375.176596	2942.765000	538.860352	-80.316063
11375.176596	2942.765000	537.615234	-41.352592
11375.176596	2942.765000	536.369141	38.296326
11375.176596	2942.765000	535.124023	-40.819386
11375.176596	2942.765000	533.877930	26.578606
11375.176596	2942.765000	532.631836	-74.885765
11375.176596	2942.765000	531.384766	-35.989872
11375.176596	2942.765000	530.138672	-39.811455
11375.176596	2942.765000	528.891602	-19.242857
11375.176596	2942.765000	527.643555	-102.337112
11375.176596	2942.765000	526.396484	-30.973463
11375.176596	2942.765000	525.148438	-8.399979
11375.176596	2942.765000	523.900391	28.377901
11375.176596	2942.765000	522.652344	-52.637440
11375.176596	2942.765000	521.403320	-84.897949
11375.176596	2942.765000	520.154297	16.814558
11375.176596	2942.765000	518.905273	2.811799
11375.176596	2942.765000	517.656250	-19.302773
11375.176596	2942.765000	516.406250	27.555498
11375.176596	2942.765000	515.156250	-55.399101
11375.176596	2942.765000	513.906250	36.049187
11375.176596	2942.765000	512.655273	-85.390724
11375.176596	2942.765000	511.404297	-28.432529
11375.176596	2942.765000	510.153320	34.578968
11375.176596	2942.765000	508.902344	-13.857035
11375.176596	2942.765000	507.650391	16.715429
11375.176596	2942.765000	506.398438	-58.022324
11375.176596	2942.765000	505.146484	0.888355
11375.176596	2942.765000	503.893555	-41.430798
11375.176596	2942.765000	502.641602	-65.518456
11375.176596	2942.765000	501.388672	19.655802
11375.176596	2942.765000	500.134766	23.882149
11375.176596	2942.765000	498.881836	-93.231369
11375.176596	2942.765000	497.627930	-28.325500
11375.176596	2942.765000	496.374023	-7.918919
11375.176596	2942.765000	495.119141	22.583712
11375.176596	2942.765000	493.865234	-21.686901
11375.176596	2942.765000	492.610352	-51.797291
11375.176596	2942.765000	491.355469	-43.519588
11375.176596	2942.765000	490.099609	7.159245
11375.176596	2942.765000	488.843750	21.478533
11375.176596	2942.765000	487.587891	13.589955
11375.176596	2942.765000	486.332031	-52.815018
11375.176596	2942.765000	485.075195	-46.559807
11375.176596	2942.765000	483.818359	22.224026
11375.176596	2942.765000	482.561523	-34.053822
11375.176596	2942.765000	481.304688	-45.948746
11375.176596	2942.765000	480.046875	36.904030
11375.176596	2942.765000	478.789063	-3.214506
11375.176596	2942.765000	477.531250	29.222977
11375.176596	2942.765000	476.272461	-20.947582
11375.176596	2942.765000	475.013672	-18.729416
11375.176596	2942.765000	473.754883	27.788557
11375.176596	2942.765000	472.496094	96.432686
11375.176596	2942.765000	471.236328	6.039849
11375.176596	2942.765000	469.976563	24.352104
11375.176596	2942.765000	468.716797	-19.710978
11375.176596	2942.765000	467.456055	2.622736
11375.176596	2942.765000	466.196289	32.992439
11375.176596	2942.765000	464.935547	-13.053612
11375.176596	2942.765000	463.673828	5.244424
11375.176596	2942.765000	462.413086	33.584034
11375.176596	2942.765000	461.151367	25.743404
11375.176596	2942.765000	459.889648	-2.182758
11375.176596	2942.765000	458.626953	8.061687
11375.176596	2942.765000	457.364258	-47.962532
11375.176596	2942.765000	456.101563	34.556797
11375.176596	2942.765000	454.838867	56.825901
11375.176596	2942.765000	453.575195	77.075943
11375.176596	2942.765000	452.312500	-49.139809
11375.176596	2942.765000	451.047852	-6.817219
11375.176596	2942.765000	449.784180	117.705551
11375.176596	2942.765000	448.519531	161.972580
11375.176596	2942.765000	447.254883	-0.248079
11375.176596	2942.765000	445.990234	42.013084
11375.176596	2942.765000	444.725586	4.105408
11375.176596	2942.765000	443.459961	44.333069
11375.176596	2942.765000	442.194336	36.470631
11375.176596	2942.765000	440.927734	36.613693
11375.176596	2942.765000	439.662109	32.746727
11375.176596	2942.765000	438.395508	38.880081
11375.176596	2942.765000	437.127930	-19.031870
11375.176596	2942.765000	435.861328	73.118561
11375.176596	2942.765000	434.593750	33.206589
11375.176596	2942.765000	433.326172	57.292953
11375.176596	2942.765000	432.058594	35.373417
11375.176596	2942.765000	430.790039	-20.531191
11375.176596	2942.765000	429.521484	-38.454445
11375.176596	2942.765000	428.252930	13.546076
11375.176596	2942.765000	426.984375	69.504318
11375.176596	2942.765000	425.714844	57.517822
11375.176596	2942.765000	424.445313	53.506008
11375.176596	2942.765000	423.174805	129.327774
11375.176596	2942.765000	421.905273	23.476112
11375.176596	2942.765000	420.634766	47.350220
11375.176596	2942.765000	419.364258	-8.607160
11375.176596	2942.765000	418.092773	61.091782
11375.176596	2942.765000	416.822266	76.895782
11375.176596	2942.765000	415.550781	222.255478
11375.176596	2942.765000	414.278320	94.447739
11375.176596	2942.765000	413.006836	16.488140
11375.176596	2942.765000	411.734375	85.967445
11375.176596	2942.765000	410.461914	-1.979936
11375.176596	2942.765000	409.188477	125.160149
11375.176596	2942.765000	407.916016	96.905968
11375.176596	2942.765000	406.642578	86.541451
11375.176596	2942.765000	405.368164	100.023697
11375.176596	2942.765000	404.094727	-3.937373
11375.176596	2942.765000	402.820313	77.113205
11375.176596	2942.765000	401.545898	2.946820
11375.176596	2942.765000	400.270508	131.591400
11375.176596	2942.765000	398.996094	120.967812
11375.176596	2942.765000	397.720703	-2.999300
11375.176596	2942.765000	396.444336	-99.147003
11375.176596	2942.765000	395.168945	-18.484598
11375.176596	2942.765000	393.892578	101.809837
11375.176596	2942.765000	392.616211	53.188637
11375.176596	2942.765000	391.339844	111.741074
11375.176596	2942.765000	390.062500	27.276876
11375.176596	2942.765000	388.785156	57.888184
11375.176596	2942.765000	387.507813	118.177223
11375.176596	2942.765000	386.229492	55.370815
11375.176596	2942.765000	384.951172	63.914024
11375.176596	2942.765000	383.672852	18.834869
11375.176596	2942.765000	382.394531	-61.992775
11375.176596	2942.765000	381.115234	31.544283
11375.176596	2942.765000	379.835938	71.447166
11375.176596	2942.765000	378.556641	20.105345
11375.176596	2942.765000	377.277344	79.610130
11375.176596	2942.765000	375.997070	10.265942
11375.176596	2942.765000	374.716797	-25.494793
11375.176596	2942.765000	373.435547	-7.906092
11375.176596	2942.765000	372.155273	-4.287623
11375.176596	2942.765000	370.874023	-83.889870
11375.176596	2942.765000	369.591797	-7.307211
11375.176596	2942.765000	368.310547	82.964874
11375.176596	2942.765000	367.028320	32.677982
11375.176596	2942.765000	365.746094	25.770483
11375.176596	2942.765000	364.463867	50.351215
11375.176596	2942.765000	363.180664	-14.145047
11375.176596	2942.765000	361.897461	-49.126888
11375.176596	2942.765000	360.614258	-21.041485
11375.176596	2942.765000	359.330078	-12.876394
11375.176596	2942.765000	358.045898	30.659470
11375.176596	2942.765000	356.761719	28.609776
11375.176596	2942.765000	355.477539	-19.000492
11375.176596	2942.765000	354.192383	35.822033
11375.176596	2942.765000	352.907227	9.561284
11375.176596	2942.765000	351.622070	20.591953
11375.176596	2942.765000	350.336914	47.195339
11375.176596	2942.765000	349.050781	51.895660
11375.176596	2942.765000	347.764648	-40.185684
11375.176596	2942.765000	346.477539	5.481257
11375.176596	2942.765000	345.191406	-20.007395
11375.176596	2942.765000	343.904297	23.215563
11375.176596	2942.765000	342.616211	-51.968651
11375.176596	2942.765000	341.329102	4.545205
11375.176596	2942.765000	340.041016	-25.824215
11375.176596	2942.765000	338.752930	-40.694687
11375.176596	2942.765000	337.463867	-63.699505
11375.176596	2942.765000	336.175781	-84.992569
11375.176596	2942.765000	334.886719	13.395787
11375.176596	2942.765000	333.596680	-2.588782
11375.176596	2942.765000	332.307617	51.909107
11375.176596	2942.765000	331.017578	-55.079697
11375.176596	2942.765000	329.727539	51.830650
11375.176596	2942.765000	328.436523	-169.690018
11375.176596	2942.765000	327.146484	60.275356
11375.176596	2942.765000	325.855469	-63.645161
11375.176596	2942.765000	324.563477	28.071766
11375.176596	2942.765000	323.272461	-43.504250
11375.176596	2942.765000	321.980469	-13.390112
11375.176596	2942.765000	320.688477	10.446143
11375.176596	2942.765000	319.395508	29.949640
11375.176596	2942.765000	318.103516	49.055180
11375.176596	2942.765000	316.810547	-4.808526
11375.176596	2942.765000	315.516602	-45.359970
11375.176596	2942.765000	314.223633	-80.436356
11375.176596	2942.765000	312.929688	-59.134228
11375.176596	2942.765000	311.635742	-3.037762
11375.176596	2942.765000	310.340820	-23.822842
11375.176596	2942.765000	309.045898	56.735859
11375.176596	2942.765000	307.750977	9.527312
11375.176596	2942.765000	306.456055	53.819897
11375.176596	2942.765000	305.160156	1.684794
11375.176596	2942.765000	303.865234	-62.681175
11375.176596	2942.765000	302.568359	-45.446213
11375.176596	2942.765000	301.272461	86.607292
11375.176596	2942.765000	299.975586	94.853912
11375.176596	2942.765000	298.678711	231.511429
