#X		#Y		#Wave		#Intensity
11932.026064	2772.271667	1999.980469	-158.725708
11932.026064	2772.271667	1999.016602	-48.128490
11932.026064	2772.271667	1998.052734	-13.607293
11932.026064	2772.271667	1997.087891	-167.622482
11932.026064	2772.271667	1996.123047	44.929276
11932.026064	2772.271667	1995.158203	26.842167
11932.026064	2772.271667	1994.193359	-28.564802
11932.026064	2772.271667	1993.228516	74.361259
11932.026064	2772.271667	1992.262695	53.294884
11932.026064	2772.271667	1991.297852	27.122019
11932.026064	2772.271667	1990.332031	-1.669418
11932.026064	2772.271667	1989.366211	-5.857303
11932.026064	2772.271667	1988.399414	-185.842773
11932.026064	2772.271667	1987.433594	91.697067
11932.026064	2772.271667	1986.466797	89.540581
11932.026064	2772.271667	1985.500977	69.939278
11932.026064	2772.271667	1984.534180	124.380760
11932.026064	2772.271667	1983.567383	-9.172709
11932.026064	2772.271667	1982.599609	45.015614
11932.026064	2772.271667	1981.632813	192.954315
11932.026064	2772.271667	1980.665039	36.873329
11932.026064	2772.271667	1979.697266	33.871349
11932.026064	2772.271667	1978.729492	52.986759
11932.026064	2772.271667	1977.761719	86.805222
11932.026064	2772.271667	1976.792969	-12.787736
11932.026064	2772.271667	1975.825195	-28.528255
11932.026064	2772.271667	1974.856445	9.930025
11932.026064	2772.271667	1973.887695	100.093246
11932.026064	2772.271667	1972.918945	-66.397133
11932.026064	2772.271667	1971.949219	159.216171
11932.026064	2772.271667	1970.980469	83.843567
11932.026064	2772.271667	1970.010742	13.351190
11932.026064	2772.271667	1969.041016	26.613945
11932.026064	2772.271667	1968.071289	-85.883301
11932.026064	2772.271667	1967.101563	-57.965321
11932.026064	2772.271667	1966.130859	56.096024
11932.026064	2772.271667	1965.161133	-44.229771
11932.026064	2772.271667	1964.190430	155.849442
11932.026064	2772.271667	1963.219727	-111.998932
11932.026064	2772.271667	1962.249023	43.593906
11932.026064	2772.271667	1961.277344	21.871099
11932.026064	2772.271667	1960.306641	260.939636
11932.026064	2772.271667	1959.334961	140.673828
11932.026064	2772.271667	1958.363281	207.348984
11932.026064	2772.271667	1957.391602	77.209068
11932.026064	2772.271667	1956.419922	-48.007866
11932.026064	2772.271667	1955.447266	161.125793
11932.026064	2772.271667	1954.474609	-15.757250
11932.026064	2772.271667	1953.501953	254.656097
11932.026064	2772.271667	1952.529297	129.348801
11932.026064	2772.271667	1951.556641	-15.597151
11932.026064	2772.271667	1950.583984	-15.607098
11932.026064	2772.271667	1949.610352	234.831985
11932.026064	2772.271667	1948.636719	89.860062
11932.026064	2772.271667	1947.663086	168.300140
11932.026064	2772.271667	1946.689453	217.236938
11932.026064	2772.271667	1945.715820	172.885956
11932.026064	2772.271667	1944.741211	67.195900
11932.026064	2772.271667	1943.767578	201.914688
11932.026064	2772.271667	1942.792969	186.963440
11932.026064	2772.271667	1941.818359	-2.091299
11932.026064	2772.271667	1940.842773	-112.641388
11932.026064	2772.271667	1939.868164	88.128891
11932.026064	2772.271667	1938.892578	36.393311
11932.026064	2772.271667	1937.916992	21.419468
11932.026064	2772.271667	1936.941406	128.929794
11932.026064	2772.271667	1935.965820	236.390823
11932.026064	2772.271667	1934.990234	236.056656
11932.026064	2772.271667	1934.013672	208.783600
11932.026064	2772.271667	1933.037109	127.661880
11932.026064	2772.271667	1932.060547	7.406872
11932.026064	2772.271667	1931.083984	70.719299
11932.026064	2772.271667	1930.107422	119.327171
11932.026064	2772.271667	1929.129883	48.055870
11932.026064	2772.271667	1928.153320	243.387283
11932.026064	2772.271667	1927.175781	47.415985
11932.026064	2772.271667	1926.198242	86.213860
11932.026064	2772.271667	1925.219727	239.878616
11932.026064	2772.271667	1924.242188	66.019417
11932.026064	2772.271667	1923.263672	99.912872
11932.026064	2772.271667	1922.285156	104.484726
11932.026064	2772.271667	1921.306641	52.883087
11932.026064	2772.271667	1920.328125	-86.605270
11932.026064	2772.271667	1919.349609	-55.127224
11932.026064	2772.271667	1918.370117	-65.153114
11932.026064	2772.271667	1917.391602	-53.201019
11932.026064	2772.271667	1916.412109	24.638336
11932.026064	2772.271667	1915.431641	-70.763939
11932.026064	2772.271667	1914.452148	19.263878
11932.026064	2772.271667	1913.472656	111.705902
11932.026064	2772.271667	1912.492188	182.177628
11932.026064	2772.271667	1911.511719	-115.488892
11932.026064	2772.271667	1910.531250	-10.856275
11932.026064	2772.271667	1909.550781	-125.579979
11932.026064	2772.271667	1908.569336	-218.321915
11932.026064	2772.271667	1907.588867	-18.688053
11932.026064	2772.271667	1906.607422	-62.679317
11932.026064	2772.271667	1905.625977	66.254425
11932.026064	2772.271667	1904.644531	-99.448158
11932.026064	2772.271667	1903.662109	-80.073555
11932.026064	2772.271667	1902.680664	99.938057
11932.026064	2772.271667	1901.698242	17.093081
11932.026064	2772.271667	1900.715820	-43.812431
11932.026064	2772.271667	1899.733398	-29.276443
11932.026064	2772.271667	1898.750000	-31.757349
11932.026064	2772.271667	1897.767578	101.941139
11932.026064	2772.271667	1896.784180	138.360138
11932.026064	2772.271667	1895.800781	-121.756721
11932.026064	2772.271667	1894.817383	155.301498
11932.026064	2772.271667	1893.833984	55.665615
11932.026064	2772.271667	1892.850586	160.137344
11932.026064	2772.271667	1891.866211	-53.590370
11932.026064	2772.271667	1890.881836	80.027695
11932.026064	2772.271667	1889.897461	-143.290771
11932.026064	2772.271667	1888.913086	-14.535167
11932.026064	2772.271667	1887.927734	-31.434904
11932.026064	2772.271667	1886.943359	73.011467
11932.026064	2772.271667	1885.958008	-50.619663
11932.026064	2772.271667	1884.972656	131.435028
11932.026064	2772.271667	1883.987305	-38.215771
11932.026064	2772.271667	1883.001953	32.255390
11932.026064	2772.271667	1882.015625	-122.744232
11932.026064	2772.271667	1881.029297	-74.074951
11932.026064	2772.271667	1880.042969	-182.930862
11932.026064	2772.271667	1879.056641	-93.057327
11932.026064	2772.271667	1878.070313	74.311005
11932.026064	2772.271667	1877.083984	50.290569
11932.026064	2772.271667	1876.096680	-48.779736
11932.026064	2772.271667	1875.109375	74.936897
11932.026064	2772.271667	1874.122070	-26.501745
11932.026064	2772.271667	1873.134766	184.308807
11932.026064	2772.271667	1872.146484	92.584419
11932.026064	2772.271667	1871.159180	37.192192
11932.026064	2772.271667	1870.170898	30.204781
11932.026064	2772.271667	1869.182617	158.656616
11932.026064	2772.271667	1868.194336	180.679184
11932.026064	2772.271667	1867.205078	52.818398
11932.026064	2772.271667	1866.216797	-29.064610
11932.026064	2772.271667	1865.227539	-101.244316
11932.026064	2772.271667	1864.238281	68.217445
11932.026064	2772.271667	1863.249023	73.358833
11932.026064	2772.271667	1862.259766	59.181896
11932.026064	2772.271667	1861.269531	-186.799667
11932.026064	2772.271667	1860.279297	67.070488
11932.026064	2772.271667	1859.290039	64.983894
11932.026064	2772.271667	1858.298828	84.622124
11932.026064	2772.271667	1857.308594	17.391582
11932.026064	2772.271667	1856.318359	-8.800490
11932.026064	2772.271667	1855.327148	39.792011
11932.026064	2772.271667	1854.335938	28.079311
11932.026064	2772.271667	1853.344727	59.771885
11932.026064	2772.271667	1852.353516	-113.451042
11932.026064	2772.271667	1851.362305	38.767483
11932.026064	2772.271667	1850.370117	29.475319
11932.026064	2772.271667	1849.377930	-73.776726
11932.026064	2772.271667	1848.385742	32.578262
11932.026064	2772.271667	1847.393555	-27.286865
11932.026064	2772.271667	1846.401367	83.832008
11932.026064	2772.271667	1845.408203	-57.880085
11932.026064	2772.271667	1844.415039	-141.772720
11932.026064	2772.271667	1843.421875	15.020290
11932.026064	2772.271667	1842.428711	-56.831600
11932.026064	2772.271667	1841.435547	-54.084751
11932.026064	2772.271667	1840.441406	49.674366
11932.026064	2772.271667	1839.448242	114.912628
11932.026064	2772.271667	1838.454102	38.266159
11932.026064	2772.271667	1837.459961	117.893204
11932.026064	2772.271667	1836.464844	62.891354
11932.026064	2772.271667	1835.470703	-93.020050
11932.026064	2772.271667	1834.475586	99.480629
11932.026064	2772.271667	1833.480469	22.871969
11932.026064	2772.271667	1832.485352	-96.946632
11932.026064	2772.271667	1831.490234	-46.248127
11932.026064	2772.271667	1830.495117	-53.195114
11932.026064	2772.271667	1829.499023	218.276718
11932.026064	2772.271667	1828.502930	60.074230
11932.026064	2772.271667	1827.506836	206.634415
11932.026064	2772.271667	1826.510742	48.470444
11932.026064	2772.271667	1825.513672	-8.913922
11932.026064	2772.271667	1824.517578	96.774109
11932.026064	2772.271667	1823.520508	68.146019
11932.026064	2772.271667	1822.523438	219.295715
11932.026064	2772.271667	1821.526367	-5.895422
11932.026064	2772.271667	1820.529297	-10.569494
11932.026064	2772.271667	1819.531250	3.908038
11932.026064	2772.271667	1818.533203	219.566711
11932.026064	2772.271667	1817.535156	178.882599
11932.026064	2772.271667	1816.537109	-74.901588
11932.026064	2772.271667	1815.539063	49.630676
11932.026064	2772.271667	1814.540039	154.948822
11932.026064	2772.271667	1813.541992	75.949509
11932.026064	2772.271667	1812.542969	37.632584
11932.026064	2772.271667	1811.543945	126.093147
11932.026064	2772.271667	1810.543945	59.042751
11932.026064	2772.271667	1809.544922	137.860641
11932.026064	2772.271667	1808.544922	147.295563
11932.026064	2772.271667	1807.544922	41.971973
11932.026064	2772.271667	1806.544922	185.210754
11932.026064	2772.271667	1805.544922	15.363028
11932.026064	2772.271667	1804.544922	117.896149
11932.026064	2772.271667	1803.543945	26.898521
11932.026064	2772.271667	1802.542969	124.567978
11932.026064	2772.271667	1801.541992	-11.806828
11932.026064	2772.271667	1800.541016	-83.701881
11932.026064	2772.271667	1799.539063	83.072701
11932.026064	2772.271667	1798.538086	-0.793757
11932.026064	2772.271667	1797.536133	-53.639351
11932.026064	2772.271667	1796.534180	17.545931
11932.026064	2772.271667	1795.532227	153.069809
11932.026064	2772.271667	1794.529297	2.384300
11932.026064	2772.271667	1793.527344	209.324493
11932.026064	2772.271667	1792.524414	225.477356
11932.026064	2772.271667	1791.521484	8.055693
11932.026064	2772.271667	1790.518555	88.515213
11932.026064	2772.271667	1789.514648	149.857132
11932.026064	2772.271667	1788.511719	163.514481
11932.026064	2772.271667	1787.507813	19.972446
11932.026064	2772.271667	1786.503906	-47.358746
11932.026064	2772.271667	1785.500000	42.409256
11932.026064	2772.271667	1784.496094	129.733170
11932.026064	2772.271667	1783.491211	-70.921089
11932.026064	2772.271667	1782.486328	137.657623
11932.026064	2772.271667	1781.481445	-29.685263
11932.026064	2772.271667	1780.476563	-18.638538
11932.026064	2772.271667	1779.471680	44.681313
11932.026064	2772.271667	1778.465820	155.487167
11932.026064	2772.271667	1777.460938	47.558479
11932.026064	2772.271667	1776.455078	94.096642
11932.026064	2772.271667	1775.449219	133.456619
11932.026064	2772.271667	1774.442383	13.614851
11932.026064	2772.271667	1773.436523	226.279770
11932.026064	2772.271667	1772.429688	125.394753
11932.026064	2772.271667	1771.422852	86.239700
11932.026064	2772.271667	1770.416016	28.076111
11932.026064	2772.271667	1769.409180	7.870562
11932.026064	2772.271667	1768.402344	32.718548
11932.026064	2772.271667	1767.394531	121.570961
11932.026064	2772.271667	1766.386719	191.380753
11932.026064	2772.271667	1765.378906	-9.204824
11932.026064	2772.271667	1764.371094	67.645126
11932.026064	2772.271667	1763.362305	-12.021948
11932.026064	2772.271667	1762.354492	45.767826
11932.026064	2772.271667	1761.345703	231.451324
11932.026064	2772.271667	1760.336914	99.570587
11932.026064	2772.271667	1759.328125	171.406738
11932.026064	2772.271667	1758.318359	77.402603
11932.026064	2772.271667	1757.308594	-40.279526
11932.026064	2772.271667	1756.299805	69.307953
11932.026064	2772.271667	1755.290039	-140.708023
11932.026064	2772.271667	1754.279297	188.851044
11932.026064	2772.271667	1753.269531	184.653061
11932.026064	2772.271667	1752.258789	-41.937923
11932.026064	2772.271667	1751.249023	38.975639
11932.026064	2772.271667	1750.238281	96.172722
11932.026064	2772.271667	1749.226563	72.926590
11932.026064	2772.271667	1748.215820	113.473877
11932.026064	2772.271667	1747.204102	-16.186899
11932.026064	2772.271667	1746.193359	5.383208
11932.026064	2772.271667	1745.181641	107.223602
11932.026064	2772.271667	1744.168945	83.804832
11932.026064	2772.271667	1743.157227	10.769219
11932.026064	2772.271667	1742.144531	13.271197
11932.026064	2772.271667	1741.132813	-187.267960
11932.026064	2772.271667	1740.120117	-10.160247
11932.026064	2772.271667	1739.106445	37.059563
11932.026064	2772.271667	1738.093750	91.302231
11932.026064	2772.271667	1737.080078	-12.550572
11932.026064	2772.271667	1736.067383	-158.848190
11932.026064	2772.271667	1735.053711	178.221573
11932.026064	2772.271667	1734.040039	128.515366
11932.026064	2772.271667	1733.025391	165.991898
11932.026064	2772.271667	1732.011719	111.517014
11932.026064	2772.271667	1730.997070	9.900687
11932.026064	2772.271667	1729.982422	-127.049103
11932.026064	2772.271667	1728.967773	157.581757
11932.026064	2772.271667	1727.952148	133.600525
11932.026064	2772.271667	1726.937500	95.468117
11932.026064	2772.271667	1725.921875	-126.285095
11932.026064	2772.271667	1724.906250	-16.174156
11932.026064	2772.271667	1723.890625	2.094967
11932.026064	2772.271667	1722.875000	-80.835030
11932.026064	2772.271667	1721.858398	14.974747
11932.026064	2772.271667	1720.841797	110.710571
11932.026064	2772.271667	1719.825195	20.637226
11932.026064	2772.271667	1718.808594	191.479462
11932.026064	2772.271667	1717.791992	-51.411037
11932.026064	2772.271667	1716.774414	-122.720490
11932.026064	2772.271667	1715.756836	-46.034874
11932.026064	2772.271667	1714.739258	115.141075
11932.026064	2772.271667	1713.721680	55.471596
11932.026064	2772.271667	1712.704102	49.789871
11932.026064	2772.271667	1711.685547	-21.658825
11932.026064	2772.271667	1710.667969	-86.072517
11932.026064	2772.271667	1709.649414	156.900452
11932.026064	2772.271667	1708.630859	251.937073
11932.026064	2772.271667	1707.611328	84.182899
11932.026064	2772.271667	1706.592773	-95.264870
11932.026064	2772.271667	1705.573242	-42.551891
11932.026064	2772.271667	1704.553711	5.417930
11932.026064	2772.271667	1703.534180	27.551077
11932.026064	2772.271667	1702.513672	103.534973
11932.026064	2772.271667	1701.494141	-40.779930
11932.026064	2772.271667	1700.473633	-4.704589
11932.026064	2772.271667	1699.453125	61.770359
11932.026064	2772.271667	1698.432617	-28.703459
11932.026064	2772.271667	1697.412109	-18.505655
11932.026064	2772.271667	1696.390625	-99.638412
11932.026064	2772.271667	1695.369141	34.532780
11932.026064	2772.271667	1694.347656	-67.703705
11932.026064	2772.271667	1693.326172	80.378990
11932.026064	2772.271667	1692.304688	-134.160248
11932.026064	2772.271667	1691.282227	-159.237793
11932.026064	2772.271667	1690.260742	-79.121590
11932.026064	2772.271667	1689.238281	82.743019
11932.026064	2772.271667	1688.214844	-19.587101
11932.026064	2772.271667	1687.192383	74.377113
11932.026064	2772.271667	1686.168945	-105.068619
11932.026064	2772.271667	1685.146484	189.691833
11932.026064	2772.271667	1684.123047	-38.809582
11932.026064	2772.271667	1683.099609	99.322792
11932.026064	2772.271667	1682.075195	218.692902
11932.026064	2772.271667	1681.051758	232.963028
11932.026064	2772.271667	1680.027344	163.186386
11932.026064	2772.271667	1679.002930	172.733383
11932.026064	2772.271667	1677.978516	200.910049
11932.026064	2772.271667	1676.953125	156.745041
11932.026064	2772.271667	1675.928711	236.155777
11932.026064	2772.271667	1674.903320	222.252899
11932.026064	2772.271667	1673.877930	98.779976
11932.026064	2772.271667	1672.852539	238.661240
11932.026064	2772.271667	1671.826172	243.321747
11932.026064	2772.271667	1670.800781	213.017044
11932.026064	2772.271667	1669.774414	150.087051
11932.026064	2772.271667	1668.748047	189.615341
11932.026064	2772.271667	1667.721680	308.259552
11932.026064	2772.271667	1666.694336	75.347969
11932.026064	2772.271667	1665.667969	210.212555
11932.026064	2772.271667	1664.640625	396.185242
11932.026064	2772.271667	1663.613281	302.902435
11932.026064	2772.271667	1662.585938	260.803040
11932.026064	2772.271667	1661.557617	439.609833
11932.026064	2772.271667	1660.530273	371.881500
11932.026064	2772.271667	1659.501953	287.881500
11932.026064	2772.271667	1658.473633	382.847870
11932.026064	2772.271667	1657.444336	315.097076
11932.026064	2772.271667	1656.416016	498.263184
11932.026064	2772.271667	1655.386719	618.619263
11932.026064	2772.271667	1654.358398	399.859985
11932.026064	2772.271667	1653.328125	587.479553
11932.026064	2772.271667	1652.298828	515.016968
11932.026064	2772.271667	1651.269531	514.514160
11932.026064	2772.271667	1650.239258	469.899780
11932.026064	2772.271667	1649.208984	518.087952
11932.026064	2772.271667	1648.178711	626.550781
11932.026064	2772.271667	1647.148438	672.338562
11932.026064	2772.271667	1646.117188	690.262695
11932.026064	2772.271667	1645.086914	589.940125
11932.026064	2772.271667	1644.055664	637.976501
11932.026064	2772.271667	1643.024414	829.656189
11932.026064	2772.271667	1641.992188	768.699707
11932.026064	2772.271667	1640.960938	686.910583
11932.026064	2772.271667	1639.928711	690.828064
11932.026064	2772.271667	1638.896484	597.478699
11932.026064	2772.271667	1637.864258	719.458618
11932.026064	2772.271667	1636.832031	797.403137
11932.026064	2772.271667	1635.798828	717.933167
11932.026064	2772.271667	1634.766602	712.531067
11932.026064	2772.271667	1633.733398	769.575806
11932.026064	2772.271667	1632.699219	858.963440
11932.026064	2772.271667	1631.666016	830.379395
11932.026064	2772.271667	1630.632813	746.311829
11932.026064	2772.271667	1629.598633	881.859131
11932.026064	2772.271667	1628.564453	672.996216
11932.026064	2772.271667	1627.530273	669.853394
11932.026064	2772.271667	1626.495117	578.912964
11932.026064	2772.271667	1625.460938	737.460022
11932.026064	2772.271667	1624.425781	835.892212
11932.026064	2772.271667	1623.390625	781.900024
11932.026064	2772.271667	1622.355469	845.652100
11932.026064	2772.271667	1621.319336	807.821106
11932.026064	2772.271667	1620.284180	804.620789
11932.026064	2772.271667	1619.248047	829.097229
11932.026064	2772.271667	1618.211914	673.649048
11932.026064	2772.271667	1617.174805	912.603333
11932.026064	2772.271667	1616.138672	791.783203
11932.026064	2772.271667	1615.101563	972.989502
11932.026064	2772.271667	1614.065430	863.728210
11932.026064	2772.271667	1613.027344	791.368774
11932.026064	2772.271667	1611.990234	970.168701
11932.026064	2772.271667	1610.953125	1024.514526
11932.026064	2772.271667	1609.915039	889.990112
11932.026064	2772.271667	1608.876953	819.993225
11932.026064	2772.271667	1607.838867	828.297668
11932.026064	2772.271667	1606.800781	831.999817
11932.026064	2772.271667	1605.761719	959.964722
11932.026064	2772.271667	1604.723633	952.146362
11932.026064	2772.271667	1603.684570	1130.655396
11932.026064	2772.271667	1602.644531	989.415039
11932.026064	2772.271667	1601.605469	799.954590
11932.026064	2772.271667	1600.566406	879.553223
11932.026064	2772.271667	1599.526367	989.004761
11932.026064	2772.271667	1598.486328	995.007629
11932.026064	2772.271667	1597.446289	812.614136
11932.026064	2772.271667	1596.405273	896.765625
11932.026064	2772.271667	1595.365234	813.240112
11932.026064	2772.271667	1594.324219	837.676697
11932.026064	2772.271667	1593.283203	901.143799
11932.026064	2772.271667	1592.242188	840.646851
11932.026064	2772.271667	1591.200195	1011.968140
11932.026064	2772.271667	1590.159180	777.117981
11932.026064	2772.271667	1589.117188	925.469849
11932.026064	2772.271667	1588.075195	849.007324
11932.026064	2772.271667	1587.032227	715.254761
11932.026064	2772.271667	1585.990234	973.621826
11932.026064	2772.271667	1584.947266	1021.013489
11932.026064	2772.271667	1583.904297	846.099548
11932.026064	2772.271667	1582.861328	774.380615
11932.026064	2772.271667	1581.818359	1032.593506
11932.026064	2772.271667	1580.775391	828.054138
11932.026064	2772.271667	1579.731445	857.186584
11932.026064	2772.271667	1578.687500	694.004272
11932.026064	2772.271667	1577.643555	787.283203
11932.026064	2772.271667	1576.598633	587.593933
11932.026064	2772.271667	1575.554688	843.358398
11932.026064	2772.271667	1574.509766	893.140991
11932.026064	2772.271667	1573.464844	906.328247
11932.026064	2772.271667	1572.419922	892.088684
11932.026064	2772.271667	1571.374023	818.426453
11932.026064	2772.271667	1570.329102	913.980103
11932.026064	2772.271667	1569.283203	854.100464
11932.026064	2772.271667	1568.237305	693.725647
11932.026064	2772.271667	1567.191406	640.813110
11932.026064	2772.271667	1566.144531	699.865417
11932.026064	2772.271667	1565.098633	642.455200
11932.026064	2772.271667	1564.051758	639.886719
11932.026064	2772.271667	1563.004883	577.991577
11932.026064	2772.271667	1561.957031	621.131531
11932.026064	2772.271667	1560.910156	627.775757
11932.026064	2772.271667	1559.862305	600.217896
11932.026064	2772.271667	1558.814453	750.618408
11932.026064	2772.271667	1557.766602	638.721863
11932.026064	2772.271667	1556.718750	563.380432
11932.026064	2772.271667	1555.669922	586.120117
11932.026064	2772.271667	1554.621094	453.892334
11932.026064	2772.271667	1553.573242	576.975525
11932.026064	2772.271667	1552.523438	460.806763
11932.026064	2772.271667	1551.474609	511.004517
11932.026064	2772.271667	1550.424805	435.951874
11932.026064	2772.271667	1549.375000	331.359863
11932.026064	2772.271667	1548.325195	388.475952
11932.026064	2772.271667	1547.275391	233.925583
11932.026064	2772.271667	1546.225586	541.425964
11932.026064	2772.271667	1545.174805	352.841431
11932.026064	2772.271667	1544.124023	414.588867
11932.026064	2772.271667	1543.073242	364.905945
11932.026064	2772.271667	1542.022461	444.886841
11932.026064	2772.271667	1540.970703	422.565948
11932.026064	2772.271667	1539.919922	457.117004
11932.026064	2772.271667	1538.868164	393.969666
11932.026064	2772.271667	1537.815430	460.387146
11932.026064	2772.271667	1536.763672	501.832977
11932.026064	2772.271667	1535.710938	454.720459
11932.026064	2772.271667	1534.659180	269.155609
11932.026064	2772.271667	1533.606445	297.103546
11932.026064	2772.271667	1532.552734	347.773743
11932.026064	2772.271667	1531.500000	244.150909
11932.026064	2772.271667	1530.446289	294.891815
11932.026064	2772.271667	1529.393555	268.528778
11932.026064	2772.271667	1528.338867	208.188721
11932.026064	2772.271667	1527.285156	143.382187
11932.026064	2772.271667	1526.231445	146.656586
11932.026064	2772.271667	1525.176758	329.036072
11932.026064	2772.271667	1524.122070	187.314636
11932.026064	2772.271667	1523.067383	29.831518
11932.026064	2772.271667	1522.012695	69.538223
11932.026064	2772.271667	1520.957031	-108.161087
11932.026064	2772.271667	1519.901367	49.391701
11932.026064	2772.271667	1518.845703	9.959607
11932.026064	2772.271667	1517.790039	178.832993
11932.026064	2772.271667	1516.734375	200.583450
11932.026064	2772.271667	1515.677734	145.437637
11932.026064	2772.271667	1514.621094	-6.916324
11932.026064	2772.271667	1513.564453	123.556053
11932.026064	2772.271667	1512.507813	145.480072
11932.026064	2772.271667	1511.450195	214.916519
11932.026064	2772.271667	1510.393555	160.053329
11932.026064	2772.271667	1509.335938	304.132935
11932.026064	2772.271667	1508.278320	127.351936
11932.026064	2772.271667	1507.219727	147.224411
11932.026064	2772.271667	1506.162109	327.502411
11932.026064	2772.271667	1505.103516	300.002869
11932.026064	2772.271667	1504.044922	286.109741
11932.026064	2772.271667	1502.986328	279.041992
11932.026064	2772.271667	1501.926758	290.079590
11932.026064	2772.271667	1500.868164	488.443787
11932.026064	2772.271667	1499.808594	289.733185
11932.026064	2772.271667	1498.749023	350.532715
11932.026064	2772.271667	1497.688477	548.913391
11932.026064	2772.271667	1496.628906	424.861755
11932.026064	2772.271667	1495.568359	242.300049
11932.026064	2772.271667	1494.507813	183.815857
11932.026064	2772.271667	1493.447266	294.400574
11932.026064	2772.271667	1492.386719	301.364014
11932.026064	2772.271667	1491.325195	184.495300
11932.026064	2772.271667	1490.263672	229.862244
11932.026064	2772.271667	1489.202148	-60.202923
11932.026064	2772.271667	1488.140625	-61.971493
11932.026064	2772.271667	1487.079102	55.593822
11932.026064	2772.271667	1486.016602	-85.599449
11932.026064	2772.271667	1484.954102	180.506470
11932.026064	2772.271667	1483.891602	-30.272818
11932.026064	2772.271667	1482.829102	-81.251595
11932.026064	2772.271667	1481.765625	4.991502
11932.026064	2772.271667	1480.702148	199.144897
11932.026064	2772.271667	1479.638672	123.603287
11932.026064	2772.271667	1478.575195	-21.516014
11932.026064	2772.271667	1477.511719	-2.514615
11932.026064	2772.271667	1476.447266	-41.811729
11932.026064	2772.271667	1475.382813	-22.763165
11932.026064	2772.271667	1474.318359	166.988632
11932.026064	2772.271667	1473.253906	78.410561
11932.026064	2772.271667	1472.189453	5.666820
11932.026064	2772.271667	1471.124023	42.972210
11932.026064	2772.271667	1470.058594	-52.082092
11932.026064	2772.271667	1468.993164	5.346786
11932.026064	2772.271667	1467.927734	0.067533
11932.026064	2772.271667	1466.861328	12.959212
11932.026064	2772.271667	1465.794922	-5.593287
11932.026064	2772.271667	1464.728516	103.625938
11932.026064	2772.271667	1463.662109	215.091568
11932.026064	2772.271667	1462.594727	252.899643
11932.026064	2772.271667	1461.528320	73.313423
11932.026064	2772.271667	1460.460938	184.640198
11932.026064	2772.271667	1459.393555	3.412949
11932.026064	2772.271667	1458.326172	184.120987
11932.026064	2772.271667	1457.257813	141.802002
11932.026064	2772.271667	1456.189453	309.139191
11932.026064	2772.271667	1455.121094	275.700012
11932.026064	2772.271667	1454.052734	301.711945
11932.026064	2772.271667	1452.984375	250.354782
11932.026064	2772.271667	1451.915039	257.516022
11932.026064	2772.271667	1450.845703	362.408875
11932.026064	2772.271667	1449.776367	357.212036
11932.026064	2772.271667	1448.707031	394.231171
11932.026064	2772.271667	1447.636719	585.306213
11932.026064	2772.271667	1446.567383	247.711472
11932.026064	2772.271667	1445.497070	296.713715
11932.026064	2772.271667	1444.425781	489.099213
11932.026064	2772.271667	1443.355469	418.682037
11932.026064	2772.271667	1442.285156	585.584351
11932.026064	2772.271667	1441.213867	518.762634
11932.026064	2772.271667	1440.142578	369.891266
11932.026064	2772.271667	1439.070313	453.184662
11932.026064	2772.271667	1437.999023	379.296112
11932.026064	2772.271667	1436.926758	289.238312
11932.026064	2772.271667	1435.854492	518.375916
11932.026064	2772.271667	1434.782227	339.566376
11932.026064	2772.271667	1433.709961	658.639648
11932.026064	2772.271667	1432.636719	493.704834
11932.026064	2772.271667	1431.563477	579.019958
11932.026064	2772.271667	1430.490234	467.343781
11932.026064	2772.271667	1429.416992	323.925201
11932.026064	2772.271667	1428.343750	406.560028
11932.026064	2772.271667	1427.269531	234.554886
11932.026064	2772.271667	1426.195313	205.954636
11932.026064	2772.271667	1425.121094	51.083374
11932.026064	2772.271667	1424.046875	151.866776
11932.026064	2772.271667	1422.971680	451.269867
11932.026064	2772.271667	1421.896484	196.418320
11932.026064	2772.271667	1420.821289	342.152802
11932.026064	2772.271667	1419.746094	450.657776
11932.026064	2772.271667	1418.669922	403.507843
11932.026064	2772.271667	1417.594727	269.561249
11932.026064	2772.271667	1416.518555	297.488861
11932.026064	2772.271667	1415.442383	271.292969
11932.026064	2772.271667	1414.365234	362.827606
11932.026064	2772.271667	1413.289063	264.928162
11932.026064	2772.271667	1412.211914	277.434845
11932.026064	2772.271667	1411.134766	389.839905
11932.026064	2772.271667	1410.057617	392.015289
11932.026064	2772.271667	1408.979492	431.227356
11932.026064	2772.271667	1407.902344	428.836395
11932.026064	2772.271667	1406.824219	447.612732
11932.026064	2772.271667	1405.746094	432.639221
11932.026064	2772.271667	1404.666992	616.125793
11932.026064	2772.271667	1403.588867	462.176422
11932.026064	2772.271667	1402.509766	377.261078
11932.026064	2772.271667	1401.430664	647.061951
11932.026064	2772.271667	1400.351563	476.068146
11932.026064	2772.271667	1399.271484	515.629456
11932.026064	2772.271667	1398.192383	440.698883
11932.026064	2772.271667	1397.112305	597.086792
11932.026064	2772.271667	1396.031250	553.803772
11932.026064	2772.271667	1394.951172	567.208862
11932.026064	2772.271667	1393.871094	570.360962
11932.026064	2772.271667	1392.790039	428.182434
11932.026064	2772.271667	1391.708984	354.698761
11932.026064	2772.271667	1390.626953	519.794312
11932.026064	2772.271667	1389.545898	544.366577
11932.026064	2772.271667	1388.463867	326.100708
11932.026064	2772.271667	1387.381836	232.707489
11932.026064	2772.271667	1386.299805	299.528412
11932.026064	2772.271667	1385.217773	293.575958
11932.026064	2772.271667	1384.134766	118.495476
11932.026064	2772.271667	1383.051758	364.570831
11932.026064	2772.271667	1381.968750	404.815399
11932.026064	2772.271667	1380.885742	422.162506
11932.026064	2772.271667	1379.802734	380.571838
11932.026064	2772.271667	1378.718750	400.782715
11932.026064	2772.271667	1377.634766	380.083649
11932.026064	2772.271667	1376.550781	356.654968
11932.026064	2772.271667	1375.465820	549.580872
11932.026064	2772.271667	1374.381836	460.967560
11932.026064	2772.271667	1373.296875	416.823547
11932.026064	2772.271667	1372.211914	420.260315
11932.026064	2772.271667	1371.126953	404.836151
11932.026064	2772.271667	1370.041016	198.219437
11932.026064	2772.271667	1368.955078	330.916046
11932.026064	2772.271667	1367.869141	403.190338
11932.026064	2772.271667	1366.783203	230.215744
11932.026064	2772.271667	1365.697266	325.248810
11932.026064	2772.271667	1364.610352	377.464935
11932.026064	2772.271667	1363.523438	558.994812
11932.026064	2772.271667	1362.436523	540.690552
11932.026064	2772.271667	1361.349609	432.566498
11932.026064	2772.271667	1360.261719	610.570679
11932.026064	2772.271667	1359.174805	461.708405
11932.026064	2772.271667	1358.086914	468.027435
11932.026064	2772.271667	1356.998047	327.770721
11932.026064	2772.271667	1355.910156	458.641541
11932.026064	2772.271667	1354.821289	426.945770
11932.026064	2772.271667	1353.732422	321.739380
11932.026064	2772.271667	1352.643555	410.744690
11932.026064	2772.271667	1351.554688	273.995514
11932.026064	2772.271667	1350.464844	337.971436
11932.026064	2772.271667	1349.375000	436.162903
11932.026064	2772.271667	1348.285156	331.153503
11932.026064	2772.271667	1347.195313	440.341339
11932.026064	2772.271667	1346.105469	283.524811
11932.026064	2772.271667	1345.014648	328.744232
11932.026064	2772.271667	1343.923828	449.770172
11932.026064	2772.271667	1342.833008	423.712524
11932.026064	2772.271667	1341.741211	475.589264
11932.026064	2772.271667	1340.650391	344.891693
11932.026064	2772.271667	1339.558594	461.809418
11932.026064	2772.271667	1338.466797	425.741669
11932.026064	2772.271667	1337.374023	364.339386
11932.026064	2772.271667	1336.282227	395.605225
11932.026064	2772.271667	1335.189453	239.506470
11932.026064	2772.271667	1334.096680	274.974426
11932.026064	2772.271667	1333.003906	407.524292
11932.026064	2772.271667	1331.910156	475.147949
11932.026064	2772.271667	1330.817383	215.841934
11932.026064	2772.271667	1329.723633	196.465363
11932.026064	2772.271667	1328.629883	249.270706
11932.026064	2772.271667	1327.535156	307.676666
11932.026064	2772.271667	1326.441406	349.827972
11932.026064	2772.271667	1325.346680	344.145569
11932.026064	2772.271667	1324.251953	220.175644
11932.026064	2772.271667	1323.156250	136.303879
11932.026064	2772.271667	1322.061523	172.073166
11932.026064	2772.271667	1320.965820	384.352875
11932.026064	2772.271667	1319.870117	320.070038
11932.026064	2772.271667	1318.774414	344.601135
11932.026064	2772.271667	1317.678711	293.488739
11932.026064	2772.271667	1316.582031	458.093231
11932.026064	2772.271667	1315.485352	328.212585
11932.026064	2772.271667	1314.388672	456.424469
11932.026064	2772.271667	1313.291016	355.332550
11932.026064	2772.271667	1312.194336	356.614990
11932.026064	2772.271667	1311.096680	424.227539
11932.026064	2772.271667	1309.999023	265.876251
11932.026064	2772.271667	1308.901367	391.663269
11932.026064	2772.271667	1307.802734	617.498901
11932.026064	2772.271667	1306.705078	377.690033
11932.026064	2772.271667	1305.606445	325.398743
11932.026064	2772.271667	1304.506836	381.653900
11932.026064	2772.271667	1303.408203	451.668457
11932.026064	2772.271667	1302.308594	311.130005
11932.026064	2772.271667	1301.208984	397.451447
11932.026064	2772.271667	1300.109375	341.396942
11932.026064	2772.271667	1299.009766	369.843018
11932.026064	2772.271667	1297.909180	471.359467
11932.026064	2772.271667	1296.808594	290.377563
11932.026064	2772.271667	1295.708008	409.563904
11932.026064	2772.271667	1294.607422	383.978546
11932.026064	2772.271667	1293.506836	199.639648
11932.026064	2772.271667	1292.405273	215.691254
11932.026064	2772.271667	1291.303711	205.693512
11932.026064	2772.271667	1290.202148	151.611801
11932.026064	2772.271667	1289.099609	-1.449798
11932.026064	2772.271667	1287.998047	178.774796
11932.026064	2772.271667	1286.895508	62.399506
11932.026064	2772.271667	1285.792969	111.736328
11932.026064	2772.271667	1284.689453	38.488056
11932.026064	2772.271667	1283.586914	205.612045
11932.026064	2772.271667	1282.483398	198.786804
11932.026064	2772.271667	1281.379883	-49.952118
11932.026064	2772.271667	1280.276367	90.514000
11932.026064	2772.271667	1279.171875	34.216118
11932.026064	2772.271667	1278.067383	71.313805
11932.026064	2772.271667	1276.962891	95.098610
11932.026064	2772.271667	1275.858398	43.636486
11932.026064	2772.271667	1274.753906	91.335197
11932.026064	2772.271667	1273.648438	103.142776
11932.026064	2772.271667	1272.542969	242.771454
11932.026064	2772.271667	1271.437500	150.874100
11932.026064	2772.271667	1270.331055	32.377323
11932.026064	2772.271667	1269.225586	177.198105
11932.026064	2772.271667	1268.119141	137.394165
11932.026064	2772.271667	1267.012695	130.889603
11932.026064	2772.271667	1265.906250	240.231827
11932.026064	2772.271667	1264.798828	90.259590
11932.026064	2772.271667	1263.691406	154.152817
11932.026064	2772.271667	1262.583984	93.825134
11932.026064	2772.271667	1261.476563	23.860083
11932.026064	2772.271667	1260.368164	53.272224
11932.026064	2772.271667	1259.260742	111.384666
11932.026064	2772.271667	1258.152344	5.301185
11932.026064	2772.271667	1257.043945	12.477057
11932.026064	2772.271667	1255.934570	121.749130
11932.026064	2772.271667	1254.825195	173.648849
11932.026064	2772.271667	1253.716797	206.719376
11932.026064	2772.271667	1252.606445	194.568787
11932.026064	2772.271667	1251.497070	82.750267
11932.026064	2772.271667	1250.387695	-105.713799
11932.026064	2772.271667	1249.277344	2.366013
11932.026064	2772.271667	1248.166992	37.257458
11932.026064	2772.271667	1247.055664	27.160707
11932.026064	2772.271667	1245.945313	18.299170
11932.026064	2772.271667	1244.833984	50.348015
11932.026064	2772.271667	1243.722656	-22.711134
11932.026064	2772.271667	1242.611328	-26.992950
11932.026064	2772.271667	1241.499023	-15.057019
11932.026064	2772.271667	1240.387695	23.160891
11932.026064	2772.271667	1239.275391	44.033234
11932.026064	2772.271667	1238.162109	28.733431
11932.026064	2772.271667	1237.049805	55.481972
11932.026064	2772.271667	1235.936523	-92.172913
11932.026064	2772.271667	1234.823242	-49.458569
11932.026064	2772.271667	1233.709961	37.412685
11932.026064	2772.271667	1232.596680	-47.966770
11932.026064	2772.271667	1231.482422	-64.705345
11932.026064	2772.271667	1230.369141	-52.113766
11932.026064	2772.271667	1229.253906	44.504028
11932.026064	2772.271667	1228.139648	-71.955055
11932.026064	2772.271667	1227.025391	-76.838669
11932.026064	2772.271667	1225.910156	21.788715
11932.026064	2772.271667	1224.794922	-107.955498
11932.026064	2772.271667	1223.679688	-105.461327
11932.026064	2772.271667	1222.563477	4.508499
11932.026064	2772.271667	1221.447266	-129.198120
11932.026064	2772.271667	1220.331055	50.697758
11932.026064	2772.271667	1219.214844	-27.836479
11932.026064	2772.271667	1218.098633	71.985916
11932.026064	2772.271667	1216.981445	5.364124
11932.026064	2772.271667	1215.864258	29.816000
11932.026064	2772.271667	1214.747070	-12.622676
11932.026064	2772.271667	1213.629883	113.629768
11932.026064	2772.271667	1212.511719	39.685574
11932.026064	2772.271667	1211.393555	326.145660
11932.026064	2772.271667	1210.275391	177.536011
11932.026064	2772.271667	1209.157227	-1.128044
11932.026064	2772.271667	1208.038086	-17.021433
11932.026064	2772.271667	1206.918945	11.799582
11932.026064	2772.271667	1205.799805	10.787788
11932.026064	2772.271667	1204.680664	82.321762
11932.026064	2772.271667	1203.560547	133.492188
11932.026064	2772.271667	1202.441406	67.196777
11932.026064	2772.271667	1201.321289	233.042999
11932.026064	2772.271667	1200.200195	65.885017
11932.026064	2772.271667	1199.080078	134.185028
11932.026064	2772.271667	1197.958984	68.910835
11932.026064	2772.271667	1196.837891	72.543381
11932.026064	2772.271667	1195.716797	-41.255512
11932.026064	2772.271667	1194.594727	93.292267
11932.026064	2772.271667	1193.473633	79.923485
11932.026064	2772.271667	1192.351563	151.608749
11932.026064	2772.271667	1191.229492	20.326185
11932.026064	2772.271667	1190.106445	-28.027979
11932.026064	2772.271667	1188.984375	-35.279346
11932.026064	2772.271667	1187.861328	-12.577522
11932.026064	2772.271667	1186.738281	-27.277342
11932.026064	2772.271667	1185.614258	34.742985
11932.026064	2772.271667	1184.491211	48.924572
11932.026064	2772.271667	1183.367188	-82.852013
11932.026064	2772.271667	1182.243164	-78.398560
11932.026064	2772.271667	1181.119141	-78.922371
11932.026064	2772.271667	1179.994141	-159.397919
11932.026064	2772.271667	1178.869141	-144.846893
11932.026064	2772.271667	1177.744141	-140.022964
11932.026064	2772.271667	1176.619141	-149.505493
11932.026064	2772.271667	1175.493164	-166.036591
11932.026064	2772.271667	1174.368164	-7.777336
11932.026064	2772.271667	1173.242188	-57.014923
11932.026064	2772.271667	1172.115234	1.919299
11932.026064	2772.271667	1170.989258	-117.184479
11932.026064	2772.271667	1169.862305	-161.520264
11932.026064	2772.271667	1168.735352	-94.518761
11932.026064	2772.271667	1167.608398	50.976059
11932.026064	2772.271667	1166.481445	-9.063369
11932.026064	2772.271667	1165.353516	-71.597542
11932.026064	2772.271667	1164.225586	-98.015076
11932.026064	2772.271667	1163.097656	-66.092056
11932.026064	2772.271667	1161.968750	-9.993611
11932.026064	2772.271667	1160.840820	30.688484
11932.026064	2772.271667	1159.711914	60.317036
11932.026064	2772.271667	1158.583008	21.273081
11932.026064	2772.271667	1157.453125	-10.859071
11932.026064	2772.271667	1156.324219	-86.149033
11932.026064	2772.271667	1155.194336	-63.823513
11932.026064	2772.271667	1154.064453	-75.274818
11932.026064	2772.271667	1152.933594	-117.785393
11932.026064	2772.271667	1151.803711	-179.777222
11932.026064	2772.271667	1150.672852	-90.168076
11932.026064	2772.271667	1149.541992	-126.076729
11932.026064	2772.271667	1148.411133	-100.425217
11932.026064	2772.271667	1147.279297	-55.569328
11932.026064	2772.271667	1146.147461	-6.147784
11932.026064	2772.271667	1145.015625	-18.248627
11932.026064	2772.271667	1143.883789	28.482487
11932.026064	2772.271667	1142.750977	-36.881596
11932.026064	2772.271667	1141.619141	-62.641819
11932.026064	2772.271667	1140.486328	-49.977547
11932.026064	2772.271667	1139.352539	23.534851
11932.026064	2772.271667	1138.219727	-39.076824
11932.026064	2772.271667	1137.085938	-96.454453
11932.026064	2772.271667	1135.952148	73.438774
11932.026064	2772.271667	1134.818359	4.865917
11932.026064	2772.271667	1133.683594	104.299088
11932.026064	2772.271667	1132.549805	275.993378
11932.026064	2772.271667	1131.415039	263.627045
11932.026064	2772.271667	1130.279297	270.256012
11932.026064	2772.271667	1129.144531	407.093109
11932.026064	2772.271667	1128.008789	346.436981
11932.026064	2772.271667	1126.873047	270.004364
11932.026064	2772.271667	1125.737305	123.633545
11932.026064	2772.271667	1124.601563	133.415726
11932.026064	2772.271667	1123.464844	344.702728
11932.026064	2772.271667	1122.328125	232.533157
11932.026064	2772.271667	1121.191406	177.174515
11932.026064	2772.271667	1120.054688	302.898193
11932.026064	2772.271667	1118.916992	175.340118
11932.026064	2772.271667	1117.779297	192.643005
11932.026064	2772.271667	1116.641602	282.147583
11932.026064	2772.271667	1115.503906	85.345047
11932.026064	2772.271667	1114.365234	165.712509
11932.026064	2772.271667	1113.226563	292.210663
11932.026064	2772.271667	1112.087891	79.107513
11932.026064	2772.271667	1110.949219	135.030487
11932.026064	2772.271667	1109.809570	75.739815
11932.026064	2772.271667	1108.669922	190.999542
11932.026064	2772.271667	1107.530273	121.626511
11932.026064	2772.271667	1106.390625	91.274025
11932.026064	2772.271667	1105.250000	15.245709
11932.026064	2772.271667	1104.109375	192.635773
11932.026064	2772.271667	1102.968750	172.644409
11932.026064	2772.271667	1101.828125	181.883392
11932.026064	2772.271667	1100.686523	252.099167
11932.026064	2772.271667	1099.544922	170.501266
11932.026064	2772.271667	1098.403320	222.556503
11932.026064	2772.271667	1097.261719	177.499222
11932.026064	2772.271667	1096.120117	125.241074
11932.026064	2772.271667	1094.977539	-12.852998
11932.026064	2772.271667	1093.834961	236.265091
11932.026064	2772.271667	1092.691406	100.327461
11932.026064	2772.271667	1091.548828	211.967529
11932.026064	2772.271667	1090.405273	90.347275
11932.026064	2772.271667	1089.261719	62.800507
11932.026064	2772.271667	1088.118164	199.355087
11932.026064	2772.271667	1086.973633	222.069687
11932.026064	2772.271667	1085.829102	29.830460
11932.026064	2772.271667	1084.684570	-38.096443
11932.026064	2772.271667	1083.540039	32.277779
11932.026064	2772.271667	1082.395508	81.491249
11932.026064	2772.271667	1081.250000	227.088364
11932.026064	2772.271667	1080.104492	22.626324
11932.026064	2772.271667	1078.958984	86.109573
11932.026064	2772.271667	1077.812500	71.185471
11932.026064	2772.271667	1076.666016	123.332191
11932.026064	2772.271667	1075.519531	145.339355
11932.026064	2772.271667	1074.373047	220.202118
11932.026064	2772.271667	1073.226563	138.537750
11932.026064	2772.271667	1072.079102	228.441727
11932.026064	2772.271667	1070.931641	189.984177
11932.026064	2772.271667	1069.784180	273.354126
11932.026064	2772.271667	1068.635742	42.328159
11932.026064	2772.271667	1067.487305	209.605865
11932.026064	2772.271667	1066.338867	360.703461
11932.026064	2772.271667	1065.190430	311.144409
11932.026064	2772.271667	1064.041992	219.681290
11932.026064	2772.271667	1062.892578	273.127655
11932.026064	2772.271667	1061.743164	48.964508
11932.026064	2772.271667	1060.593750	198.758316
11932.026064	2772.271667	1059.443359	67.306007
11932.026064	2772.271667	1058.292969	-15.889381
11932.026064	2772.271667	1057.142578	73.633667
11932.026064	2772.271667	1055.992188	78.368416
11932.026064	2772.271667	1054.841797	69.316933
11932.026064	2772.271667	1053.690430	107.357559
11932.026064	2772.271667	1052.539063	144.975876
11932.026064	2772.271667	1051.387695	74.040665
11932.026064	2772.271667	1050.235352	194.724152
11932.026064	2772.271667	1049.083984	115.043495
11932.026064	2772.271667	1047.931641	38.343048
11932.026064	2772.271667	1046.778320	83.498360
11932.026064	2772.271667	1045.625977	137.010117
11932.026064	2772.271667	1044.472656	180.110748
11932.026064	2772.271667	1043.319336	96.833870
11932.026064	2772.271667	1042.166016	56.476479
11932.026064	2772.271667	1041.012695	39.957661
11932.026064	2772.271667	1039.858398	-29.344963
11932.026064	2772.271667	1038.704102	217.771759
11932.026064	2772.271667	1037.549805	80.884644
11932.026064	2772.271667	1036.394531	35.672508
11932.026064	2772.271667	1035.239258	17.274132
11932.026064	2772.271667	1034.083984	149.425018
11932.026064	2772.271667	1032.928711	41.207325
11932.026064	2772.271667	1031.773438	38.089958
11932.026064	2772.271667	1030.617188	188.350281
11932.026064	2772.271667	1029.460938	3.257072
11932.026064	2772.271667	1028.304688	105.832458
11932.026064	2772.271667	1027.147461	86.738991
11932.026064	2772.271667	1025.991211	118.172493
11932.026064	2772.271667	1024.833984	57.053127
11932.026064	2772.271667	1023.675781	31.834122
11932.026064	2772.271667	1022.518555	69.223129
11932.026064	2772.271667	1021.360352	189.214417
11932.026064	2772.271667	1020.202148	117.399223
11932.026064	2772.271667	1019.043945	141.348495
11932.026064	2772.271667	1017.884766	43.598671
11932.026064	2772.271667	1016.726563	38.195995
11932.026064	2772.271667	1015.567383	95.329376
11932.026064	2772.271667	1014.407227	75.767464
11932.026064	2772.271667	1013.248047	-48.718765
11932.026064	2772.271667	1012.087891	125.180084
11932.026064	2772.271667	1010.927734	93.544182
11932.026064	2772.271667	1009.767578	68.272606
11932.026064	2772.271667	1008.606445	72.129684
11932.026064	2772.271667	1007.446289	-51.602680
11932.026064	2772.271667	1006.285156	170.939911
11932.026064	2772.271667	1005.123047	152.669174
11932.026064	2772.271667	1003.961914	150.456985
11932.026064	2772.271667	1002.799805	190.068497
11932.026064	2772.271667	1001.637695	37.167542
11932.026064	2772.271667	1000.475586	14.074097
11932.026064	2772.271667	999.312500	70.994240
11932.026064	2772.271667	998.149414	272.329132
11932.026064	2772.271667	996.986328	120.737656
11932.026064	2772.271667	995.823242	100.030037
11932.026064	2772.271667	994.659180	85.671059
11932.026064	2772.271667	993.496094	-136.646271
11932.026064	2772.271667	992.332031	-68.264061
11932.026064	2772.271667	991.166992	-70.014206
11932.026064	2772.271667	990.002930	-107.708008
11932.026064	2772.271667	988.837891	16.744467
11932.026064	2772.271667	987.672852	-143.021561
11932.026064	2772.271667	986.506836	23.896078
11932.026064	2772.271667	985.341797	-24.427551
11932.026064	2772.271667	984.175781	-41.996876
11932.026064	2772.271667	983.009766	17.016253
11932.026064	2772.271667	981.843750	6.295600
11932.026064	2772.271667	980.676758	-55.336319
11932.026064	2772.271667	979.509766	-145.672409
11932.026064	2772.271667	978.342773	-39.621170
11932.026064	2772.271667	977.175781	-1.349440
11932.026064	2772.271667	976.007813	7.649807
11932.026064	2772.271667	974.839844	22.382561
11932.026064	2772.271667	973.671875	21.597528
11932.026064	2772.271667	972.503906	145.684036
11932.026064	2772.271667	971.334961	25.505013
11932.026064	2772.271667	970.166016	-23.964756
11932.026064	2772.271667	968.997070	33.009277
11932.026064	2772.271667	967.828125	-17.371552
11932.026064	2772.271667	966.658203	-90.704338
11932.026064	2772.271667	965.488281	142.818283
11932.026064	2772.271667	964.318359	-99.225883
11932.026064	2772.271667	963.148438	-80.053467
11932.026064	2772.271667	961.977539	27.599691
11932.026064	2772.271667	960.806641	122.733887
11932.026064	2772.271667	959.635742	103.096359
11932.026064	2772.271667	958.463867	18.586481
11932.026064	2772.271667	957.292969	101.667679
11932.026064	2772.271667	956.121094	123.138046
11932.026064	2772.271667	954.948242	-7.050134
11932.026064	2772.271667	953.776367	-45.847446
11932.026064	2772.271667	952.603516	112.740433
11932.026064	2772.271667	951.430664	100.647469
11932.026064	2772.271667	950.257813	132.950485
11932.026064	2772.271667	949.084961	85.618370
11932.026064	2772.271667	947.911133	113.462502
11932.026064	2772.271667	946.737305	-83.136322
11932.026064	2772.271667	945.563477	-9.417213
11932.026064	2772.271667	944.388672	16.123539
11932.026064	2772.271667	943.213867	119.809143
11932.026064	2772.271667	942.039063	-70.183983
11932.026064	2772.271667	940.864258	99.968994
11932.026064	2772.271667	939.688477	6.283962
11932.026064	2772.271667	938.513672	343.778870
11932.026064	2772.271667	937.337891	240.875000
11932.026064	2772.271667	936.161133	280.362457
11932.026064	2772.271667	934.985352	170.622543
11932.026064	2772.271667	933.808594	145.654587
11932.026064	2772.271667	932.631836	255.889282
11932.026064	2772.271667	931.454102	79.844368
11932.026064	2772.271667	930.277344	196.870483
11932.026064	2772.271667	929.099609	194.821793
11932.026064	2772.271667	927.921875	119.455238
11932.026064	2772.271667	926.743164	176.918869
11932.026064	2772.271667	925.565430	167.986237
11932.026064	2772.271667	924.386719	76.609581
11932.026064	2772.271667	923.208008	-53.671432
11932.026064	2772.271667	922.028320	-21.399706
11932.026064	2772.271667	920.849609	-87.547722
11932.026064	2772.271667	919.669922	-85.839592
11932.026064	2772.271667	919.474609	111.998558
11932.026064	2772.271667	918.309570	27.509911
11932.026064	2772.271667	917.143555	93.985771
11932.026064	2772.271667	915.977539	64.391617
11932.026064	2772.271667	914.810547	23.370996
11932.026064	2772.271667	913.644531	-141.065079
11932.026064	2772.271667	912.477539	85.307884
11932.026064	2772.271667	911.310547	-138.492844
11932.026064	2772.271667	910.143555	-90.397369
11932.026064	2772.271667	908.975586	26.181179
11932.026064	2772.271667	907.807617	-92.470886
11932.026064	2772.271667	906.639648	76.544472
11932.026064	2772.271667	905.471680	28.662848
11932.026064	2772.271667	904.303711	8.172897
11932.026064	2772.271667	903.134766	-3.191606
11932.026064	2772.271667	901.965820	-60.178978
11932.026064	2772.271667	900.796875	31.076077
11932.026064	2772.271667	899.626953	-164.991531
11932.026064	2772.271667	898.457031	17.410927
11932.026064	2772.271667	897.287109	92.614059
11932.026064	2772.271667	896.117188	-146.667236
11932.026064	2772.271667	894.947266	-50.976875
11932.026064	2772.271667	893.776367	165.382721
11932.026064	2772.271667	892.605469	33.234077
11932.026064	2772.271667	891.434570	69.608475
11932.026064	2772.271667	890.262695	231.154129
11932.026064	2772.271667	889.091797	180.974609
11932.026064	2772.271667	887.919922	96.677330
11932.026064	2772.271667	886.748047	78.376839
11932.026064	2772.271667	885.575195	66.899033
11932.026064	2772.271667	884.403320	-17.350222
11932.026064	2772.271667	883.230469	-94.752342
11932.026064	2772.271667	882.057617	9.708588
11932.026064	2772.271667	880.883789	-22.233845
11932.026064	2772.271667	879.710938	0.357035
11932.026064	2772.271667	878.537109	11.572382
11932.026064	2772.271667	877.362305	109.079170
11932.026064	2772.271667	876.188477	-165.857269
11932.026064	2772.271667	875.013672	-195.504730
11932.026064	2772.271667	873.839844	-45.839073
11932.026064	2772.271667	872.664063	126.451103
11932.026064	2772.271667	871.489258	37.745308
11932.026064	2772.271667	870.313477	-50.932335
11932.026064	2772.271667	869.138672	1.026351
11932.026064	2772.271667	867.962891	-49.079144
11932.026064	2772.271667	866.786133	-69.701988
11932.026064	2772.271667	865.610352	25.265539
11932.026064	2772.271667	864.433594	-38.437187
11932.026064	2772.271667	863.256836	-22.827368
11932.026064	2772.271667	862.079102	-14.028033
11932.026064	2772.271667	860.902344	-55.065205
11932.026064	2772.271667	859.724609	78.248665
11932.026064	2772.271667	858.546875	91.520912
11932.026064	2772.271667	857.368164	159.097687
11932.026064	2772.271667	856.190430	59.189365
11932.026064	2772.271667	855.011719	9.084479
11932.026064	2772.271667	853.833008	53.989017
11932.026064	2772.271667	852.654297	-61.694244
11932.026064	2772.271667	851.474609	-138.903381
11932.026064	2772.271667	850.294922	-19.429457
11932.026064	2772.271667	849.115234	-123.754967
11932.026064	2772.271667	847.935547	-42.765240
11932.026064	2772.271667	846.754883	-97.363220
11932.026064	2772.271667	845.575195	10.670832
11932.026064	2772.271667	844.393555	132.200424
11932.026064	2772.271667	843.212891	163.361908
11932.026064	2772.271667	842.032227	-51.537270
11932.026064	2772.271667	840.850586	-94.844444
11932.026064	2772.271667	839.668945	-5.022999
11932.026064	2772.271667	838.486328	66.704681
11932.026064	2772.271667	837.304688	9.835315
11932.026064	2772.271667	836.122070	-83.098724
11932.026064	2772.271667	834.939453	-58.775154
11932.026064	2772.271667	833.756836	109.781029
11932.026064	2772.271667	832.573242	-19.205357
11932.026064	2772.271667	831.389648	137.986435
11932.026064	2772.271667	830.206055	-36.027481
11932.026064	2772.271667	829.022461	37.751785
11932.026064	2772.271667	827.838867	41.686928
11932.026064	2772.271667	826.654297	-93.963600
11932.026064	2772.271667	825.469727	-31.506845
11932.026064	2772.271667	824.284180	-115.354301
11932.026064	2772.271667	823.099609	75.294655
11932.026064	2772.271667	821.914063	49.917942
11932.026064	2772.271667	820.728516	-153.122025
11932.026064	2772.271667	819.542969	-75.039749
11932.026064	2772.271667	818.356445	36.716610
11932.026064	2772.271667	817.169922	9.070524
11932.026064	2772.271667	815.983398	1.645873
11932.026064	2772.271667	814.796875	-34.994492
11932.026064	2772.271667	813.609375	20.457067
11932.026064	2772.271667	812.422852	69.134834
11932.026064	2772.271667	811.235352	41.443771
11932.026064	2772.271667	810.046875	152.922272
11932.026064	2772.271667	808.859375	60.114334
11932.026064	2772.271667	807.670898	27.913141
11932.026064	2772.271667	806.482422	125.822304
11932.026064	2772.271667	805.293945	129.477417
11932.026064	2772.271667	804.104492	177.964340
11932.026064	2772.271667	802.915039	282.463470
11932.026064	2772.271667	801.725586	113.448288
11932.026064	2772.271667	800.536133	27.403984
11932.026064	2772.271667	799.345703	28.760593
11932.026064	2772.271667	798.155273	54.741539
11932.026064	2772.271667	796.964844	107.570770
11932.026064	2772.271667	795.774414	-144.158600
11932.026064	2772.271667	794.583008	-124.921402
11932.026064	2772.271667	793.392578	42.012234
11932.026064	2772.271667	792.200195	-21.626051
11932.026064	2772.271667	791.008789	120.574333
11932.026064	2772.271667	789.816406	99.411926
11932.026064	2772.271667	788.625000	-62.648457
11932.026064	2772.271667	787.432617	-92.741928
11932.026064	2772.271667	786.239258	40.345646
11932.026064	2772.271667	785.046875	137.600647
11932.026064	2772.271667	783.853516	67.211128
11932.026064	2772.271667	782.660156	86.194115
11932.026064	2772.271667	781.465820	-53.432198
11932.026064	2772.271667	780.272461	215.638504
11932.026064	2772.271667	779.078125	-46.788647
11932.026064	2772.271667	777.883789	77.040237
11932.026064	2772.271667	776.688477	15.567115
11932.026064	2772.271667	775.494141	36.656052
11932.026064	2772.271667	774.298828	178.179413
11932.026064	2772.271667	773.103516	-32.766052
11932.026064	2772.271667	771.907227	3.870916
11932.026064	2772.271667	770.711914	223.282135
11932.026064	2772.271667	769.515625	21.314962
11932.026064	2772.271667	768.318359	64.542397
11932.026064	2772.271667	767.122070	38.663181
11932.026064	2772.271667	765.924805	79.600258
11932.026064	2772.271667	764.727539	40.324493
11932.026064	2772.271667	763.530273	41.123310
11932.026064	2772.271667	762.333008	104.232368
11932.026064	2772.271667	761.134766	220.710114
11932.026064	2772.271667	759.936523	114.594879
11932.026064	2772.271667	758.738281	139.762955
11932.026064	2772.271667	757.540039	51.459759
11932.026064	2772.271667	756.340820	-5.695771
11932.026064	2772.271667	755.141602	121.689743
11932.026064	2772.271667	753.942383	40.046307
11932.026064	2772.271667	752.742188	189.547974
11932.026064	2772.271667	751.541992	-58.770710
11932.026064	2772.271667	750.341797	75.092529
11932.026064	2772.271667	749.141602	66.728348
11932.026064	2772.271667	747.941406	40.579445
11932.026064	2772.271667	746.740234	145.405243
11932.026064	2772.271667	745.539063	57.052387
11932.026064	2772.271667	744.337891	168.440170
11932.026064	2772.271667	743.135742	37.914368
11932.026064	2772.271667	741.933594	67.134697
11932.026064	2772.271667	740.731445	40.872002
11932.026064	2772.271667	739.529297	34.551899
11932.026064	2772.271667	738.326172	127.969337
11932.026064	2772.271667	737.124023	-15.835187
11932.026064	2772.271667	735.919922	217.107880
11932.026064	2772.271667	734.716797	272.688538
11932.026064	2772.271667	733.513672	312.714935
11932.026064	2772.271667	732.309570	222.038559
11932.026064	2772.271667	731.105469	102.590294
11932.026064	2772.271667	729.900391	138.120529
11932.026064	2772.271667	728.696289	193.528961
11932.026064	2772.271667	727.491211	271.014221
11932.026064	2772.271667	726.286133	220.129379
11932.026064	2772.271667	725.080078	71.919182
11932.026064	2772.271667	723.874023	155.934296
11932.026064	2772.271667	722.668945	82.915932
11932.026064	2772.271667	721.461914	-9.994253
11932.026064	2772.271667	720.255859	3.184898
11932.026064	2772.271667	719.048828	173.203995
11932.026064	2772.271667	717.841797	-34.618114
11932.026064	2772.271667	716.634766	-17.108170
11932.026064	2772.271667	715.427734	-6.257973
11932.026064	2772.271667	714.219727	-70.500488
11932.026064	2772.271667	713.011719	-70.735977
11932.026064	2772.271667	711.803711	-20.245781
11932.026064	2772.271667	710.594727	-82.323753
11932.026064	2772.271667	709.385742	-64.996544
11932.026064	2772.271667	708.176758	-47.704666
11932.026064	2772.271667	706.967773	123.891174
11932.026064	2772.271667	705.758789	255.707428
11932.026064	2772.271667	704.548828	21.585882
11932.026064	2772.271667	703.338867	-16.357405
11932.026064	2772.271667	702.127930	-27.878813
11932.026064	2772.271667	700.917969	75.108963
11932.026064	2772.271667	699.707031	-15.759341
11932.026064	2772.271667	698.496094	-102.215706
11932.026064	2772.271667	697.285156	-96.216225
11932.026064	2772.271667	696.073242	-28.630144
11932.026064	2772.271667	694.861328	115.906326
11932.026064	2772.271667	693.649414	-30.016479
11932.026064	2772.271667	692.436523	-147.317688
11932.026064	2772.271667	691.224609	-40.315357
11932.026064	2772.271667	690.011719	57.817806
11932.026064	2772.271667	688.798828	28.400824
11932.026064	2772.271667	687.584961	42.915386
11932.026064	2772.271667	686.372070	-37.075981
11932.026064	2772.271667	685.158203	49.872990
11932.026064	2772.271667	683.943359	110.401421
11932.026064	2772.271667	682.729492	118.181854
11932.026064	2772.271667	681.514648	143.489532
11932.026064	2772.271667	680.299805	129.252579
11932.026064	2772.271667	679.084961	29.417831
11932.026064	2772.271667	677.869141	315.696808
11932.026064	2772.271667	676.653320	193.872223
11932.026064	2772.271667	675.437500	69.876251
11932.026064	2772.271667	674.221680	130.063492
11932.026064	2772.271667	673.004883	47.720608
11932.026064	2772.271667	671.789063	57.425873
11932.026064	2772.271667	670.571289	130.633789
11932.026064	2772.271667	669.354492	265.118591
11932.026064	2772.271667	668.136719	130.138000
11932.026064	2772.271667	666.919922	-147.137207
11932.026064	2772.271667	665.701172	48.528004
11932.026064	2772.271667	664.483398	12.083421
11932.026064	2772.271667	663.264648	168.188019
11932.026064	2772.271667	662.045898	52.916313
11932.026064	2772.271667	660.827148	215.452560
11932.026064	2772.271667	659.608398	102.350639
11932.026064	2772.271667	658.388672	-76.324654
11932.026064	2772.271667	657.168945	70.749390
11932.026064	2772.271667	655.949219	71.308800
11932.026064	2772.271667	654.728516	100.243530
11932.026064	2772.271667	653.507813	170.645416
11932.026064	2772.271667	652.287109	72.816902
11932.026064	2772.271667	651.066406	154.059479
11932.026064	2772.271667	649.844727	-22.372192
11932.026064	2772.271667	648.623047	133.012253
11932.026064	2772.271667	647.401367	161.736008
11932.026064	2772.271667	646.179688	138.060059
11932.026064	2772.271667	644.957031	116.547119
11932.026064	2772.271667	643.734375	166.986008
11932.026064	2772.271667	642.511719	263.166046
11932.026064	2772.271667	641.289063	84.611450
11932.026064	2772.271667	640.065430	12.899040
11932.026064	2772.271667	638.841797	233.177597
11932.026064	2772.271667	637.618164	-1.974442
11932.026064	2772.271667	636.393555	-10.533512
11932.026064	2772.271667	635.168945	205.181488
11932.026064	2772.271667	633.944336	41.957962
11932.026064	2772.271667	632.719727	131.276230
11932.026064	2772.271667	631.494141	-27.557453
11932.026064	2772.271667	630.269531	-47.095066
11932.026064	2772.271667	629.042969	59.516533
11932.026064	2772.271667	627.817383	-3.574124
11932.026064	2772.271667	626.590820	76.847626
11932.026064	2772.271667	625.365234	-53.653809
11932.026064	2772.271667	624.137695	224.485474
11932.026064	2772.271667	622.911133	20.083172
11932.026064	2772.271667	621.683594	69.931984
11932.026064	2772.271667	620.456055	-49.681255
11932.026064	2772.271667	619.228516	10.980670
11932.026064	2772.271667	618.000977	84.625191
11932.026064	2772.271667	616.772461	99.609245
11932.026064	2772.271667	615.543945	8.227563
11932.026064	2772.271667	614.314453	-128.700516
11932.026064	2772.271667	613.085938	88.012291
11932.026064	2772.271667	611.856445	241.717133
11932.026064	2772.271667	610.626953	50.566715
11932.026064	2772.271667	609.397461	-1.770550
11932.026064	2772.271667	608.166992	173.480209
11932.026064	2772.271667	606.936523	6.254473
11932.026064	2772.271667	605.706055	40.574184
11932.026064	2772.271667	604.474609	38.038906
11932.026064	2772.271667	603.244141	-74.952911
11932.026064	2772.271667	602.012695	39.429718
11932.026064	2772.271667	600.780273	-58.392349
11932.026064	2772.271667	599.548828	-2.521075
11932.026064	2772.271667	598.316406	-74.351593
11932.026064	2772.271667	597.083984	11.760194
11932.026064	2772.271667	595.851563	-27.621750
11932.026064	2772.271667	594.618164	32.471252
11932.026064	2772.271667	593.384766	-4.759054
11932.026064	2772.271667	592.151367	25.023277
11932.026064	2772.271667	590.917969	-64.071869
11932.026064	2772.271667	589.683594	-161.782379
11932.026064	2772.271667	588.449219	86.157021
11932.026064	2772.271667	587.214844	-74.188721
11932.026064	2772.271667	585.979492	22.467415
11932.026064	2772.271667	584.745117	-68.730751
11932.026064	2772.271667	583.509766	-51.984604
11932.026064	2772.271667	582.273438	-78.409843
11932.026064	2772.271667	581.038086	-53.049648
11932.026064	2772.271667	579.801758	4.646059
11932.026064	2772.271667	578.565430	86.034363
11932.026064	2772.271667	577.329102	-48.211849
11932.026064	2772.271667	576.091797	-83.252350
11932.026064	2772.271667	574.854492	6.711855
11932.026064	2772.271667	573.617188	-19.711300
11932.026064	2772.271667	572.378906	-15.969184
11932.026064	2772.271667	571.141602	-31.609358
11932.026064	2772.271667	569.903320	142.236099
11932.026064	2772.271667	568.664063	77.050621
11932.026064	2772.271667	567.425781	-33.301273
11932.026064	2772.271667	566.186523	47.904797
11932.026064	2772.271667	564.947266	92.505386
11932.026064	2772.271667	563.708008	81.165550
11932.026064	2772.271667	562.467773	31.122959
11932.026064	2772.271667	561.227539	47.754684
11932.026064	2772.271667	559.987305	29.990894
11932.026064	2772.271667	558.747070	78.859894
11932.026064	2772.271667	557.505859	121.264389
11932.026064	2772.271667	556.264648	-12.491826
11932.026064	2772.271667	555.023438	-71.016220
11932.026064	2772.271667	553.781250	12.205257
11932.026064	2772.271667	552.539063	30.994894
11932.026064	2772.271667	551.296875	24.027918
11932.026064	2772.271667	550.054688	-92.367126
11932.026064	2772.271667	548.811523	-19.912544
11932.026064	2772.271667	547.569336	174.782776
11932.026064	2772.271667	546.325195	-130.263779
11932.026064	2772.271667	545.082031	-126.429703
11932.026064	2772.271667	543.837891	-56.140434
11932.026064	2772.271667	542.593750	-60.880001
11932.026064	2772.271667	541.349609	103.661507
11932.026064	2772.271667	540.105469	-46.757793
11932.026064	2772.271667	538.860352	-179.970581
11932.026064	2772.271667	537.615234	72.311989
11932.026064	2772.271667	536.369141	129.682510
11932.026064	2772.271667	535.124023	84.305695
11932.026064	2772.271667	533.877930	71.055908
11932.026064	2772.271667	532.631836	44.987007
11932.026064	2772.271667	531.384766	-68.758141
11932.026064	2772.271667	530.138672	-94.761101
11932.026064	2772.271667	528.891602	195.689423
11932.026064	2772.271667	527.643555	-140.289230
11932.026064	2772.271667	526.396484	150.071350
11932.026064	2772.271667	525.148438	-29.750473
11932.026064	2772.271667	523.900391	164.355576
11932.026064	2772.271667	522.652344	-100.796509
11932.026064	2772.271667	521.403320	-34.852551
11932.026064	2772.271667	520.154297	-26.564690
11932.026064	2772.271667	518.905273	-43.880253
11932.026064	2772.271667	517.656250	17.780256
11932.026064	2772.271667	516.406250	4.752889
11932.026064	2772.271667	515.156250	28.005056
11932.026064	2772.271667	513.906250	157.887161
11932.026064	2772.271667	512.655273	-57.675461
11932.026064	2772.271667	511.404297	-87.681358
11932.026064	2772.271667	510.153320	10.208056
11932.026064	2772.271667	508.902344	-160.403549
11932.026064	2772.271667	507.650391	-17.785275
11932.026064	2772.271667	506.398438	18.292658
11932.026064	2772.271667	505.146484	33.071987
11932.026064	2772.271667	503.893555	52.109692
11932.026064	2772.271667	502.641602	103.077431
11932.026064	2772.271667	501.388672	-11.951939
11932.026064	2772.271667	500.134766	-33.315437
11932.026064	2772.271667	498.881836	43.184284
11932.026064	2772.271667	497.627930	174.947144
11932.026064	2772.271667	496.374023	57.900715
11932.026064	2772.271667	495.119141	238.503555
11932.026064	2772.271667	493.865234	57.746243
11932.026064	2772.271667	492.610352	25.801939
11932.026064	2772.271667	491.355469	10.868519
11932.026064	2772.271667	490.099609	125.495148
11932.026064	2772.271667	488.843750	38.350258
11932.026064	2772.271667	487.587891	138.060638
11932.026064	2772.271667	486.332031	295.032776
11932.026064	2772.271667	485.075195	80.578331
11932.026064	2772.271667	483.818359	118.676979
11932.026064	2772.271667	482.561523	88.878105
11932.026064	2772.271667	481.304688	173.599670
11932.026064	2772.271667	480.046875	114.099800
11932.026064	2772.271667	478.789063	179.679718
11932.026064	2772.271667	477.531250	168.924164
11932.026064	2772.271667	476.272461	175.108093
11932.026064	2772.271667	475.013672	217.284988
11932.026064	2772.271667	473.754883	181.063263
11932.026064	2772.271667	472.496094	51.669464
11932.026064	2772.271667	471.236328	191.165283
11932.026064	2772.271667	469.976563	112.573151
11932.026064	2772.271667	468.716797	277.338104
11932.026064	2772.271667	467.456055	226.207047
11932.026064	2772.271667	466.196289	289.287933
11932.026064	2772.271667	464.935547	246.569916
11932.026064	2772.271667	463.673828	140.403839
11932.026064	2772.271667	462.413086	270.991730
11932.026064	2772.271667	461.151367	357.099152
11932.026064	2772.271667	459.889648	86.046822
11932.026064	2772.271667	458.626953	374.855164
11932.026064	2772.271667	457.364258	378.370636
11932.026064	2772.271667	456.101563	255.139297
11932.026064	2772.271667	454.838867	243.789734
11932.026064	2772.271667	453.575195	456.104950
11932.026064	2772.271667	452.312500	372.846375
11932.026064	2772.271667	451.047852	435.118591
11932.026064	2772.271667	449.784180	271.605469
11932.026064	2772.271667	448.519531	342.159027
11932.026064	2772.271667	447.254883	317.726654
11932.026064	2772.271667	445.990234	385.966797
11932.026064	2772.271667	444.725586	451.981201
11932.026064	2772.271667	443.459961	553.688660
11932.026064	2772.271667	442.194336	347.705719
11932.026064	2772.271667	440.927734	508.157349
11932.026064	2772.271667	439.662109	483.143738
11932.026064	2772.271667	438.395508	418.027435
11932.026064	2772.271667	437.127930	521.191772
11932.026064	2772.271667	435.861328	359.060303
11932.026064	2772.271667	434.593750	398.828552
11932.026064	2772.271667	433.326172	545.714233
11932.026064	2772.271667	432.058594	406.407928
11932.026064	2772.271667	430.790039	397.359741
11932.026064	2772.271667	429.521484	400.776489
11932.026064	2772.271667	428.252930	368.307220
11932.026064	2772.271667	426.984375	587.811829
11932.026064	2772.271667	425.714844	628.495178
11932.026064	2772.271667	424.445313	776.090149
11932.026064	2772.271667	423.174805	644.173889
11932.026064	2772.271667	421.905273	724.148315
11932.026064	2772.271667	420.634766	564.624390
11932.026064	2772.271667	419.364258	526.663940
11932.026064	2772.271667	418.092773	654.229492
11932.026064	2772.271667	416.822266	525.639404
11932.026064	2772.271667	415.550781	518.490906
11932.026064	2772.271667	414.278320	523.678528
11932.026064	2772.271667	413.006836	541.197876
11932.026064	2772.271667	411.734375	376.130707
11932.026064	2772.271667	410.461914	441.331573
11932.026064	2772.271667	409.188477	751.298401
11932.026064	2772.271667	407.916016	547.770630
11932.026064	2772.271667	406.642578	542.936890
11932.026064	2772.271667	405.368164	445.687195
11932.026064	2772.271667	404.094727	425.608307
11932.026064	2772.271667	402.820313	392.649567
11932.026064	2772.271667	401.545898	290.336273
11932.026064	2772.271667	400.270508	478.427673
11932.026064	2772.271667	398.996094	502.987152
11932.026064	2772.271667	397.720703	525.067383
11932.026064	2772.271667	396.444336	498.673645
11932.026064	2772.271667	395.168945	601.467957
11932.026064	2772.271667	393.892578	718.426208
11932.026064	2772.271667	392.616211	734.654968
11932.026064	2772.271667	391.339844	572.939514
11932.026064	2772.271667	390.062500	519.407593
11932.026064	2772.271667	388.785156	559.374756
11932.026064	2772.271667	387.507813	661.461426
11932.026064	2772.271667	386.229492	683.719238
11932.026064	2772.271667	384.951172	745.102417
11932.026064	2772.271667	383.672852	605.728638
11932.026064	2772.271667	382.394531	530.524780
11932.026064	2772.271667	381.115234	425.609894
11932.026064	2772.271667	379.835938	549.445374
11932.026064	2772.271667	378.556641	605.969910
11932.026064	2772.271667	377.277344	416.045532
11932.026064	2772.271667	375.997070	483.855652
11932.026064	2772.271667	374.716797	617.646240
11932.026064	2772.271667	373.435547	492.557037
11932.026064	2772.271667	372.155273	495.929138
11932.026064	2772.271667	370.874023	355.011688
11932.026064	2772.271667	369.591797	496.401428
11932.026064	2772.271667	368.310547	422.775452
11932.026064	2772.271667	367.028320	423.294647
11932.026064	2772.271667	365.746094	269.195190
11932.026064	2772.271667	364.463867	490.647125
11932.026064	2772.271667	363.180664	301.754425
11932.026064	2772.271667	361.897461	560.949097
11932.026064	2772.271667	360.614258	337.228088
11932.026064	2772.271667	359.330078	231.110291
11932.026064	2772.271667	358.045898	250.824112
11932.026064	2772.271667	356.761719	140.907303
11932.026064	2772.271667	355.477539	320.696960
11932.026064	2772.271667	354.192383	327.192810
11932.026064	2772.271667	352.907227	222.751221
11932.026064	2772.271667	351.622070	223.141525
11932.026064	2772.271667	350.336914	311.681519
11932.026064	2772.271667	349.050781	332.757629
11932.026064	2772.271667	347.764648	139.239044
11932.026064	2772.271667	346.477539	247.250809
11932.026064	2772.271667	345.191406	95.115562
11932.026064	2772.271667	343.904297	91.010345
11932.026064	2772.271667	342.616211	87.762062
11932.026064	2772.271667	341.329102	-11.916243
11932.026064	2772.271667	340.041016	46.578262
11932.026064	2772.271667	338.752930	23.055567
11932.026064	2772.271667	337.463867	155.471603
11932.026064	2772.271667	336.175781	40.341721
11932.026064	2772.271667	334.886719	-32.701988
11932.026064	2772.271667	333.596680	83.100739
11932.026064	2772.271667	332.307617	21.728672
11932.026064	2772.271667	331.017578	39.496414
11932.026064	2772.271667	329.727539	-20.700975
11932.026064	2772.271667	328.436523	20.861267
11932.026064	2772.271667	327.146484	-137.418503
11932.026064	2772.271667	325.855469	8.381164
11932.026064	2772.271667	324.563477	-56.107136
11932.026064	2772.271667	323.272461	-97.420158
11932.026064	2772.271667	321.980469	-136.343872
11932.026064	2772.271667	320.688477	103.628006
11932.026064	2772.271667	319.395508	-95.694221
11932.026064	2772.271667	318.103516	20.927977
11932.026064	2772.271667	316.810547	-132.488998
11932.026064	2772.271667	315.516602	-211.521729
11932.026064	2772.271667	314.223633	-38.886292
11932.026064	2772.271667	312.929688	123.383102
11932.026064	2772.271667	311.635742	-0.767970
11932.026064	2772.271667	310.340820	52.200909
11932.026064	2772.271667	309.045898	-26.716339
11932.026064	2772.271667	307.750977	-87.176407
11932.026064	2772.271667	306.456055	152.773651
11932.026064	2772.271667	305.160156	153.618912
11932.026064	2772.271667	303.865234	355.928040
11932.026064	2772.271667	302.568359	467.195190
11932.026064	2772.271667	301.272461	253.183273
11932.026064	2772.271667	299.975586	561.073975
11932.026064	2772.271667	298.678711	348.269714
