#X		#Y		#Wave		#Intensity
12606.551596	1473.376667	1999.980469	52.128681
12606.551596	1473.376667	1999.016602	-65.459183
12606.551596	1473.376667	1998.052734	30.834805
12606.551596	1473.376667	1997.087891	62.513477
12606.551596	1473.376667	1996.123047	59.349659
12606.551596	1473.376667	1995.158203	-77.723396
12606.551596	1473.376667	1994.193359	-1.878969
12606.551596	1473.376667	1993.228516	34.185165
12606.551596	1473.376667	1992.262695	-88.344704
12606.551596	1473.376667	1991.297852	147.978104
12606.551596	1473.376667	1990.332031	-100.989113
12606.551596	1473.376667	1989.366211	92.948700
12606.551596	1473.376667	1988.399414	108.576653
12606.551596	1473.376667	1987.433594	-9.480205
12606.551596	1473.376667	1986.466797	-258.669525
12606.551596	1473.376667	1985.500977	-122.137520
12606.551596	1473.376667	1984.534180	24.136358
12606.551596	1473.376667	1983.567383	-133.757126
12606.551596	1473.376667	1982.599609	71.592087
12606.551596	1473.376667	1981.632813	-158.078918
12606.551596	1473.376667	1980.665039	-66.606133
12606.551596	1473.376667	1979.697266	-22.174070
12606.551596	1473.376667	1978.729492	64.145271
12606.551596	1473.376667	1977.761719	113.324745
12606.551596	1473.376667	1976.792969	93.297920
12606.551596	1473.376667	1975.825195	97.891266
12606.551596	1473.376667	1974.856445	-25.895594
12606.551596	1473.376667	1973.887695	-18.941484
12606.551596	1473.376667	1972.918945	133.483932
12606.551596	1473.376667	1971.949219	4.648540
12606.551596	1473.376667	1970.980469	137.176956
12606.551596	1473.376667	1970.010742	20.610872
12606.551596	1473.376667	1969.041016	-110.749855
12606.551596	1473.376667	1968.071289	-5.528722
12606.551596	1473.376667	1967.101563	203.094070
12606.551596	1473.376667	1966.130859	-31.825155
12606.551596	1473.376667	1965.161133	48.568867
12606.551596	1473.376667	1964.190430	64.868690
12606.551596	1473.376667	1963.219727	19.575272
12606.551596	1473.376667	1962.249023	99.808907
12606.551596	1473.376667	1961.277344	-26.757359
12606.551596	1473.376667	1960.306641	109.991585
12606.551596	1473.376667	1959.334961	172.854721
12606.551596	1473.376667	1958.363281	93.000854
12606.551596	1473.376667	1957.391602	145.958237
12606.551596	1473.376667	1956.419922	19.377096
12606.551596	1473.376667	1955.447266	84.578484
12606.551596	1473.376667	1954.474609	7.175442
12606.551596	1473.376667	1953.501953	146.045609
12606.551596	1473.376667	1952.529297	292.220886
12606.551596	1473.376667	1951.556641	116.516281
12606.551596	1473.376667	1950.583984	134.899155
12606.551596	1473.376667	1949.610352	111.517334
12606.551596	1473.376667	1948.636719	41.485619
12606.551596	1473.376667	1947.663086	-92.349876
12606.551596	1473.376667	1946.689453	124.823708
12606.551596	1473.376667	1945.715820	148.058441
12606.551596	1473.376667	1944.741211	112.397423
12606.551596	1473.376667	1943.767578	125.807961
12606.551596	1473.376667	1942.792969	114.686455
12606.551596	1473.376667	1941.818359	108.472641
12606.551596	1473.376667	1940.842773	-44.833504
12606.551596	1473.376667	1939.868164	29.875780
12606.551596	1473.376667	1938.892578	168.275070
12606.551596	1473.376667	1937.916992	83.659424
12606.551596	1473.376667	1936.941406	30.927227
12606.551596	1473.376667	1935.965820	-16.881561
12606.551596	1473.376667	1934.990234	52.879429
12606.551596	1473.376667	1934.013672	191.173828
12606.551596	1473.376667	1933.037109	204.582611
12606.551596	1473.376667	1932.060547	315.893646
12606.551596	1473.376667	1931.083984	67.464073
12606.551596	1473.376667	1930.107422	2.628606
12606.551596	1473.376667	1929.129883	33.224773
12606.551596	1473.376667	1928.153320	-95.143219
12606.551596	1473.376667	1927.175781	28.401161
12606.551596	1473.376667	1926.198242	0.339952
12606.551596	1473.376667	1925.219727	96.958878
12606.551596	1473.376667	1924.242188	-77.704506
12606.551596	1473.376667	1923.263672	133.759552
12606.551596	1473.376667	1922.285156	37.355358
12606.551596	1473.376667	1921.306641	-122.500641
12606.551596	1473.376667	1920.328125	-38.082474
12606.551596	1473.376667	1919.349609	58.529175
12606.551596	1473.376667	1918.370117	98.974442
12606.551596	1473.376667	1917.391602	144.305115
12606.551596	1473.376667	1916.412109	-64.143242
12606.551596	1473.376667	1915.431641	-201.745285
12606.551596	1473.376667	1914.452148	-53.884018
12606.551596	1473.376667	1913.472656	-127.989677
12606.551596	1473.376667	1912.492188	7.646206
12606.551596	1473.376667	1911.511719	145.688599
12606.551596	1473.376667	1910.531250	3.392553
12606.551596	1473.376667	1909.550781	-107.150024
12606.551596	1473.376667	1908.569336	-125.046097
12606.551596	1473.376667	1907.588867	0.813116
12606.551596	1473.376667	1906.607422	-4.880192
12606.551596	1473.376667	1905.625977	-171.271835
12606.551596	1473.376667	1904.644531	47.101101
12606.551596	1473.376667	1903.662109	-97.293152
12606.551596	1473.376667	1902.680664	142.927338
12606.551596	1473.376667	1901.698242	-11.125235
12606.551596	1473.376667	1900.715820	-182.132019
12606.551596	1473.376667	1899.733398	-275.216125
12606.551596	1473.376667	1898.750000	-115.323357
12606.551596	1473.376667	1897.767578	15.352697
12606.551596	1473.376667	1896.784180	180.032776
12606.551596	1473.376667	1895.800781	-136.592377
12606.551596	1473.376667	1894.817383	-42.382294
12606.551596	1473.376667	1893.833984	10.505638
12606.551596	1473.376667	1892.850586	-33.777382
12606.551596	1473.376667	1891.866211	84.701767
12606.551596	1473.376667	1890.881836	91.451988
12606.551596	1473.376667	1889.897461	-15.893127
12606.551596	1473.376667	1888.913086	66.158371
12606.551596	1473.376667	1887.927734	-60.523849
12606.551596	1473.376667	1886.943359	-34.268688
12606.551596	1473.376667	1885.958008	-134.164719
12606.551596	1473.376667	1884.972656	100.729408
12606.551596	1473.376667	1883.987305	-28.221357
12606.551596	1473.376667	1883.001953	-45.571995
12606.551596	1473.376667	1882.015625	38.917309
12606.551596	1473.376667	1881.029297	-48.699902
12606.551596	1473.376667	1880.042969	217.540894
12606.551596	1473.376667	1879.056641	28.192078
12606.551596	1473.376667	1878.070313	-107.776947
12606.551596	1473.376667	1877.083984	20.316082
12606.551596	1473.376667	1876.096680	153.215897
12606.551596	1473.376667	1875.109375	104.499329
12606.551596	1473.376667	1874.122070	-164.461929
12606.551596	1473.376667	1873.134766	-12.200480
12606.551596	1473.376667	1872.146484	-26.945204
12606.551596	1473.376667	1871.159180	-12.639908
12606.551596	1473.376667	1870.170898	112.934807
12606.551596	1473.376667	1869.182617	90.955261
12606.551596	1473.376667	1868.194336	153.621231
12606.551596	1473.376667	1867.205078	97.818138
12606.551596	1473.376667	1866.216797	143.560989
12606.551596	1473.376667	1865.227539	99.882767
12606.551596	1473.376667	1864.238281	-105.646751
12606.551596	1473.376667	1863.249023	92.319649
12606.551596	1473.376667	1862.259766	51.117462
12606.551596	1473.376667	1861.269531	41.329391
12606.551596	1473.376667	1860.279297	9.824000
12606.551596	1473.376667	1859.290039	-53.041920
12606.551596	1473.376667	1858.298828	-120.705826
12606.551596	1473.376667	1857.308594	96.386002
12606.551596	1473.376667	1856.318359	-31.579227
12606.551596	1473.376667	1855.327148	23.820078
12606.551596	1473.376667	1854.335938	-22.081768
12606.551596	1473.376667	1853.344727	-94.484459
12606.551596	1473.376667	1852.353516	192.330276
12606.551596	1473.376667	1851.362305	250.071945
12606.551596	1473.376667	1850.370117	71.638680
12606.551596	1473.376667	1849.377930	30.605026
12606.551596	1473.376667	1848.385742	-12.820527
12606.551596	1473.376667	1847.393555	201.468964
12606.551596	1473.376667	1846.401367	-106.842407
12606.551596	1473.376667	1845.408203	39.974579
12606.551596	1473.376667	1844.415039	-66.000687
12606.551596	1473.376667	1843.421875	97.599464
12606.551596	1473.376667	1842.428711	-97.375824
12606.551596	1473.376667	1841.435547	-63.739552
12606.551596	1473.376667	1840.441406	-37.335716
12606.551596	1473.376667	1839.448242	92.461708
12606.551596	1473.376667	1838.454102	147.673187
12606.551596	1473.376667	1837.459961	190.840988
12606.551596	1473.376667	1836.464844	87.380875
12606.551596	1473.376667	1835.470703	125.729431
12606.551596	1473.376667	1834.475586	36.725468
12606.551596	1473.376667	1833.480469	166.335114
12606.551596	1473.376667	1832.485352	72.543228
12606.551596	1473.376667	1831.490234	86.830795
12606.551596	1473.376667	1830.495117	84.300880
12606.551596	1473.376667	1829.499023	28.960005
12606.551596	1473.376667	1828.502930	232.807541
12606.551596	1473.376667	1827.506836	215.832260
12606.551596	1473.376667	1826.510742	256.428284
12606.551596	1473.376667	1825.513672	-24.391081
12606.551596	1473.376667	1824.517578	21.011152
12606.551596	1473.376667	1823.520508	23.230505
12606.551596	1473.376667	1822.523438	-53.665249
12606.551596	1473.376667	1821.526367	106.722862
12606.551596	1473.376667	1820.529297	-39.670048
12606.551596	1473.376667	1819.531250	163.753326
12606.551596	1473.376667	1818.533203	67.679939
12606.551596	1473.376667	1817.535156	93.764656
12606.551596	1473.376667	1816.537109	153.347870
12606.551596	1473.376667	1815.539063	102.775833
12606.551596	1473.376667	1814.540039	-21.988947
12606.551596	1473.376667	1813.541992	97.365562
12606.551596	1473.376667	1812.542969	85.068481
12606.551596	1473.376667	1811.543945	106.251221
12606.551596	1473.376667	1810.543945	-44.789772
12606.551596	1473.376667	1809.544922	9.854344
12606.551596	1473.376667	1808.544922	-64.640144
12606.551596	1473.376667	1807.544922	195.517441
12606.551596	1473.376667	1806.544922	123.371628
12606.551596	1473.376667	1805.544922	-73.012512
12606.551596	1473.376667	1804.544922	110.500397
12606.551596	1473.376667	1803.543945	-16.578434
12606.551596	1473.376667	1802.542969	76.071060
12606.551596	1473.376667	1801.541992	46.899704
12606.551596	1473.376667	1800.541016	137.076096
12606.551596	1473.376667	1799.539063	38.650467
12606.551596	1473.376667	1798.538086	54.781097
12606.551596	1473.376667	1797.536133	-110.434158
12606.551596	1473.376667	1796.534180	8.244823
12606.551596	1473.376667	1795.532227	105.394882
12606.551596	1473.376667	1794.529297	85.648201
12606.551596	1473.376667	1793.527344	-167.741013
12606.551596	1473.376667	1792.524414	248.711655
12606.551596	1473.376667	1791.521484	236.032593
12606.551596	1473.376667	1790.518555	187.595535
12606.551596	1473.376667	1789.514648	67.686874
12606.551596	1473.376667	1788.511719	19.254438
12606.551596	1473.376667	1787.507813	101.783424
12606.551596	1473.376667	1786.503906	122.356995
12606.551596	1473.376667	1785.500000	45.303017
12606.551596	1473.376667	1784.496094	-10.326020
12606.551596	1473.376667	1783.491211	107.739594
12606.551596	1473.376667	1782.486328	220.977661
12606.551596	1473.376667	1781.481445	153.377228
12606.551596	1473.376667	1780.476563	-47.396900
12606.551596	1473.376667	1779.471680	87.128693
12606.551596	1473.376667	1778.465820	14.758780
12606.551596	1473.376667	1777.460938	151.546249
12606.551596	1473.376667	1776.455078	117.159447
12606.551596	1473.376667	1775.449219	18.612535
12606.551596	1473.376667	1774.442383	171.865494
12606.551596	1473.376667	1773.436523	125.539772
12606.551596	1473.376667	1772.429688	368.891449
12606.551596	1473.376667	1771.422852	101.703362
12606.551596	1473.376667	1770.416016	-153.542236
12606.551596	1473.376667	1769.409180	-52.747818
12606.551596	1473.376667	1768.402344	164.242706
12606.551596	1473.376667	1767.394531	198.458527
12606.551596	1473.376667	1766.386719	114.042984
12606.551596	1473.376667	1765.378906	-98.421028
12606.551596	1473.376667	1764.371094	85.106415
12606.551596	1473.376667	1763.362305	171.344833
12606.551596	1473.376667	1762.354492	371.283539
12606.551596	1473.376667	1761.345703	123.271828
12606.551596	1473.376667	1760.336914	98.020645
12606.551596	1473.376667	1759.328125	224.342407
12606.551596	1473.376667	1758.318359	177.707535
12606.551596	1473.376667	1757.308594	67.131737
12606.551596	1473.376667	1756.299805	-100.243187
12606.551596	1473.376667	1755.290039	-42.737133
12606.551596	1473.376667	1754.279297	-56.276985
12606.551596	1473.376667	1753.269531	69.752083
12606.551596	1473.376667	1752.258789	72.696045
12606.551596	1473.376667	1751.249023	-71.020569
12606.551596	1473.376667	1750.238281	50.118038
12606.551596	1473.376667	1749.226563	-17.951714
12606.551596	1473.376667	1748.215820	121.981026
12606.551596	1473.376667	1747.204102	-28.848372
12606.551596	1473.376667	1746.193359	-92.226006
12606.551596	1473.376667	1745.181641	-165.060150
12606.551596	1473.376667	1744.168945	-98.548126
12606.551596	1473.376667	1743.157227	-22.643833
12606.551596	1473.376667	1742.144531	88.614433
12606.551596	1473.376667	1741.132813	-7.923380
12606.551596	1473.376667	1740.120117	56.027573
12606.551596	1473.376667	1739.106445	82.168427
12606.551596	1473.376667	1738.093750	84.680374
12606.551596	1473.376667	1737.080078	84.800262
12606.551596	1473.376667	1736.067383	14.145910
12606.551596	1473.376667	1735.053711	-2.285173
12606.551596	1473.376667	1734.040039	179.280334
12606.551596	1473.376667	1733.025391	-197.846832
12606.551596	1473.376667	1732.011719	-42.292778
12606.551596	1473.376667	1730.997070	54.267960
12606.551596	1473.376667	1729.982422	65.962341
12606.551596	1473.376667	1728.967773	-164.953644
12606.551596	1473.376667	1727.952148	-96.770958
12606.551596	1473.376667	1726.937500	-82.787254
12606.551596	1473.376667	1725.921875	-31.180250
12606.551596	1473.376667	1724.906250	-69.047424
12606.551596	1473.376667	1723.890625	-41.048779
12606.551596	1473.376667	1722.875000	-15.441990
12606.551596	1473.376667	1721.858398	-27.508347
12606.551596	1473.376667	1720.841797	200.258316
12606.551596	1473.376667	1719.825195	-173.966049
12606.551596	1473.376667	1718.808594	-188.428329
12606.551596	1473.376667	1717.791992	-3.149861
12606.551596	1473.376667	1716.774414	-36.495995
12606.551596	1473.376667	1715.756836	87.543495
12606.551596	1473.376667	1714.739258	40.044968
12606.551596	1473.376667	1713.721680	131.090668
12606.551596	1473.376667	1712.704102	130.506958
12606.551596	1473.376667	1711.685547	-57.905602
12606.551596	1473.376667	1710.667969	9.557193
12606.551596	1473.376667	1709.649414	-136.574097
12606.551596	1473.376667	1708.630859	-106.715805
12606.551596	1473.376667	1707.611328	16.928648
12606.551596	1473.376667	1706.592773	-58.840614
12606.551596	1473.376667	1705.573242	-104.127968
12606.551596	1473.376667	1704.553711	40.467758
12606.551596	1473.376667	1703.534180	2.159718
12606.551596	1473.376667	1702.513672	-5.696041
12606.551596	1473.376667	1701.494141	61.404953
12606.551596	1473.376667	1700.473633	-260.406525
12606.551596	1473.376667	1699.453125	-87.941063
12606.551596	1473.376667	1698.432617	98.484230
12606.551596	1473.376667	1697.412109	1.532712
12606.551596	1473.376667	1696.390625	-43.913284
12606.551596	1473.376667	1695.369141	48.712692
12606.551596	1473.376667	1694.347656	-10.808785
12606.551596	1473.376667	1693.326172	-39.917854
12606.551596	1473.376667	1692.304688	61.941460
12606.551596	1473.376667	1691.282227	-74.787071
12606.551596	1473.376667	1690.260742	-17.425632
12606.551596	1473.376667	1689.238281	98.329025
12606.551596	1473.376667	1688.214844	-87.475960
12606.551596	1473.376667	1687.192383	-121.341370
12606.551596	1473.376667	1686.168945	185.870926
12606.551596	1473.376667	1685.146484	72.508850
12606.551596	1473.376667	1684.123047	115.634285
12606.551596	1473.376667	1683.099609	210.091309
12606.551596	1473.376667	1682.075195	110.731773
12606.551596	1473.376667	1681.051758	18.396931
12606.551596	1473.376667	1680.027344	70.754013
12606.551596	1473.376667	1679.002930	193.066116
12606.551596	1473.376667	1677.978516	180.021103
12606.551596	1473.376667	1676.953125	332.544983
12606.551596	1473.376667	1675.928711	34.971394
12606.551596	1473.376667	1674.903320	201.418579
12606.551596	1473.376667	1673.877930	230.265945
12606.551596	1473.376667	1672.852539	112.271683
12606.551596	1473.376667	1671.826172	348.454529
12606.551596	1473.376667	1670.800781	391.187317
12606.551596	1473.376667	1669.774414	359.355774
12606.551596	1473.376667	1668.748047	544.080627
12606.551596	1473.376667	1667.721680	281.717651
12606.551596	1473.376667	1666.694336	522.219238
12606.551596	1473.376667	1665.667969	276.225861
12606.551596	1473.376667	1664.640625	516.609497
12606.551596	1473.376667	1663.613281	552.170593
12606.551596	1473.376667	1662.585938	396.981812
12606.551596	1473.376667	1661.557617	341.831360
12606.551596	1473.376667	1660.530273	395.970245
12606.551596	1473.376667	1659.501953	496.564270
12606.551596	1473.376667	1658.473633	236.873947
12606.551596	1473.376667	1657.444336	21.418859
12606.551596	1473.376667	1656.416016	-17.395630
12606.551596	1473.376667	1655.386719	222.522049
12606.551596	1473.376667	1654.358398	223.145630
12606.551596	1473.376667	1653.328125	244.648376
12606.551596	1473.376667	1652.298828	101.319771
12606.551596	1473.376667	1651.269531	159.961685
12606.551596	1473.376667	1650.239258	378.685516
12606.551596	1473.376667	1649.208984	79.945168
12606.551596	1473.376667	1648.178711	224.358261
12606.551596	1473.376667	1647.148438	296.816833
12606.551596	1473.376667	1646.117188	234.751617
12606.551596	1473.376667	1645.086914	297.897156
12606.551596	1473.376667	1644.055664	291.473907
12606.551596	1473.376667	1643.024414	231.750198
12606.551596	1473.376667	1641.992188	271.669495
12606.551596	1473.376667	1640.960938	221.231979
12606.551596	1473.376667	1639.928711	263.447144
12606.551596	1473.376667	1638.896484	335.746429
12606.551596	1473.376667	1637.864258	201.970184
12606.551596	1473.376667	1636.832031	364.522125
12606.551596	1473.376667	1635.798828	399.723633
12606.551596	1473.376667	1634.766602	381.698944
12606.551596	1473.376667	1633.733398	241.070831
12606.551596	1473.376667	1632.699219	350.283081
12606.551596	1473.376667	1631.666016	498.769501
12606.551596	1473.376667	1630.632813	439.121979
12606.551596	1473.376667	1629.598633	305.527130
12606.551596	1473.376667	1628.564453	310.649841
12606.551596	1473.376667	1627.530273	352.743469
12606.551596	1473.376667	1626.495117	348.615753
12606.551596	1473.376667	1625.460938	275.206299
12606.551596	1473.376667	1624.425781	428.134033
12606.551596	1473.376667	1623.390625	393.991577
12606.551596	1473.376667	1622.355469	498.370148
12606.551596	1473.376667	1621.319336	295.754303
12606.551596	1473.376667	1620.284180	464.731995
12606.551596	1473.376667	1619.248047	211.459351
12606.551596	1473.376667	1618.211914	198.176376
12606.551596	1473.376667	1617.174805	263.311005
12606.551596	1473.376667	1616.138672	473.689392
12606.551596	1473.376667	1615.101563	391.224579
12606.551596	1473.376667	1614.065430	433.264160
12606.551596	1473.376667	1613.027344	325.505188
12606.551596	1473.376667	1611.990234	478.142181
12606.551596	1473.376667	1610.953125	209.198730
12606.551596	1473.376667	1609.915039	368.723969
12606.551596	1473.376667	1608.876953	459.121887
12606.551596	1473.376667	1607.838867	346.910461
12606.551596	1473.376667	1606.800781	292.296234
12606.551596	1473.376667	1605.761719	451.722839
12606.551596	1473.376667	1604.723633	477.660767
12606.551596	1473.376667	1603.684570	211.458817
12606.551596	1473.376667	1602.644531	370.844025
12606.551596	1473.376667	1601.605469	132.386383
12606.551596	1473.376667	1600.566406	383.715118
12606.551596	1473.376667	1599.526367	430.390198
12606.551596	1473.376667	1598.486328	364.456055
12606.551596	1473.376667	1597.446289	229.635818
12606.551596	1473.376667	1596.405273	384.323456
12606.551596	1473.376667	1595.365234	332.266510
12606.551596	1473.376667	1594.324219	454.759338
12606.551596	1473.376667	1593.283203	437.177399
12606.551596	1473.376667	1592.242188	373.713470
12606.551596	1473.376667	1591.200195	558.139587
12606.551596	1473.376667	1590.159180	400.639557
12606.551596	1473.376667	1589.117188	525.382996
12606.551596	1473.376667	1588.075195	443.673920
12606.551596	1473.376667	1587.032227	687.638916
12606.551596	1473.376667	1585.990234	633.484131
12606.551596	1473.376667	1584.947266	606.874329
12606.551596	1473.376667	1583.904297	665.092102
12606.551596	1473.376667	1582.861328	640.821350
12606.551596	1473.376667	1581.818359	653.236389
12606.551596	1473.376667	1580.775391	505.339478
12606.551596	1473.376667	1579.731445	758.267151
12606.551596	1473.376667	1578.687500	827.957092
12606.551596	1473.376667	1577.643555	716.805054
12606.551596	1473.376667	1576.598633	610.294373
12606.551596	1473.376667	1575.554688	732.673645
12606.551596	1473.376667	1574.509766	777.242981
12606.551596	1473.376667	1573.464844	611.389954
12606.551596	1473.376667	1572.419922	816.096436
12606.551596	1473.376667	1571.374023	600.048889
12606.551596	1473.376667	1570.329102	553.276978
12606.551596	1473.376667	1569.283203	431.124878
12606.551596	1473.376667	1568.237305	521.559265
12606.551596	1473.376667	1567.191406	385.809998
12606.551596	1473.376667	1566.144531	243.286331
12606.551596	1473.376667	1565.098633	233.305634
12606.551596	1473.376667	1564.051758	330.668518
12606.551596	1473.376667	1563.004883	432.589478
12606.551596	1473.376667	1561.957031	260.611664
12606.551596	1473.376667	1560.910156	332.901855
12606.551596	1473.376667	1559.862305	512.419067
12606.551596	1473.376667	1558.814453	358.868835
12606.551596	1473.376667	1557.766602	522.408813
12606.551596	1473.376667	1556.718750	266.374237
12606.551596	1473.376667	1555.669922	286.310455
12606.551596	1473.376667	1554.621094	281.200195
12606.551596	1473.376667	1553.573242	406.017395
12606.551596	1473.376667	1552.523438	296.145386
12606.551596	1473.376667	1551.474609	256.968109
12606.551596	1473.376667	1550.424805	267.940186
12606.551596	1473.376667	1549.375000	265.280609
12606.551596	1473.376667	1548.325195	142.000412
12606.551596	1473.376667	1547.275391	355.665344
12606.551596	1473.376667	1546.225586	186.972977
12606.551596	1473.376667	1545.174805	229.973770
12606.551596	1473.376667	1544.124023	166.079849
12606.551596	1473.376667	1543.073242	247.803238
12606.551596	1473.376667	1542.022461	256.768250
12606.551596	1473.376667	1540.970703	372.613342
12606.551596	1473.376667	1539.919922	115.688454
12606.551596	1473.376667	1538.868164	270.223419
12606.551596	1473.376667	1537.815430	229.335770
12606.551596	1473.376667	1536.763672	252.110596
12606.551596	1473.376667	1535.710938	265.827698
12606.551596	1473.376667	1534.659180	352.243835
12606.551596	1473.376667	1533.606445	268.391968
12606.551596	1473.376667	1532.552734	175.532166
12606.551596	1473.376667	1531.500000	284.723694
12606.551596	1473.376667	1530.446289	232.818069
12606.551596	1473.376667	1529.393555	226.343109
12606.551596	1473.376667	1528.338867	315.165070
12606.551596	1473.376667	1527.285156	308.756104
12606.551596	1473.376667	1526.231445	413.480560
12606.551596	1473.376667	1525.176758	321.001892
12606.551596	1473.376667	1524.122070	332.847687
12606.551596	1473.376667	1523.067383	417.235870
12606.551596	1473.376667	1522.012695	207.139374
12606.551596	1473.376667	1520.957031	309.720764
12606.551596	1473.376667	1519.901367	355.692932
12606.551596	1473.376667	1518.845703	283.962372
12606.551596	1473.376667	1517.790039	490.719696
12606.551596	1473.376667	1516.734375	475.654572
12606.551596	1473.376667	1515.677734	607.710022
12606.551596	1473.376667	1514.621094	432.096741
12606.551596	1473.376667	1513.564453	566.457581
12606.551596	1473.376667	1512.507813	323.171600
12606.551596	1473.376667	1511.450195	737.934937
12606.551596	1473.376667	1510.393555	465.414429
12606.551596	1473.376667	1509.335938	410.002228
12606.551596	1473.376667	1508.278320	472.151001
12606.551596	1473.376667	1507.219727	462.029663
12606.551596	1473.376667	1506.162109	388.717834
12606.551596	1473.376667	1505.103516	270.315002
12606.551596	1473.376667	1504.044922	167.809784
12606.551596	1473.376667	1502.986328	182.769653
12606.551596	1473.376667	1501.926758	66.872551
12606.551596	1473.376667	1500.868164	217.321686
12606.551596	1473.376667	1499.808594	203.072388
12606.551596	1473.376667	1498.749023	276.840576
12606.551596	1473.376667	1497.688477	195.027924
12606.551596	1473.376667	1496.628906	275.625366
12606.551596	1473.376667	1495.568359	142.093491
12606.551596	1473.376667	1494.507813	225.016129
12606.551596	1473.376667	1493.447266	8.272300
12606.551596	1473.376667	1492.386719	154.362106
12606.551596	1473.376667	1491.325195	54.935524
12606.551596	1473.376667	1490.263672	128.991272
12606.551596	1473.376667	1489.202148	92.745270
12606.551596	1473.376667	1488.140625	155.605774
12606.551596	1473.376667	1487.079102	213.987900
12606.551596	1473.376667	1486.016602	24.882683
12606.551596	1473.376667	1484.954102	135.105942
12606.551596	1473.376667	1483.891602	-13.325636
12606.551596	1473.376667	1482.829102	16.002048
12606.551596	1473.376667	1481.765625	-219.932510
12606.551596	1473.376667	1480.702148	-96.074417
12606.551596	1473.376667	1479.638672	-26.152142
12606.551596	1473.376667	1478.575195	-77.534782
12606.551596	1473.376667	1477.511719	1.448587
12606.551596	1473.376667	1476.447266	-18.385454
12606.551596	1473.376667	1475.382813	-89.795723
12606.551596	1473.376667	1474.318359	-286.851532
12606.551596	1473.376667	1473.253906	-259.359528
12606.551596	1473.376667	1472.189453	-29.938829
12606.551596	1473.376667	1471.124023	-92.066589
12606.551596	1473.376667	1470.058594	-293.191345
12606.551596	1473.376667	1468.993164	106.666412
12606.551596	1473.376667	1467.927734	31.134581
12606.551596	1473.376667	1466.861328	139.439301
12606.551596	1473.376667	1465.794922	12.774430
12606.551596	1473.376667	1464.728516	-109.273148
12606.551596	1473.376667	1463.662109	-30.227863
12606.551596	1473.376667	1462.594727	-6.845850
12606.551596	1473.376667	1461.528320	59.497402
12606.551596	1473.376667	1460.460938	6.736971
12606.551596	1473.376667	1459.393555	43.639652
12606.551596	1473.376667	1458.326172	22.986650
12606.551596	1473.376667	1457.257813	224.560120
12606.551596	1473.376667	1456.189453	78.612076
12606.551596	1473.376667	1455.121094	40.593620
12606.551596	1473.376667	1454.052734	62.285931
12606.551596	1473.376667	1452.984375	232.103989
12606.551596	1473.376667	1451.915039	23.903387
12606.551596	1473.376667	1450.845703	222.317734
12606.551596	1473.376667	1449.776367	185.647705
12606.551596	1473.376667	1448.707031	287.265289
12606.551596	1473.376667	1447.636719	128.790939
12606.551596	1473.376667	1446.567383	82.872208
12606.551596	1473.376667	1445.497070	306.039154
12606.551596	1473.376667	1444.425781	164.075974
12606.551596	1473.376667	1443.355469	84.506935
12606.551596	1473.376667	1442.285156	255.314835
12606.551596	1473.376667	1441.213867	148.323486
12606.551596	1473.376667	1440.142578	130.517502
12606.551596	1473.376667	1439.070313	219.545990
12606.551596	1473.376667	1437.999023	286.012787
12606.551596	1473.376667	1436.926758	92.272873
12606.551596	1473.376667	1435.854492	241.279434
12606.551596	1473.376667	1434.782227	63.626060
12606.551596	1473.376667	1433.709961	105.202286
12606.551596	1473.376667	1432.636719	70.702324
12606.551596	1473.376667	1431.563477	-113.102448
12606.551596	1473.376667	1430.490234	-5.910419
12606.551596	1473.376667	1429.416992	53.054607
12606.551596	1473.376667	1428.343750	88.595207
12606.551596	1473.376667	1427.269531	72.221222
12606.551596	1473.376667	1426.195313	-86.472954
12606.551596	1473.376667	1425.121094	133.950012
12606.551596	1473.376667	1424.046875	59.168625
12606.551596	1473.376667	1422.971680	-42.796349
12606.551596	1473.376667	1421.896484	229.091675
12606.551596	1473.376667	1420.821289	112.690895
12606.551596	1473.376667	1419.746094	129.137833
12606.551596	1473.376667	1418.669922	149.087189
12606.551596	1473.376667	1417.594727	74.943855
12606.551596	1473.376667	1416.518555	380.006714
12606.551596	1473.376667	1415.442383	161.772034
12606.551596	1473.376667	1414.365234	-11.557506
12606.551596	1473.376667	1413.289063	51.984192
12606.551596	1473.376667	1412.211914	31.012709
12606.551596	1473.376667	1411.134766	166.521210
12606.551596	1473.376667	1410.057617	11.496777
12606.551596	1473.376667	1408.979492	199.411804
12606.551596	1473.376667	1407.902344	-20.967249
12606.551596	1473.376667	1406.824219	137.230469
12606.551596	1473.376667	1405.746094	229.894379
12606.551596	1473.376667	1404.666992	-10.224646
12606.551596	1473.376667	1403.588867	180.629745
12606.551596	1473.376667	1402.509766	197.464462
12606.551596	1473.376667	1401.430664	-34.108585
12606.551596	1473.376667	1400.351563	226.680847
12606.551596	1473.376667	1399.271484	99.873833
12606.551596	1473.376667	1398.192383	49.074982
12606.551596	1473.376667	1397.112305	117.354042
12606.551596	1473.376667	1396.031250	97.769455
12606.551596	1473.376667	1394.951172	118.321083
12606.551596	1473.376667	1393.871094	149.621353
12606.551596	1473.376667	1392.790039	100.012329
12606.551596	1473.376667	1391.708984	-16.705952
12606.551596	1473.376667	1390.626953	195.715866
12606.551596	1473.376667	1389.545898	73.996979
12606.551596	1473.376667	1388.463867	97.920616
12606.551596	1473.376667	1387.381836	157.188980
12606.551596	1473.376667	1386.299805	67.581078
12606.551596	1473.376667	1385.217773	58.007740
12606.551596	1473.376667	1384.134766	95.928482
12606.551596	1473.376667	1383.051758	280.252380
12606.551596	1473.376667	1381.968750	139.687180
12606.551596	1473.376667	1380.885742	328.509857
12606.551596	1473.376667	1379.802734	48.513111
12606.551596	1473.376667	1378.718750	136.063828
12606.551596	1473.376667	1377.634766	131.295502
12606.551596	1473.376667	1376.550781	178.205887
12606.551596	1473.376667	1375.465820	193.514511
12606.551596	1473.376667	1374.381836	270.504028
12606.551596	1473.376667	1373.296875	180.906799
12606.551596	1473.376667	1372.211914	338.917725
12606.551596	1473.376667	1371.126953	258.760040
12606.551596	1473.376667	1370.041016	344.330261
12606.551596	1473.376667	1368.955078	333.267426
12606.551596	1473.376667	1367.869141	394.846588
12606.551596	1473.376667	1366.783203	423.053772
12606.551596	1473.376667	1365.697266	443.264587
12606.551596	1473.376667	1364.610352	315.145142
12606.551596	1473.376667	1363.523438	408.212280
12606.551596	1473.376667	1362.436523	463.834808
12606.551596	1473.376667	1361.349609	342.950897
12606.551596	1473.376667	1360.261719	380.616302
12606.551596	1473.376667	1359.174805	232.611954
12606.551596	1473.376667	1358.086914	279.659241
12606.551596	1473.376667	1356.998047	409.570374
12606.551596	1473.376667	1355.910156	333.264740
12606.551596	1473.376667	1354.821289	301.777374
12606.551596	1473.376667	1353.732422	326.591705
12606.551596	1473.376667	1352.643555	397.051117
12606.551596	1473.376667	1351.554688	322.010681
12606.551596	1473.376667	1350.464844	82.538208
12606.551596	1473.376667	1349.375000	251.538864
12606.551596	1473.376667	1348.285156	192.009338
12606.551596	1473.376667	1347.195313	152.122116
12606.551596	1473.376667	1346.105469	167.932495
12606.551596	1473.376667	1345.014648	273.590393
12606.551596	1473.376667	1343.923828	529.784058
12606.551596	1473.376667	1342.833008	341.149872
12606.551596	1473.376667	1341.741211	466.660004
12606.551596	1473.376667	1340.650391	419.901123
12606.551596	1473.376667	1339.558594	521.163818
12606.551596	1473.376667	1338.466797	471.778809
12606.551596	1473.376667	1337.374023	338.361969
12606.551596	1473.376667	1336.282227	332.772186
12606.551596	1473.376667	1335.189453	325.096130
12606.551596	1473.376667	1334.096680	385.542358
12606.551596	1473.376667	1333.003906	322.280396
12606.551596	1473.376667	1331.910156	287.646942
12606.551596	1473.376667	1330.817383	232.118820
12606.551596	1473.376667	1329.723633	187.031952
12606.551596	1473.376667	1328.629883	304.423859
12606.551596	1473.376667	1327.535156	373.313965
12606.551596	1473.376667	1326.441406	300.858551
12606.551596	1473.376667	1325.346680	166.759003
12606.551596	1473.376667	1324.251953	214.430634
12606.551596	1473.376667	1323.156250	277.246429
12606.551596	1473.376667	1322.061523	196.895844
12606.551596	1473.376667	1320.965820	227.949402
12606.551596	1473.376667	1319.870117	124.790222
12606.551596	1473.376667	1318.774414	288.581940
12606.551596	1473.376667	1317.678711	320.071259
12606.551596	1473.376667	1316.582031	202.294327
12606.551596	1473.376667	1315.485352	177.506226
12606.551596	1473.376667	1314.388672	132.412598
12606.551596	1473.376667	1313.291016	197.617050
12606.551596	1473.376667	1312.194336	210.235458
12606.551596	1473.376667	1311.096680	153.139450
12606.551596	1473.376667	1309.999023	-16.819277
12606.551596	1473.376667	1308.901367	66.458488
12606.551596	1473.376667	1307.802734	223.008026
12606.551596	1473.376667	1306.705078	118.726364
12606.551596	1473.376667	1305.606445	-40.476677
12606.551596	1473.376667	1304.506836	-129.806534
12606.551596	1473.376667	1303.408203	45.555641
12606.551596	1473.376667	1302.308594	141.335159
12606.551596	1473.376667	1301.208984	34.346504
12606.551596	1473.376667	1300.109375	-19.372622
12606.551596	1473.376667	1299.009766	-34.078468
12606.551596	1473.376667	1297.909180	93.235031
12606.551596	1473.376667	1296.808594	55.416519
12606.551596	1473.376667	1295.708008	142.700943
12606.551596	1473.376667	1294.607422	70.712929
12606.551596	1473.376667	1293.506836	32.976486
12606.551596	1473.376667	1292.405273	-60.381165
12606.551596	1473.376667	1291.303711	-64.969444
12606.551596	1473.376667	1290.202148	-0.172530
12606.551596	1473.376667	1289.099609	76.916107
12606.551596	1473.376667	1287.998047	-16.992344
12606.551596	1473.376667	1286.895508	7.013214
12606.551596	1473.376667	1285.792969	8.855565
12606.551596	1473.376667	1284.689453	-90.918114
12606.551596	1473.376667	1283.586914	-177.460938
12606.551596	1473.376667	1282.483398	25.937071
12606.551596	1473.376667	1281.379883	-108.136284
12606.551596	1473.376667	1280.276367	-90.648186
12606.551596	1473.376667	1279.171875	-70.449860
12606.551596	1473.376667	1278.067383	7.385350
12606.551596	1473.376667	1276.962891	-20.043325
12606.551596	1473.376667	1275.858398	-120.329033
12606.551596	1473.376667	1274.753906	-2.197730
12606.551596	1473.376667	1273.648438	21.648775
12606.551596	1473.376667	1272.542969	-136.371658
12606.551596	1473.376667	1271.437500	-54.851181
12606.551596	1473.376667	1270.331055	-20.464266
12606.551596	1473.376667	1269.225586	47.602730
12606.551596	1473.376667	1268.119141	-32.766323
12606.551596	1473.376667	1267.012695	131.949966
12606.551596	1473.376667	1265.906250	-26.841549
12606.551596	1473.376667	1264.798828	38.998161
12606.551596	1473.376667	1263.691406	35.469002
12606.551596	1473.376667	1262.583984	-53.163765
12606.551596	1473.376667	1261.476563	-8.282324
12606.551596	1473.376667	1260.368164	-108.827736
12606.551596	1473.376667	1259.260742	-41.004887
12606.551596	1473.376667	1258.152344	-64.319557
12606.551596	1473.376667	1257.043945	-84.960304
12606.551596	1473.376667	1255.934570	-156.564484
12606.551596	1473.376667	1254.825195	-220.458313
12606.551596	1473.376667	1253.716797	-132.962173
12606.551596	1473.376667	1252.606445	-6.081193
12606.551596	1473.376667	1251.497070	-142.001343
12606.551596	1473.376667	1250.387695	-54.883419
12606.551596	1473.376667	1249.277344	-63.727089
12606.551596	1473.376667	1248.166992	-155.163254
12606.551596	1473.376667	1247.055664	-86.525558
12606.551596	1473.376667	1245.945313	-182.231674
12606.551596	1473.376667	1244.833984	-156.180023
12606.551596	1473.376667	1243.722656	41.149868
12606.551596	1473.376667	1242.611328	-33.254990
12606.551596	1473.376667	1241.499023	-85.186310
12606.551596	1473.376667	1240.387695	22.015499
12606.551596	1473.376667	1239.275391	-13.420155
12606.551596	1473.376667	1238.162109	-67.566849
12606.551596	1473.376667	1237.049805	-46.608696
12606.551596	1473.376667	1235.936523	-37.955971
12606.551596	1473.376667	1234.823242	68.894341
12606.551596	1473.376667	1233.709961	48.615757
12606.551596	1473.376667	1232.596680	174.538055
12606.551596	1473.376667	1231.482422	137.361664
12606.551596	1473.376667	1230.369141	84.868423
12606.551596	1473.376667	1229.253906	46.000996
12606.551596	1473.376667	1228.139648	86.127655
12606.551596	1473.376667	1227.025391	67.212486
12606.551596	1473.376667	1225.910156	84.413902
12606.551596	1473.376667	1224.794922	109.251610
12606.551596	1473.376667	1223.679688	-2.239509
12606.551596	1473.376667	1222.563477	-126.598358
12606.551596	1473.376667	1221.447266	79.756363
12606.551596	1473.376667	1220.331055	-27.799656
12606.551596	1473.376667	1219.214844	152.743088
12606.551596	1473.376667	1218.098633	21.014206
12606.551596	1473.376667	1216.981445	-31.701035
12606.551596	1473.376667	1215.864258	-77.743141
12606.551596	1473.376667	1214.747070	-75.635811
12606.551596	1473.376667	1213.629883	-43.996490
12606.551596	1473.376667	1212.511719	48.623131
12606.551596	1473.376667	1211.393555	-12.064658
12606.551596	1473.376667	1210.275391	20.143021
12606.551596	1473.376667	1209.157227	65.097488
12606.551596	1473.376667	1208.038086	-11.657303
12606.551596	1473.376667	1206.918945	117.896683
12606.551596	1473.376667	1205.799805	39.757248
12606.551596	1473.376667	1204.680664	1.517916
12606.551596	1473.376667	1203.560547	-26.952211
12606.551596	1473.376667	1202.441406	-61.924278
12606.551596	1473.376667	1201.321289	-58.264343
12606.551596	1473.376667	1200.200195	94.290024
12606.551596	1473.376667	1199.080078	131.603516
12606.551596	1473.376667	1197.958984	76.921326
12606.551596	1473.376667	1196.837891	81.537033
12606.551596	1473.376667	1195.716797	130.678940
12606.551596	1473.376667	1194.594727	118.247299
12606.551596	1473.376667	1193.473633	-53.753357
12606.551596	1473.376667	1192.351563	152.161255
12606.551596	1473.376667	1191.229492	11.997721
12606.551596	1473.376667	1190.106445	-36.949253
12606.551596	1473.376667	1188.984375	136.857254
12606.551596	1473.376667	1187.861328	58.392620
12606.551596	1473.376667	1186.738281	-28.274992
12606.551596	1473.376667	1185.614258	173.523117
12606.551596	1473.376667	1184.491211	14.710723
12606.551596	1473.376667	1183.367188	70.062874
12606.551596	1473.376667	1182.243164	84.783585
12606.551596	1473.376667	1181.119141	-68.348022
12606.551596	1473.376667	1179.994141	-29.027601
12606.551596	1473.376667	1178.869141	43.875683
12606.551596	1473.376667	1177.744141	-36.094376
12606.551596	1473.376667	1176.619141	-14.150831
12606.551596	1473.376667	1175.493164	-77.031395
12606.551596	1473.376667	1174.368164	-16.966183
12606.551596	1473.376667	1173.242188	-113.935371
12606.551596	1473.376667	1172.115234	63.109661
12606.551596	1473.376667	1170.989258	-22.837439
12606.551596	1473.376667	1169.862305	-84.737427
12606.551596	1473.376667	1168.735352	27.882545
12606.551596	1473.376667	1167.608398	-72.330193
12606.551596	1473.376667	1166.481445	16.677940
12606.551596	1473.376667	1165.353516	-81.927605
12606.551596	1473.376667	1164.225586	118.154251
12606.551596	1473.376667	1163.097656	-6.800261
12606.551596	1473.376667	1161.968750	101.152588
12606.551596	1473.376667	1160.840820	111.926765
12606.551596	1473.376667	1159.711914	120.955704
12606.551596	1473.376667	1158.583008	-80.314880
12606.551596	1473.376667	1157.453125	-43.053650
12606.551596	1473.376667	1156.324219	29.495354
12606.551596	1473.376667	1155.194336	69.297623
12606.551596	1473.376667	1154.064453	-10.500833
12606.551596	1473.376667	1152.933594	-103.604874
12606.551596	1473.376667	1151.803711	-89.780823
12606.551596	1473.376667	1150.672852	49.311653
12606.551596	1473.376667	1149.541992	-60.013359
12606.551596	1473.376667	1148.411133	42.754807
12606.551596	1473.376667	1147.279297	-64.852478
12606.551596	1473.376667	1146.147461	99.461357
12606.551596	1473.376667	1145.015625	39.150368
12606.551596	1473.376667	1143.883789	110.601204
12606.551596	1473.376667	1142.750977	-52.910702
12606.551596	1473.376667	1141.619141	47.663219
12606.551596	1473.376667	1140.486328	19.969564
12606.551596	1473.376667	1139.352539	131.992599
12606.551596	1473.376667	1138.219727	101.143333
12606.551596	1473.376667	1137.085938	61.354382
12606.551596	1473.376667	1135.952148	192.783890
12606.551596	1473.376667	1134.818359	34.908375
12606.551596	1473.376667	1133.683594	117.375191
12606.551596	1473.376667	1132.549805	2.615138
12606.551596	1473.376667	1131.415039	174.561569
12606.551596	1473.376667	1130.279297	242.892151
12606.551596	1473.376667	1129.144531	225.191132
12606.551596	1473.376667	1128.008789	217.501129
12606.551596	1473.376667	1126.873047	170.904327
12606.551596	1473.376667	1125.737305	291.024750
12606.551596	1473.376667	1124.601563	55.263760
12606.551596	1473.376667	1123.464844	46.191364
12606.551596	1473.376667	1122.328125	178.487503
12606.551596	1473.376667	1121.191406	131.708847
12606.551596	1473.376667	1120.054688	269.669830
12606.551596	1473.376667	1118.916992	42.581032
12606.551596	1473.376667	1117.779297	146.101990
12606.551596	1473.376667	1116.641602	160.088181
12606.551596	1473.376667	1115.503906	151.190033
12606.551596	1473.376667	1114.365234	-27.885881
12606.551596	1473.376667	1113.226563	166.690964
12606.551596	1473.376667	1112.087891	151.553436
12606.551596	1473.376667	1110.949219	154.292389
12606.551596	1473.376667	1109.809570	291.341827
12606.551596	1473.376667	1108.669922	113.777557
12606.551596	1473.376667	1107.530273	132.984360
12606.551596	1473.376667	1106.390625	46.029663
12606.551596	1473.376667	1105.250000	124.488060
12606.551596	1473.376667	1104.109375	232.789902
12606.551596	1473.376667	1102.968750	349.916718
12606.551596	1473.376667	1101.828125	127.344093
12606.551596	1473.376667	1100.686523	231.239349
12606.551596	1473.376667	1099.544922	247.834702
12606.551596	1473.376667	1098.403320	183.973953
12606.551596	1473.376667	1097.261719	332.075165
12606.551596	1473.376667	1096.120117	234.905945
12606.551596	1473.376667	1094.977539	292.406952
12606.551596	1473.376667	1093.834961	238.521439
12606.551596	1473.376667	1092.691406	238.421448
12606.551596	1473.376667	1091.548828	196.260208
12606.551596	1473.376667	1090.405273	173.808441
12606.551596	1473.376667	1089.261719	180.574966
12606.551596	1473.376667	1088.118164	337.173126
12606.551596	1473.376667	1086.973633	325.269989
12606.551596	1473.376667	1085.829102	156.011154
12606.551596	1473.376667	1084.684570	-33.662865
12606.551596	1473.376667	1083.540039	197.717773
12606.551596	1473.376667	1082.395508	159.685410
12606.551596	1473.376667	1081.250000	227.554428
12606.551596	1473.376667	1080.104492	166.265503
12606.551596	1473.376667	1078.958984	147.324585
12606.551596	1473.376667	1077.812500	240.222778
12606.551596	1473.376667	1076.666016	62.189892
12606.551596	1473.376667	1075.519531	278.386169
12606.551596	1473.376667	1074.373047	178.569580
12606.551596	1473.376667	1073.226563	124.346672
12606.551596	1473.376667	1072.079102	144.623489
12606.551596	1473.376667	1070.931641	99.829163
12606.551596	1473.376667	1069.784180	271.739227
12606.551596	1473.376667	1068.635742	241.193237
12606.551596	1473.376667	1067.487305	250.651672
12606.551596	1473.376667	1066.338867	273.089264
12606.551596	1473.376667	1065.190430	265.213165
12606.551596	1473.376667	1064.041992	293.612396
12606.551596	1473.376667	1062.892578	232.570801
12606.551596	1473.376667	1061.743164	123.358498
12606.551596	1473.376667	1060.593750	198.389694
12606.551596	1473.376667	1059.443359	-33.987366
12606.551596	1473.376667	1058.292969	59.447689
12606.551596	1473.376667	1057.142578	28.389351
12606.551596	1473.376667	1055.992188	86.077034
12606.551596	1473.376667	1054.841797	146.466949
12606.551596	1473.376667	1053.690430	65.665062
12606.551596	1473.376667	1052.539063	-11.545640
12606.551596	1473.376667	1051.387695	116.152382
12606.551596	1473.376667	1050.235352	-47.786320
12606.551596	1473.376667	1049.083984	76.274559
12606.551596	1473.376667	1047.931641	40.213646
12606.551596	1473.376667	1046.778320	148.103333
12606.551596	1473.376667	1045.625977	67.081009
12606.551596	1473.376667	1044.472656	220.921692
12606.551596	1473.376667	1043.319336	23.559910
12606.551596	1473.376667	1042.166016	50.726295
12606.551596	1473.376667	1041.012695	191.006958
12606.551596	1473.376667	1039.858398	48.303581
12606.551596	1473.376667	1038.704102	102.032181
12606.551596	1473.376667	1037.549805	-51.276775
12606.551596	1473.376667	1036.394531	12.224614
12606.551596	1473.376667	1035.239258	155.823532
12606.551596	1473.376667	1034.083984	89.167641
12606.551596	1473.376667	1032.928711	124.377228
12606.551596	1473.376667	1031.773438	-7.712559
12606.551596	1473.376667	1030.617188	-25.135723
12606.551596	1473.376667	1029.460938	187.048340
12606.551596	1473.376667	1028.304688	-45.391647
12606.551596	1473.376667	1027.147461	-40.417446
12606.551596	1473.376667	1025.991211	139.602081
12606.551596	1473.376667	1024.833984	6.188495
12606.551596	1473.376667	1023.675781	-39.278191
12606.551596	1473.376667	1022.518555	29.108667
12606.551596	1473.376667	1021.360352	-56.999104
12606.551596	1473.376667	1020.202148	97.614120
12606.551596	1473.376667	1019.043945	187.022278
12606.551596	1473.376667	1017.884766	129.838165
12606.551596	1473.376667	1016.726563	-18.277500
12606.551596	1473.376667	1015.567383	-111.372276
12606.551596	1473.376667	1014.407227	108.527153
12606.551596	1473.376667	1013.248047	22.411144
12606.551596	1473.376667	1012.087891	-63.144375
12606.551596	1473.376667	1010.927734	108.411308
12606.551596	1473.376667	1009.767578	61.186306
12606.551596	1473.376667	1008.606445	61.532574
12606.551596	1473.376667	1007.446289	18.684280
12606.551596	1473.376667	1006.285156	48.260178
12606.551596	1473.376667	1005.123047	196.559265
12606.551596	1473.376667	1003.961914	-2.863927
12606.551596	1473.376667	1002.799805	-128.696365
12606.551596	1473.376667	1001.637695	28.493141
12606.551596	1473.376667	1000.475586	-50.458786
12606.551596	1473.376667	999.312500	33.696213
12606.551596	1473.376667	998.149414	48.870316
12606.551596	1473.376667	996.986328	29.313238
12606.551596	1473.376667	995.823242	-31.288780
12606.551596	1473.376667	994.659180	3.476632
12606.551596	1473.376667	993.496094	20.621750
12606.551596	1473.376667	992.332031	56.964760
12606.551596	1473.376667	991.166992	-32.666042
12606.551596	1473.376667	990.002930	150.280258
12606.551596	1473.376667	988.837891	-100.465630
12606.551596	1473.376667	987.672852	-57.455769
12606.551596	1473.376667	986.506836	16.049282
12606.551596	1473.376667	985.341797	25.951593
12606.551596	1473.376667	984.175781	95.784050
12606.551596	1473.376667	983.009766	10.899884
12606.551596	1473.376667	981.843750	-222.008804
12606.551596	1473.376667	980.676758	34.515152
12606.551596	1473.376667	979.509766	-153.703796
12606.551596	1473.376667	978.342773	-30.816309
12606.551596	1473.376667	977.175781	-84.603951
12606.551596	1473.376667	976.007813	-5.897662
12606.551596	1473.376667	974.839844	90.132904
12606.551596	1473.376667	973.671875	-39.982277
12606.551596	1473.376667	972.503906	-55.036949
12606.551596	1473.376667	971.334961	113.178421
12606.551596	1473.376667	970.166016	56.821857
12606.551596	1473.376667	968.997070	89.941887
12606.551596	1473.376667	967.828125	234.655884
12606.551596	1473.376667	966.658203	41.368179
12606.551596	1473.376667	965.488281	-50.827141
12606.551596	1473.376667	964.318359	66.720009
12606.551596	1473.376667	963.148438	-82.510704
12606.551596	1473.376667	961.977539	65.747345
12606.551596	1473.376667	960.806641	169.673203
12606.551596	1473.376667	959.635742	4.348117
12606.551596	1473.376667	958.463867	-146.965729
12606.551596	1473.376667	957.292969	-16.620306
12606.551596	1473.376667	956.121094	113.179092
12606.551596	1473.376667	954.948242	-84.534668
12606.551596	1473.376667	953.776367	100.906982
12606.551596	1473.376667	952.603516	127.370003
12606.551596	1473.376667	951.430664	-54.876667
12606.551596	1473.376667	950.257813	58.239399
12606.551596	1473.376667	949.084961	26.889767
12606.551596	1473.376667	947.911133	-108.049667
12606.551596	1473.376667	946.737305	41.212521
12606.551596	1473.376667	945.563477	-188.736115
12606.551596	1473.376667	944.388672	-89.297989
12606.551596	1473.376667	943.213867	-70.812553
12606.551596	1473.376667	942.039063	-172.985214
12606.551596	1473.376667	940.864258	-7.215718
12606.551596	1473.376667	939.688477	37.579815
12606.551596	1473.376667	938.513672	106.117401
12606.551596	1473.376667	937.337891	70.509445
12606.551596	1473.376667	936.161133	-5.757090
12606.551596	1473.376667	934.985352	221.435669
12606.551596	1473.376667	933.808594	79.133720
12606.551596	1473.376667	932.631836	166.568436
12606.551596	1473.376667	931.454102	92.932030
12606.551596	1473.376667	930.277344	163.671036
12606.551596	1473.376667	929.099609	54.490105
12606.551596	1473.376667	927.921875	68.469719
12606.551596	1473.376667	926.743164	162.883163
12606.551596	1473.376667	925.565430	169.698441
12606.551596	1473.376667	924.386719	96.077682
12606.551596	1473.376667	923.208008	-50.874184
12606.551596	1473.376667	922.028320	95.546265
12606.551596	1473.376667	920.849609	128.387619
12606.551596	1473.376667	919.669922	129.782196
12606.551596	1473.376667	919.474609	208.739441
12606.551596	1473.376667	918.309570	-89.445160
12606.551596	1473.376667	917.143555	134.846100
12606.551596	1473.376667	915.977539	188.900284
12606.551596	1473.376667	914.810547	103.535545
12606.551596	1473.376667	913.644531	-0.693679
12606.551596	1473.376667	912.477539	112.392746
12606.551596	1473.376667	911.310547	88.482735
12606.551596	1473.376667	910.143555	111.795631
12606.551596	1473.376667	908.975586	-74.962257
12606.551596	1473.376667	907.807617	-44.547836
12606.551596	1473.376667	906.639648	44.834881
12606.551596	1473.376667	905.471680	-85.187057
12606.551596	1473.376667	904.303711	-101.958305
12606.551596	1473.376667	903.134766	72.262611
12606.551596	1473.376667	901.965820	13.033698
12606.551596	1473.376667	900.796875	62.244202
12606.551596	1473.376667	899.626953	-150.123703
12606.551596	1473.376667	898.457031	120.555862
12606.551596	1473.376667	897.287109	190.912857
12606.551596	1473.376667	896.117188	-169.714279
12606.551596	1473.376667	894.947266	145.538284
12606.551596	1473.376667	893.776367	121.687889
12606.551596	1473.376667	892.605469	-12.767550
12606.551596	1473.376667	891.434570	-53.047203
12606.551596	1473.376667	890.262695	-20.379856
12606.551596	1473.376667	889.091797	139.284515
12606.551596	1473.376667	887.919922	42.561993
12606.551596	1473.376667	886.748047	37.572102
12606.551596	1473.376667	885.575195	25.533796
12606.551596	1473.376667	884.403320	-2.951646
12606.551596	1473.376667	883.230469	-125.411209
12606.551596	1473.376667	882.057617	55.225300
12606.551596	1473.376667	880.883789	-109.470642
12606.551596	1473.376667	879.710938	-27.535946
12606.551596	1473.376667	878.537109	-72.412155
12606.551596	1473.376667	877.362305	103.375359
12606.551596	1473.376667	876.188477	-65.888062
12606.551596	1473.376667	875.013672	-122.457436
12606.551596	1473.376667	873.839844	43.849049
12606.551596	1473.376667	872.664063	128.003082
12606.551596	1473.376667	871.489258	43.291309
12606.551596	1473.376667	870.313477	-205.491028
12606.551596	1473.376667	869.138672	150.556137
12606.551596	1473.376667	867.962891	-79.397919
12606.551596	1473.376667	866.786133	-103.076820
12606.551596	1473.376667	865.610352	-56.472610
12606.551596	1473.376667	864.433594	-66.093750
12606.551596	1473.376667	863.256836	-162.346176
12606.551596	1473.376667	862.079102	-40.841560
12606.551596	1473.376667	860.902344	-106.631516
12606.551596	1473.376667	859.724609	-95.170799
12606.551596	1473.376667	858.546875	19.227890
12606.551596	1473.376667	857.368164	4.929939
12606.551596	1473.376667	856.190430	49.102455
12606.551596	1473.376667	855.011719	-89.117043
12606.551596	1473.376667	853.833008	46.228279
12606.551596	1473.376667	852.654297	57.646671
12606.551596	1473.376667	851.474609	-61.793850
12606.551596	1473.376667	850.294922	40.756592
12606.551596	1473.376667	849.115234	-17.901262
12606.551596	1473.376667	847.935547	14.540154
12606.551596	1473.376667	846.754883	147.365631
12606.551596	1473.376667	845.575195	-44.333923
12606.551596	1473.376667	844.393555	30.104065
12606.551596	1473.376667	843.212891	88.177063
12606.551596	1473.376667	842.032227	76.239677
12606.551596	1473.376667	840.850586	24.657240
12606.551596	1473.376667	839.668945	52.381180
12606.551596	1473.376667	838.486328	-3.837428
12606.551596	1473.376667	837.304688	149.750992
12606.551596	1473.376667	836.122070	163.448975
12606.551596	1473.376667	834.939453	-23.239363
12606.551596	1473.376667	833.756836	-107.352661
12606.551596	1473.376667	832.573242	162.582291
12606.551596	1473.376667	831.389648	101.750328
12606.551596	1473.376667	830.206055	-54.508343
12606.551596	1473.376667	829.022461	84.900444
12606.551596	1473.376667	827.838867	138.147476
12606.551596	1473.376667	826.654297	12.221611
12606.551596	1473.376667	825.469727	-127.610832
12606.551596	1473.376667	824.284180	-67.377632
12606.551596	1473.376667	823.099609	-76.927841
12606.551596	1473.376667	821.914063	-84.149918
12606.551596	1473.376667	820.728516	-37.913284
12606.551596	1473.376667	819.542969	17.596893
12606.551596	1473.376667	818.356445	68.437294
12606.551596	1473.376667	817.169922	54.216030
12606.551596	1473.376667	815.983398	-85.407341
12606.551596	1473.376667	814.796875	-155.319672
12606.551596	1473.376667	813.609375	83.536194
12606.551596	1473.376667	812.422852	-114.035973
12606.551596	1473.376667	811.235352	4.046512
12606.551596	1473.376667	810.046875	6.081844
12606.551596	1473.376667	808.859375	-126.415260
12606.551596	1473.376667	807.670898	195.657394
12606.551596	1473.376667	806.482422	-68.983192
12606.551596	1473.376667	805.293945	-69.265388
12606.551596	1473.376667	804.104492	48.644283
12606.551596	1473.376667	802.915039	-4.960504
12606.551596	1473.376667	801.725586	-51.597485
12606.551596	1473.376667	800.536133	61.591099
12606.551596	1473.376667	799.345703	63.580307
12606.551596	1473.376667	798.155273	10.001208
12606.551596	1473.376667	796.964844	32.823372
12606.551596	1473.376667	795.774414	27.861086
12606.551596	1473.376667	794.583008	-97.415009
12606.551596	1473.376667	793.392578	108.144150
12606.551596	1473.376667	792.200195	80.028893
12606.551596	1473.376667	791.008789	44.981937
12606.551596	1473.376667	789.816406	49.245483
12606.551596	1473.376667	788.625000	118.216164
12606.551596	1473.376667	787.432617	-108.630943
12606.551596	1473.376667	786.239258	-92.803352
12606.551596	1473.376667	785.046875	-19.243277
12606.551596	1473.376667	783.853516	58.899338
12606.551596	1473.376667	782.660156	-50.017849
12606.551596	1473.376667	781.465820	30.394669
12606.551596	1473.376667	780.272461	124.613182
12606.551596	1473.376667	779.078125	22.652231
12606.551596	1473.376667	777.883789	-33.133919
12606.551596	1473.376667	776.688477	-58.919266
12606.551596	1473.376667	775.494141	83.637260
12606.551596	1473.376667	774.298828	-119.704735
12606.551596	1473.376667	773.103516	-48.667133
12606.551596	1473.376667	771.907227	84.557472
12606.551596	1473.376667	770.711914	132.464508
12606.551596	1473.376667	769.515625	173.433136
12606.551596	1473.376667	768.318359	-32.060287
12606.551596	1473.376667	767.122070	52.657909
12606.551596	1473.376667	765.924805	151.145569
12606.551596	1473.376667	764.727539	-65.752251
12606.551596	1473.376667	763.530273	64.916862
12606.551596	1473.376667	762.333008	-101.275993
12606.551596	1473.376667	761.134766	-9.777882
12606.551596	1473.376667	759.936523	-90.813545
12606.551596	1473.376667	758.738281	71.901955
12606.551596	1473.376667	757.540039	59.826424
12606.551596	1473.376667	756.340820	-90.155685
12606.551596	1473.376667	755.141602	-79.234917
12606.551596	1473.376667	753.942383	81.001114
12606.551596	1473.376667	752.742188	43.623360
12606.551596	1473.376667	751.541992	75.142944
12606.551596	1473.376667	750.341797	-72.448624
12606.551596	1473.376667	749.141602	55.468063
12606.551596	1473.376667	747.941406	164.958710
12606.551596	1473.376667	746.740234	288.158691
12606.551596	1473.376667	745.539063	58.009319
12606.551596	1473.376667	744.337891	16.015795
12606.551596	1473.376667	743.135742	139.130798
12606.551596	1473.376667	741.933594	106.282051
12606.551596	1473.376667	740.731445	171.994736
12606.551596	1473.376667	739.529297	327.041595
12606.551596	1473.376667	738.326172	337.664337
12606.551596	1473.376667	737.124023	387.209473
12606.551596	1473.376667	735.919922	239.760880
12606.551596	1473.376667	734.716797	282.407623
12606.551596	1473.376667	733.513672	402.855713
12606.551596	1473.376667	732.309570	383.622681
12606.551596	1473.376667	731.105469	254.542633
12606.551596	1473.376667	729.900391	324.543213
12606.551596	1473.376667	728.696289	99.428139
12606.551596	1473.376667	727.491211	215.136414
12606.551596	1473.376667	726.286133	-35.044689
12606.551596	1473.376667	725.080078	167.475998
12606.551596	1473.376667	723.874023	77.357353
12606.551596	1473.376667	722.668945	71.802238
12606.551596	1473.376667	721.461914	70.802322
12606.551596	1473.376667	720.255859	30.956347
12606.551596	1473.376667	719.048828	13.944363
12606.551596	1473.376667	717.841797	47.148941
12606.551596	1473.376667	716.634766	14.126527
12606.551596	1473.376667	715.427734	72.383759
12606.551596	1473.376667	714.219727	62.148903
12606.551596	1473.376667	713.011719	38.212807
12606.551596	1473.376667	711.803711	30.232014
12606.551596	1473.376667	710.594727	49.597839
12606.551596	1473.376667	709.385742	27.900976
12606.551596	1473.376667	708.176758	-34.832394
12606.551596	1473.376667	706.967773	-97.559982
12606.551596	1473.376667	705.758789	-30.419174
12606.551596	1473.376667	704.548828	237.118973
12606.551596	1473.376667	703.338867	199.363480
12606.551596	1473.376667	702.127930	-36.481411
12606.551596	1473.376667	700.917969	-42.336414
12606.551596	1473.376667	699.707031	-134.693329
12606.551596	1473.376667	698.496094	168.887817
12606.551596	1473.376667	697.285156	3.684200
12606.551596	1473.376667	696.073242	-11.357381
12606.551596	1473.376667	694.861328	3.146957
12606.551596	1473.376667	693.649414	13.075954
12606.551596	1473.376667	692.436523	-77.033783
12606.551596	1473.376667	691.224609	23.764542
12606.551596	1473.376667	690.011719	4.078955
12606.551596	1473.376667	688.798828	-24.708029
12606.551596	1473.376667	687.584961	137.267761
12606.551596	1473.376667	686.372070	49.382496
12606.551596	1473.376667	685.158203	50.047272
12606.551596	1473.376667	683.943359	-87.762512
12606.551596	1473.376667	682.729492	39.958794
12606.551596	1473.376667	681.514648	117.690086
12606.551596	1473.376667	680.299805	202.169479
12606.551596	1473.376667	679.084961	152.791397
12606.551596	1473.376667	677.869141	-39.429737
12606.551596	1473.376667	676.653320	83.492317
12606.551596	1473.376667	675.437500	56.760086
12606.551596	1473.376667	674.221680	88.926178
12606.551596	1473.376667	673.004883	75.746666
12606.551596	1473.376667	671.789063	193.912155
12606.551596	1473.376667	670.571289	-7.281578
12606.551596	1473.376667	669.354492	230.789886
12606.551596	1473.376667	668.136719	303.502502
12606.551596	1473.376667	666.919922	81.970390
12606.551596	1473.376667	665.701172	285.857758
12606.551596	1473.376667	664.483398	107.349792
12606.551596	1473.376667	663.264648	-12.308507
12606.551596	1473.376667	662.045898	89.643768
12606.551596	1473.376667	660.827148	229.957031
12606.551596	1473.376667	659.608398	46.987160
12606.551596	1473.376667	658.388672	137.485153
12606.551596	1473.376667	657.168945	6.519660
12606.551596	1473.376667	655.949219	17.881134
12606.551596	1473.376667	654.728516	105.990448
12606.551596	1473.376667	653.507813	200.808899
12606.551596	1473.376667	652.287109	252.672867
12606.551596	1473.376667	651.066406	202.932373
12606.551596	1473.376667	649.844727	211.850052
12606.551596	1473.376667	648.623047	26.734938
12606.551596	1473.376667	647.401367	186.741287
12606.551596	1473.376667	646.179688	35.479424
12606.551596	1473.376667	644.957031	143.510223
12606.551596	1473.376667	643.734375	197.373795
12606.551596	1473.376667	642.511719	93.446571
12606.551596	1473.376667	641.289063	129.220245
12606.551596	1473.376667	640.065430	50.073502
12606.551596	1473.376667	638.841797	110.558258
12606.551596	1473.376667	637.618164	225.027054
12606.551596	1473.376667	636.393555	224.615356
12606.551596	1473.376667	635.168945	91.391769
12606.551596	1473.376667	633.944336	142.706390
12606.551596	1473.376667	632.719727	126.483086
12606.551596	1473.376667	631.494141	38.265442
12606.551596	1473.376667	630.269531	-18.459967
12606.551596	1473.376667	629.042969	5.745193
12606.551596	1473.376667	627.817383	29.913839
12606.551596	1473.376667	626.590820	177.643326
12606.551596	1473.376667	625.365234	10.734872
12606.551596	1473.376667	624.137695	84.222267
12606.551596	1473.376667	622.911133	56.589882
12606.551596	1473.376667	621.683594	-141.704727
12606.551596	1473.376667	620.456055	230.254517
12606.551596	1473.376667	619.228516	-10.690532
12606.551596	1473.376667	618.000977	114.197998
12606.551596	1473.376667	616.772461	59.530415
12606.551596	1473.376667	615.543945	-40.000256
12606.551596	1473.376667	614.314453	98.187454
12606.551596	1473.376667	613.085938	-55.171200
12606.551596	1473.376667	611.856445	91.873726
12606.551596	1473.376667	610.626953	72.990952
12606.551596	1473.376667	609.397461	-46.736416
12606.551596	1473.376667	608.166992	-67.875916
12606.551596	1473.376667	606.936523	38.626499
12606.551596	1473.376667	605.706055	118.186958
12606.551596	1473.376667	604.474609	56.649506
12606.551596	1473.376667	603.244141	270.413330
12606.551596	1473.376667	602.012695	123.783531
12606.551596	1473.376667	600.780273	82.340782
12606.551596	1473.376667	599.548828	219.833023
12606.551596	1473.376667	598.316406	111.246422
12606.551596	1473.376667	597.083984	-42.035667
12606.551596	1473.376667	595.851563	-41.038979
12606.551596	1473.376667	594.618164	-51.243328
12606.551596	1473.376667	593.384766	-130.735031
12606.551596	1473.376667	592.151367	93.595932
12606.551596	1473.376667	590.917969	-115.482689
12606.551596	1473.376667	589.683594	-11.881920
12606.551596	1473.376667	588.449219	-17.741701
12606.551596	1473.376667	587.214844	67.888832
12606.551596	1473.376667	585.979492	-4.981958
12606.551596	1473.376667	584.745117	-115.772621
12606.551596	1473.376667	583.509766	-54.785942
12606.551596	1473.376667	582.273438	-145.498352
12606.551596	1473.376667	581.038086	-187.141769
12606.551596	1473.376667	579.801758	-59.375511
12606.551596	1473.376667	578.565430	-87.695313
12606.551596	1473.376667	577.329102	-127.166878
12606.551596	1473.376667	576.091797	-131.002670
12606.551596	1473.376667	574.854492	112.368065
12606.551596	1473.376667	573.617188	139.613007
12606.551596	1473.376667	572.378906	-73.619476
12606.551596	1473.376667	571.141602	-53.067844
12606.551596	1473.376667	569.903320	-48.126053
12606.551596	1473.376667	568.664063	30.211929
12606.551596	1473.376667	567.425781	26.193110
12606.551596	1473.376667	566.186523	24.377544
12606.551596	1473.376667	564.947266	-41.939266
12606.551596	1473.376667	563.708008	111.828362
12606.551596	1473.376667	562.467773	-47.867626
12606.551596	1473.376667	561.227539	-107.523178
12606.551596	1473.376667	559.987305	39.431770
12606.551596	1473.376667	558.747070	77.471085
12606.551596	1473.376667	557.505859	-4.440645
12606.551596	1473.376667	556.264648	66.852554
12606.551596	1473.376667	555.023438	-43.916168
12606.551596	1473.376667	553.781250	-14.849150
12606.551596	1473.376667	552.539063	16.404930
12606.551596	1473.376667	551.296875	-109.868042
12606.551596	1473.376667	550.054688	85.471329
12606.551596	1473.376667	548.811523	90.019882
12606.551596	1473.376667	547.569336	-60.626781
12606.551596	1473.376667	546.325195	85.759811
12606.551596	1473.376667	545.082031	43.718754
12606.551596	1473.376667	543.837891	-13.830511
12606.551596	1473.376667	542.593750	141.259827
12606.551596	1473.376667	541.349609	21.676023
12606.551596	1473.376667	540.105469	-104.515274
12606.551596	1473.376667	538.860352	-168.692917
12606.551596	1473.376667	537.615234	1.721588
12606.551596	1473.376667	536.369141	110.093506
12606.551596	1473.376667	535.124023	-20.498903
12606.551596	1473.376667	533.877930	-22.779478
12606.551596	1473.376667	532.631836	-100.253166
12606.551596	1473.376667	531.384766	-104.758873
12606.551596	1473.376667	530.138672	-54.021000
12606.551596	1473.376667	528.891602	175.665237
12606.551596	1473.376667	527.643555	34.084167
12606.551596	1473.376667	526.396484	-76.525169
12606.551596	1473.376667	525.148438	-19.273495
12606.551596	1473.376667	523.900391	-185.049515
12606.551596	1473.376667	522.652344	-32.911644
12606.551596	1473.376667	521.403320	-189.815598
12606.551596	1473.376667	520.154297	-121.613434
12606.551596	1473.376667	518.905273	39.194023
12606.551596	1473.376667	517.656250	-62.527832
12606.551596	1473.376667	516.406250	7.765707
12606.551596	1473.376667	515.156250	-38.821846
12606.551596	1473.376667	513.906250	22.595379
12606.551596	1473.376667	512.655273	70.749542
12606.551596	1473.376667	511.404297	-50.766090
12606.551596	1473.376667	510.153320	-92.948006
12606.551596	1473.376667	508.902344	-77.869347
12606.551596	1473.376667	507.650391	23.053061
12606.551596	1473.376667	506.398438	-27.961565
12606.551596	1473.376667	505.146484	66.280205
12606.551596	1473.376667	503.893555	-66.157082
12606.551596	1473.376667	502.641602	54.425751
12606.551596	1473.376667	501.388672	-20.794922
12606.551596	1473.376667	500.134766	-10.243415
12606.551596	1473.376667	498.881836	-87.639999
12606.551596	1473.376667	497.627930	-158.424088
12606.551596	1473.376667	496.374023	-154.478043
12606.551596	1473.376667	495.119141	-20.929848
12606.551596	1473.376667	493.865234	22.496826
12606.551596	1473.376667	492.610352	144.944962
12606.551596	1473.376667	491.355469	-22.478104
12606.551596	1473.376667	490.099609	62.583954
12606.551596	1473.376667	488.843750	123.457695
12606.551596	1473.376667	487.587891	98.722099
12606.551596	1473.376667	486.332031	-33.501888
12606.551596	1473.376667	485.075195	51.436363
12606.551596	1473.376667	483.818359	-61.015999
12606.551596	1473.376667	482.561523	69.901070
12606.551596	1473.376667	481.304688	-42.533848
12606.551596	1473.376667	480.046875	-187.804993
12606.551596	1473.376667	478.789063	50.357979
12606.551596	1473.376667	477.531250	-101.470039
12606.551596	1473.376667	476.272461	68.655342
12606.551596	1473.376667	475.013672	-120.363274
12606.551596	1473.376667	473.754883	82.495247
12606.551596	1473.376667	472.496094	22.641176
12606.551596	1473.376667	471.236328	-76.590149
12606.551596	1473.376667	469.976563	32.015369
12606.551596	1473.376667	468.716797	105.563705
12606.551596	1473.376667	467.456055	41.309544
12606.551596	1473.376667	466.196289	75.440285
12606.551596	1473.376667	464.935547	151.059433
12606.551596	1473.376667	463.673828	25.595097
12606.551596	1473.376667	462.413086	136.107727
12606.551596	1473.376667	461.151367	165.735809
12606.551596	1473.376667	459.889648	-49.245186
12606.551596	1473.376667	458.626953	50.226734
12606.551596	1473.376667	457.364258	151.815674
12606.551596	1473.376667	456.101563	128.946655
12606.551596	1473.376667	454.838867	121.336670
12606.551596	1473.376667	453.575195	-1.909544
12606.551596	1473.376667	452.312500	79.875870
12606.551596	1473.376667	451.047852	35.129761
12606.551596	1473.376667	449.784180	49.235710
12606.551596	1473.376667	448.519531	39.330551
12606.551596	1473.376667	447.254883	72.978622
12606.551596	1473.376667	445.990234	67.368332
12606.551596	1473.376667	444.725586	90.042526
12606.551596	1473.376667	443.459961	197.595703
12606.551596	1473.376667	442.194336	224.514984
12606.551596	1473.376667	440.927734	79.430855
12606.551596	1473.376667	439.662109	165.047348
12606.551596	1473.376667	438.395508	135.274017
12606.551596	1473.376667	437.127930	172.902374
12606.551596	1473.376667	435.861328	230.048584
12606.551596	1473.376667	434.593750	4.468571
12606.551596	1473.376667	433.326172	133.271378
12606.551596	1473.376667	432.058594	9.866566
12606.551596	1473.376667	430.790039	-20.103291
12606.551596	1473.376667	429.521484	88.923920
12606.551596	1473.376667	428.252930	50.162296
12606.551596	1473.376667	426.984375	287.139374
12606.551596	1473.376667	425.714844	2.919211
12606.551596	1473.376667	424.445313	-40.307251
12606.551596	1473.376667	423.174805	27.095137
12606.551596	1473.376667	421.905273	31.493719
12606.551596	1473.376667	420.634766	77.035553
12606.551596	1473.376667	419.364258	161.529694
12606.551596	1473.376667	418.092773	16.090315
12606.551596	1473.376667	416.822266	33.225540
12606.551596	1473.376667	415.550781	54.611080
12606.551596	1473.376667	414.278320	205.915298
12606.551596	1473.376667	413.006836	116.622963
12606.551596	1473.376667	411.734375	172.395615
12606.551596	1473.376667	410.461914	-101.069183
12606.551596	1473.376667	409.188477	88.777473
12606.551596	1473.376667	407.916016	7.908831
12606.551596	1473.376667	406.642578	188.814728
12606.551596	1473.376667	405.368164	112.093643
12606.551596	1473.376667	404.094727	139.137955
12606.551596	1473.376667	402.820313	-4.773091
12606.551596	1473.376667	401.545898	112.883209
12606.551596	1473.376667	400.270508	-7.396103
12606.551596	1473.376667	398.996094	40.839268
12606.551596	1473.376667	397.720703	142.951584
12606.551596	1473.376667	396.444336	33.201786
12606.551596	1473.376667	395.168945	-24.781839
12606.551596	1473.376667	393.892578	74.753784
12606.551596	1473.376667	392.616211	171.960251
12606.551596	1473.376667	391.339844	225.827911
12606.551596	1473.376667	390.062500	50.800625
12606.551596	1473.376667	388.785156	2.994824
12606.551596	1473.376667	387.507813	-12.580868
12606.551596	1473.376667	386.229492	118.333199
12606.551596	1473.376667	384.951172	-113.161171
12606.551596	1473.376667	383.672852	2.319347
12606.551596	1473.376667	382.394531	42.163841
12606.551596	1473.376667	381.115234	191.700409
12606.551596	1473.376667	379.835938	106.205704
12606.551596	1473.376667	378.556641	210.089981
12606.551596	1473.376667	377.277344	66.137405
12606.551596	1473.376667	375.997070	72.742508
12606.551596	1473.376667	374.716797	132.957397
12606.551596	1473.376667	373.435547	14.347933
12606.551596	1473.376667	372.155273	136.536957
12606.551596	1473.376667	370.874023	-51.256950
12606.551596	1473.376667	369.591797	12.397676
12606.551596	1473.376667	368.310547	4.867387
12606.551596	1473.376667	367.028320	-84.569984
12606.551596	1473.376667	365.746094	27.799021
12606.551596	1473.376667	364.463867	28.160709
12606.551596	1473.376667	363.180664	-66.241684
12606.551596	1473.376667	361.897461	114.028084
12606.551596	1473.376667	360.614258	42.757481
12606.551596	1473.376667	359.330078	22.762003
12606.551596	1473.376667	358.045898	41.133316
12606.551596	1473.376667	356.761719	35.616486
12606.551596	1473.376667	355.477539	14.799224
12606.551596	1473.376667	354.192383	-32.048332
12606.551596	1473.376667	352.907227	43.045609
12606.551596	1473.376667	351.622070	-66.566063
12606.551596	1473.376667	350.336914	-122.864578
12606.551596	1473.376667	349.050781	21.954811
12606.551596	1473.376667	347.764648	-99.276443
12606.551596	1473.376667	346.477539	-25.894066
12606.551596	1473.376667	345.191406	164.898209
12606.551596	1473.376667	343.904297	-55.830189
12606.551596	1473.376667	342.616211	-84.195076
12606.551596	1473.376667	341.329102	9.069685
12606.551596	1473.376667	340.041016	-90.664917
12606.551596	1473.376667	338.752930	-88.073586
12606.551596	1473.376667	337.463867	-6.770596
12606.551596	1473.376667	336.175781	200.248169
12606.551596	1473.376667	334.886719	-119.137665
12606.551596	1473.376667	333.596680	-24.207348
12606.551596	1473.376667	332.307617	-169.066757
12606.551596	1473.376667	331.017578	-149.836777
12606.551596	1473.376667	329.727539	-212.243011
12606.551596	1473.376667	328.436523	21.704088
12606.551596	1473.376667	327.146484	-88.644279
12606.551596	1473.376667	325.855469	-75.660614
12606.551596	1473.376667	324.563477	24.282539
12606.551596	1473.376667	323.272461	-32.068455
12606.551596	1473.376667	321.980469	26.237213
12606.551596	1473.376667	320.688477	47.718235
12606.551596	1473.376667	319.395508	19.574863
12606.551596	1473.376667	318.103516	65.498230
12606.551596	1473.376667	316.810547	-95.925308
12606.551596	1473.376667	315.516602	4.182967
12606.551596	1473.376667	314.223633	-53.980930
12606.551596	1473.376667	312.929688	66.137711
12606.551596	1473.376667	311.635742	23.738689
12606.551596	1473.376667	310.340820	165.896439
12606.551596	1473.376667	309.045898	200.905914
12606.551596	1473.376667	307.750977	220.324539
12606.551596	1473.376667	306.456055	332.647919
12606.551596	1473.376667	305.160156	274.029572
12606.551596	1473.376667	303.865234	257.267120
12606.551596	1473.376667	302.568359	477.841675
12606.551596	1473.376667	301.272461	542.418945
12606.551596	1473.376667	299.975586	470.162201
12606.551596	1473.376667	298.678711	424.769867
