#X		#Y		#Wave		#Intensity
12150.562234	-204.155000	1999.980469	10.383964
12150.562234	-204.155000	1999.016602	81.787857
12150.562234	-204.155000	1998.052734	175.788742
12150.562234	-204.155000	1997.087891	197.704636
12150.562234	-204.155000	1996.123047	254.121490
12150.562234	-204.155000	1995.158203	20.512753
12150.562234	-204.155000	1994.193359	106.324379
12150.562234	-204.155000	1993.228516	-53.206806
12150.562234	-204.155000	1992.262695	-121.226196
12150.562234	-204.155000	1991.297852	-110.156052
12150.562234	-204.155000	1990.332031	135.885880
12150.562234	-204.155000	1989.366211	-108.240807
12150.562234	-204.155000	1988.399414	-45.631798
12150.562234	-204.155000	1987.433594	-30.167742
12150.562234	-204.155000	1986.466797	-93.966995
12150.562234	-204.155000	1985.500977	205.618347
12150.562234	-204.155000	1984.534180	-11.698757
12150.562234	-204.155000	1983.567383	18.131748
12150.562234	-204.155000	1982.599609	129.402420
12150.562234	-204.155000	1981.632813	183.709763
12150.562234	-204.155000	1980.665039	87.217621
12150.562234	-204.155000	1979.697266	27.723053
12150.562234	-204.155000	1978.729492	-108.380768
12150.562234	-204.155000	1977.761719	34.479858
12150.562234	-204.155000	1976.792969	219.179337
12150.562234	-204.155000	1975.825195	189.024445
12150.562234	-204.155000	1974.856445	69.983078
12150.562234	-204.155000	1973.887695	39.740803
12150.562234	-204.155000	1972.918945	-30.012016
12150.562234	-204.155000	1971.949219	16.117723
12150.562234	-204.155000	1970.980469	25.196676
12150.562234	-204.155000	1970.010742	16.968977
12150.562234	-204.155000	1969.041016	40.744015
12150.562234	-204.155000	1968.071289	84.186272
12150.562234	-204.155000	1967.101563	41.340977
12150.562234	-204.155000	1966.130859	42.819180
12150.562234	-204.155000	1965.161133	113.232353
12150.562234	-204.155000	1964.190430	-55.275013
12150.562234	-204.155000	1963.219727	47.085648
12150.562234	-204.155000	1962.249023	-64.773697
12150.562234	-204.155000	1961.277344	22.742786
12150.562234	-204.155000	1960.306641	299.687775
12150.562234	-204.155000	1959.334961	57.402401
12150.562234	-204.155000	1958.363281	75.933685
12150.562234	-204.155000	1957.391602	158.393372
12150.562234	-204.155000	1956.419922	169.508377
12150.562234	-204.155000	1955.447266	-109.479530
12150.562234	-204.155000	1954.474609	46.694183
12150.562234	-204.155000	1953.501953	114.340172
12150.562234	-204.155000	1952.529297	135.278778
12150.562234	-204.155000	1951.556641	40.755096
12150.562234	-204.155000	1950.583984	93.640091
12150.562234	-204.155000	1949.610352	94.943695
12150.562234	-204.155000	1948.636719	133.083298
12150.562234	-204.155000	1947.663086	33.753902
12150.562234	-204.155000	1946.689453	49.827183
12150.562234	-204.155000	1945.715820	38.915970
12150.562234	-204.155000	1944.741211	187.493790
12150.562234	-204.155000	1943.767578	208.482086
12150.562234	-204.155000	1942.792969	-1.052506
12150.562234	-204.155000	1941.818359	118.081253
12150.562234	-204.155000	1940.842773	151.385056
12150.562234	-204.155000	1939.868164	-57.960285
12150.562234	-204.155000	1938.892578	-76.054245
12150.562234	-204.155000	1937.916992	239.109558
12150.562234	-204.155000	1936.941406	15.238111
12150.562234	-204.155000	1935.965820	60.897762
12150.562234	-204.155000	1934.990234	-153.008301
12150.562234	-204.155000	1934.013672	-2.001077
12150.562234	-204.155000	1933.037109	58.405888
12150.562234	-204.155000	1932.060547	-8.448832
12150.562234	-204.155000	1931.083984	20.185404
12150.562234	-204.155000	1930.107422	46.392193
12150.562234	-204.155000	1929.129883	9.021550
12150.562234	-204.155000	1928.153320	184.466843
12150.562234	-204.155000	1927.175781	161.819122
12150.562234	-204.155000	1926.198242	-95.481628
12150.562234	-204.155000	1925.219727	-22.678223
12150.562234	-204.155000	1924.242188	157.659378
12150.562234	-204.155000	1923.263672	-55.416740
12150.562234	-204.155000	1922.285156	5.224498
12150.562234	-204.155000	1921.306641	-34.262417
12150.562234	-204.155000	1920.328125	11.768180
12150.562234	-204.155000	1919.349609	74.907219
12150.562234	-204.155000	1918.370117	140.497803
12150.562234	-204.155000	1917.391602	149.964310
12150.562234	-204.155000	1916.412109	178.983063
12150.562234	-204.155000	1915.431641	68.960381
12150.562234	-204.155000	1914.452148	-33.666977
12150.562234	-204.155000	1913.472656	178.382462
12150.562234	-204.155000	1912.492188	-9.501322
12150.562234	-204.155000	1911.511719	-58.321819
12150.562234	-204.155000	1910.531250	-29.091917
12150.562234	-204.155000	1909.550781	204.867844
12150.562234	-204.155000	1908.569336	29.436716
12150.562234	-204.155000	1907.588867	63.606419
12150.562234	-204.155000	1906.607422	0.372002
12150.562234	-204.155000	1905.625977	-167.517471
12150.562234	-204.155000	1904.644531	107.803864
12150.562234	-204.155000	1903.662109	17.916435
12150.562234	-204.155000	1902.680664	280.995087
12150.562234	-204.155000	1901.698242	15.971634
12150.562234	-204.155000	1900.715820	-8.067297
12150.562234	-204.155000	1899.733398	91.988174
12150.562234	-204.155000	1898.750000	-99.801987
12150.562234	-204.155000	1897.767578	63.512051
12150.562234	-204.155000	1896.784180	-6.588925
12150.562234	-204.155000	1895.800781	25.449266
12150.562234	-204.155000	1894.817383	86.666069
12150.562234	-204.155000	1893.833984	-5.185215
12150.562234	-204.155000	1892.850586	29.345949
12150.562234	-204.155000	1891.866211	-89.123764
12150.562234	-204.155000	1890.881836	-73.966187
12150.562234	-204.155000	1889.897461	-12.658569
12150.562234	-204.155000	1888.913086	-84.859810
12150.562234	-204.155000	1887.927734	-33.234451
12150.562234	-204.155000	1886.943359	-1.019006
12150.562234	-204.155000	1885.958008	-107.078972
12150.562234	-204.155000	1884.972656	-19.029589
12150.562234	-204.155000	1883.987305	-110.454628
12150.562234	-204.155000	1883.001953	-187.276749
12150.562234	-204.155000	1882.015625	65.646187
12150.562234	-204.155000	1881.029297	-32.958416
12150.562234	-204.155000	1880.042969	181.102966
12150.562234	-204.155000	1879.056641	36.512112
12150.562234	-204.155000	1878.070313	124.544571
12150.562234	-204.155000	1877.083984	21.221954
12150.562234	-204.155000	1876.096680	5.127848
12150.562234	-204.155000	1875.109375	71.369370
12150.562234	-204.155000	1874.122070	-138.353180
12150.562234	-204.155000	1873.134766	-9.162731
12150.562234	-204.155000	1872.146484	-46.969845
12150.562234	-204.155000	1871.159180	-123.461922
12150.562234	-204.155000	1870.170898	-137.026550
12150.562234	-204.155000	1869.182617	113.021385
12150.562234	-204.155000	1868.194336	-103.672523
12150.562234	-204.155000	1867.205078	129.366928
12150.562234	-204.155000	1866.216797	-36.481358
12150.562234	-204.155000	1865.227539	63.557175
12150.562234	-204.155000	1864.238281	269.868774
12150.562234	-204.155000	1863.249023	0.225948
12150.562234	-204.155000	1862.259766	182.324066
12150.562234	-204.155000	1861.269531	62.513351
12150.562234	-204.155000	1860.279297	-93.466484
12150.562234	-204.155000	1859.290039	-63.526073
12150.562234	-204.155000	1858.298828	214.978821
12150.562234	-204.155000	1857.308594	126.612068
12150.562234	-204.155000	1856.318359	221.621307
12150.562234	-204.155000	1855.327148	-78.979202
12150.562234	-204.155000	1854.335938	124.542465
12150.562234	-204.155000	1853.344727	-69.851723
12150.562234	-204.155000	1852.353516	95.006248
12150.562234	-204.155000	1851.362305	71.798065
12150.562234	-204.155000	1850.370117	91.963737
12150.562234	-204.155000	1849.377930	102.474487
12150.562234	-204.155000	1848.385742	55.157509
12150.562234	-204.155000	1847.393555	-25.871885
12150.562234	-204.155000	1846.401367	97.789680
12150.562234	-204.155000	1845.408203	238.243286
12150.562234	-204.155000	1844.415039	186.066681
12150.562234	-204.155000	1843.421875	232.561691
12150.562234	-204.155000	1842.428711	141.874878
12150.562234	-204.155000	1841.435547	-4.127450
12150.562234	-204.155000	1840.441406	234.740677
12150.562234	-204.155000	1839.448242	33.427872
12150.562234	-204.155000	1838.454102	279.371429
12150.562234	-204.155000	1837.459961	-8.455268
12150.562234	-204.155000	1836.464844	83.540939
12150.562234	-204.155000	1835.470703	144.241455
12150.562234	-204.155000	1834.475586	-25.745668
12150.562234	-204.155000	1833.480469	22.892910
12150.562234	-204.155000	1832.485352	-77.412010
12150.562234	-204.155000	1831.490234	158.453979
12150.562234	-204.155000	1830.495117	106.119949
12150.562234	-204.155000	1829.499023	87.381042
12150.562234	-204.155000	1828.502930	-41.770512
12150.562234	-204.155000	1827.506836	126.613708
12150.562234	-204.155000	1826.510742	186.953796
12150.562234	-204.155000	1825.513672	-11.791085
12150.562234	-204.155000	1824.517578	48.487694
12150.562234	-204.155000	1823.520508	77.542183
12150.562234	-204.155000	1822.523438	68.198830
12150.562234	-204.155000	1821.526367	111.548668
12150.562234	-204.155000	1820.529297	-3.299664
12150.562234	-204.155000	1819.531250	162.156769
12150.562234	-204.155000	1818.533203	147.868607
12150.562234	-204.155000	1817.535156	181.444489
12150.562234	-204.155000	1816.537109	404.122986
12150.562234	-204.155000	1815.539063	171.835052
12150.562234	-204.155000	1814.540039	255.530762
12150.562234	-204.155000	1813.541992	300.866486
12150.562234	-204.155000	1812.542969	-53.413231
12150.562234	-204.155000	1811.543945	-149.254883
12150.562234	-204.155000	1810.543945	185.393036
12150.562234	-204.155000	1809.544922	-15.756089
12150.562234	-204.155000	1808.544922	182.379898
12150.562234	-204.155000	1807.544922	84.000221
12150.562234	-204.155000	1806.544922	210.256592
12150.562234	-204.155000	1805.544922	83.143585
12150.562234	-204.155000	1804.544922	106.535599
12150.562234	-204.155000	1803.543945	125.093307
12150.562234	-204.155000	1802.542969	100.611885
12150.562234	-204.155000	1801.541992	228.896454
12150.562234	-204.155000	1800.541016	20.497280
12150.562234	-204.155000	1799.539063	170.128586
12150.562234	-204.155000	1798.538086	45.238277
12150.562234	-204.155000	1797.536133	53.946701
12150.562234	-204.155000	1796.534180	105.536690
12150.562234	-204.155000	1795.532227	90.279266
12150.562234	-204.155000	1794.529297	175.118942
12150.562234	-204.155000	1793.527344	100.149681
12150.562234	-204.155000	1792.524414	8.469903
12150.562234	-204.155000	1791.521484	133.630341
12150.562234	-204.155000	1790.518555	113.349327
12150.562234	-204.155000	1789.514648	-21.323343
12150.562234	-204.155000	1788.511719	89.318199
12150.562234	-204.155000	1787.507813	-73.984528
12150.562234	-204.155000	1786.503906	-92.051567
12150.562234	-204.155000	1785.500000	54.076694
12150.562234	-204.155000	1784.496094	-61.695770
12150.562234	-204.155000	1783.491211	84.256760
12150.562234	-204.155000	1782.486328	365.700409
12150.562234	-204.155000	1781.481445	235.489410
12150.562234	-204.155000	1780.476563	-8.878486
12150.562234	-204.155000	1779.471680	-3.558808
12150.562234	-204.155000	1778.465820	-95.766876
12150.562234	-204.155000	1777.460938	-116.692955
12150.562234	-204.155000	1776.455078	99.957138
12150.562234	-204.155000	1775.449219	95.511551
12150.562234	-204.155000	1774.442383	-30.138769
12150.562234	-204.155000	1773.436523	31.821297
12150.562234	-204.155000	1772.429688	238.541000
12150.562234	-204.155000	1771.422852	-65.298683
12150.562234	-204.155000	1770.416016	-51.021156
12150.562234	-204.155000	1769.409180	46.250397
12150.562234	-204.155000	1768.402344	133.933838
12150.562234	-204.155000	1767.394531	31.742062
12150.562234	-204.155000	1766.386719	102.667908
12150.562234	-204.155000	1765.378906	62.053085
12150.562234	-204.155000	1764.371094	64.068428
12150.562234	-204.155000	1763.362305	44.684475
12150.562234	-204.155000	1762.354492	124.790009
12150.562234	-204.155000	1761.345703	29.454060
12150.562234	-204.155000	1760.336914	-18.525427
12150.562234	-204.155000	1759.328125	196.371078
12150.562234	-204.155000	1758.318359	-0.943741
12150.562234	-204.155000	1757.308594	180.592926
12150.562234	-204.155000	1756.299805	6.909348
12150.562234	-204.155000	1755.290039	-34.230736
12150.562234	-204.155000	1754.279297	2.670600
12150.562234	-204.155000	1753.269531	89.184929
12150.562234	-204.155000	1752.258789	199.255356
12150.562234	-204.155000	1751.249023	174.419540
12150.562234	-204.155000	1750.238281	173.173111
12150.562234	-204.155000	1749.226563	-21.995693
12150.562234	-204.155000	1748.215820	132.676727
12150.562234	-204.155000	1747.204102	102.893730
12150.562234	-204.155000	1746.193359	-264.813263
12150.562234	-204.155000	1745.181641	-79.660034
12150.562234	-204.155000	1744.168945	126.615135
12150.562234	-204.155000	1743.157227	80.082138
12150.562234	-204.155000	1742.144531	-44.410675
12150.562234	-204.155000	1741.132813	-124.061714
12150.562234	-204.155000	1740.120117	53.501595
12150.562234	-204.155000	1739.106445	-89.975571
12150.562234	-204.155000	1738.093750	155.809723
12150.562234	-204.155000	1737.080078	139.618408
12150.562234	-204.155000	1736.067383	-67.641823
12150.562234	-204.155000	1735.053711	88.219437
12150.562234	-204.155000	1734.040039	41.227505
12150.562234	-204.155000	1733.025391	-173.151352
12150.562234	-204.155000	1732.011719	-140.072433
12150.562234	-204.155000	1730.997070	20.156227
12150.562234	-204.155000	1729.982422	1.242828
12150.562234	-204.155000	1728.967773	-83.663849
12150.562234	-204.155000	1727.952148	-225.113358
12150.562234	-204.155000	1726.937500	85.450493
12150.562234	-204.155000	1725.921875	-9.014177
12150.562234	-204.155000	1724.906250	49.465786
12150.562234	-204.155000	1723.890625	-127.418785
12150.562234	-204.155000	1722.875000	123.850090
12150.562234	-204.155000	1721.858398	66.853470
12150.562234	-204.155000	1720.841797	-81.884460
12150.562234	-204.155000	1719.825195	93.827171
12150.562234	-204.155000	1718.808594	-31.461395
12150.562234	-204.155000	1717.791992	47.709293
12150.562234	-204.155000	1716.774414	-49.437325
12150.562234	-204.155000	1715.756836	-33.834778
12150.562234	-204.155000	1714.739258	103.848473
12150.562234	-204.155000	1713.721680	-19.242550
12150.562234	-204.155000	1712.704102	-29.636631
12150.562234	-204.155000	1711.685547	65.552567
12150.562234	-204.155000	1710.667969	33.922031
12150.562234	-204.155000	1709.649414	-44.682858
12150.562234	-204.155000	1708.630859	132.419998
12150.562234	-204.155000	1707.611328	-84.673241
12150.562234	-204.155000	1706.592773	-27.333950
12150.562234	-204.155000	1705.573242	257.372772
12150.562234	-204.155000	1704.553711	131.666367
12150.562234	-204.155000	1703.534180	71.590363
12150.562234	-204.155000	1702.513672	116.938995
12150.562234	-204.155000	1701.494141	-233.730911
12150.562234	-204.155000	1700.473633	85.643120
12150.562234	-204.155000	1699.453125	-65.905785
12150.562234	-204.155000	1698.432617	-23.085987
12150.562234	-204.155000	1697.412109	101.615837
12150.562234	-204.155000	1696.390625	118.547455
12150.562234	-204.155000	1695.369141	-47.110355
12150.562234	-204.155000	1694.347656	56.333488
12150.562234	-204.155000	1693.326172	-39.149651
12150.562234	-204.155000	1692.304688	-13.012236
12150.562234	-204.155000	1691.282227	-131.916412
12150.562234	-204.155000	1690.260742	-9.990990
12150.562234	-204.155000	1689.238281	-98.538483
12150.562234	-204.155000	1688.214844	84.011032
12150.562234	-204.155000	1687.192383	-67.684891
12150.562234	-204.155000	1686.168945	233.863037
12150.562234	-204.155000	1685.146484	63.439453
12150.562234	-204.155000	1684.123047	49.506207
12150.562234	-204.155000	1683.099609	-29.831610
12150.562234	-204.155000	1682.075195	119.594696
12150.562234	-204.155000	1681.051758	23.868851
12150.562234	-204.155000	1680.027344	133.492523
12150.562234	-204.155000	1679.002930	-39.260105
12150.562234	-204.155000	1677.978516	-137.331635
12150.562234	-204.155000	1676.953125	39.794159
12150.562234	-204.155000	1675.928711	193.513809
12150.562234	-204.155000	1674.903320	130.327759
12150.562234	-204.155000	1673.877930	332.855103
12150.562234	-204.155000	1672.852539	48.226452
12150.562234	-204.155000	1671.826172	150.443344
12150.562234	-204.155000	1670.800781	387.714050
12150.562234	-204.155000	1669.774414	49.588673
12150.562234	-204.155000	1668.748047	98.115082
12150.562234	-204.155000	1667.721680	130.303848
12150.562234	-204.155000	1666.694336	76.325356
12150.562234	-204.155000	1665.667969	99.152748
12150.562234	-204.155000	1664.640625	177.787094
12150.562234	-204.155000	1663.613281	237.759811
12150.562234	-204.155000	1662.585938	95.338341
12150.562234	-204.155000	1661.557617	336.644135
12150.562234	-204.155000	1660.530273	247.697403
12150.562234	-204.155000	1659.501953	63.454170
12150.562234	-204.155000	1658.473633	197.668610
12150.562234	-204.155000	1657.444336	308.571533
12150.562234	-204.155000	1656.416016	273.063141
12150.562234	-204.155000	1655.386719	316.522217
12150.562234	-204.155000	1654.358398	308.867523
12150.562234	-204.155000	1653.328125	280.293793
12150.562234	-204.155000	1652.298828	446.724182
12150.562234	-204.155000	1651.269531	262.617035
12150.562234	-204.155000	1650.239258	319.896545
12150.562234	-204.155000	1649.208984	481.548431
12150.562234	-204.155000	1648.178711	371.735596
12150.562234	-204.155000	1647.148438	261.958923
12150.562234	-204.155000	1646.117188	235.685532
12150.562234	-204.155000	1645.086914	357.792297
12150.562234	-204.155000	1644.055664	649.040771
12150.562234	-204.155000	1643.024414	485.970337
12150.562234	-204.155000	1641.992188	888.278625
12150.562234	-204.155000	1640.960938	660.360168
12150.562234	-204.155000	1639.928711	504.317230
12150.562234	-204.155000	1638.896484	408.540863
12150.562234	-204.155000	1637.864258	451.708710
12150.562234	-204.155000	1636.832031	346.721954
12150.562234	-204.155000	1635.798828	503.279236
12150.562234	-204.155000	1634.766602	588.059143
12150.562234	-204.155000	1633.733398	545.570374
12150.562234	-204.155000	1632.699219	547.040283
12150.562234	-204.155000	1631.666016	479.150391
12150.562234	-204.155000	1630.632813	545.388428
12150.562234	-204.155000	1629.598633	502.958832
12150.562234	-204.155000	1628.564453	670.862976
12150.562234	-204.155000	1627.530273	774.013794
12150.562234	-204.155000	1626.495117	787.029846
12150.562234	-204.155000	1625.460938	679.953918
12150.562234	-204.155000	1624.425781	485.171722
12150.562234	-204.155000	1623.390625	636.802673
12150.562234	-204.155000	1622.355469	728.370117
12150.562234	-204.155000	1621.319336	748.363831
12150.562234	-204.155000	1620.284180	775.294006
12150.562234	-204.155000	1619.248047	488.466675
12150.562234	-204.155000	1618.211914	566.208069
12150.562234	-204.155000	1617.174805	819.197571
12150.562234	-204.155000	1616.138672	915.327087
12150.562234	-204.155000	1615.101563	691.003296
12150.562234	-204.155000	1614.065430	985.371887
12150.562234	-204.155000	1613.027344	904.026001
12150.562234	-204.155000	1611.990234	884.946472
12150.562234	-204.155000	1610.953125	1001.799988
12150.562234	-204.155000	1609.915039	757.054016
12150.562234	-204.155000	1608.876953	883.139221
12150.562234	-204.155000	1607.838867	864.167786
12150.562234	-204.155000	1606.800781	958.011536
12150.562234	-204.155000	1605.761719	998.911621
12150.562234	-204.155000	1604.723633	980.010315
12150.562234	-204.155000	1603.684570	887.528320
12150.562234	-204.155000	1602.644531	882.500732
12150.562234	-204.155000	1601.605469	928.097961
12150.562234	-204.155000	1600.566406	992.101257
12150.562234	-204.155000	1599.526367	1037.717651
12150.562234	-204.155000	1598.486328	1299.365601
12150.562234	-204.155000	1597.446289	1181.839111
12150.562234	-204.155000	1596.405273	1098.844116
12150.562234	-204.155000	1595.365234	967.692505
12150.562234	-204.155000	1594.324219	859.584778
12150.562234	-204.155000	1593.283203	1144.140625
12150.562234	-204.155000	1592.242188	776.737732
12150.562234	-204.155000	1591.200195	877.674255
12150.562234	-204.155000	1590.159180	1072.691162
12150.562234	-204.155000	1589.117188	1068.084106
12150.562234	-204.155000	1588.075195	1150.676758
12150.562234	-204.155000	1587.032227	1045.234985
12150.562234	-204.155000	1585.990234	738.128479
12150.562234	-204.155000	1584.947266	967.560486
12150.562234	-204.155000	1583.904297	899.014404
12150.562234	-204.155000	1582.861328	913.028076
12150.562234	-204.155000	1581.818359	1321.114014
12150.562234	-204.155000	1580.775391	1032.793335
12150.562234	-204.155000	1579.731445	1182.014038
12150.562234	-204.155000	1578.687500	1074.795410
12150.562234	-204.155000	1577.643555	892.127563
12150.562234	-204.155000	1576.598633	936.149902
12150.562234	-204.155000	1575.554688	1035.127441
12150.562234	-204.155000	1574.509766	806.962769
12150.562234	-204.155000	1573.464844	1008.951111
12150.562234	-204.155000	1572.419922	662.067871
12150.562234	-204.155000	1571.374023	779.507446
12150.562234	-204.155000	1570.329102	947.250122
12150.562234	-204.155000	1569.283203	961.847290
12150.562234	-204.155000	1568.237305	832.534546
12150.562234	-204.155000	1567.191406	785.574219
12150.562234	-204.155000	1566.144531	875.732239
12150.562234	-204.155000	1565.098633	687.303894
12150.562234	-204.155000	1564.051758	855.191528
12150.562234	-204.155000	1563.004883	970.565002
12150.562234	-204.155000	1561.957031	531.333130
12150.562234	-204.155000	1560.910156	560.130371
12150.562234	-204.155000	1559.862305	769.208374
12150.562234	-204.155000	1558.814453	576.803955
12150.562234	-204.155000	1557.766602	699.255676
12150.562234	-204.155000	1556.718750	415.859955
12150.562234	-204.155000	1555.669922	574.889160
12150.562234	-204.155000	1554.621094	697.452087
12150.562234	-204.155000	1553.573242	589.877930
12150.562234	-204.155000	1552.523438	509.740845
12150.562234	-204.155000	1551.474609	586.878845
12150.562234	-204.155000	1550.424805	349.762360
12150.562234	-204.155000	1549.375000	477.121826
12150.562234	-204.155000	1548.325195	472.458710
12150.562234	-204.155000	1547.275391	588.498230
12150.562234	-204.155000	1546.225586	524.782776
12150.562234	-204.155000	1545.174805	499.835297
12150.562234	-204.155000	1544.124023	584.154541
12150.562234	-204.155000	1543.073242	334.188171
12150.562234	-204.155000	1542.022461	316.322449
12150.562234	-204.155000	1540.970703	648.633301
12150.562234	-204.155000	1539.919922	387.648041
12150.562234	-204.155000	1538.868164	431.348206
12150.562234	-204.155000	1537.815430	595.519531
12150.562234	-204.155000	1536.763672	521.182190
12150.562234	-204.155000	1535.710938	408.333679
12150.562234	-204.155000	1534.659180	420.496704
12150.562234	-204.155000	1533.606445	464.507904
12150.562234	-204.155000	1532.552734	644.762390
12150.562234	-204.155000	1531.500000	648.012024
12150.562234	-204.155000	1530.446289	617.299805
12150.562234	-204.155000	1529.393555	427.884155
12150.562234	-204.155000	1528.338867	399.643402
12150.562234	-204.155000	1527.285156	543.828857
12150.562234	-204.155000	1526.231445	391.040405
12150.562234	-204.155000	1525.176758	462.788635
12150.562234	-204.155000	1524.122070	507.390961
12150.562234	-204.155000	1523.067383	286.957184
12150.562234	-204.155000	1522.012695	381.570587
12150.562234	-204.155000	1520.957031	399.217468
12150.562234	-204.155000	1519.901367	265.217987
12150.562234	-204.155000	1518.845703	341.902496
12150.562234	-204.155000	1517.790039	104.004738
12150.562234	-204.155000	1516.734375	318.899933
12150.562234	-204.155000	1515.677734	20.167553
12150.562234	-204.155000	1514.621094	-43.096355
12150.562234	-204.155000	1513.564453	101.827232
12150.562234	-204.155000	1512.507813	104.312599
12150.562234	-204.155000	1511.450195	77.486298
12150.562234	-204.155000	1510.393555	75.618462
12150.562234	-204.155000	1509.335938	35.413219
12150.562234	-204.155000	1508.278320	-25.028978
12150.562234	-204.155000	1507.219727	23.070089
12150.562234	-204.155000	1506.162109	-37.179291
12150.562234	-204.155000	1505.103516	-126.678841
12150.562234	-204.155000	1504.044922	61.641270
12150.562234	-204.155000	1502.986328	128.078094
12150.562234	-204.155000	1501.926758	-28.854431
12150.562234	-204.155000	1500.868164	8.409194
12150.562234	-204.155000	1499.808594	66.046120
12150.562234	-204.155000	1498.749023	146.299576
12150.562234	-204.155000	1497.688477	116.108574
12150.562234	-204.155000	1496.628906	234.819214
12150.562234	-204.155000	1495.568359	141.677597
12150.562234	-204.155000	1494.507813	-131.635880
12150.562234	-204.155000	1493.447266	-84.794952
12150.562234	-204.155000	1492.386719	-98.710648
12150.562234	-204.155000	1491.325195	99.185364
12150.562234	-204.155000	1490.263672	15.601445
12150.562234	-204.155000	1489.202148	-58.856865
12150.562234	-204.155000	1488.140625	4.112253
12150.562234	-204.155000	1487.079102	42.386787
12150.562234	-204.155000	1486.016602	-130.776077
12150.562234	-204.155000	1484.954102	-51.821766
12150.562234	-204.155000	1483.891602	-213.476791
12150.562234	-204.155000	1482.829102	-188.331970
12150.562234	-204.155000	1481.765625	77.460030
12150.562234	-204.155000	1480.702148	-38.897144
12150.562234	-204.155000	1479.638672	-242.762878
12150.562234	-204.155000	1478.575195	47.866730
12150.562234	-204.155000	1477.511719	-50.164589
12150.562234	-204.155000	1476.447266	-163.804077
12150.562234	-204.155000	1475.382813	-124.620987
12150.562234	-204.155000	1474.318359	-29.288212
12150.562234	-204.155000	1473.253906	-16.877098
12150.562234	-204.155000	1472.189453	87.665031
12150.562234	-204.155000	1471.124023	26.191116
12150.562234	-204.155000	1470.058594	182.462494
12150.562234	-204.155000	1468.993164	201.691986
12150.562234	-204.155000	1467.927734	104.841415
12150.562234	-204.155000	1466.861328	86.325516
12150.562234	-204.155000	1465.794922	74.558617
12150.562234	-204.155000	1464.728516	174.923416
12150.562234	-204.155000	1463.662109	101.064308
12150.562234	-204.155000	1462.594727	263.993011
12150.562234	-204.155000	1461.528320	57.975864
12150.562234	-204.155000	1460.460938	-44.757507
12150.562234	-204.155000	1459.393555	89.704750
12150.562234	-204.155000	1458.326172	185.485535
12150.562234	-204.155000	1457.257813	-15.636497
12150.562234	-204.155000	1456.189453	29.858639
12150.562234	-204.155000	1455.121094	249.185608
12150.562234	-204.155000	1454.052734	57.235802
12150.562234	-204.155000	1452.984375	215.464127
12150.562234	-204.155000	1451.915039	0.747264
12150.562234	-204.155000	1450.845703	162.357681
12150.562234	-204.155000	1449.776367	-24.679455
12150.562234	-204.155000	1448.707031	172.733292
12150.562234	-204.155000	1447.636719	43.938721
12150.562234	-204.155000	1446.567383	47.904903
12150.562234	-204.155000	1445.497070	271.035492
12150.562234	-204.155000	1444.425781	204.224045
12150.562234	-204.155000	1443.355469	100.765282
12150.562234	-204.155000	1442.285156	6.951343
12150.562234	-204.155000	1441.213867	133.861771
12150.562234	-204.155000	1440.142578	244.818954
12150.562234	-204.155000	1439.070313	281.866455
12150.562234	-204.155000	1437.999023	247.242554
12150.562234	-204.155000	1436.926758	1.492684
12150.562234	-204.155000	1435.854492	256.715302
12150.562234	-204.155000	1434.782227	116.135651
12150.562234	-204.155000	1433.709961	249.794434
12150.562234	-204.155000	1432.636719	257.363556
12150.562234	-204.155000	1431.563477	39.907902
12150.562234	-204.155000	1430.490234	111.685913
12150.562234	-204.155000	1429.416992	-108.193375
12150.562234	-204.155000	1428.343750	-64.589691
12150.562234	-204.155000	1427.269531	60.921131
12150.562234	-204.155000	1426.195313	217.056915
12150.562234	-204.155000	1425.121094	-19.710052
12150.562234	-204.155000	1424.046875	80.138397
12150.562234	-204.155000	1422.971680	136.263031
12150.562234	-204.155000	1421.896484	3.525882
12150.562234	-204.155000	1420.821289	1.038858
12150.562234	-204.155000	1419.746094	113.536903
12150.562234	-204.155000	1418.669922	192.340225
12150.562234	-204.155000	1417.594727	143.623657
12150.562234	-204.155000	1416.518555	191.563232
12150.562234	-204.155000	1415.442383	293.734375
12150.562234	-204.155000	1414.365234	524.942932
12150.562234	-204.155000	1413.289063	211.574036
12150.562234	-204.155000	1412.211914	101.547470
12150.562234	-204.155000	1411.134766	165.618027
12150.562234	-204.155000	1410.057617	158.768661
12150.562234	-204.155000	1408.979492	68.820152
12150.562234	-204.155000	1407.902344	264.772186
12150.562234	-204.155000	1406.824219	387.982697
12150.562234	-204.155000	1405.746094	411.504913
12150.562234	-204.155000	1404.666992	481.115936
12150.562234	-204.155000	1403.588867	144.621536
12150.562234	-204.155000	1402.509766	166.345963
12150.562234	-204.155000	1401.430664	438.711365
12150.562234	-204.155000	1400.351563	297.523834
12150.562234	-204.155000	1399.271484	388.265839
12150.562234	-204.155000	1398.192383	425.206390
12150.562234	-204.155000	1397.112305	506.977905
12150.562234	-204.155000	1396.031250	501.235321
12150.562234	-204.155000	1394.951172	495.657440
12150.562234	-204.155000	1393.871094	337.145721
12150.562234	-204.155000	1392.790039	448.634155
12150.562234	-204.155000	1391.708984	504.911438
12150.562234	-204.155000	1390.626953	400.042480
12150.562234	-204.155000	1389.545898	328.584351
12150.562234	-204.155000	1388.463867	421.980011
12150.562234	-204.155000	1387.381836	364.891907
12150.562234	-204.155000	1386.299805	329.441589
12150.562234	-204.155000	1385.217773	287.815033
12150.562234	-204.155000	1384.134766	195.597916
12150.562234	-204.155000	1383.051758	273.611725
12150.562234	-204.155000	1381.968750	430.357819
12150.562234	-204.155000	1380.885742	501.997742
12150.562234	-204.155000	1379.802734	341.562134
12150.562234	-204.155000	1378.718750	294.591125
12150.562234	-204.155000	1377.634766	311.142181
12150.562234	-204.155000	1376.550781	179.512512
12150.562234	-204.155000	1375.465820	361.968018
12150.562234	-204.155000	1374.381836	488.028931
12150.562234	-204.155000	1373.296875	240.085037
12150.562234	-204.155000	1372.211914	385.995270
12150.562234	-204.155000	1371.126953	335.720917
12150.562234	-204.155000	1370.041016	568.297546
12150.562234	-204.155000	1368.955078	302.481506
12150.562234	-204.155000	1367.869141	280.195892
12150.562234	-204.155000	1366.783203	346.358093
12150.562234	-204.155000	1365.697266	469.576904
12150.562234	-204.155000	1364.610352	183.555069
12150.562234	-204.155000	1363.523438	470.327911
12150.562234	-204.155000	1362.436523	431.461182
12150.562234	-204.155000	1361.349609	426.101746
12150.562234	-204.155000	1360.261719	328.795349
12150.562234	-204.155000	1359.174805	287.261078
12150.562234	-204.155000	1358.086914	200.306961
12150.562234	-204.155000	1356.998047	383.538971
12150.562234	-204.155000	1355.910156	272.892700
12150.562234	-204.155000	1354.821289	390.279938
12150.562234	-204.155000	1353.732422	474.291260
12150.562234	-204.155000	1352.643555	154.373199
12150.562234	-204.155000	1351.554688	354.156036
12150.562234	-204.155000	1350.464844	255.176071
12150.562234	-204.155000	1349.375000	419.024658
12150.562234	-204.155000	1348.285156	235.826126
12150.562234	-204.155000	1347.195313	414.826904
12150.562234	-204.155000	1346.105469	284.707947
12150.562234	-204.155000	1345.014648	407.126923
12150.562234	-204.155000	1343.923828	463.827271
12150.562234	-204.155000	1342.833008	367.090546
12150.562234	-204.155000	1341.741211	532.135010
12150.562234	-204.155000	1340.650391	463.504669
12150.562234	-204.155000	1339.558594	470.637634
12150.562234	-204.155000	1338.466797	568.717651
12150.562234	-204.155000	1337.374023	461.975891
12150.562234	-204.155000	1336.282227	437.348480
12150.562234	-204.155000	1335.189453	626.450684
12150.562234	-204.155000	1334.096680	594.401672
12150.562234	-204.155000	1333.003906	498.518127
12150.562234	-204.155000	1331.910156	548.878906
12150.562234	-204.155000	1330.817383	519.706177
12150.562234	-204.155000	1329.723633	421.965912
12150.562234	-204.155000	1328.629883	398.755707
12150.562234	-204.155000	1327.535156	332.718994
12150.562234	-204.155000	1326.441406	420.159637
12150.562234	-204.155000	1325.346680	480.060577
12150.562234	-204.155000	1324.251953	532.273071
12150.562234	-204.155000	1323.156250	249.243454
12150.562234	-204.155000	1322.061523	360.276337
12150.562234	-204.155000	1320.965820	478.682037
12150.562234	-204.155000	1319.870117	456.659363
12150.562234	-204.155000	1318.774414	533.409790
12150.562234	-204.155000	1317.678711	383.528381
12150.562234	-204.155000	1316.582031	278.830688
12150.562234	-204.155000	1315.485352	262.468628
12150.562234	-204.155000	1314.388672	271.418030
12150.562234	-204.155000	1313.291016	260.174286
12150.562234	-204.155000	1312.194336	238.658798
12150.562234	-204.155000	1311.096680	349.246704
12150.562234	-204.155000	1309.999023	189.397369
12150.562234	-204.155000	1308.901367	167.686340
12150.562234	-204.155000	1307.802734	189.045547
12150.562234	-204.155000	1306.705078	312.162842
12150.562234	-204.155000	1305.606445	229.771957
12150.562234	-204.155000	1304.506836	49.993336
12150.562234	-204.155000	1303.408203	74.336060
12150.562234	-204.155000	1302.308594	202.065170
12150.562234	-204.155000	1301.208984	294.122375
12150.562234	-204.155000	1300.109375	337.511871
12150.562234	-204.155000	1299.009766	300.844391
12150.562234	-204.155000	1297.909180	555.928894
12150.562234	-204.155000	1296.808594	532.418030
12150.562234	-204.155000	1295.708008	350.747681
12150.562234	-204.155000	1294.607422	424.810699
12150.562234	-204.155000	1293.506836	145.668976
12150.562234	-204.155000	1292.405273	44.680447
12150.562234	-204.155000	1291.303711	205.684158
12150.562234	-204.155000	1290.202148	116.372826
12150.562234	-204.155000	1289.099609	128.569260
12150.562234	-204.155000	1287.998047	42.973637
12150.562234	-204.155000	1286.895508	78.778084
12150.562234	-204.155000	1285.792969	107.152687
12150.562234	-204.155000	1284.689453	186.391937
12150.562234	-204.155000	1283.586914	19.621803
12150.562234	-204.155000	1282.483398	-57.121826
12150.562234	-204.155000	1281.379883	-22.704016
12150.562234	-204.155000	1280.276367	58.836540
12150.562234	-204.155000	1279.171875	141.697678
12150.562234	-204.155000	1278.067383	207.375656
12150.562234	-204.155000	1276.962891	250.430420
12150.562234	-204.155000	1275.858398	254.455124
12150.562234	-204.155000	1274.753906	277.074158
12150.562234	-204.155000	1273.648438	95.772484
12150.562234	-204.155000	1272.542969	238.086426
12150.562234	-204.155000	1271.437500	244.023193
12150.562234	-204.155000	1270.331055	148.982788
12150.562234	-204.155000	1269.225586	66.508186
12150.562234	-204.155000	1268.119141	-23.834394
12150.562234	-204.155000	1267.012695	48.934734
12150.562234	-204.155000	1265.906250	24.665588
12150.562234	-204.155000	1264.798828	18.148796
12150.562234	-204.155000	1263.691406	22.391409
12150.562234	-204.155000	1262.583984	48.714157
12150.562234	-204.155000	1261.476563	7.589138
12150.562234	-204.155000	1260.368164	-76.974281
12150.562234	-204.155000	1259.260742	36.537674
12150.562234	-204.155000	1258.152344	-72.801994
12150.562234	-204.155000	1257.043945	-125.605309
12150.562234	-204.155000	1255.934570	50.828472
12150.562234	-204.155000	1254.825195	23.570950
12150.562234	-204.155000	1253.716797	-88.386330
12150.562234	-204.155000	1252.606445	-55.619755
12150.562234	-204.155000	1251.497070	15.111049
12150.562234	-204.155000	1250.387695	-68.093742
12150.562234	-204.155000	1249.277344	-30.510963
12150.562234	-204.155000	1248.166992	-73.522057
12150.562234	-204.155000	1247.055664	-14.071842
12150.562234	-204.155000	1245.945313	113.093010
12150.562234	-204.155000	1244.833984	-109.991806
12150.562234	-204.155000	1243.722656	52.353828
12150.562234	-204.155000	1242.611328	166.045456
12150.562234	-204.155000	1241.499023	61.006359
12150.562234	-204.155000	1240.387695	142.177551
12150.562234	-204.155000	1239.275391	71.207848
12150.562234	-204.155000	1238.162109	69.487381
12150.562234	-204.155000	1237.049805	67.098831
12150.562234	-204.155000	1235.936523	113.774940
12150.562234	-204.155000	1234.823242	127.233124
12150.562234	-204.155000	1233.709961	4.904554
12150.562234	-204.155000	1232.596680	3.004606
12150.562234	-204.155000	1231.482422	-172.336502
12150.562234	-204.155000	1230.369141	-63.486996
12150.562234	-204.155000	1229.253906	-24.459673
12150.562234	-204.155000	1228.139648	-8.922302
12150.562234	-204.155000	1227.025391	-50.923367
12150.562234	-204.155000	1225.910156	-135.884476
12150.562234	-204.155000	1224.794922	-75.288223
12150.562234	-204.155000	1223.679688	-157.078384
12150.562234	-204.155000	1222.563477	-53.441250
12150.562234	-204.155000	1221.447266	-79.880829
12150.562234	-204.155000	1220.331055	-36.292046
12150.562234	-204.155000	1219.214844	-51.036621
12150.562234	-204.155000	1218.098633	80.156540
12150.562234	-204.155000	1216.981445	-40.884308
12150.562234	-204.155000	1215.864258	-49.403259
12150.562234	-204.155000	1214.747070	-10.679008
12150.562234	-204.155000	1213.629883	-65.286140
12150.562234	-204.155000	1212.511719	38.725594
12150.562234	-204.155000	1211.393555	1.178618
12150.562234	-204.155000	1210.275391	-79.470390
12150.562234	-204.155000	1209.157227	10.031156
12150.562234	-204.155000	1208.038086	-7.475956
12150.562234	-204.155000	1206.918945	27.121836
12150.562234	-204.155000	1205.799805	-0.976581
12150.562234	-204.155000	1204.680664	46.145462
12150.562234	-204.155000	1203.560547	-35.278755
12150.562234	-204.155000	1202.441406	64.722679
12150.562234	-204.155000	1201.321289	29.299246
12150.562234	-204.155000	1200.200195	-45.919556
12150.562234	-204.155000	1199.080078	-133.350311
12150.562234	-204.155000	1197.958984	-151.222595
12150.562234	-204.155000	1196.837891	-77.223335
12150.562234	-204.155000	1195.716797	110.380577
12150.562234	-204.155000	1194.594727	48.350571
12150.562234	-204.155000	1193.473633	86.793800
12150.562234	-204.155000	1192.351563	23.630836
12150.562234	-204.155000	1191.229492	14.555764
12150.562234	-204.155000	1190.106445	-2.456222
12150.562234	-204.155000	1188.984375	51.307770
12150.562234	-204.155000	1187.861328	-103.453598
12150.562234	-204.155000	1186.738281	50.556442
12150.562234	-204.155000	1185.614258	62.753418
12150.562234	-204.155000	1184.491211	-27.094830
12150.562234	-204.155000	1183.367188	173.607590
12150.562234	-204.155000	1182.243164	119.042381
12150.562234	-204.155000	1181.119141	119.150726
12150.562234	-204.155000	1179.994141	7.457379
12150.562234	-204.155000	1178.869141	20.941019
12150.562234	-204.155000	1177.744141	42.039925
12150.562234	-204.155000	1176.619141	91.737305
12150.562234	-204.155000	1175.493164	60.891792
12150.562234	-204.155000	1174.368164	-55.026970
12150.562234	-204.155000	1173.242188	10.300018
12150.562234	-204.155000	1172.115234	84.208427
12150.562234	-204.155000	1170.989258	7.644665
12150.562234	-204.155000	1169.862305	0.573065
12150.562234	-204.155000	1168.735352	24.047832
12150.562234	-204.155000	1167.608398	76.677216
12150.562234	-204.155000	1166.481445	177.312637
12150.562234	-204.155000	1165.353516	97.939430
12150.562234	-204.155000	1164.225586	91.157852
12150.562234	-204.155000	1163.097656	-77.098618
12150.562234	-204.155000	1161.968750	-17.483416
12150.562234	-204.155000	1160.840820	182.865570
12150.562234	-204.155000	1159.711914	92.261726
12150.562234	-204.155000	1158.583008	28.710770
12150.562234	-204.155000	1157.453125	-16.118568
12150.562234	-204.155000	1156.324219	-16.302361
12150.562234	-204.155000	1155.194336	-107.533348
12150.562234	-204.155000	1154.064453	20.218775
12150.562234	-204.155000	1152.933594	59.419491
12150.562234	-204.155000	1151.803711	-22.726704
12150.562234	-204.155000	1150.672852	-30.799524
12150.562234	-204.155000	1149.541992	-3.961867
12150.562234	-204.155000	1148.411133	-175.169846
12150.562234	-204.155000	1147.279297	51.477409
12150.562234	-204.155000	1146.147461	-12.616461
12150.562234	-204.155000	1145.015625	-78.850922
12150.562234	-204.155000	1143.883789	-23.350040
12150.562234	-204.155000	1142.750977	110.158035
12150.562234	-204.155000	1141.619141	112.718330
12150.562234	-204.155000	1140.486328	-74.373482
12150.562234	-204.155000	1139.352539	9.649059
12150.562234	-204.155000	1138.219727	-11.001797
12150.562234	-204.155000	1137.085938	-4.726871
12150.562234	-204.155000	1135.952148	227.074112
12150.562234	-204.155000	1134.818359	-26.412317
12150.562234	-204.155000	1133.683594	-62.928234
12150.562234	-204.155000	1132.549805	208.178436
12150.562234	-204.155000	1131.415039	132.888382
12150.562234	-204.155000	1130.279297	198.153656
12150.562234	-204.155000	1129.144531	234.871689
12150.562234	-204.155000	1128.008789	201.055176
12150.562234	-204.155000	1126.873047	112.831078
12150.562234	-204.155000	1125.737305	166.676010
12150.562234	-204.155000	1124.601563	203.218903
12150.562234	-204.155000	1123.464844	303.069977
12150.562234	-204.155000	1122.328125	303.030121
12150.562234	-204.155000	1121.191406	176.371933
12150.562234	-204.155000	1120.054688	286.803406
12150.562234	-204.155000	1118.916992	181.864349
12150.562234	-204.155000	1117.779297	83.757202
12150.562234	-204.155000	1116.641602	-64.103882
12150.562234	-204.155000	1115.503906	244.040924
12150.562234	-204.155000	1114.365234	141.298630
12150.562234	-204.155000	1113.226563	210.105286
12150.562234	-204.155000	1112.087891	94.627968
12150.562234	-204.155000	1110.949219	127.757378
12150.562234	-204.155000	1109.809570	-12.317565
12150.562234	-204.155000	1108.669922	26.374498
12150.562234	-204.155000	1107.530273	8.968427
12150.562234	-204.155000	1106.390625	73.123505
12150.562234	-204.155000	1105.250000	62.250206
12150.562234	-204.155000	1104.109375	82.305389
12150.562234	-204.155000	1102.968750	143.995224
12150.562234	-204.155000	1101.828125	211.865723
12150.562234	-204.155000	1100.686523	271.301849
12150.562234	-204.155000	1099.544922	11.204927
12150.562234	-204.155000	1098.403320	32.048748
12150.562234	-204.155000	1097.261719	161.869568
12150.562234	-204.155000	1096.120117	183.794449
12150.562234	-204.155000	1094.977539	130.263901
12150.562234	-204.155000	1093.834961	117.703835
12150.562234	-204.155000	1092.691406	185.811523
12150.562234	-204.155000	1091.548828	85.631332
12150.562234	-204.155000	1090.405273	127.992165
12150.562234	-204.155000	1089.261719	135.663864
12150.562234	-204.155000	1088.118164	170.539154
12150.562234	-204.155000	1086.973633	-55.693649
12150.562234	-204.155000	1085.829102	235.014694
12150.562234	-204.155000	1084.684570	48.154602
12150.562234	-204.155000	1083.540039	-4.418315
12150.562234	-204.155000	1082.395508	-113.278099
12150.562234	-204.155000	1081.250000	53.320057
12150.562234	-204.155000	1080.104492	81.992950
12150.562234	-204.155000	1078.958984	26.469284
12150.562234	-204.155000	1077.812500	-91.685921
12150.562234	-204.155000	1076.666016	-38.021778
12150.562234	-204.155000	1075.519531	35.878895
12150.562234	-204.155000	1074.373047	-0.391918
12150.562234	-204.155000	1073.226563	-40.099659
12150.562234	-204.155000	1072.079102	90.178955
12150.562234	-204.155000	1070.931641	21.123503
12150.562234	-204.155000	1069.784180	32.727341
12150.562234	-204.155000	1068.635742	23.056240
12150.562234	-204.155000	1067.487305	79.109215
12150.562234	-204.155000	1066.338867	-25.874275
12150.562234	-204.155000	1065.190430	118.521980
12150.562234	-204.155000	1064.041992	29.016941
12150.562234	-204.155000	1062.892578	129.272919
12150.562234	-204.155000	1061.743164	-14.046863
12150.562234	-204.155000	1060.593750	137.597855
12150.562234	-204.155000	1059.443359	114.206215
12150.562234	-204.155000	1058.292969	55.495247
12150.562234	-204.155000	1057.142578	32.687828
12150.562234	-204.155000	1055.992188	-39.535172
12150.562234	-204.155000	1054.841797	27.221975
12150.562234	-204.155000	1053.690430	5.461205
12150.562234	-204.155000	1052.539063	-47.240921
12150.562234	-204.155000	1051.387695	61.057224
12150.562234	-204.155000	1050.235352	-49.151291
12150.562234	-204.155000	1049.083984	-61.614674
12150.562234	-204.155000	1047.931641	-48.590191
12150.562234	-204.155000	1046.778320	65.259209
12150.562234	-204.155000	1045.625977	44.647404
12150.562234	-204.155000	1044.472656	159.211487
12150.562234	-204.155000	1043.319336	123.478462
12150.562234	-204.155000	1042.166016	-3.787785
12150.562234	-204.155000	1041.012695	-113.246216
12150.562234	-204.155000	1039.858398	-35.663750
12150.562234	-204.155000	1038.704102	117.553101
12150.562234	-204.155000	1037.549805	70.952423
12150.562234	-204.155000	1036.394531	62.122681
12150.562234	-204.155000	1035.239258	-0.932398
12150.562234	-204.155000	1034.083984	-116.617859
12150.562234	-204.155000	1032.928711	55.647587
12150.562234	-204.155000	1031.773438	-33.009865
12150.562234	-204.155000	1030.617188	125.291092
12150.562234	-204.155000	1029.460938	-59.393917
12150.562234	-204.155000	1028.304688	-128.288300
12150.562234	-204.155000	1027.147461	136.539948
12150.562234	-204.155000	1025.991211	35.842693
12150.562234	-204.155000	1024.833984	50.876297
12150.562234	-204.155000	1023.675781	155.664337
12150.562234	-204.155000	1022.518555	-21.703278
12150.562234	-204.155000	1021.360352	-145.676407
12150.562234	-204.155000	1020.202148	-27.681644
12150.562234	-204.155000	1019.043945	46.073212
12150.562234	-204.155000	1017.884766	81.791473
12150.562234	-204.155000	1016.726563	68.305443
12150.562234	-204.155000	1015.567383	-17.020491
12150.562234	-204.155000	1014.407227	114.127296
12150.562234	-204.155000	1013.248047	-58.814274
12150.562234	-204.155000	1012.087891	-61.316883
12150.562234	-204.155000	1010.927734	183.049469
12150.562234	-204.155000	1009.767578	73.458832
12150.562234	-204.155000	1008.606445	33.034248
12150.562234	-204.155000	1007.446289	-3.556671
12150.562234	-204.155000	1006.285156	17.905565
12150.562234	-204.155000	1005.123047	75.906456
12150.562234	-204.155000	1003.961914	-22.164587
12150.562234	-204.155000	1002.799805	-49.850895
12150.562234	-204.155000	1001.637695	192.351913
12150.562234	-204.155000	1000.475586	42.664745
12150.562234	-204.155000	999.312500	5.086460
12150.562234	-204.155000	998.149414	95.681061
12150.562234	-204.155000	996.986328	39.976097
12150.562234	-204.155000	995.823242	61.108482
12150.562234	-204.155000	994.659180	-61.232590
12150.562234	-204.155000	993.496094	17.346537
12150.562234	-204.155000	992.332031	24.932049
12150.562234	-204.155000	991.166992	5.623686
12150.562234	-204.155000	990.002930	75.671661
12150.562234	-204.155000	988.837891	39.683514
12150.562234	-204.155000	987.672852	63.950958
12150.562234	-204.155000	986.506836	-83.151405
12150.562234	-204.155000	985.341797	-72.245308
12150.562234	-204.155000	984.175781	82.093056
12150.562234	-204.155000	983.009766	24.991400
12150.562234	-204.155000	981.843750	28.801451
12150.562234	-204.155000	980.676758	105.053963
12150.562234	-204.155000	979.509766	46.776096
12150.562234	-204.155000	978.342773	-19.949945
12150.562234	-204.155000	977.175781	-28.170877
12150.562234	-204.155000	976.007813	-88.682198
12150.562234	-204.155000	974.839844	-134.195938
12150.562234	-204.155000	973.671875	-6.703169
12150.562234	-204.155000	972.503906	97.629288
12150.562234	-204.155000	971.334961	147.704086
12150.562234	-204.155000	970.166016	152.492844
12150.562234	-204.155000	968.997070	-126.022835
12150.562234	-204.155000	967.828125	46.479435
12150.562234	-204.155000	966.658203	20.051666
12150.562234	-204.155000	965.488281	131.296387
12150.562234	-204.155000	964.318359	107.070175
12150.562234	-204.155000	963.148438	-37.870003
12150.562234	-204.155000	961.977539	97.013130
12150.562234	-204.155000	960.806641	256.869995
12150.562234	-204.155000	959.635742	252.808167
12150.562234	-204.155000	958.463867	230.836517
12150.562234	-204.155000	957.292969	289.929779
12150.562234	-204.155000	956.121094	64.219841
12150.562234	-204.155000	954.948242	60.888443
12150.562234	-204.155000	953.776367	81.478714
12150.562234	-204.155000	952.603516	133.622482
12150.562234	-204.155000	951.430664	-46.693771
12150.562234	-204.155000	950.257813	54.520267
12150.562234	-204.155000	949.084961	-81.458939
12150.562234	-204.155000	947.911133	-20.675390
12150.562234	-204.155000	946.737305	-14.878896
12150.562234	-204.155000	945.563477	175.998001
12150.562234	-204.155000	944.388672	-36.319202
12150.562234	-204.155000	943.213867	-32.651592
12150.562234	-204.155000	942.039063	113.466728
12150.562234	-204.155000	940.864258	-11.627271
12150.562234	-204.155000	939.688477	-21.632971
12150.562234	-204.155000	938.513672	-63.827213
12150.562234	-204.155000	937.337891	110.162621
12150.562234	-204.155000	936.161133	19.564091
12150.562234	-204.155000	934.985352	71.662918
12150.562234	-204.155000	933.808594	151.302338
12150.562234	-204.155000	932.631836	196.326416
12150.562234	-204.155000	931.454102	80.354004
12150.562234	-204.155000	930.277344	109.447296
12150.562234	-204.155000	929.099609	103.823410
12150.562234	-204.155000	927.921875	180.986618
12150.562234	-204.155000	926.743164	88.011757
12150.562234	-204.155000	925.565430	27.219898
12150.562234	-204.155000	924.386719	106.661057
12150.562234	-204.155000	923.208008	71.156921
12150.562234	-204.155000	922.028320	205.679703
12150.562234	-204.155000	920.849609	57.568176
12150.562234	-204.155000	919.669922	60.552879
12150.562234	-204.155000	919.474609	146.573914
12150.562234	-204.155000	918.309570	0.761307
12150.562234	-204.155000	917.143555	61.631210
12150.562234	-204.155000	915.977539	5.389157
12150.562234	-204.155000	914.810547	6.533630
12150.562234	-204.155000	913.644531	65.023651
12150.562234	-204.155000	912.477539	40.888405
12150.562234	-204.155000	911.310547	-113.989769
12150.562234	-204.155000	910.143555	-154.162659
12150.562234	-204.155000	908.975586	-31.551790
12150.562234	-204.155000	907.807617	54.317970
12150.562234	-204.155000	906.639648	-29.453804
12150.562234	-204.155000	905.471680	-191.111298
12150.562234	-204.155000	904.303711	68.792702
12150.562234	-204.155000	903.134766	-67.655594
12150.562234	-204.155000	901.965820	-84.989792
12150.562234	-204.155000	900.796875	-223.672836
12150.562234	-204.155000	899.626953	-167.752365
12150.562234	-204.155000	898.457031	-159.928940
12150.562234	-204.155000	897.287109	76.677238
12150.562234	-204.155000	896.117188	-84.866486
12150.562234	-204.155000	894.947266	94.417328
12150.562234	-204.155000	893.776367	-199.719223
12150.562234	-204.155000	892.605469	70.929581
12150.562234	-204.155000	891.434570	112.881264
12150.562234	-204.155000	890.262695	141.089005
12150.562234	-204.155000	889.091797	-4.376329
12150.562234	-204.155000	887.919922	-1.318227
12150.562234	-204.155000	886.748047	6.289418
12150.562234	-204.155000	885.575195	29.861649
12150.562234	-204.155000	884.403320	80.799515
12150.562234	-204.155000	883.230469	47.250565
12150.562234	-204.155000	882.057617	2.286852
12150.562234	-204.155000	880.883789	48.586040
12150.562234	-204.155000	879.710938	-39.733906
12150.562234	-204.155000	878.537109	-36.812695
12150.562234	-204.155000	877.362305	18.533112
12150.562234	-204.155000	876.188477	-62.941727
12150.562234	-204.155000	875.013672	-96.537170
12150.562234	-204.155000	873.839844	11.139297
12150.562234	-204.155000	872.664063	-65.780777
12150.562234	-204.155000	871.489258	246.808105
12150.562234	-204.155000	870.313477	122.010155
12150.562234	-204.155000	869.138672	90.591049
12150.562234	-204.155000	867.962891	154.776016
12150.562234	-204.155000	866.786133	-65.572830
12150.562234	-204.155000	865.610352	39.535870
12150.562234	-204.155000	864.433594	24.008877
12150.562234	-204.155000	863.256836	-98.433098
12150.562234	-204.155000	862.079102	149.823853
12150.562234	-204.155000	860.902344	41.006535
12150.562234	-204.155000	859.724609	73.147568
12150.562234	-204.155000	858.546875	-15.195364
12150.562234	-204.155000	857.368164	-73.983650
12150.562234	-204.155000	856.190430	-55.533283
12150.562234	-204.155000	855.011719	-168.841110
12150.562234	-204.155000	853.833008	-111.816193
12150.562234	-204.155000	852.654297	-36.674488
12150.562234	-204.155000	851.474609	-6.980027
12150.562234	-204.155000	850.294922	115.724403
12150.562234	-204.155000	849.115234	-79.291817
12150.562234	-204.155000	847.935547	2.500430
12150.562234	-204.155000	846.754883	47.949165
12150.562234	-204.155000	845.575195	-115.255432
12150.562234	-204.155000	844.393555	48.042278
12150.562234	-204.155000	843.212891	25.387493
12150.562234	-204.155000	842.032227	-15.409882
12150.562234	-204.155000	840.850586	27.616230
12150.562234	-204.155000	839.668945	9.440785
12150.562234	-204.155000	838.486328	204.133331
12150.562234	-204.155000	837.304688	-26.958450
12150.562234	-204.155000	836.122070	-90.458008
12150.562234	-204.155000	834.939453	-24.946953
12150.562234	-204.155000	833.756836	-52.264317
12150.562234	-204.155000	832.573242	-138.416824
12150.562234	-204.155000	831.389648	-106.938171
12150.562234	-204.155000	830.206055	-154.648834
12150.562234	-204.155000	829.022461	23.733234
12150.562234	-204.155000	827.838867	-121.238411
12150.562234	-204.155000	826.654297	63.792679
12150.562234	-204.155000	825.469727	6.946236
12150.562234	-204.155000	824.284180	-45.384216
12150.562234	-204.155000	823.099609	78.455170
12150.562234	-204.155000	821.914063	143.504501
12150.562234	-204.155000	820.728516	75.293777
12150.562234	-204.155000	819.542969	86.089417
12150.562234	-204.155000	818.356445	26.893248
12150.562234	-204.155000	817.169922	-160.917023
12150.562234	-204.155000	815.983398	-30.599384
12150.562234	-204.155000	814.796875	-6.367837
12150.562234	-204.155000	813.609375	-85.900345
12150.562234	-204.155000	812.422852	-131.611008
12150.562234	-204.155000	811.235352	57.085800
12150.562234	-204.155000	810.046875	87.929123
12150.562234	-204.155000	808.859375	-36.731323
12150.562234	-204.155000	807.670898	-17.201645
12150.562234	-204.155000	806.482422	-31.490631
12150.562234	-204.155000	805.293945	84.794159
12150.562234	-204.155000	804.104492	95.196274
12150.562234	-204.155000	802.915039	150.579071
12150.562234	-204.155000	801.725586	106.896538
12150.562234	-204.155000	800.536133	4.708100
12150.562234	-204.155000	799.345703	44.241810
12150.562234	-204.155000	798.155273	110.714645
12150.562234	-204.155000	796.964844	73.703636
12150.562234	-204.155000	795.774414	86.132500
12150.562234	-204.155000	794.583008	219.890335
12150.562234	-204.155000	793.392578	229.975937
12150.562234	-204.155000	792.200195	244.520630
12150.562234	-204.155000	791.008789	353.364563
12150.562234	-204.155000	789.816406	107.323067
12150.562234	-204.155000	788.625000	34.230114
12150.562234	-204.155000	787.432617	6.030788
12150.562234	-204.155000	786.239258	58.603848
12150.562234	-204.155000	785.046875	14.642817
12150.562234	-204.155000	783.853516	53.669800
12150.562234	-204.155000	782.660156	150.963669
12150.562234	-204.155000	781.465820	46.372276
12150.562234	-204.155000	780.272461	87.516136
12150.562234	-204.155000	779.078125	-57.427574
12150.562234	-204.155000	777.883789	-76.848785
12150.562234	-204.155000	776.688477	138.959641
12150.562234	-204.155000	775.494141	97.041290
12150.562234	-204.155000	774.298828	43.911072
12150.562234	-204.155000	773.103516	181.095169
12150.562234	-204.155000	771.907227	54.031128
12150.562234	-204.155000	770.711914	63.515690
12150.562234	-204.155000	769.515625	86.390724
12150.562234	-204.155000	768.318359	77.902252
12150.562234	-204.155000	767.122070	33.597202
12150.562234	-204.155000	765.924805	-33.085049
12150.562234	-204.155000	764.727539	-110.951073
12150.562234	-204.155000	763.530273	135.315567
12150.562234	-204.155000	762.333008	142.309631
12150.562234	-204.155000	761.134766	97.876701
12150.562234	-204.155000	759.936523	73.535515
12150.562234	-204.155000	758.738281	156.381836
12150.562234	-204.155000	757.540039	125.276108
12150.562234	-204.155000	756.340820	-42.037758
12150.562234	-204.155000	755.141602	172.380997
12150.562234	-204.155000	753.942383	136.731705
12150.562234	-204.155000	752.742188	234.937927
12150.562234	-204.155000	751.541992	145.689529
12150.562234	-204.155000	750.341797	161.268875
12150.562234	-204.155000	749.141602	259.313782
12150.562234	-204.155000	747.941406	192.315628
12150.562234	-204.155000	746.740234	221.154907
12150.562234	-204.155000	745.539063	80.591988
12150.562234	-204.155000	744.337891	260.880951
12150.562234	-204.155000	743.135742	115.850494
12150.562234	-204.155000	741.933594	226.958374
12150.562234	-204.155000	740.731445	68.575867
12150.562234	-204.155000	739.529297	313.150452
12150.562234	-204.155000	738.326172	484.147491
12150.562234	-204.155000	737.124023	227.813644
12150.562234	-204.155000	735.919922	427.617798
12150.562234	-204.155000	734.716797	460.491913
12150.562234	-204.155000	733.513672	451.072296
12150.562234	-204.155000	732.309570	519.442444
12150.562234	-204.155000	731.105469	645.549622
12150.562234	-204.155000	729.900391	624.897278
12150.562234	-204.155000	728.696289	644.221558
12150.562234	-204.155000	727.491211	703.493958
12150.562234	-204.155000	726.286133	460.661713
12150.562234	-204.155000	725.080078	468.820099
12150.562234	-204.155000	723.874023	343.746643
12150.562234	-204.155000	722.668945	280.846924
12150.562234	-204.155000	721.461914	406.570648
12150.562234	-204.155000	720.255859	381.348755
12150.562234	-204.155000	719.048828	285.128937
12150.562234	-204.155000	717.841797	313.116608
12150.562234	-204.155000	716.634766	185.860046
12150.562234	-204.155000	715.427734	344.598969
12150.562234	-204.155000	714.219727	133.117859
12150.562234	-204.155000	713.011719	134.427017
12150.562234	-204.155000	711.803711	62.603085
12150.562234	-204.155000	710.594727	26.225473
12150.562234	-204.155000	709.385742	-23.446421
12150.562234	-204.155000	708.176758	-4.485337
12150.562234	-204.155000	706.967773	-63.026505
12150.562234	-204.155000	705.758789	33.351501
12150.562234	-204.155000	704.548828	63.289616
12150.562234	-204.155000	703.338867	-68.291489
12150.562234	-204.155000	702.127930	-60.500877
12150.562234	-204.155000	700.917969	102.055099
12150.562234	-204.155000	699.707031	-53.826618
12150.562234	-204.155000	698.496094	95.360695
12150.562234	-204.155000	697.285156	187.014130
12150.562234	-204.155000	696.073242	271.982635
12150.562234	-204.155000	694.861328	-3.150805
12150.562234	-204.155000	693.649414	-59.547661
12150.562234	-204.155000	692.436523	-62.944916
12150.562234	-204.155000	691.224609	79.342400
12150.562234	-204.155000	690.011719	56.027164
12150.562234	-204.155000	688.798828	184.964935
12150.562234	-204.155000	687.584961	27.039829
12150.562234	-204.155000	686.372070	3.716242
12150.562234	-204.155000	685.158203	172.244141
12150.562234	-204.155000	683.943359	18.799091
12150.562234	-204.155000	682.729492	72.613129
12150.562234	-204.155000	681.514648	168.268265
12150.562234	-204.155000	680.299805	274.892639
12150.562234	-204.155000	679.084961	187.613098
12150.562234	-204.155000	677.869141	-3.149096
12150.562234	-204.155000	676.653320	90.215729
12150.562234	-204.155000	675.437500	-49.819881
12150.562234	-204.155000	674.221680	215.189270
12150.562234	-204.155000	673.004883	44.373535
12150.562234	-204.155000	671.789063	-49.366909
12150.562234	-204.155000	670.571289	-28.689650
12150.562234	-204.155000	669.354492	110.736618
12150.562234	-204.155000	668.136719	-13.739382
12150.562234	-204.155000	666.919922	158.602890
12150.562234	-204.155000	665.701172	-66.922386
12150.562234	-204.155000	664.483398	96.576645
12150.562234	-204.155000	663.264648	0.783769
12150.562234	-204.155000	662.045898	-94.960739
12150.562234	-204.155000	660.827148	53.088268
12150.562234	-204.155000	659.608398	71.552925
12150.562234	-204.155000	658.388672	98.799133
12150.562234	-204.155000	657.168945	178.712128
12150.562234	-204.155000	655.949219	21.645498
12150.562234	-204.155000	654.728516	173.954498
12150.562234	-204.155000	653.507813	43.298763
12150.562234	-204.155000	652.287109	-157.451447
12150.562234	-204.155000	651.066406	-53.382931
12150.562234	-204.155000	649.844727	118.601860
12150.562234	-204.155000	648.623047	60.448696
12150.562234	-204.155000	647.401367	-56.812954
12150.562234	-204.155000	646.179688	71.317101
12150.562234	-204.155000	644.957031	32.981415
12150.562234	-204.155000	643.734375	27.528101
12150.562234	-204.155000	642.511719	-23.866848
12150.562234	-204.155000	641.289063	-51.140705
12150.562234	-204.155000	640.065430	0.393171
12150.562234	-204.155000	638.841797	100.060387
12150.562234	-204.155000	637.618164	-99.920059
12150.562234	-204.155000	636.393555	12.906160
12150.562234	-204.155000	635.168945	112.598991
12150.562234	-204.155000	633.944336	-93.717270
12150.562234	-204.155000	632.719727	32.247715
12150.562234	-204.155000	631.494141	16.183771
12150.562234	-204.155000	630.269531	113.750267
12150.562234	-204.155000	629.042969	-133.740646
12150.562234	-204.155000	627.817383	29.396605
12150.562234	-204.155000	626.590820	-6.142045
12150.562234	-204.155000	625.365234	-135.469910
12150.562234	-204.155000	624.137695	-109.776352
12150.562234	-204.155000	622.911133	-55.686749
12150.562234	-204.155000	621.683594	-27.747013
12150.562234	-204.155000	620.456055	41.662075
12150.562234	-204.155000	619.228516	-78.584122
12150.562234	-204.155000	618.000977	-131.158081
12150.562234	-204.155000	616.772461	69.136421
12150.562234	-204.155000	615.543945	47.163563
12150.562234	-204.155000	614.314453	110.209511
12150.562234	-204.155000	613.085938	-85.879845
12150.562234	-204.155000	611.856445	-11.830396
12150.562234	-204.155000	610.626953	-3.060318
12150.562234	-204.155000	609.397461	-35.586800
12150.562234	-204.155000	608.166992	-98.500389
12150.562234	-204.155000	606.936523	36.650700
12150.562234	-204.155000	605.706055	78.280930
12150.562234	-204.155000	604.474609	-6.166878
12150.562234	-204.155000	603.244141	-92.685524
12150.562234	-204.155000	602.012695	-5.201239
12150.562234	-204.155000	600.780273	-48.077721
12150.562234	-204.155000	599.548828	154.659683
12150.562234	-204.155000	598.316406	101.052818
12150.562234	-204.155000	597.083984	-50.189125
12150.562234	-204.155000	595.851563	11.505507
12150.562234	-204.155000	594.618164	45.031151
12150.562234	-204.155000	593.384766	-45.094631
12150.562234	-204.155000	592.151367	-89.531631
12150.562234	-204.155000	590.917969	193.733185
12150.562234	-204.155000	589.683594	-43.615444
12150.562234	-204.155000	588.449219	-35.725307
12150.562234	-204.155000	587.214844	-47.265007
12150.562234	-204.155000	585.979492	1.983546
12150.562234	-204.155000	584.745117	20.959204
12150.562234	-204.155000	583.509766	235.027573
12150.562234	-204.155000	582.273438	202.138367
12150.562234	-204.155000	581.038086	71.892097
12150.562234	-204.155000	579.801758	166.997528
12150.562234	-204.155000	578.565430	-4.126379
12150.562234	-204.155000	577.329102	344.388794
12150.562234	-204.155000	576.091797	368.256714
12150.562234	-204.155000	574.854492	152.061142
12150.562234	-204.155000	573.617188	267.009277
12150.562234	-204.155000	572.378906	85.733948
12150.562234	-204.155000	571.141602	123.014954
12150.562234	-204.155000	569.903320	212.267242
12150.562234	-204.155000	568.664063	158.948196
12150.562234	-204.155000	567.425781	159.775528
12150.562234	-204.155000	566.186523	102.384346
12150.562234	-204.155000	564.947266	71.045067
12150.562234	-204.155000	563.708008	-96.211060
12150.562234	-204.155000	562.467773	10.899680
12150.562234	-204.155000	561.227539	7.995999
12150.562234	-204.155000	559.987305	54.840504
12150.562234	-204.155000	558.747070	49.998505
12150.562234	-204.155000	557.505859	-51.791954
12150.562234	-204.155000	556.264648	-77.941925
12150.562234	-204.155000	555.023438	12.468297
12150.562234	-204.155000	553.781250	74.936691
12150.562234	-204.155000	552.539063	6.028393
12150.562234	-204.155000	551.296875	-4.553806
12150.562234	-204.155000	550.054688	-64.559296
12150.562234	-204.155000	548.811523	30.660519
12150.562234	-204.155000	547.569336	231.474258
12150.562234	-204.155000	546.325195	102.933235
12150.562234	-204.155000	545.082031	144.610107
12150.562234	-204.155000	543.837891	-48.172817
12150.562234	-204.155000	542.593750	135.770584
12150.562234	-204.155000	541.349609	93.894699
12150.562234	-204.155000	540.105469	174.746658
12150.562234	-204.155000	538.860352	-64.681793
12150.562234	-204.155000	537.615234	22.871046
12150.562234	-204.155000	536.369141	65.382370
12150.562234	-204.155000	535.124023	213.284805
12150.562234	-204.155000	533.877930	322.584381
12150.562234	-204.155000	532.631836	159.183807
12150.562234	-204.155000	531.384766	285.881683
12150.562234	-204.155000	530.138672	258.065674
12150.562234	-204.155000	528.891602	421.427917
12150.562234	-204.155000	527.643555	374.539612
12150.562234	-204.155000	526.396484	392.156799
12150.562234	-204.155000	525.148438	201.821579
12150.562234	-204.155000	523.900391	316.229401
12150.562234	-204.155000	522.652344	413.557404
12150.562234	-204.155000	521.403320	161.544800
12150.562234	-204.155000	520.154297	282.689362
12150.562234	-204.155000	518.905273	382.473541
12150.562234	-204.155000	517.656250	456.626953
12150.562234	-204.155000	516.406250	383.084106
12150.562234	-204.155000	515.156250	423.185852
12150.562234	-204.155000	513.906250	527.615479
12150.562234	-204.155000	512.655273	548.642639
12150.562234	-204.155000	511.404297	404.992218
12150.562234	-204.155000	510.153320	469.055359
12150.562234	-204.155000	508.902344	344.959381
12150.562234	-204.155000	507.650391	466.979706
12150.562234	-204.155000	506.398438	398.755554
12150.562234	-204.155000	505.146484	480.308472
12150.562234	-204.155000	503.893555	510.642365
12150.562234	-204.155000	502.641602	442.765961
12150.562234	-204.155000	501.388672	554.479797
12150.562234	-204.155000	500.134766	606.444885
12150.562234	-204.155000	498.881836	436.390808
12150.562234	-204.155000	497.627930	561.136841
12150.562234	-204.155000	496.374023	647.499451
12150.562234	-204.155000	495.119141	650.691101
12150.562234	-204.155000	493.865234	598.485352
12150.562234	-204.155000	492.610352	697.843933
12150.562234	-204.155000	491.355469	765.248657
12150.562234	-204.155000	490.099609	647.204651
12150.562234	-204.155000	488.843750	927.922668
12150.562234	-204.155000	487.587891	792.984131
12150.562234	-204.155000	486.332031	941.571777
12150.562234	-204.155000	485.075195	815.343750
12150.562234	-204.155000	483.818359	817.022705
12150.562234	-204.155000	482.561523	903.933655
12150.562234	-204.155000	481.304688	939.758667
12150.562234	-204.155000	480.046875	790.436707
12150.562234	-204.155000	478.789063	830.618347
12150.562234	-204.155000	477.531250	1096.346680
12150.562234	-204.155000	476.272461	862.111877
12150.562234	-204.155000	475.013672	1008.685059
12150.562234	-204.155000	473.754883	1002.124451
12150.562234	-204.155000	472.496094	1052.976196
12150.562234	-204.155000	471.236328	972.052063
12150.562234	-204.155000	469.976563	1199.271973
12150.562234	-204.155000	468.716797	1145.966675
12150.562234	-204.155000	467.456055	1111.797119
12150.562234	-204.155000	466.196289	1330.315918
12150.562234	-204.155000	464.935547	1181.436890
12150.562234	-204.155000	463.673828	1034.723145
12150.562234	-204.155000	462.413086	1295.476196
12150.562234	-204.155000	461.151367	1386.347168
12150.562234	-204.155000	459.889648	1324.398560
12150.562234	-204.155000	458.626953	1332.409912
12150.562234	-204.155000	457.364258	1234.335083
12150.562234	-204.155000	456.101563	1170.144531
12150.562234	-204.155000	454.838867	1319.953857
12150.562234	-204.155000	453.575195	1509.872192
12150.562234	-204.155000	452.312500	1364.882568
12150.562234	-204.155000	451.047852	1361.764771
12150.562234	-204.155000	449.784180	1375.460693
12150.562234	-204.155000	448.519531	1463.126831
12150.562234	-204.155000	447.254883	1588.712769
12150.562234	-204.155000	445.990234	1494.012207
12150.562234	-204.155000	444.725586	1509.208984
12150.562234	-204.155000	443.459961	1488.274658
12150.562234	-204.155000	442.194336	1520.036255
12150.562234	-204.155000	440.927734	1579.082642
12150.562234	-204.155000	439.662109	1460.325317
12150.562234	-204.155000	438.395508	1527.389771
12150.562234	-204.155000	437.127930	1566.732178
12150.562234	-204.155000	435.861328	1563.559204
12150.562234	-204.155000	434.593750	1359.492310
12150.562234	-204.155000	433.326172	1573.342041
12150.562234	-204.155000	432.058594	1546.146973
12150.562234	-204.155000	430.790039	1695.970459
12150.562234	-204.155000	429.521484	1566.869629
12150.562234	-204.155000	428.252930	1443.828369
12150.562234	-204.155000	426.984375	1601.041138
12150.562234	-204.155000	425.714844	1677.698730
12150.562234	-204.155000	424.445313	1652.749756
12150.562234	-204.155000	423.174805	1661.157104
12150.562234	-204.155000	421.905273	1719.734619
12150.562234	-204.155000	420.634766	1779.977417
12150.562234	-204.155000	419.364258	1645.954956
12150.562234	-204.155000	418.092773	1677.922119
12150.562234	-204.155000	416.822266	1770.467651
12150.562234	-204.155000	415.550781	1923.537354
12150.562234	-204.155000	414.278320	1741.378540
12150.562234	-204.155000	413.006836	1590.335815
12150.562234	-204.155000	411.734375	1714.415039
12150.562234	-204.155000	410.461914	1747.430542
12150.562234	-204.155000	409.188477	1638.948975
12150.562234	-204.155000	407.916016	1698.106689
12150.562234	-204.155000	406.642578	1825.975952
12150.562234	-204.155000	405.368164	1759.794800
12150.562234	-204.155000	404.094727	1833.748047
12150.562234	-204.155000	402.820313	1820.845825
12150.562234	-204.155000	401.545898	1693.823486
12150.562234	-204.155000	400.270508	1988.156250
12150.562234	-204.155000	398.996094	1870.145508
12150.562234	-204.155000	397.720703	1969.669312
12150.562234	-204.155000	396.444336	1845.903687
12150.562234	-204.155000	395.168945	1660.521484
12150.562234	-204.155000	393.892578	1648.436401
12150.562234	-204.155000	392.616211	1845.164795
12150.562234	-204.155000	391.339844	1877.360107
12150.562234	-204.155000	390.062500	1717.843872
12150.562234	-204.155000	388.785156	1810.994141
12150.562234	-204.155000	387.507813	1919.863403
12150.562234	-204.155000	386.229492	1744.856079
12150.562234	-204.155000	384.951172	1891.379028
12150.562234	-204.155000	383.672852	1814.805298
12150.562234	-204.155000	382.394531	1814.596313
12150.562234	-204.155000	381.115234	1762.990723
12150.562234	-204.155000	379.835938	1660.003052
12150.562234	-204.155000	378.556641	1777.592651
12150.562234	-204.155000	377.277344	1935.710938
12150.562234	-204.155000	375.997070	1787.160889
12150.562234	-204.155000	374.716797	1712.618042
12150.562234	-204.155000	373.435547	1620.010376
12150.562234	-204.155000	372.155273	1684.891235
12150.562234	-204.155000	370.874023	1698.152832
12150.562234	-204.155000	369.591797	1868.668823
12150.562234	-204.155000	368.310547	1749.441772
12150.562234	-204.155000	367.028320	1827.049438
12150.562234	-204.155000	365.746094	1573.228882
12150.562234	-204.155000	364.463867	1653.903564
12150.562234	-204.155000	363.180664	1741.198364
12150.562234	-204.155000	361.897461	1547.220093
12150.562234	-204.155000	360.614258	1535.116577
12150.562234	-204.155000	359.330078	1539.964966
12150.562234	-204.155000	358.045898	1499.200562
12150.562234	-204.155000	356.761719	1446.157715
12150.562234	-204.155000	355.477539	1505.827881
12150.562234	-204.155000	354.192383	1517.633057
12150.562234	-204.155000	352.907227	1446.187866
12150.562234	-204.155000	351.622070	1466.423218
12150.562234	-204.155000	350.336914	1386.688965
12150.562234	-204.155000	349.050781	1300.624023
12150.562234	-204.155000	347.764648	1276.901978
12150.562234	-204.155000	346.477539	1186.383301
12150.562234	-204.155000	345.191406	1156.048950
12150.562234	-204.155000	343.904297	1437.349121
12150.562234	-204.155000	342.616211	1196.240723
12150.562234	-204.155000	341.329102	1171.096680
12150.562234	-204.155000	340.041016	1151.693604
12150.562234	-204.155000	338.752930	1102.703125
12150.562234	-204.155000	337.463867	1136.207031
12150.562234	-204.155000	336.175781	1013.365417
12150.562234	-204.155000	334.886719	972.893616
12150.562234	-204.155000	333.596680	1089.411377
12150.562234	-204.155000	332.307617	669.631470
12150.562234	-204.155000	331.017578	761.668823
12150.562234	-204.155000	329.727539	649.413635
12150.562234	-204.155000	328.436523	604.587952
12150.562234	-204.155000	327.146484	876.097168
12150.562234	-204.155000	325.855469	804.176880
12150.562234	-204.155000	324.563477	565.176270
12150.562234	-204.155000	323.272461	528.206421
12150.562234	-204.155000	321.980469	367.583832
12150.562234	-204.155000	320.688477	255.347488
12150.562234	-204.155000	319.395508	218.221191
12150.562234	-204.155000	318.103516	61.633022
12150.562234	-204.155000	316.810547	230.485748
12150.562234	-204.155000	315.516602	35.257854
12150.562234	-204.155000	314.223633	-27.049805
12150.562234	-204.155000	312.929688	10.084069
12150.562234	-204.155000	311.635742	26.656784
12150.562234	-204.155000	310.340820	8.008697
12150.562234	-204.155000	309.045898	-56.143620
12150.562234	-204.155000	307.750977	78.058670
12150.562234	-204.155000	306.456055	-58.711308
12150.562234	-204.155000	305.160156	-261.942230
12150.562234	-204.155000	303.865234	-23.262514
12150.562234	-204.155000	302.568359	-31.168602
12150.562234	-204.155000	301.272461	-70.451302
12150.562234	-204.155000	299.975586	77.364410
12150.562234	-204.155000	298.678711	222.324524
