#X		#Y		#Wave		#Intensity
11893.156383	1550.125000	1999.980469	-41.652775
11893.156383	1550.125000	1999.016602	33.739670
11893.156383	1550.125000	1998.052734	38.806103
11893.156383	1550.125000	1997.087891	-95.421783
11893.156383	1550.125000	1996.123047	-145.873489
11893.156383	1550.125000	1995.158203	-70.467987
11893.156383	1550.125000	1994.193359	-94.646004
11893.156383	1550.125000	1993.228516	11.957121
11893.156383	1550.125000	1992.262695	204.724808
11893.156383	1550.125000	1991.297852	30.613590
11893.156383	1550.125000	1990.332031	12.061087
11893.156383	1550.125000	1989.366211	84.652184
11893.156383	1550.125000	1988.399414	-105.428680
11893.156383	1550.125000	1987.433594	-130.111160
11893.156383	1550.125000	1986.466797	191.068298
11893.156383	1550.125000	1985.500977	-61.893085
11893.156383	1550.125000	1984.534180	194.149841
11893.156383	1550.125000	1983.567383	195.164856
11893.156383	1550.125000	1982.599609	84.641380
11893.156383	1550.125000	1981.632813	18.304152
11893.156383	1550.125000	1980.665039	-85.375259
11893.156383	1550.125000	1979.697266	28.028460
11893.156383	1550.125000	1978.729492	188.015106
11893.156383	1550.125000	1977.761719	78.542252
11893.156383	1550.125000	1976.792969	351.455597
11893.156383	1550.125000	1975.825195	209.371872
11893.156383	1550.125000	1974.856445	153.452164
11893.156383	1550.125000	1973.887695	-18.645247
11893.156383	1550.125000	1972.918945	23.683628
11893.156383	1550.125000	1971.949219	-64.938446
11893.156383	1550.125000	1970.980469	-25.529020
11893.156383	1550.125000	1970.010742	191.157532
11893.156383	1550.125000	1969.041016	77.274796
11893.156383	1550.125000	1968.071289	187.498077
11893.156383	1550.125000	1967.101563	-22.812929
11893.156383	1550.125000	1966.130859	143.682907
11893.156383	1550.125000	1965.161133	218.817932
11893.156383	1550.125000	1964.190430	32.731827
11893.156383	1550.125000	1963.219727	11.518678
11893.156383	1550.125000	1962.249023	162.478668
11893.156383	1550.125000	1961.277344	0.672032
11893.156383	1550.125000	1960.306641	148.841919
11893.156383	1550.125000	1959.334961	117.228210
11893.156383	1550.125000	1958.363281	-7.967669
11893.156383	1550.125000	1957.391602	95.486244
11893.156383	1550.125000	1956.419922	97.978989
11893.156383	1550.125000	1955.447266	230.660889
11893.156383	1550.125000	1954.474609	208.344543
11893.156383	1550.125000	1953.501953	301.447815
11893.156383	1550.125000	1952.529297	291.234131
11893.156383	1550.125000	1951.556641	401.316345
11893.156383	1550.125000	1950.583984	81.458519
11893.156383	1550.125000	1949.610352	125.086983
11893.156383	1550.125000	1948.636719	28.686808
11893.156383	1550.125000	1947.663086	74.636894
11893.156383	1550.125000	1946.689453	199.052322
11893.156383	1550.125000	1945.715820	232.578293
11893.156383	1550.125000	1944.741211	-38.180153
11893.156383	1550.125000	1943.767578	147.369156
11893.156383	1550.125000	1942.792969	-54.683712
11893.156383	1550.125000	1941.818359	-85.054413
11893.156383	1550.125000	1940.842773	73.322365
11893.156383	1550.125000	1939.868164	45.332523
11893.156383	1550.125000	1938.892578	76.142517
11893.156383	1550.125000	1937.916992	-71.942177
11893.156383	1550.125000	1936.941406	-124.449387
11893.156383	1550.125000	1935.965820	-96.122849
11893.156383	1550.125000	1934.990234	252.980087
11893.156383	1550.125000	1934.013672	210.203110
11893.156383	1550.125000	1933.037109	145.406830
11893.156383	1550.125000	1932.060547	-44.186157
11893.156383	1550.125000	1931.083984	-67.310387
11893.156383	1550.125000	1930.107422	75.944023
11893.156383	1550.125000	1929.129883	91.952438
11893.156383	1550.125000	1928.153320	-14.314488
11893.156383	1550.125000	1927.175781	224.237946
11893.156383	1550.125000	1926.198242	-102.015724
11893.156383	1550.125000	1925.219727	-117.713158
11893.156383	1550.125000	1924.242188	184.313034
11893.156383	1550.125000	1923.263672	114.853600
11893.156383	1550.125000	1922.285156	323.933014
11893.156383	1550.125000	1921.306641	-70.325897
11893.156383	1550.125000	1920.328125	28.869598
11893.156383	1550.125000	1919.349609	47.485909
11893.156383	1550.125000	1918.370117	244.319504
11893.156383	1550.125000	1917.391602	197.050446
11893.156383	1550.125000	1916.412109	130.306168
11893.156383	1550.125000	1915.431641	-114.482292
11893.156383	1550.125000	1914.452148	92.120537
11893.156383	1550.125000	1913.472656	45.046528
11893.156383	1550.125000	1912.492188	34.597725
11893.156383	1550.125000	1911.511719	-144.023941
11893.156383	1550.125000	1910.531250	-144.607666
11893.156383	1550.125000	1909.550781	88.797546
11893.156383	1550.125000	1908.569336	-87.184128
11893.156383	1550.125000	1907.588867	-153.432724
11893.156383	1550.125000	1906.607422	79.961418
11893.156383	1550.125000	1905.625977	55.182949
11893.156383	1550.125000	1904.644531	1.240129
11893.156383	1550.125000	1903.662109	156.702332
11893.156383	1550.125000	1902.680664	136.918243
11893.156383	1550.125000	1901.698242	258.316193
11893.156383	1550.125000	1900.715820	43.972870
11893.156383	1550.125000	1899.733398	14.618896
11893.156383	1550.125000	1898.750000	-289.496765
11893.156383	1550.125000	1897.767578	116.551971
11893.156383	1550.125000	1896.784180	-34.225372
11893.156383	1550.125000	1895.800781	-46.357082
11893.156383	1550.125000	1894.817383	381.418396
11893.156383	1550.125000	1893.833984	109.321602
11893.156383	1550.125000	1892.850586	-21.734671
11893.156383	1550.125000	1891.866211	82.893051
11893.156383	1550.125000	1890.881836	-135.446091
11893.156383	1550.125000	1889.897461	-132.723190
11893.156383	1550.125000	1888.913086	-91.121300
11893.156383	1550.125000	1887.927734	-187.832932
11893.156383	1550.125000	1886.943359	38.260826
11893.156383	1550.125000	1885.958008	-68.062492
11893.156383	1550.125000	1884.972656	-232.520676
11893.156383	1550.125000	1883.987305	46.925694
11893.156383	1550.125000	1883.001953	-32.551254
11893.156383	1550.125000	1882.015625	-36.811005
11893.156383	1550.125000	1881.029297	-140.407593
11893.156383	1550.125000	1880.042969	22.638641
11893.156383	1550.125000	1879.056641	-3.326453
11893.156383	1550.125000	1878.070313	-63.161175
11893.156383	1550.125000	1877.083984	165.275177
11893.156383	1550.125000	1876.096680	100.652397
11893.156383	1550.125000	1875.109375	-133.389618
11893.156383	1550.125000	1874.122070	153.119797
11893.156383	1550.125000	1873.134766	-238.094788
11893.156383	1550.125000	1872.146484	-159.711227
11893.156383	1550.125000	1871.159180	126.728500
11893.156383	1550.125000	1870.170898	-97.282639
11893.156383	1550.125000	1869.182617	-178.501587
11893.156383	1550.125000	1868.194336	238.422043
11893.156383	1550.125000	1867.205078	-43.430779
11893.156383	1550.125000	1866.216797	-148.714752
11893.156383	1550.125000	1865.227539	33.628677
11893.156383	1550.125000	1864.238281	104.782745
11893.156383	1550.125000	1863.249023	-55.971584
11893.156383	1550.125000	1862.259766	-139.364120
11893.156383	1550.125000	1861.269531	-46.435009
11893.156383	1550.125000	1860.279297	-120.110550
11893.156383	1550.125000	1859.290039	-3.054427
11893.156383	1550.125000	1858.298828	2.954388
11893.156383	1550.125000	1857.308594	-191.301010
11893.156383	1550.125000	1856.318359	123.555191
11893.156383	1550.125000	1855.327148	-3.097283
11893.156383	1550.125000	1854.335938	-107.992508
11893.156383	1550.125000	1853.344727	-323.753967
11893.156383	1550.125000	1852.353516	181.352264
11893.156383	1550.125000	1851.362305	194.591324
11893.156383	1550.125000	1850.370117	212.643723
11893.156383	1550.125000	1849.377930	184.912018
11893.156383	1550.125000	1848.385742	157.188660
11893.156383	1550.125000	1847.393555	-39.115704
11893.156383	1550.125000	1846.401367	41.560932
11893.156383	1550.125000	1845.408203	-82.436951
11893.156383	1550.125000	1844.415039	-76.416794
11893.156383	1550.125000	1843.421875	247.258591
11893.156383	1550.125000	1842.428711	128.074005
11893.156383	1550.125000	1841.435547	66.657852
11893.156383	1550.125000	1840.441406	14.870162
11893.156383	1550.125000	1839.448242	208.373032
11893.156383	1550.125000	1838.454102	476.317719
11893.156383	1550.125000	1837.459961	147.985718
11893.156383	1550.125000	1836.464844	64.902969
11893.156383	1550.125000	1835.470703	445.600861
11893.156383	1550.125000	1834.475586	107.782272
11893.156383	1550.125000	1833.480469	72.723846
11893.156383	1550.125000	1832.485352	200.961182
11893.156383	1550.125000	1831.490234	-23.847073
11893.156383	1550.125000	1830.495117	-61.345970
11893.156383	1550.125000	1829.499023	167.562561
11893.156383	1550.125000	1828.502930	173.172897
11893.156383	1550.125000	1827.506836	145.155411
11893.156383	1550.125000	1826.510742	25.954914
11893.156383	1550.125000	1825.513672	-45.270100
11893.156383	1550.125000	1824.517578	-8.597946
11893.156383	1550.125000	1823.520508	92.752724
11893.156383	1550.125000	1822.523438	81.360695
11893.156383	1550.125000	1821.526367	103.482315
11893.156383	1550.125000	1820.529297	338.809509
11893.156383	1550.125000	1819.531250	214.642136
11893.156383	1550.125000	1818.533203	47.360001
11893.156383	1550.125000	1817.535156	133.941147
11893.156383	1550.125000	1816.537109	253.960312
11893.156383	1550.125000	1815.539063	141.671967
11893.156383	1550.125000	1814.540039	108.356293
11893.156383	1550.125000	1813.541992	-27.900911
11893.156383	1550.125000	1812.542969	94.231598
11893.156383	1550.125000	1811.543945	225.828323
11893.156383	1550.125000	1810.543945	65.533485
11893.156383	1550.125000	1809.544922	352.393372
11893.156383	1550.125000	1808.544922	19.878469
11893.156383	1550.125000	1807.544922	-66.373978
11893.156383	1550.125000	1806.544922	36.138634
11893.156383	1550.125000	1805.544922	339.254852
11893.156383	1550.125000	1804.544922	377.017365
11893.156383	1550.125000	1803.543945	357.370880
11893.156383	1550.125000	1802.542969	199.156082
11893.156383	1550.125000	1801.541992	408.616913
11893.156383	1550.125000	1800.541016	317.147644
11893.156383	1550.125000	1799.539063	-48.831665
11893.156383	1550.125000	1798.538086	210.446533
11893.156383	1550.125000	1797.536133	199.954361
11893.156383	1550.125000	1796.534180	353.976440
11893.156383	1550.125000	1795.532227	216.907150
11893.156383	1550.125000	1794.529297	389.782471
11893.156383	1550.125000	1793.527344	247.828720
11893.156383	1550.125000	1792.524414	561.095581
11893.156383	1550.125000	1791.521484	404.697113
11893.156383	1550.125000	1790.518555	133.906754
11893.156383	1550.125000	1789.514648	172.811905
11893.156383	1550.125000	1788.511719	87.769691
11893.156383	1550.125000	1787.507813	133.638565
11893.156383	1550.125000	1786.503906	67.501938
11893.156383	1550.125000	1785.500000	-77.250534
11893.156383	1550.125000	1784.496094	-19.747744
11893.156383	1550.125000	1783.491211	213.718430
11893.156383	1550.125000	1782.486328	66.361694
11893.156383	1550.125000	1781.481445	318.563965
11893.156383	1550.125000	1780.476563	33.125130
11893.156383	1550.125000	1779.471680	25.883228
11893.156383	1550.125000	1778.465820	175.439560
11893.156383	1550.125000	1777.460938	125.198303
11893.156383	1550.125000	1776.455078	-8.297290
11893.156383	1550.125000	1775.449219	-27.800537
11893.156383	1550.125000	1774.442383	164.009308
11893.156383	1550.125000	1773.436523	412.648560
11893.156383	1550.125000	1772.429688	-32.264980
11893.156383	1550.125000	1771.422852	211.359558
11893.156383	1550.125000	1770.416016	459.537140
11893.156383	1550.125000	1769.409180	315.946777
11893.156383	1550.125000	1768.402344	39.436489
11893.156383	1550.125000	1767.394531	102.150696
11893.156383	1550.125000	1766.386719	155.247284
11893.156383	1550.125000	1765.378906	236.673920
11893.156383	1550.125000	1764.371094	-13.962528
11893.156383	1550.125000	1763.362305	114.652954
11893.156383	1550.125000	1762.354492	136.467804
11893.156383	1550.125000	1761.345703	236.353683
11893.156383	1550.125000	1760.336914	198.685043
11893.156383	1550.125000	1759.328125	258.034668
11893.156383	1550.125000	1758.318359	196.468170
11893.156383	1550.125000	1757.308594	11.691352
11893.156383	1550.125000	1756.299805	35.199612
11893.156383	1550.125000	1755.290039	91.717026
11893.156383	1550.125000	1754.279297	131.529068
11893.156383	1550.125000	1753.269531	180.683884
11893.156383	1550.125000	1752.258789	49.922539
11893.156383	1550.125000	1751.249023	44.451851
11893.156383	1550.125000	1750.238281	-143.211105
11893.156383	1550.125000	1749.226563	70.979019
11893.156383	1550.125000	1748.215820	-154.664810
11893.156383	1550.125000	1747.204102	61.579002
11893.156383	1550.125000	1746.193359	-83.871628
11893.156383	1550.125000	1745.181641	63.538490
11893.156383	1550.125000	1744.168945	-108.084648
11893.156383	1550.125000	1743.157227	-17.630989
11893.156383	1550.125000	1742.144531	-7.609414
11893.156383	1550.125000	1741.132813	21.185329
11893.156383	1550.125000	1740.120117	47.484211
11893.156383	1550.125000	1739.106445	-37.253151
11893.156383	1550.125000	1738.093750	191.703629
11893.156383	1550.125000	1737.080078	160.988235
11893.156383	1550.125000	1736.067383	33.487789
11893.156383	1550.125000	1735.053711	103.968407
11893.156383	1550.125000	1734.040039	-153.368912
11893.156383	1550.125000	1733.025391	4.085165
11893.156383	1550.125000	1732.011719	-276.932678
11893.156383	1550.125000	1730.997070	228.943466
11893.156383	1550.125000	1729.982422	244.551849
11893.156383	1550.125000	1728.967773	271.812592
11893.156383	1550.125000	1727.952148	-148.449570
11893.156383	1550.125000	1726.937500	10.480719
11893.156383	1550.125000	1725.921875	-80.273735
11893.156383	1550.125000	1724.906250	-166.402390
11893.156383	1550.125000	1723.890625	-142.028961
11893.156383	1550.125000	1722.875000	143.339066
11893.156383	1550.125000	1721.858398	136.829590
11893.156383	1550.125000	1720.841797	-95.539299
11893.156383	1550.125000	1719.825195	83.505249
11893.156383	1550.125000	1718.808594	-158.393784
11893.156383	1550.125000	1717.791992	208.380234
11893.156383	1550.125000	1716.774414	-36.037388
11893.156383	1550.125000	1715.756836	27.280260
11893.156383	1550.125000	1714.739258	-99.792313
11893.156383	1550.125000	1713.721680	104.191673
11893.156383	1550.125000	1712.704102	-41.854160
11893.156383	1550.125000	1711.685547	-110.500008
11893.156383	1550.125000	1710.667969	-120.542435
11893.156383	1550.125000	1709.649414	52.329731
11893.156383	1550.125000	1708.630859	187.487625
11893.156383	1550.125000	1707.611328	1.116580
11893.156383	1550.125000	1706.592773	192.301773
11893.156383	1550.125000	1705.573242	-102.075043
11893.156383	1550.125000	1704.553711	-84.651070
11893.156383	1550.125000	1703.534180	-67.339676
11893.156383	1550.125000	1702.513672	240.430817
11893.156383	1550.125000	1701.494141	217.631393
11893.156383	1550.125000	1700.473633	-37.187153
11893.156383	1550.125000	1699.453125	-172.566696
11893.156383	1550.125000	1698.432617	94.763054
11893.156383	1550.125000	1697.412109	-57.183426
11893.156383	1550.125000	1696.390625	13.183641
11893.156383	1550.125000	1695.369141	71.720276
11893.156383	1550.125000	1694.347656	-26.633234
11893.156383	1550.125000	1693.326172	1.276327
11893.156383	1550.125000	1692.304688	-71.496452
11893.156383	1550.125000	1691.282227	126.911285
11893.156383	1550.125000	1690.260742	67.974678
11893.156383	1550.125000	1689.238281	-28.448690
11893.156383	1550.125000	1688.214844	181.219009
11893.156383	1550.125000	1687.192383	178.088257
11893.156383	1550.125000	1686.168945	-2.703564
11893.156383	1550.125000	1685.146484	204.236618
11893.156383	1550.125000	1684.123047	93.384743
11893.156383	1550.125000	1683.099609	197.294357
11893.156383	1550.125000	1682.075195	-56.105862
11893.156383	1550.125000	1681.051758	82.622765
11893.156383	1550.125000	1680.027344	372.877472
11893.156383	1550.125000	1679.002930	231.313782
11893.156383	1550.125000	1677.978516	-117.887543
11893.156383	1550.125000	1676.953125	97.336609
11893.156383	1550.125000	1675.928711	363.707001
11893.156383	1550.125000	1674.903320	210.245239
11893.156383	1550.125000	1673.877930	238.566223
11893.156383	1550.125000	1672.852539	50.069538
11893.156383	1550.125000	1671.826172	-21.949553
11893.156383	1550.125000	1670.800781	267.064484
11893.156383	1550.125000	1669.774414	399.829865
11893.156383	1550.125000	1668.748047	439.325165
11893.156383	1550.125000	1667.721680	224.961823
11893.156383	1550.125000	1666.694336	196.808212
11893.156383	1550.125000	1665.667969	187.227264
11893.156383	1550.125000	1664.640625	82.165085
11893.156383	1550.125000	1663.613281	346.962006
11893.156383	1550.125000	1662.585938	158.037308
11893.156383	1550.125000	1661.557617	252.808746
11893.156383	1550.125000	1660.530273	566.040283
11893.156383	1550.125000	1659.501953	314.206818
11893.156383	1550.125000	1658.473633	422.643127
11893.156383	1550.125000	1657.444336	535.604797
11893.156383	1550.125000	1656.416016	204.748779
11893.156383	1550.125000	1655.386719	487.149200
11893.156383	1550.125000	1654.358398	360.672272
11893.156383	1550.125000	1653.328125	308.456451
11893.156383	1550.125000	1652.298828	660.145325
11893.156383	1550.125000	1651.269531	459.254089
11893.156383	1550.125000	1650.239258	548.436462
11893.156383	1550.125000	1649.208984	760.496460
11893.156383	1550.125000	1648.178711	654.636780
11893.156383	1550.125000	1647.148438	752.854858
11893.156383	1550.125000	1646.117188	686.343445
11893.156383	1550.125000	1645.086914	670.828796
11893.156383	1550.125000	1644.055664	815.187073
11893.156383	1550.125000	1643.024414	797.232361
11893.156383	1550.125000	1641.992188	832.516602
11893.156383	1550.125000	1640.960938	923.356323
11893.156383	1550.125000	1639.928711	983.998413
11893.156383	1550.125000	1638.896484	1076.995483
11893.156383	1550.125000	1637.864258	871.272766
11893.156383	1550.125000	1636.832031	1246.576050
11893.156383	1550.125000	1635.798828	918.160156
11893.156383	1550.125000	1634.766602	969.316650
11893.156383	1550.125000	1633.733398	1173.085083
11893.156383	1550.125000	1632.699219	1212.515747
11893.156383	1550.125000	1631.666016	1009.115173
11893.156383	1550.125000	1630.632813	951.423401
11893.156383	1550.125000	1629.598633	1057.830078
11893.156383	1550.125000	1628.564453	923.821594
11893.156383	1550.125000	1627.530273	1104.090942
11893.156383	1550.125000	1626.495117	1087.887085
11893.156383	1550.125000	1625.460938	849.955139
11893.156383	1550.125000	1624.425781	1140.906494
11893.156383	1550.125000	1623.390625	1020.759094
11893.156383	1550.125000	1622.355469	1281.528198
11893.156383	1550.125000	1621.319336	979.031006
11893.156383	1550.125000	1620.284180	1184.303711
11893.156383	1550.125000	1619.248047	994.969543
11893.156383	1550.125000	1618.211914	1200.128418
11893.156383	1550.125000	1617.174805	1020.058533
11893.156383	1550.125000	1616.138672	1310.432739
11893.156383	1550.125000	1615.101563	1061.249512
11893.156383	1550.125000	1614.065430	1185.554443
11893.156383	1550.125000	1613.027344	1143.866943
11893.156383	1550.125000	1611.990234	1106.821167
11893.156383	1550.125000	1610.953125	1212.607666
11893.156383	1550.125000	1609.915039	1177.858276
11893.156383	1550.125000	1608.876953	1099.381714
11893.156383	1550.125000	1607.838867	1209.716797
11893.156383	1550.125000	1606.800781	1050.726440
11893.156383	1550.125000	1605.761719	1029.864746
11893.156383	1550.125000	1604.723633	1232.214478
11893.156383	1550.125000	1603.684570	1685.217651
11893.156383	1550.125000	1602.644531	1510.182495
11893.156383	1550.125000	1601.605469	1487.011841
11893.156383	1550.125000	1600.566406	1521.343750
11893.156383	1550.125000	1599.526367	1548.772949
11893.156383	1550.125000	1598.486328	1642.858276
11893.156383	1550.125000	1597.446289	1651.917480
11893.156383	1550.125000	1596.405273	1679.362183
11893.156383	1550.125000	1595.365234	1513.915283
11893.156383	1550.125000	1594.324219	1412.843384
11893.156383	1550.125000	1593.283203	1676.876709
11893.156383	1550.125000	1592.242188	1481.763184
11893.156383	1550.125000	1591.200195	1653.933838
11893.156383	1550.125000	1590.159180	1605.818115
11893.156383	1550.125000	1589.117188	1532.509277
11893.156383	1550.125000	1588.075195	1640.460327
11893.156383	1550.125000	1587.032227	1601.633545
11893.156383	1550.125000	1585.990234	1647.708252
11893.156383	1550.125000	1584.947266	1719.008423
11893.156383	1550.125000	1583.904297	1609.275879
11893.156383	1550.125000	1582.861328	1543.166260
11893.156383	1550.125000	1581.818359	1470.259277
11893.156383	1550.125000	1580.775391	1550.890625
11893.156383	1550.125000	1579.731445	1665.876465
11893.156383	1550.125000	1578.687500	1293.198486
11893.156383	1550.125000	1577.643555	1348.780151
11893.156383	1550.125000	1576.598633	1333.432251
11893.156383	1550.125000	1575.554688	1460.033936
11893.156383	1550.125000	1574.509766	1344.126953
11893.156383	1550.125000	1573.464844	1429.608887
11893.156383	1550.125000	1572.419922	1686.633301
11893.156383	1550.125000	1571.374023	1170.802490
11893.156383	1550.125000	1570.329102	1075.869751
11893.156383	1550.125000	1569.283203	1410.702026
11893.156383	1550.125000	1568.237305	1251.897339
11893.156383	1550.125000	1567.191406	1228.017700
11893.156383	1550.125000	1566.144531	1174.511230
11893.156383	1550.125000	1565.098633	1173.636597
11893.156383	1550.125000	1564.051758	919.380188
11893.156383	1550.125000	1563.004883	861.623169
11893.156383	1550.125000	1561.957031	870.139893
11893.156383	1550.125000	1560.910156	739.549866
11893.156383	1550.125000	1559.862305	679.802979
11893.156383	1550.125000	1558.814453	754.740906
11893.156383	1550.125000	1557.766602	991.652100
11893.156383	1550.125000	1556.718750	708.688293
11893.156383	1550.125000	1555.669922	587.765137
11893.156383	1550.125000	1554.621094	808.860474
11893.156383	1550.125000	1553.573242	1066.432495
11893.156383	1550.125000	1552.523438	692.868103
11893.156383	1550.125000	1551.474609	904.972473
11893.156383	1550.125000	1550.424805	752.683350
11893.156383	1550.125000	1549.375000	942.097351
11893.156383	1550.125000	1548.325195	749.073181
11893.156383	1550.125000	1547.275391	740.586792
11893.156383	1550.125000	1546.225586	709.444092
11893.156383	1550.125000	1545.174805	798.987305
11893.156383	1550.125000	1544.124023	652.023438
11893.156383	1550.125000	1543.073242	516.590881
11893.156383	1550.125000	1542.022461	695.108826
11893.156383	1550.125000	1540.970703	598.566284
11893.156383	1550.125000	1539.919922	572.641357
11893.156383	1550.125000	1538.868164	780.890991
11893.156383	1550.125000	1537.815430	598.363708
11893.156383	1550.125000	1536.763672	488.721100
11893.156383	1550.125000	1535.710938	654.030701
11893.156383	1550.125000	1534.659180	490.148987
11893.156383	1550.125000	1533.606445	560.270813
11893.156383	1550.125000	1532.552734	662.245300
11893.156383	1550.125000	1531.500000	305.897064
11893.156383	1550.125000	1530.446289	503.411774
11893.156383	1550.125000	1529.393555	356.170197
11893.156383	1550.125000	1528.338867	134.242203
11893.156383	1550.125000	1527.285156	121.149933
11893.156383	1550.125000	1526.231445	126.322998
11893.156383	1550.125000	1525.176758	79.472679
11893.156383	1550.125000	1524.122070	-103.207619
11893.156383	1550.125000	1523.067383	-222.246170
11893.156383	1550.125000	1522.012695	-23.964197
11893.156383	1550.125000	1520.957031	79.232834
11893.156383	1550.125000	1519.901367	264.037781
11893.156383	1550.125000	1518.845703	154.580551
11893.156383	1550.125000	1517.790039	9.082797
11893.156383	1550.125000	1516.734375	298.287689
11893.156383	1550.125000	1515.677734	12.792276
11893.156383	1550.125000	1514.621094	53.300465
11893.156383	1550.125000	1513.564453	-145.817688
11893.156383	1550.125000	1512.507813	238.696533
11893.156383	1550.125000	1511.450195	26.321533
11893.156383	1550.125000	1510.393555	-120.269753
11893.156383	1550.125000	1509.335938	-119.773636
11893.156383	1550.125000	1508.278320	36.768757
11893.156383	1550.125000	1507.219727	-39.302345
11893.156383	1550.125000	1506.162109	9.032513
11893.156383	1550.125000	1505.103516	-125.427811
11893.156383	1550.125000	1504.044922	-11.340270
11893.156383	1550.125000	1502.986328	-100.307594
11893.156383	1550.125000	1501.926758	-87.545578
11893.156383	1550.125000	1500.868164	-70.120201
11893.156383	1550.125000	1499.808594	-102.190277
11893.156383	1550.125000	1498.749023	-255.895935
11893.156383	1550.125000	1497.688477	-138.794266
11893.156383	1550.125000	1496.628906	-71.180954
11893.156383	1550.125000	1495.568359	52.901520
11893.156383	1550.125000	1494.507813	-9.968861
11893.156383	1550.125000	1493.447266	260.819885
11893.156383	1550.125000	1492.386719	520.389465
11893.156383	1550.125000	1491.325195	194.394592
11893.156383	1550.125000	1490.263672	375.359802
11893.156383	1550.125000	1489.202148	353.779877
11893.156383	1550.125000	1488.140625	273.838959
11893.156383	1550.125000	1487.079102	261.602081
11893.156383	1550.125000	1486.016602	224.773392
11893.156383	1550.125000	1484.954102	325.345428
11893.156383	1550.125000	1483.891602	194.369492
11893.156383	1550.125000	1482.829102	45.613689
11893.156383	1550.125000	1481.765625	92.675240
11893.156383	1550.125000	1480.702148	-96.153145
11893.156383	1550.125000	1479.638672	-93.689377
11893.156383	1550.125000	1478.575195	1.031831
11893.156383	1550.125000	1477.511719	50.915211
11893.156383	1550.125000	1476.447266	-27.027248
11893.156383	1550.125000	1475.382813	-3.700953
11893.156383	1550.125000	1474.318359	75.859329
11893.156383	1550.125000	1473.253906	177.937164
11893.156383	1550.125000	1472.189453	-60.799137
11893.156383	1550.125000	1471.124023	70.745163
11893.156383	1550.125000	1470.058594	256.105194
11893.156383	1550.125000	1468.993164	284.878967
11893.156383	1550.125000	1467.927734	-212.933273
11893.156383	1550.125000	1466.861328	270.982513
11893.156383	1550.125000	1465.794922	196.867844
11893.156383	1550.125000	1464.728516	92.213188
11893.156383	1550.125000	1463.662109	249.010971
11893.156383	1550.125000	1462.594727	238.480072
11893.156383	1550.125000	1461.528320	480.802643
11893.156383	1550.125000	1460.460938	218.098022
11893.156383	1550.125000	1459.393555	259.534393
11893.156383	1550.125000	1458.326172	465.807251
11893.156383	1550.125000	1457.257813	270.382294
11893.156383	1550.125000	1456.189453	62.794380
11893.156383	1550.125000	1455.121094	367.342438
11893.156383	1550.125000	1454.052734	230.936752
11893.156383	1550.125000	1452.984375	252.809784
11893.156383	1550.125000	1451.915039	233.185776
11893.156383	1550.125000	1450.845703	482.772552
11893.156383	1550.125000	1449.776367	292.374847
11893.156383	1550.125000	1448.707031	470.379364
11893.156383	1550.125000	1447.636719	335.577332
11893.156383	1550.125000	1446.567383	249.511475
11893.156383	1550.125000	1445.497070	330.393250
11893.156383	1550.125000	1444.425781	153.557053
11893.156383	1550.125000	1443.355469	368.829773
11893.156383	1550.125000	1442.285156	115.159111
11893.156383	1550.125000	1441.213867	351.411346
11893.156383	1550.125000	1440.142578	395.136353
11893.156383	1550.125000	1439.070313	454.954590
11893.156383	1550.125000	1437.999023	471.691254
11893.156383	1550.125000	1436.926758	365.857117
11893.156383	1550.125000	1435.854492	385.255249
11893.156383	1550.125000	1434.782227	368.776062
11893.156383	1550.125000	1433.709961	227.595154
11893.156383	1550.125000	1432.636719	169.199097
11893.156383	1550.125000	1431.563477	259.702759
11893.156383	1550.125000	1430.490234	263.795319
11893.156383	1550.125000	1429.416992	189.212906
11893.156383	1550.125000	1428.343750	190.205200
11893.156383	1550.125000	1427.269531	292.407928
11893.156383	1550.125000	1426.195313	-7.566830
11893.156383	1550.125000	1425.121094	29.620430
11893.156383	1550.125000	1424.046875	190.102203
11893.156383	1550.125000	1422.971680	99.743271
11893.156383	1550.125000	1421.896484	129.748779
11893.156383	1550.125000	1420.821289	19.428873
11893.156383	1550.125000	1419.746094	145.265610
11893.156383	1550.125000	1418.669922	-16.654957
11893.156383	1550.125000	1417.594727	-0.574377
11893.156383	1550.125000	1416.518555	-143.523117
11893.156383	1550.125000	1415.442383	-16.312706
11893.156383	1550.125000	1414.365234	-161.131912
11893.156383	1550.125000	1413.289063	85.372147
11893.156383	1550.125000	1412.211914	344.310791
11893.156383	1550.125000	1411.134766	6.987034
11893.156383	1550.125000	1410.057617	211.785172
11893.156383	1550.125000	1408.979492	106.624512
11893.156383	1550.125000	1407.902344	316.045807
11893.156383	1550.125000	1406.824219	175.712616
11893.156383	1550.125000	1405.746094	267.862671
11893.156383	1550.125000	1404.666992	226.755753
11893.156383	1550.125000	1403.588867	114.224266
11893.156383	1550.125000	1402.509766	397.442688
11893.156383	1550.125000	1401.430664	240.378601
11893.156383	1550.125000	1400.351563	285.543091
11893.156383	1550.125000	1399.271484	499.843048
11893.156383	1550.125000	1398.192383	596.474609
11893.156383	1550.125000	1397.112305	897.654663
11893.156383	1550.125000	1396.031250	389.296967
11893.156383	1550.125000	1394.951172	775.882019
11893.156383	1550.125000	1393.871094	677.508240
11893.156383	1550.125000	1392.790039	792.216125
11893.156383	1550.125000	1391.708984	726.382080
11893.156383	1550.125000	1390.626953	1052.806519
11893.156383	1550.125000	1389.545898	744.747681
11893.156383	1550.125000	1388.463867	726.494934
11893.156383	1550.125000	1387.381836	822.998169
11893.156383	1550.125000	1386.299805	601.033997
11893.156383	1550.125000	1385.217773	522.275391
11893.156383	1550.125000	1384.134766	709.373230
11893.156383	1550.125000	1383.051758	892.569824
11893.156383	1550.125000	1381.968750	677.559570
11893.156383	1550.125000	1380.885742	823.501892
11893.156383	1550.125000	1379.802734	965.489624
11893.156383	1550.125000	1378.718750	1167.676147
11893.156383	1550.125000	1377.634766	750.945679
11893.156383	1550.125000	1376.550781	890.143005
11893.156383	1550.125000	1375.465820	899.660156
11893.156383	1550.125000	1374.381836	944.378418
11893.156383	1550.125000	1373.296875	1107.528198
11893.156383	1550.125000	1372.211914	1181.541748
11893.156383	1550.125000	1371.126953	759.715088
11893.156383	1550.125000	1370.041016	832.772888
11893.156383	1550.125000	1368.955078	858.707397
11893.156383	1550.125000	1367.869141	1027.105713
11893.156383	1550.125000	1366.783203	814.394409
11893.156383	1550.125000	1365.697266	671.250305
11893.156383	1550.125000	1364.610352	740.213135
11893.156383	1550.125000	1363.523438	671.618347
11893.156383	1550.125000	1362.436523	585.416016
11893.156383	1550.125000	1361.349609	346.818054
11893.156383	1550.125000	1360.261719	426.308014
11893.156383	1550.125000	1359.174805	620.394287
11893.156383	1550.125000	1358.086914	468.814575
11893.156383	1550.125000	1356.998047	348.234253
11893.156383	1550.125000	1355.910156	353.809387
11893.156383	1550.125000	1354.821289	317.782318
11893.156383	1550.125000	1353.732422	489.819366
11893.156383	1550.125000	1352.643555	364.655731
11893.156383	1550.125000	1351.554688	469.598907
11893.156383	1550.125000	1350.464844	211.711517
11893.156383	1550.125000	1349.375000	495.919128
11893.156383	1550.125000	1348.285156	273.572144
11893.156383	1550.125000	1347.195313	332.454620
11893.156383	1550.125000	1346.105469	260.225555
11893.156383	1550.125000	1345.014648	505.819092
11893.156383	1550.125000	1343.923828	644.697388
11893.156383	1550.125000	1342.833008	662.218689
11893.156383	1550.125000	1341.741211	536.403320
11893.156383	1550.125000	1340.650391	841.162109
11893.156383	1550.125000	1339.558594	794.281311
11893.156383	1550.125000	1338.466797	954.402222
11893.156383	1550.125000	1337.374023	752.574829
11893.156383	1550.125000	1336.282227	700.334167
11893.156383	1550.125000	1335.189453	1060.633301
11893.156383	1550.125000	1334.096680	883.816040
11893.156383	1550.125000	1333.003906	940.990601
11893.156383	1550.125000	1331.910156	743.854065
11893.156383	1550.125000	1330.817383	443.942291
11893.156383	1550.125000	1329.723633	556.275635
11893.156383	1550.125000	1328.629883	671.791321
11893.156383	1550.125000	1327.535156	623.315613
11893.156383	1550.125000	1326.441406	639.112183
11893.156383	1550.125000	1325.346680	774.243103
11893.156383	1550.125000	1324.251953	970.539673
11893.156383	1550.125000	1323.156250	869.574646
11893.156383	1550.125000	1322.061523	916.581726
11893.156383	1550.125000	1320.965820	830.061096
11893.156383	1550.125000	1319.870117	698.294861
11893.156383	1550.125000	1318.774414	876.592346
11893.156383	1550.125000	1317.678711	482.366333
11893.156383	1550.125000	1316.582031	584.586365
11893.156383	1550.125000	1315.485352	485.042114
11893.156383	1550.125000	1314.388672	477.640442
11893.156383	1550.125000	1313.291016	573.056274
11893.156383	1550.125000	1312.194336	311.644928
11893.156383	1550.125000	1311.096680	323.366913
11893.156383	1550.125000	1309.999023	311.695099
11893.156383	1550.125000	1308.901367	204.565643
11893.156383	1550.125000	1307.802734	74.409653
11893.156383	1550.125000	1306.705078	209.818024
11893.156383	1550.125000	1305.606445	229.201202
11893.156383	1550.125000	1304.506836	443.513153
11893.156383	1550.125000	1303.408203	289.295502
11893.156383	1550.125000	1302.308594	250.287247
11893.156383	1550.125000	1301.208984	287.066132
11893.156383	1550.125000	1300.109375	175.080002
11893.156383	1550.125000	1299.009766	232.915421
11893.156383	1550.125000	1297.909180	431.244232
11893.156383	1550.125000	1296.808594	329.177155
11893.156383	1550.125000	1295.708008	551.415955
11893.156383	1550.125000	1294.607422	227.154572
11893.156383	1550.125000	1293.506836	415.547913
11893.156383	1550.125000	1292.405273	-41.892082
11893.156383	1550.125000	1291.303711	87.294647
11893.156383	1550.125000	1290.202148	117.100868
11893.156383	1550.125000	1289.099609	128.950806
11893.156383	1550.125000	1287.998047	117.204872
11893.156383	1550.125000	1286.895508	27.964861
11893.156383	1550.125000	1285.792969	101.870247
11893.156383	1550.125000	1284.689453	91.374718
11893.156383	1550.125000	1283.586914	67.117638
11893.156383	1550.125000	1282.483398	183.169891
11893.156383	1550.125000	1281.379883	-192.405396
11893.156383	1550.125000	1280.276367	38.728317
11893.156383	1550.125000	1279.171875	76.054207
11893.156383	1550.125000	1278.067383	148.221207
11893.156383	1550.125000	1276.962891	130.284607
11893.156383	1550.125000	1275.858398	37.469627
11893.156383	1550.125000	1274.753906	6.876468
11893.156383	1550.125000	1273.648438	162.134964
11893.156383	1550.125000	1272.542969	44.044292
11893.156383	1550.125000	1271.437500	-270.959412
11893.156383	1550.125000	1270.331055	82.785057
11893.156383	1550.125000	1269.225586	150.925919
11893.156383	1550.125000	1268.119141	-28.672064
11893.156383	1550.125000	1267.012695	4.917082
11893.156383	1550.125000	1265.906250	-98.946648
11893.156383	1550.125000	1264.798828	-4.652725
11893.156383	1550.125000	1263.691406	-16.646330
11893.156383	1550.125000	1262.583984	150.008713
11893.156383	1550.125000	1261.476563	91.197792
11893.156383	1550.125000	1260.368164	64.982689
11893.156383	1550.125000	1259.260742	-107.447685
11893.156383	1550.125000	1258.152344	-35.132496
11893.156383	1550.125000	1257.043945	124.945877
11893.156383	1550.125000	1255.934570	34.241859
11893.156383	1550.125000	1254.825195	286.925385
11893.156383	1550.125000	1253.716797	-18.194948
11893.156383	1550.125000	1252.606445	-180.261017
11893.156383	1550.125000	1251.497070	-74.057381
11893.156383	1550.125000	1250.387695	102.520836
11893.156383	1550.125000	1249.277344	-24.597282
11893.156383	1550.125000	1248.166992	172.789429
11893.156383	1550.125000	1247.055664	247.221436
11893.156383	1550.125000	1245.945313	205.401123
11893.156383	1550.125000	1244.833984	154.398956
11893.156383	1550.125000	1243.722656	199.007904
11893.156383	1550.125000	1242.611328	280.267700
11893.156383	1550.125000	1241.499023	272.533325
11893.156383	1550.125000	1240.387695	368.302063
11893.156383	1550.125000	1239.275391	418.697174
11893.156383	1550.125000	1238.162109	626.606079
11893.156383	1550.125000	1237.049805	497.180450
11893.156383	1550.125000	1235.936523	282.248566
11893.156383	1550.125000	1234.823242	330.992126
11893.156383	1550.125000	1233.709961	339.113068
11893.156383	1550.125000	1232.596680	279.018372
11893.156383	1550.125000	1231.482422	114.717224
11893.156383	1550.125000	1230.369141	128.410324
11893.156383	1550.125000	1229.253906	174.336609
11893.156383	1550.125000	1228.139648	346.596588
11893.156383	1550.125000	1227.025391	145.662338
11893.156383	1550.125000	1225.910156	345.972717
11893.156383	1550.125000	1224.794922	154.158829
11893.156383	1550.125000	1223.679688	148.426529
11893.156383	1550.125000	1222.563477	238.435333
11893.156383	1550.125000	1221.447266	248.990204
11893.156383	1550.125000	1220.331055	185.224823
11893.156383	1550.125000	1219.214844	54.079445
11893.156383	1550.125000	1218.098633	151.234619
11893.156383	1550.125000	1216.981445	-21.897297
11893.156383	1550.125000	1215.864258	196.001511
11893.156383	1550.125000	1214.747070	111.647751
11893.156383	1550.125000	1213.629883	2.004198
11893.156383	1550.125000	1212.511719	65.900131
11893.156383	1550.125000	1211.393555	-129.253723
11893.156383	1550.125000	1210.275391	7.021074
11893.156383	1550.125000	1209.157227	-215.393692
11893.156383	1550.125000	1208.038086	-94.926674
11893.156383	1550.125000	1206.918945	-42.208969
11893.156383	1550.125000	1205.799805	-28.513081
11893.156383	1550.125000	1204.680664	-54.468918
11893.156383	1550.125000	1203.560547	-74.473976
11893.156383	1550.125000	1202.441406	-71.200157
11893.156383	1550.125000	1201.321289	-90.663155
11893.156383	1550.125000	1200.200195	-1.929471
11893.156383	1550.125000	1199.080078	-218.883652
11893.156383	1550.125000	1197.958984	-299.646088
11893.156383	1550.125000	1196.837891	-137.944168
11893.156383	1550.125000	1195.716797	-139.857895
11893.156383	1550.125000	1194.594727	-133.459839
11893.156383	1550.125000	1193.473633	-297.457336
11893.156383	1550.125000	1192.351563	-214.297272
11893.156383	1550.125000	1191.229492	-88.604263
11893.156383	1550.125000	1190.106445	-73.756645
11893.156383	1550.125000	1188.984375	12.903873
11893.156383	1550.125000	1187.861328	-246.667603
11893.156383	1550.125000	1186.738281	-65.839577
11893.156383	1550.125000	1185.614258	-65.363609
11893.156383	1550.125000	1184.491211	-30.287020
11893.156383	1550.125000	1183.367188	167.336151
11893.156383	1550.125000	1182.243164	108.658142
11893.156383	1550.125000	1181.119141	189.576569
11893.156383	1550.125000	1179.994141	166.002792
11893.156383	1550.125000	1178.869141	147.666351
11893.156383	1550.125000	1177.744141	17.657312
11893.156383	1550.125000	1176.619141	43.651665
11893.156383	1550.125000	1175.493164	47.202164
11893.156383	1550.125000	1174.368164	91.117020
11893.156383	1550.125000	1173.242188	198.932144
11893.156383	1550.125000	1172.115234	67.229668
11893.156383	1550.125000	1170.989258	181.360153
11893.156383	1550.125000	1169.862305	130.575027
11893.156383	1550.125000	1168.735352	4.301717
11893.156383	1550.125000	1167.608398	67.041496
11893.156383	1550.125000	1166.481445	111.719490
11893.156383	1550.125000	1165.353516	91.496414
11893.156383	1550.125000	1164.225586	-27.201971
11893.156383	1550.125000	1163.097656	-154.662430
11893.156383	1550.125000	1161.968750	-115.627708
11893.156383	1550.125000	1160.840820	-8.269488
11893.156383	1550.125000	1159.711914	119.102112
11893.156383	1550.125000	1158.583008	95.201294
11893.156383	1550.125000	1157.453125	42.147411
11893.156383	1550.125000	1156.324219	-50.800003
11893.156383	1550.125000	1155.194336	-228.767944
11893.156383	1550.125000	1154.064453	-72.825089
11893.156383	1550.125000	1152.933594	-74.741989
11893.156383	1550.125000	1151.803711	-80.911835
11893.156383	1550.125000	1150.672852	-114.995300
11893.156383	1550.125000	1149.541992	-82.009033
11893.156383	1550.125000	1148.411133	-164.065796
11893.156383	1550.125000	1147.279297	-84.167854
11893.156383	1550.125000	1146.147461	-50.182186
11893.156383	1550.125000	1145.015625	-141.206879
11893.156383	1550.125000	1143.883789	-104.392769
11893.156383	1550.125000	1142.750977	-124.958160
11893.156383	1550.125000	1141.619141	25.899427
11893.156383	1550.125000	1140.486328	33.890240
11893.156383	1550.125000	1139.352539	71.298828
11893.156383	1550.125000	1138.219727	111.642006
11893.156383	1550.125000	1137.085938	-37.456322
11893.156383	1550.125000	1135.952148	-44.483482
11893.156383	1550.125000	1134.818359	110.069954
11893.156383	1550.125000	1133.683594	329.855316
11893.156383	1550.125000	1132.549805	274.813019
11893.156383	1550.125000	1131.415039	574.971619
11893.156383	1550.125000	1130.279297	338.787628
11893.156383	1550.125000	1129.144531	284.505646
11893.156383	1550.125000	1128.008789	353.852997
11893.156383	1550.125000	1126.873047	410.592102
11893.156383	1550.125000	1125.737305	623.952209
11893.156383	1550.125000	1124.601563	599.349976
11893.156383	1550.125000	1123.464844	620.904053
11893.156383	1550.125000	1122.328125	341.101715
11893.156383	1550.125000	1121.191406	586.027710
11893.156383	1550.125000	1120.054688	514.034424
11893.156383	1550.125000	1118.916992	610.385620
11893.156383	1550.125000	1117.779297	730.866882
11893.156383	1550.125000	1116.641602	498.501373
11893.156383	1550.125000	1115.503906	544.989258
11893.156383	1550.125000	1114.365234	561.589111
11893.156383	1550.125000	1113.226563	454.112274
11893.156383	1550.125000	1112.087891	458.835907
11893.156383	1550.125000	1110.949219	349.642761
11893.156383	1550.125000	1109.809570	447.402557
11893.156383	1550.125000	1108.669922	231.144669
11893.156383	1550.125000	1107.530273	455.766479
11893.156383	1550.125000	1106.390625	374.623444
11893.156383	1550.125000	1105.250000	448.907288
11893.156383	1550.125000	1104.109375	431.746307
11893.156383	1550.125000	1102.968750	411.569275
11893.156383	1550.125000	1101.828125	178.891800
11893.156383	1550.125000	1100.686523	296.057648
11893.156383	1550.125000	1099.544922	341.136963
11893.156383	1550.125000	1098.403320	304.948120
11893.156383	1550.125000	1097.261719	446.866211
11893.156383	1550.125000	1096.120117	528.380493
11893.156383	1550.125000	1094.977539	299.529724
11893.156383	1550.125000	1093.834961	290.319092
11893.156383	1550.125000	1092.691406	337.013794
11893.156383	1550.125000	1091.548828	365.077728
11893.156383	1550.125000	1090.405273	400.892731
11893.156383	1550.125000	1089.261719	386.775818
11893.156383	1550.125000	1088.118164	427.919525
11893.156383	1550.125000	1086.973633	502.353333
11893.156383	1550.125000	1085.829102	537.705078
11893.156383	1550.125000	1084.684570	316.190765
11893.156383	1550.125000	1083.540039	226.648438
11893.156383	1550.125000	1082.395508	299.508911
11893.156383	1550.125000	1081.250000	181.078735
11893.156383	1550.125000	1080.104492	219.503769
11893.156383	1550.125000	1078.958984	271.351563
11893.156383	1550.125000	1077.812500	380.922607
11893.156383	1550.125000	1076.666016	133.010498
11893.156383	1550.125000	1075.519531	255.766785
11893.156383	1550.125000	1074.373047	288.010101
11893.156383	1550.125000	1073.226563	465.320770
11893.156383	1550.125000	1072.079102	459.187408
11893.156383	1550.125000	1070.931641	406.249725
11893.156383	1550.125000	1069.784180	318.715973
11893.156383	1550.125000	1068.635742	504.126373
11893.156383	1550.125000	1067.487305	496.706818
11893.156383	1550.125000	1066.338867	414.238831
11893.156383	1550.125000	1065.190430	366.030334
11893.156383	1550.125000	1064.041992	349.767242
11893.156383	1550.125000	1062.892578	407.591949
11893.156383	1550.125000	1061.743164	521.896790
11893.156383	1550.125000	1060.593750	209.987686
11893.156383	1550.125000	1059.443359	454.389740
11893.156383	1550.125000	1058.292969	408.300171
11893.156383	1550.125000	1057.142578	404.497711
11893.156383	1550.125000	1055.992188	473.027618
11893.156383	1550.125000	1054.841797	429.552399
11893.156383	1550.125000	1053.690430	206.792099
11893.156383	1550.125000	1052.539063	240.710968
11893.156383	1550.125000	1051.387695	312.351379
11893.156383	1550.125000	1050.235352	531.081604
11893.156383	1550.125000	1049.083984	515.741577
11893.156383	1550.125000	1047.931641	274.427643
11893.156383	1550.125000	1046.778320	158.121490
11893.156383	1550.125000	1045.625977	223.318710
11893.156383	1550.125000	1044.472656	366.328247
11893.156383	1550.125000	1043.319336	305.147125
11893.156383	1550.125000	1042.166016	242.107895
11893.156383	1550.125000	1041.012695	316.816498
11893.156383	1550.125000	1039.858398	279.546906
11893.156383	1550.125000	1038.704102	496.592377
11893.156383	1550.125000	1037.549805	383.363617
11893.156383	1550.125000	1036.394531	335.430298
11893.156383	1550.125000	1035.239258	555.263672
11893.156383	1550.125000	1034.083984	476.453064
11893.156383	1550.125000	1032.928711	549.368225
11893.156383	1550.125000	1031.773438	614.107239
11893.156383	1550.125000	1030.617188	623.424194
11893.156383	1550.125000	1029.460938	720.820923
11893.156383	1550.125000	1028.304688	659.649475
11893.156383	1550.125000	1027.147461	884.981140
11893.156383	1550.125000	1025.991211	754.443542
11893.156383	1550.125000	1024.833984	1027.346558
11893.156383	1550.125000	1023.675781	1281.012817
11893.156383	1550.125000	1022.518555	1020.213074
11893.156383	1550.125000	1021.360352	1331.021362
11893.156383	1550.125000	1020.202148	1340.458496
11893.156383	1550.125000	1019.043945	1558.331909
11893.156383	1550.125000	1017.884766	1458.534424
11893.156383	1550.125000	1016.726563	1613.032837
11893.156383	1550.125000	1015.567383	1594.347900
11893.156383	1550.125000	1014.407227	1441.617798
11893.156383	1550.125000	1013.248047	1652.927490
11893.156383	1550.125000	1012.087891	1487.900024
11893.156383	1550.125000	1010.927734	1736.015015
11893.156383	1550.125000	1009.767578	1714.016968
11893.156383	1550.125000	1008.606445	1544.111206
11893.156383	1550.125000	1007.446289	1717.585449
11893.156383	1550.125000	1006.285156	1462.830688
11893.156383	1550.125000	1005.123047	1540.115234
11893.156383	1550.125000	1003.961914	1378.706421
11893.156383	1550.125000	1002.799805	1153.927856
11893.156383	1550.125000	1001.637695	959.991699
11893.156383	1550.125000	1000.475586	1056.841919
11893.156383	1550.125000	999.312500	659.056396
11893.156383	1550.125000	998.149414	504.054626
11893.156383	1550.125000	996.986328	424.391876
11893.156383	1550.125000	995.823242	451.066864
11893.156383	1550.125000	994.659180	384.025330
11893.156383	1550.125000	993.496094	591.554443
11893.156383	1550.125000	992.332031	545.750122
11893.156383	1550.125000	991.166992	410.477051
11893.156383	1550.125000	990.002930	477.931915
11893.156383	1550.125000	988.837891	442.727905
11893.156383	1550.125000	987.672852	182.295654
11893.156383	1550.125000	986.506836	398.171509
11893.156383	1550.125000	985.341797	300.479095
11893.156383	1550.125000	984.175781	189.719025
11893.156383	1550.125000	983.009766	240.725464
11893.156383	1550.125000	981.843750	276.701202
11893.156383	1550.125000	980.676758	108.605194
11893.156383	1550.125000	979.509766	197.546112
11893.156383	1550.125000	978.342773	-38.755665
11893.156383	1550.125000	977.175781	172.209320
11893.156383	1550.125000	976.007813	258.208405
11893.156383	1550.125000	974.839844	31.005764
11893.156383	1550.125000	973.671875	312.921356
11893.156383	1550.125000	972.503906	313.847412
11893.156383	1550.125000	971.334961	265.997467
11893.156383	1550.125000	970.166016	224.999054
11893.156383	1550.125000	968.997070	259.301086
11893.156383	1550.125000	967.828125	153.207870
11893.156383	1550.125000	966.658203	241.729675
11893.156383	1550.125000	965.488281	-64.056602
11893.156383	1550.125000	964.318359	107.830139
11893.156383	1550.125000	963.148438	97.245033
11893.156383	1550.125000	961.977539	165.537018
11893.156383	1550.125000	960.806641	267.444275
11893.156383	1550.125000	959.635742	147.873703
11893.156383	1550.125000	958.463867	154.553009
11893.156383	1550.125000	957.292969	-24.948996
11893.156383	1550.125000	956.121094	144.627213
11893.156383	1550.125000	954.948242	27.051704
11893.156383	1550.125000	953.776367	56.603367
11893.156383	1550.125000	952.603516	98.171448
11893.156383	1550.125000	951.430664	339.283386
11893.156383	1550.125000	950.257813	72.757210
11893.156383	1550.125000	949.084961	269.975281
11893.156383	1550.125000	947.911133	255.621185
11893.156383	1550.125000	946.737305	102.739021
11893.156383	1550.125000	945.563477	16.762989
11893.156383	1550.125000	944.388672	190.790588
11893.156383	1550.125000	943.213867	-29.987497
11893.156383	1550.125000	942.039063	95.911736
11893.156383	1550.125000	940.864258	244.106018
11893.156383	1550.125000	939.688477	86.143913
11893.156383	1550.125000	938.513672	6.855717
11893.156383	1550.125000	937.337891	-102.611259
11893.156383	1550.125000	936.161133	43.561806
11893.156383	1550.125000	934.985352	203.471924
11893.156383	1550.125000	933.808594	91.721359
11893.156383	1550.125000	932.631836	-1.392613
11893.156383	1550.125000	931.454102	207.114914
11893.156383	1550.125000	930.277344	74.506134
11893.156383	1550.125000	929.099609	25.403605
11893.156383	1550.125000	927.921875	1.843946
11893.156383	1550.125000	926.743164	-24.074766
11893.156383	1550.125000	925.565430	98.426384
11893.156383	1550.125000	924.386719	248.652405
11893.156383	1550.125000	923.208008	310.759094
11893.156383	1550.125000	922.028320	259.283905
11893.156383	1550.125000	920.849609	115.110321
11893.156383	1550.125000	919.669922	119.634033
11893.156383	1550.125000	919.474609	-56.066765
11893.156383	1550.125000	918.309570	-49.653118
11893.156383	1550.125000	917.143555	81.790192
11893.156383	1550.125000	915.977539	-99.389580
11893.156383	1550.125000	914.810547	-28.202038
11893.156383	1550.125000	913.644531	-33.433449
11893.156383	1550.125000	912.477539	90.896561
11893.156383	1550.125000	911.310547	-13.856911
11893.156383	1550.125000	910.143555	54.879742
11893.156383	1550.125000	908.975586	-121.534042
11893.156383	1550.125000	907.807617	69.703140
11893.156383	1550.125000	906.639648	154.521317
11893.156383	1550.125000	905.471680	384.883698
11893.156383	1550.125000	904.303711	310.151978
11893.156383	1550.125000	903.134766	614.286072
11893.156383	1550.125000	901.965820	671.161560
11893.156383	1550.125000	900.796875	476.311005
11893.156383	1550.125000	899.626953	655.525330
11893.156383	1550.125000	898.457031	585.376526
11893.156383	1550.125000	897.287109	286.784698
11893.156383	1550.125000	896.117188	318.233551
11893.156383	1550.125000	894.947266	123.598366
11893.156383	1550.125000	893.776367	72.023445
11893.156383	1550.125000	892.605469	98.855156
11893.156383	1550.125000	891.434570	174.078110
11893.156383	1550.125000	890.262695	78.703781
11893.156383	1550.125000	889.091797	57.095600
11893.156383	1550.125000	887.919922	148.380768
11893.156383	1550.125000	886.748047	-16.061174
11893.156383	1550.125000	885.575195	19.914986
11893.156383	1550.125000	884.403320	106.518410
11893.156383	1550.125000	883.230469	-87.766388
11893.156383	1550.125000	882.057617	-8.095014
11893.156383	1550.125000	880.883789	-27.408281
11893.156383	1550.125000	879.710938	-76.634689
11893.156383	1550.125000	878.537109	200.774628
11893.156383	1550.125000	877.362305	100.919350
11893.156383	1550.125000	876.188477	51.674725
11893.156383	1550.125000	875.013672	-321.675110
11893.156383	1550.125000	873.839844	-65.160217
11893.156383	1550.125000	872.664063	-61.508785
11893.156383	1550.125000	871.489258	79.968468
11893.156383	1550.125000	870.313477	65.197189
11893.156383	1550.125000	869.138672	-181.513794
11893.156383	1550.125000	867.962891	72.380272
11893.156383	1550.125000	866.786133	-20.445816
11893.156383	1550.125000	865.610352	-16.857023
11893.156383	1550.125000	864.433594	-187.655380
11893.156383	1550.125000	863.256836	75.179268
11893.156383	1550.125000	862.079102	-150.627182
11893.156383	1550.125000	860.902344	-64.491447
11893.156383	1550.125000	859.724609	-70.101387
11893.156383	1550.125000	858.546875	89.318016
11893.156383	1550.125000	857.368164	95.124428
11893.156383	1550.125000	856.190430	-245.054916
11893.156383	1550.125000	855.011719	-156.733139
11893.156383	1550.125000	853.833008	-144.033722
11893.156383	1550.125000	852.654297	-87.842468
11893.156383	1550.125000	851.474609	146.888611
11893.156383	1550.125000	850.294922	-128.902405
11893.156383	1550.125000	849.115234	-81.925613
11893.156383	1550.125000	847.935547	127.465347
11893.156383	1550.125000	846.754883	213.241241
11893.156383	1550.125000	845.575195	35.967857
11893.156383	1550.125000	844.393555	11.959159
11893.156383	1550.125000	843.212891	-169.789597
11893.156383	1550.125000	842.032227	-84.061600
11893.156383	1550.125000	840.850586	-14.371492
11893.156383	1550.125000	839.668945	-72.660133
11893.156383	1550.125000	838.486328	-53.270344
11893.156383	1550.125000	837.304688	-118.399971
11893.156383	1550.125000	836.122070	-121.863380
11893.156383	1550.125000	834.939453	-168.708832
11893.156383	1550.125000	833.756836	-334.225677
11893.156383	1550.125000	832.573242	-6.811506
11893.156383	1550.125000	831.389648	71.789116
11893.156383	1550.125000	830.206055	-29.844028
11893.156383	1550.125000	829.022461	-19.709280
11893.156383	1550.125000	827.838867	29.167658
11893.156383	1550.125000	826.654297	109.926178
11893.156383	1550.125000	825.469727	63.014103
11893.156383	1550.125000	824.284180	73.073723
11893.156383	1550.125000	823.099609	64.886818
11893.156383	1550.125000	821.914063	-25.301785
11893.156383	1550.125000	820.728516	-165.564758
11893.156383	1550.125000	819.542969	-157.804810
11893.156383	1550.125000	818.356445	139.013779
11893.156383	1550.125000	817.169922	135.300766
11893.156383	1550.125000	815.983398	-107.328033
11893.156383	1550.125000	814.796875	-101.923820
11893.156383	1550.125000	813.609375	-23.760530
11893.156383	1550.125000	812.422852	-270.806213
11893.156383	1550.125000	811.235352	-28.995062
11893.156383	1550.125000	810.046875	194.516159
11893.156383	1550.125000	808.859375	2.062207
11893.156383	1550.125000	807.670898	-10.846908
11893.156383	1550.125000	806.482422	-39.671486
11893.156383	1550.125000	805.293945	272.145630
11893.156383	1550.125000	804.104492	75.215027
11893.156383	1550.125000	802.915039	78.109665
11893.156383	1550.125000	801.725586	255.740189
11893.156383	1550.125000	800.536133	176.861923
11893.156383	1550.125000	799.345703	311.249481
11893.156383	1550.125000	798.155273	300.392792
11893.156383	1550.125000	796.964844	314.460327
11893.156383	1550.125000	795.774414	342.100922
11893.156383	1550.125000	794.583008	113.560738
11893.156383	1550.125000	793.392578	186.505997
11893.156383	1550.125000	792.200195	336.436859
11893.156383	1550.125000	791.008789	320.902863
11893.156383	1550.125000	789.816406	112.834137
11893.156383	1550.125000	788.625000	65.594353
11893.156383	1550.125000	787.432617	-115.225273
11893.156383	1550.125000	786.239258	20.890236
11893.156383	1550.125000	785.046875	-17.335991
11893.156383	1550.125000	783.853516	107.328705
11893.156383	1550.125000	782.660156	7.963387
11893.156383	1550.125000	781.465820	229.758194
11893.156383	1550.125000	780.272461	116.777275
11893.156383	1550.125000	779.078125	-116.005722
11893.156383	1550.125000	777.883789	-97.842720
11893.156383	1550.125000	776.688477	-104.576904
11893.156383	1550.125000	775.494141	-79.716179
11893.156383	1550.125000	774.298828	-72.970749
11893.156383	1550.125000	773.103516	37.618504
11893.156383	1550.125000	771.907227	-222.163803
11893.156383	1550.125000	770.711914	-174.872223
11893.156383	1550.125000	769.515625	-39.617622
11893.156383	1550.125000	768.318359	-30.818695
11893.156383	1550.125000	767.122070	156.157684
11893.156383	1550.125000	765.924805	336.250275
11893.156383	1550.125000	764.727539	153.163483
11893.156383	1550.125000	763.530273	42.257034
11893.156383	1550.125000	762.333008	21.518553
11893.156383	1550.125000	761.134766	21.029200
11893.156383	1550.125000	759.936523	-80.897087
11893.156383	1550.125000	758.738281	94.255630
11893.156383	1550.125000	757.540039	111.634163
11893.156383	1550.125000	756.340820	59.155460
11893.156383	1550.125000	755.141602	40.420708
11893.156383	1550.125000	753.942383	-30.122511
11893.156383	1550.125000	752.742188	126.601814
11893.156383	1550.125000	751.541992	-92.519859
11893.156383	1550.125000	750.341797	109.042099
11893.156383	1550.125000	749.141602	238.501862
11893.156383	1550.125000	747.941406	48.571659
11893.156383	1550.125000	746.740234	-51.409012
11893.156383	1550.125000	745.539063	-16.547628
11893.156383	1550.125000	744.337891	296.881714
11893.156383	1550.125000	743.135742	407.933228
11893.156383	1550.125000	741.933594	217.901932
11893.156383	1550.125000	740.731445	72.806679
11893.156383	1550.125000	739.529297	280.212280
11893.156383	1550.125000	738.326172	462.783112
11893.156383	1550.125000	737.124023	230.031250
11893.156383	1550.125000	735.919922	311.450958
11893.156383	1550.125000	734.716797	424.182465
11893.156383	1550.125000	733.513672	272.151794
11893.156383	1550.125000	732.309570	514.783936
11893.156383	1550.125000	731.105469	369.402557
11893.156383	1550.125000	729.900391	262.124939
11893.156383	1550.125000	728.696289	18.129843
11893.156383	1550.125000	727.491211	287.251831
11893.156383	1550.125000	726.286133	323.232880
11893.156383	1550.125000	725.080078	5.282760
11893.156383	1550.125000	723.874023	269.567383
11893.156383	1550.125000	722.668945	168.779251
11893.156383	1550.125000	721.461914	146.302505
11893.156383	1550.125000	720.255859	199.850494
11893.156383	1550.125000	719.048828	-142.681335
11893.156383	1550.125000	717.841797	-109.361176
11893.156383	1550.125000	716.634766	176.578033
11893.156383	1550.125000	715.427734	-16.137663
11893.156383	1550.125000	714.219727	126.460876
11893.156383	1550.125000	713.011719	47.674866
11893.156383	1550.125000	711.803711	76.104408
11893.156383	1550.125000	710.594727	-141.285400
11893.156383	1550.125000	709.385742	16.570515
11893.156383	1550.125000	708.176758	38.074051
11893.156383	1550.125000	706.967773	3.681783
11893.156383	1550.125000	705.758789	-57.553989
11893.156383	1550.125000	704.548828	-217.029739
11893.156383	1550.125000	703.338867	-28.454439
11893.156383	1550.125000	702.127930	-121.097710
11893.156383	1550.125000	700.917969	-200.396194
11893.156383	1550.125000	699.707031	41.344654
11893.156383	1550.125000	698.496094	62.211056
11893.156383	1550.125000	697.285156	13.897971
11893.156383	1550.125000	696.073242	-72.352722
11893.156383	1550.125000	694.861328	35.179203
11893.156383	1550.125000	693.649414	42.355740
11893.156383	1550.125000	692.436523	-3.996420
11893.156383	1550.125000	691.224609	34.198868
11893.156383	1550.125000	690.011719	-154.752396
11893.156383	1550.125000	688.798828	326.179962
11893.156383	1550.125000	687.584961	174.912277
11893.156383	1550.125000	686.372070	279.458771
11893.156383	1550.125000	685.158203	272.673828
11893.156383	1550.125000	683.943359	5.642032
11893.156383	1550.125000	682.729492	45.444405
11893.156383	1550.125000	681.514648	142.937943
11893.156383	1550.125000	680.299805	-66.361275
11893.156383	1550.125000	679.084961	237.578857
11893.156383	1550.125000	677.869141	-18.462402
11893.156383	1550.125000	676.653320	-7.976542
11893.156383	1550.125000	675.437500	131.205322
11893.156383	1550.125000	674.221680	52.696404
11893.156383	1550.125000	673.004883	122.839279
11893.156383	1550.125000	671.789063	223.938919
11893.156383	1550.125000	670.571289	302.725067
11893.156383	1550.125000	669.354492	206.172104
11893.156383	1550.125000	668.136719	31.962029
11893.156383	1550.125000	666.919922	-20.314432
11893.156383	1550.125000	665.701172	215.508270
11893.156383	1550.125000	664.483398	83.267708
11893.156383	1550.125000	663.264648	252.333908
11893.156383	1550.125000	662.045898	155.418503
11893.156383	1550.125000	660.827148	202.423050
11893.156383	1550.125000	659.608398	404.328217
11893.156383	1550.125000	658.388672	167.724045
11893.156383	1550.125000	657.168945	309.624329
11893.156383	1550.125000	655.949219	203.539063
11893.156383	1550.125000	654.728516	135.026993
11893.156383	1550.125000	653.507813	177.061066
11893.156383	1550.125000	652.287109	223.419968
11893.156383	1550.125000	651.066406	263.046417
11893.156383	1550.125000	649.844727	105.832916
11893.156383	1550.125000	648.623047	6.069247
11893.156383	1550.125000	647.401367	189.101517
11893.156383	1550.125000	646.179688	276.983856
11893.156383	1550.125000	644.957031	382.416290
11893.156383	1550.125000	643.734375	403.814850
11893.156383	1550.125000	642.511719	65.261139
11893.156383	1550.125000	641.289063	294.048615
11893.156383	1550.125000	640.065430	-70.976349
11893.156383	1550.125000	638.841797	31.824303
11893.156383	1550.125000	637.618164	46.270519
11893.156383	1550.125000	636.393555	241.477097
11893.156383	1550.125000	635.168945	357.148743
11893.156383	1550.125000	633.944336	313.974670
11893.156383	1550.125000	632.719727	101.035576
11893.156383	1550.125000	631.494141	207.625870
11893.156383	1550.125000	630.269531	82.780067
11893.156383	1550.125000	629.042969	96.672646
11893.156383	1550.125000	627.817383	53.238117
11893.156383	1550.125000	626.590820	-89.328278
11893.156383	1550.125000	625.365234	30.046595
11893.156383	1550.125000	624.137695	175.704666
11893.156383	1550.125000	622.911133	-0.004788
11893.156383	1550.125000	621.683594	-107.514740
11893.156383	1550.125000	620.456055	-133.668365
11893.156383	1550.125000	619.228516	-45.533031
11893.156383	1550.125000	618.000977	-49.832375
11893.156383	1550.125000	616.772461	123.838020
11893.156383	1550.125000	615.543945	-52.026836
11893.156383	1550.125000	614.314453	7.198132
11893.156383	1550.125000	613.085938	-85.218407
11893.156383	1550.125000	611.856445	-173.265656
11893.156383	1550.125000	610.626953	43.858303
11893.156383	1550.125000	609.397461	30.342155
11893.156383	1550.125000	608.166992	141.870438
11893.156383	1550.125000	606.936523	22.903479
11893.156383	1550.125000	605.706055	189.123199
11893.156383	1550.125000	604.474609	116.146683
11893.156383	1550.125000	603.244141	163.762024
11893.156383	1550.125000	602.012695	246.380905
11893.156383	1550.125000	600.780273	210.549454
11893.156383	1550.125000	599.548828	-151.829712
11893.156383	1550.125000	598.316406	11.725281
11893.156383	1550.125000	597.083984	-109.596252
11893.156383	1550.125000	595.851563	82.264725
11893.156383	1550.125000	594.618164	304.651794
11893.156383	1550.125000	593.384766	224.810104
11893.156383	1550.125000	592.151367	490.767487
11893.156383	1550.125000	590.917969	443.668030
11893.156383	1550.125000	589.683594	816.585693
11893.156383	1550.125000	588.449219	675.311829
11893.156383	1550.125000	587.214844	932.056885
11893.156383	1550.125000	585.979492	1000.635071
11893.156383	1550.125000	584.745117	988.284973
11893.156383	1550.125000	583.509766	726.776001
11893.156383	1550.125000	582.273438	753.752319
11893.156383	1550.125000	581.038086	413.714325
11893.156383	1550.125000	579.801758	139.312286
11893.156383	1550.125000	578.565430	286.422729
11893.156383	1550.125000	577.329102	437.816864
11893.156383	1550.125000	576.091797	233.363586
11893.156383	1550.125000	574.854492	173.001022
11893.156383	1550.125000	573.617188	130.101959
11893.156383	1550.125000	572.378906	80.660347
11893.156383	1550.125000	571.141602	255.847687
11893.156383	1550.125000	569.903320	208.560349
11893.156383	1550.125000	568.664063	71.909439
11893.156383	1550.125000	567.425781	61.715908
11893.156383	1550.125000	566.186523	293.370270
11893.156383	1550.125000	564.947266	224.305893
11893.156383	1550.125000	563.708008	18.062586
11893.156383	1550.125000	562.467773	-31.321695
11893.156383	1550.125000	561.227539	39.053196
11893.156383	1550.125000	559.987305	83.284714
11893.156383	1550.125000	558.747070	38.284786
11893.156383	1550.125000	557.505859	97.735924
11893.156383	1550.125000	556.264648	100.618317
11893.156383	1550.125000	555.023438	-55.239124
11893.156383	1550.125000	553.781250	-147.970261
11893.156383	1550.125000	552.539063	91.934372
11893.156383	1550.125000	551.296875	-35.528397
11893.156383	1550.125000	550.054688	65.227165
11893.156383	1550.125000	548.811523	37.785992
11893.156383	1550.125000	547.569336	-43.912132
11893.156383	1550.125000	546.325195	35.121510
11893.156383	1550.125000	545.082031	-22.615993
11893.156383	1550.125000	543.837891	-43.409550
11893.156383	1550.125000	542.593750	-179.174759
11893.156383	1550.125000	541.349609	-50.166798
11893.156383	1550.125000	540.105469	-18.790321
11893.156383	1550.125000	538.860352	-145.708359
11893.156383	1550.125000	537.615234	85.210213
11893.156383	1550.125000	536.369141	-26.433968
11893.156383	1550.125000	535.124023	143.754227
11893.156383	1550.125000	533.877930	129.728470
11893.156383	1550.125000	532.631836	-33.723137
11893.156383	1550.125000	531.384766	-69.282150
11893.156383	1550.125000	530.138672	183.217651
11893.156383	1550.125000	528.891602	154.212509
11893.156383	1550.125000	527.643555	-56.550030
11893.156383	1550.125000	526.396484	-0.999816
11893.156383	1550.125000	525.148438	-10.333285
11893.156383	1550.125000	523.900391	-127.762863
11893.156383	1550.125000	522.652344	-67.759079
11893.156383	1550.125000	521.403320	-230.429214
11893.156383	1550.125000	520.154297	-150.869781
11893.156383	1550.125000	518.905273	-172.864899
11893.156383	1550.125000	517.656250	-30.577700
11893.156383	1550.125000	516.406250	-328.991455
11893.156383	1550.125000	515.156250	-273.011688
11893.156383	1550.125000	513.906250	-268.821198
11893.156383	1550.125000	512.655273	70.048851
11893.156383	1550.125000	511.404297	-61.697041
11893.156383	1550.125000	510.153320	78.574516
11893.156383	1550.125000	508.902344	50.566189
11893.156383	1550.125000	507.650391	35.569950
11893.156383	1550.125000	506.398438	130.627716
11893.156383	1550.125000	505.146484	113.591324
11893.156383	1550.125000	503.893555	331.584686
11893.156383	1550.125000	502.641602	118.520676
11893.156383	1550.125000	501.388672	86.602852
11893.156383	1550.125000	500.134766	388.664307
11893.156383	1550.125000	498.881836	343.907349
11893.156383	1550.125000	497.627930	170.030701
11893.156383	1550.125000	496.374023	134.075119
11893.156383	1550.125000	495.119141	416.745300
11893.156383	1550.125000	493.865234	312.015137
11893.156383	1550.125000	492.610352	246.114609
11893.156383	1550.125000	491.355469	283.550659
11893.156383	1550.125000	490.099609	101.673164
11893.156383	1550.125000	488.843750	186.541458
11893.156383	1550.125000	487.587891	305.824280
11893.156383	1550.125000	486.332031	263.927521
11893.156383	1550.125000	485.075195	325.236908
11893.156383	1550.125000	483.818359	219.013199
11893.156383	1550.125000	482.561523	413.572021
11893.156383	1550.125000	481.304688	386.926117
11893.156383	1550.125000	480.046875	386.099518
11893.156383	1550.125000	478.789063	518.393188
11893.156383	1550.125000	477.531250	487.585999
11893.156383	1550.125000	476.272461	684.245544
11893.156383	1550.125000	475.013672	546.243469
11893.156383	1550.125000	473.754883	524.140442
11893.156383	1550.125000	472.496094	386.301514
11893.156383	1550.125000	471.236328	606.527100
11893.156383	1550.125000	469.976563	560.937073
11893.156383	1550.125000	468.716797	626.807068
11893.156383	1550.125000	467.456055	924.021912
11893.156383	1550.125000	466.196289	739.237061
11893.156383	1550.125000	464.935547	796.502747
11893.156383	1550.125000	463.673828	858.028503
11893.156383	1550.125000	462.413086	726.902649
11893.156383	1550.125000	461.151367	794.835022
11893.156383	1550.125000	459.889648	877.707336
11893.156383	1550.125000	458.626953	981.916565
11893.156383	1550.125000	457.364258	1068.953369
11893.156383	1550.125000	456.101563	935.710205
11893.156383	1550.125000	454.838867	924.336548
11893.156383	1550.125000	453.575195	1094.580688
11893.156383	1550.125000	452.312500	989.083923
11893.156383	1550.125000	451.047852	930.571167
11893.156383	1550.125000	449.784180	1081.330933
11893.156383	1550.125000	448.519531	1131.599365
11893.156383	1550.125000	447.254883	1113.459961
11893.156383	1550.125000	445.990234	1216.904663
11893.156383	1550.125000	444.725586	1198.584351
11893.156383	1550.125000	443.459961	1180.170776
11893.156383	1550.125000	442.194336	1140.328125
11893.156383	1550.125000	440.927734	1277.380493
11893.156383	1550.125000	439.662109	1316.178223
11893.156383	1550.125000	438.395508	1548.792725
11893.156383	1550.125000	437.127930	1612.798706
11893.156383	1550.125000	435.861328	1625.488159
11893.156383	1550.125000	434.593750	1721.077515
11893.156383	1550.125000	433.326172	1929.322266
11893.156383	1550.125000	432.058594	1911.583618
11893.156383	1550.125000	430.790039	1878.743408
11893.156383	1550.125000	429.521484	1703.103271
11893.156383	1550.125000	428.252930	1595.401367
11893.156383	1550.125000	426.984375	1655.571533
11893.156383	1550.125000	425.714844	1819.675049
11893.156383	1550.125000	424.445313	1536.871826
11893.156383	1550.125000	423.174805	1645.092651
11893.156383	1550.125000	421.905273	1608.431763
11893.156383	1550.125000	420.634766	1382.330688
11893.156383	1550.125000	419.364258	1461.946411
11893.156383	1550.125000	418.092773	1679.244141
11893.156383	1550.125000	416.822266	1473.467651
11893.156383	1550.125000	415.550781	1422.388428
11893.156383	1550.125000	414.278320	1400.642090
11893.156383	1550.125000	413.006836	1361.514893
11893.156383	1550.125000	411.734375	1239.204590
11893.156383	1550.125000	410.461914	1233.168335
11893.156383	1550.125000	409.188477	1292.396973
11893.156383	1550.125000	407.916016	1249.325439
11893.156383	1550.125000	406.642578	1487.710205
11893.156383	1550.125000	405.368164	1276.085205
11893.156383	1550.125000	404.094727	1407.297485
11893.156383	1550.125000	402.820313	1429.802246
11893.156383	1550.125000	401.545898	1108.534790
11893.156383	1550.125000	400.270508	1288.666504
11893.156383	1550.125000	398.996094	1313.510132
11893.156383	1550.125000	397.720703	1183.114502
11893.156383	1550.125000	396.444336	1286.967896
11893.156383	1550.125000	395.168945	1358.310425
11893.156383	1550.125000	393.892578	1299.798950
11893.156383	1550.125000	392.616211	1168.607910
11893.156383	1550.125000	391.339844	1421.494263
11893.156383	1550.125000	390.062500	1385.887817
11893.156383	1550.125000	388.785156	1353.638672
11893.156383	1550.125000	387.507813	1026.759155
11893.156383	1550.125000	386.229492	1290.610474
11893.156383	1550.125000	384.951172	1445.641968
11893.156383	1550.125000	383.672852	1020.966614
11893.156383	1550.125000	382.394531	1040.915161
11893.156383	1550.125000	381.115234	1374.268066
11893.156383	1550.125000	379.835938	1364.471802
11893.156383	1550.125000	378.556641	1347.193726
11893.156383	1550.125000	377.277344	1193.724243
11893.156383	1550.125000	375.997070	1205.677002
11893.156383	1550.125000	374.716797	969.650574
11893.156383	1550.125000	373.435547	1046.494263
11893.156383	1550.125000	372.155273	997.628479
11893.156383	1550.125000	370.874023	823.036865
11893.156383	1550.125000	369.591797	1009.408630
11893.156383	1550.125000	368.310547	1122.632690
11893.156383	1550.125000	367.028320	971.023254
11893.156383	1550.125000	365.746094	984.227539
11893.156383	1550.125000	364.463867	1035.798462
11893.156383	1550.125000	363.180664	961.480408
11893.156383	1550.125000	361.897461	874.955444
11893.156383	1550.125000	360.614258	1026.500977
11893.156383	1550.125000	359.330078	713.447021
11893.156383	1550.125000	358.045898	787.637512
11893.156383	1550.125000	356.761719	1017.530151
11893.156383	1550.125000	355.477539	682.090515
11893.156383	1550.125000	354.192383	888.933289
11893.156383	1550.125000	352.907227	662.933899
11893.156383	1550.125000	351.622070	825.538757
11893.156383	1550.125000	350.336914	612.088806
11893.156383	1550.125000	349.050781	795.293091
11893.156383	1550.125000	347.764648	633.957092
11893.156383	1550.125000	346.477539	780.812256
11893.156383	1550.125000	345.191406	698.613647
11893.156383	1550.125000	343.904297	548.838684
11893.156383	1550.125000	342.616211	692.166626
11893.156383	1550.125000	341.329102	476.399231
11893.156383	1550.125000	340.041016	553.491455
11893.156383	1550.125000	338.752930	305.003693
11893.156383	1550.125000	337.463867	154.247528
11893.156383	1550.125000	336.175781	247.867935
11893.156383	1550.125000	334.886719	202.215408
11893.156383	1550.125000	333.596680	94.771133
11893.156383	1550.125000	332.307617	116.158112
11893.156383	1550.125000	331.017578	318.374603
11893.156383	1550.125000	329.727539	215.833969
11893.156383	1550.125000	328.436523	86.809143
11893.156383	1550.125000	327.146484	-83.231064
11893.156383	1550.125000	325.855469	-47.767776
11893.156383	1550.125000	324.563477	128.154678
11893.156383	1550.125000	323.272461	-75.924942
11893.156383	1550.125000	321.980469	-18.477816
11893.156383	1550.125000	320.688477	43.340343
11893.156383	1550.125000	319.395508	130.210785
11893.156383	1550.125000	318.103516	-137.855911
11893.156383	1550.125000	316.810547	128.529099
11893.156383	1550.125000	315.516602	31.277109
11893.156383	1550.125000	314.223633	-66.095398
11893.156383	1550.125000	312.929688	-201.489960
11893.156383	1550.125000	311.635742	-145.390961
11893.156383	1550.125000	310.340820	153.975891
11893.156383	1550.125000	309.045898	0.002226
11893.156383	1550.125000	307.750977	-429.919739
11893.156383	1550.125000	306.456055	-176.936676
11893.156383	1550.125000	305.160156	-12.785386
11893.156383	1550.125000	303.865234	87.764938
11893.156383	1550.125000	302.568359	-175.761749
11893.156383	1550.125000	301.272461	305.094238
11893.156383	1550.125000	299.975586	475.893463
11893.156383	1550.125000	298.678711	490.907257
