#X		#Y		#Wave		#Intensity
12594.501064	1321.580000	1999.980469	63.704300
12594.501064	1321.580000	1999.016602	-75.271042
12594.501064	1321.580000	1998.052734	-76.892723
12594.501064	1321.580000	1997.087891	8.141719
12594.501064	1321.580000	1996.123047	13.784170
12594.501064	1321.580000	1995.158203	125.871010
12594.501064	1321.580000	1994.193359	24.846474
12594.501064	1321.580000	1993.228516	-61.350163
12594.501064	1321.580000	1992.262695	77.720604
12594.501064	1321.580000	1991.297852	-100.168724
12594.501064	1321.580000	1990.332031	18.936607
12594.501064	1321.580000	1989.366211	100.824463
12594.501064	1321.580000	1988.399414	-166.206757
12594.501064	1321.580000	1987.433594	-89.369156
12594.501064	1321.580000	1986.466797	190.181931
12594.501064	1321.580000	1985.500977	130.833603
12594.501064	1321.580000	1984.534180	2.240290
12594.501064	1321.580000	1983.567383	19.481833
12594.501064	1321.580000	1982.599609	-2.865161
12594.501064	1321.580000	1981.632813	155.125107
12594.501064	1321.580000	1980.665039	107.981506
12594.501064	1321.580000	1979.697266	-79.962715
12594.501064	1321.580000	1978.729492	-99.950302
12594.501064	1321.580000	1977.761719	-21.204493
12594.501064	1321.580000	1976.792969	-98.033958
12594.501064	1321.580000	1975.825195	101.557999
12594.501064	1321.580000	1974.856445	61.693317
12594.501064	1321.580000	1973.887695	36.621140
12594.501064	1321.580000	1972.918945	-35.331242
12594.501064	1321.580000	1971.949219	30.827440
12594.501064	1321.580000	1970.980469	57.490368
12594.501064	1321.580000	1970.010742	5.234591
12594.501064	1321.580000	1969.041016	9.671936
12594.501064	1321.580000	1968.071289	-104.198166
12594.501064	1321.580000	1967.101563	141.690567
12594.501064	1321.580000	1966.130859	89.395439
12594.501064	1321.580000	1965.161133	7.553231
12594.501064	1321.580000	1964.190430	127.656570
12594.501064	1321.580000	1963.219727	-3.426040
12594.501064	1321.580000	1962.249023	-53.234974
12594.501064	1321.580000	1961.277344	-51.349880
12594.501064	1321.580000	1960.306641	-7.638492
12594.501064	1321.580000	1959.334961	92.635201
12594.501064	1321.580000	1958.363281	121.533394
12594.501064	1321.580000	1957.391602	147.958405
12594.501064	1321.580000	1956.419922	159.617188
12594.501064	1321.580000	1955.447266	-13.112621
12594.501064	1321.580000	1954.474609	-114.498543
12594.501064	1321.580000	1953.501953	-11.873758
12594.501064	1321.580000	1952.529297	71.056938
12594.501064	1321.580000	1951.556641	-150.658356
12594.501064	1321.580000	1950.583984	-84.921768
12594.501064	1321.580000	1949.610352	34.816032
12594.501064	1321.580000	1948.636719	166.789749
12594.501064	1321.580000	1947.663086	77.789063
12594.501064	1321.580000	1946.689453	-47.988190
12594.501064	1321.580000	1945.715820	12.779351
12594.501064	1321.580000	1944.741211	-98.209213
12594.501064	1321.580000	1943.767578	63.126987
12594.501064	1321.580000	1942.792969	123.856979
12594.501064	1321.580000	1941.818359	125.723053
12594.501064	1321.580000	1940.842773	-151.884369
12594.501064	1321.580000	1939.868164	9.369797
12594.501064	1321.580000	1938.892578	28.432972
12594.501064	1321.580000	1937.916992	-126.466377
12594.501064	1321.580000	1936.941406	-131.865051
12594.501064	1321.580000	1935.965820	-24.585529
12594.501064	1321.580000	1934.990234	-49.572372
12594.501064	1321.580000	1934.013672	143.362595
12594.501064	1321.580000	1933.037109	40.038498
12594.501064	1321.580000	1932.060547	27.318806
12594.501064	1321.580000	1931.083984	43.978096
12594.501064	1321.580000	1930.107422	43.516026
12594.501064	1321.580000	1929.129883	-22.980843
12594.501064	1321.580000	1928.153320	111.100861
12594.501064	1321.580000	1927.175781	122.883316
12594.501064	1321.580000	1926.198242	-14.455683
12594.501064	1321.580000	1925.219727	34.030251
12594.501064	1321.580000	1924.242188	136.274139
12594.501064	1321.580000	1923.263672	-189.097916
12594.501064	1321.580000	1922.285156	-96.601105
12594.501064	1321.580000	1921.306641	115.551636
12594.501064	1321.580000	1920.328125	-92.385834
12594.501064	1321.580000	1919.349609	136.799301
12594.501064	1321.580000	1918.370117	58.332714
12594.501064	1321.580000	1917.391602	-22.533066
12594.501064	1321.580000	1916.412109	104.055183
12594.501064	1321.580000	1915.431641	86.661812
12594.501064	1321.580000	1914.452148	157.099823
12594.501064	1321.580000	1913.472656	173.868713
12594.501064	1321.580000	1912.492188	7.763464
12594.501064	1321.580000	1911.511719	-109.512215
12594.501064	1321.580000	1910.531250	134.006821
12594.501064	1321.580000	1909.550781	60.636253
12594.501064	1321.580000	1908.569336	57.960598
12594.501064	1321.580000	1907.588867	57.732048
12594.501064	1321.580000	1906.607422	-176.307922
12594.501064	1321.580000	1905.625977	57.298660
12594.501064	1321.580000	1904.644531	-79.248764
12594.501064	1321.580000	1903.662109	3.344247
12594.501064	1321.580000	1902.680664	-72.282074
12594.501064	1321.580000	1901.698242	-74.873032
12594.501064	1321.580000	1900.715820	-53.127487
12594.501064	1321.580000	1899.733398	-19.221062
12594.501064	1321.580000	1898.750000	12.245664
12594.501064	1321.580000	1897.767578	109.359573
12594.501064	1321.580000	1896.784180	199.147842
12594.501064	1321.580000	1895.800781	-0.334569
12594.501064	1321.580000	1894.817383	-68.509407
12594.501064	1321.580000	1893.833984	30.996002
12594.501064	1321.580000	1892.850586	35.727161
12594.501064	1321.580000	1891.866211	-17.831566
12594.501064	1321.580000	1890.881836	-93.221962
12594.501064	1321.580000	1889.897461	-100.600189
12594.501064	1321.580000	1888.913086	-30.294798
12594.501064	1321.580000	1887.927734	-154.173477
12594.501064	1321.580000	1886.943359	54.431019
12594.501064	1321.580000	1885.958008	37.333500
12594.501064	1321.580000	1884.972656	83.309021
12594.501064	1321.580000	1883.987305	-6.541294
12594.501064	1321.580000	1883.001953	-103.631958
12594.501064	1321.580000	1882.015625	-38.262329
12594.501064	1321.580000	1881.029297	-94.108559
12594.501064	1321.580000	1880.042969	-67.541222
12594.501064	1321.580000	1879.056641	9.894792
12594.501064	1321.580000	1878.070313	19.471476
12594.501064	1321.580000	1877.083984	94.435432
12594.501064	1321.580000	1876.096680	-21.933628
12594.501064	1321.580000	1875.109375	-70.473007
12594.501064	1321.580000	1874.122070	18.977468
12594.501064	1321.580000	1873.134766	-41.660809
12594.501064	1321.580000	1872.146484	-44.209721
12594.501064	1321.580000	1871.159180	-32.246181
12594.501064	1321.580000	1870.170898	224.005447
12594.501064	1321.580000	1869.182617	-25.282335
12594.501064	1321.580000	1868.194336	73.694656
12594.501064	1321.580000	1867.205078	172.625244
12594.501064	1321.580000	1866.216797	3.226016
12594.501064	1321.580000	1865.227539	-30.793356
12594.501064	1321.580000	1864.238281	-171.116821
12594.501064	1321.580000	1863.249023	-11.858624
12594.501064	1321.580000	1862.259766	-9.656965
12594.501064	1321.580000	1861.269531	142.245285
12594.501064	1321.580000	1860.279297	59.894691
12594.501064	1321.580000	1859.290039	8.944304
12594.501064	1321.580000	1858.298828	-63.721283
12594.501064	1321.580000	1857.308594	213.501617
12594.501064	1321.580000	1856.318359	0.877427
12594.501064	1321.580000	1855.327148	-45.253288
12594.501064	1321.580000	1854.335938	-79.322411
12594.501064	1321.580000	1853.344727	65.027969
12594.501064	1321.580000	1852.353516	71.902351
12594.501064	1321.580000	1851.362305	69.117638
12594.501064	1321.580000	1850.370117	68.726250
12594.501064	1321.580000	1849.377930	85.184052
12594.501064	1321.580000	1848.385742	70.303574
12594.501064	1321.580000	1847.393555	2.426623
12594.501064	1321.580000	1846.401367	107.928711
12594.501064	1321.580000	1845.408203	61.699577
12594.501064	1321.580000	1844.415039	-1.379996
12594.501064	1321.580000	1843.421875	34.214432
12594.501064	1321.580000	1842.428711	113.085915
12594.501064	1321.580000	1841.435547	268.888306
12594.501064	1321.580000	1840.441406	-63.648407
12594.501064	1321.580000	1839.448242	-309.508514
12594.501064	1321.580000	1838.454102	36.160946
12594.501064	1321.580000	1837.459961	57.157944
12594.501064	1321.580000	1836.464844	155.031235
12594.501064	1321.580000	1835.470703	-97.984558
12594.501064	1321.580000	1834.475586	64.701706
12594.501064	1321.580000	1833.480469	-29.715479
12594.501064	1321.580000	1832.485352	204.896286
12594.501064	1321.580000	1831.490234	-2.414575
12594.501064	1321.580000	1830.495117	92.813911
12594.501064	1321.580000	1829.499023	-64.045868
12594.501064	1321.580000	1828.502930	40.704140
12594.501064	1321.580000	1827.506836	-51.357357
12594.501064	1321.580000	1826.510742	91.679405
12594.501064	1321.580000	1825.513672	155.484573
12594.501064	1321.580000	1824.517578	77.759636
12594.501064	1321.580000	1823.520508	38.394573
12594.501064	1321.580000	1822.523438	25.383039
12594.501064	1321.580000	1821.526367	206.474182
12594.501064	1321.580000	1820.529297	92.738914
12594.501064	1321.580000	1819.531250	41.303802
12594.501064	1321.580000	1818.533203	44.948757
12594.501064	1321.580000	1817.535156	216.198822
12594.501064	1321.580000	1816.537109	104.818794
12594.501064	1321.580000	1815.539063	273.537354
12594.501064	1321.580000	1814.540039	152.550247
12594.501064	1321.580000	1813.541992	167.980576
12594.501064	1321.580000	1812.542969	106.808563
12594.501064	1321.580000	1811.543945	81.509186
12594.501064	1321.580000	1810.543945	221.207809
12594.501064	1321.580000	1809.544922	107.355896
12594.501064	1321.580000	1808.544922	89.140984
12594.501064	1321.580000	1807.544922	3.971289
12594.501064	1321.580000	1806.544922	14.392930
12594.501064	1321.580000	1805.544922	12.829459
12594.501064	1321.580000	1804.544922	44.677094
12594.501064	1321.580000	1803.543945	-7.121599
12594.501064	1321.580000	1802.542969	129.718750
12594.501064	1321.580000	1801.541992	163.805313
12594.501064	1321.580000	1800.541016	49.841476
12594.501064	1321.580000	1799.539063	129.203278
12594.501064	1321.580000	1798.538086	-49.211231
12594.501064	1321.580000	1797.536133	-72.522293
12594.501064	1321.580000	1796.534180	99.735390
12594.501064	1321.580000	1795.532227	102.565025
12594.501064	1321.580000	1794.529297	107.738037
12594.501064	1321.580000	1793.527344	258.296417
12594.501064	1321.580000	1792.524414	165.638611
12594.501064	1321.580000	1791.521484	182.598816
12594.501064	1321.580000	1790.518555	13.670496
12594.501064	1321.580000	1789.514648	37.720634
12594.501064	1321.580000	1788.511719	173.666107
12594.501064	1321.580000	1787.507813	204.743454
12594.501064	1321.580000	1786.503906	47.685497
12594.501064	1321.580000	1785.500000	64.414932
12594.501064	1321.580000	1784.496094	81.098625
12594.501064	1321.580000	1783.491211	100.112656
12594.501064	1321.580000	1782.486328	59.605038
12594.501064	1321.580000	1781.481445	-11.847677
12594.501064	1321.580000	1780.476563	68.885269
12594.501064	1321.580000	1779.471680	125.771057
12594.501064	1321.580000	1778.465820	-19.470140
12594.501064	1321.580000	1777.460938	-119.534332
12594.501064	1321.580000	1776.455078	58.422691
12594.501064	1321.580000	1775.449219	117.478943
12594.501064	1321.580000	1774.442383	-151.335480
12594.501064	1321.580000	1773.436523	-170.715271
12594.501064	1321.580000	1772.429688	66.313393
12594.501064	1321.580000	1771.422852	144.150467
12594.501064	1321.580000	1770.416016	-41.551739
12594.501064	1321.580000	1769.409180	-46.865021
12594.501064	1321.580000	1768.402344	-128.143402
12594.501064	1321.580000	1767.394531	-24.400473
12594.501064	1321.580000	1766.386719	95.864082
12594.501064	1321.580000	1765.378906	66.648293
12594.501064	1321.580000	1764.371094	-12.386699
12594.501064	1321.580000	1763.362305	-20.322939
12594.501064	1321.580000	1762.354492	-18.813215
12594.501064	1321.580000	1761.345703	-57.631039
12594.501064	1321.580000	1760.336914	-72.784645
12594.501064	1321.580000	1759.328125	-12.176830
12594.501064	1321.580000	1758.318359	10.471538
12594.501064	1321.580000	1757.308594	-75.845207
12594.501064	1321.580000	1756.299805	-31.965080
12594.501064	1321.580000	1755.290039	123.094337
12594.501064	1321.580000	1754.279297	8.282227
12594.501064	1321.580000	1753.269531	-23.715569
12594.501064	1321.580000	1752.258789	-155.095535
12594.501064	1321.580000	1751.249023	-49.959766
12594.501064	1321.580000	1750.238281	159.133316
12594.501064	1321.580000	1749.226563	-118.909088
12594.501064	1321.580000	1748.215820	68.762856
12594.501064	1321.580000	1747.204102	-1.272782
12594.501064	1321.580000	1746.193359	79.899902
12594.501064	1321.580000	1745.181641	-13.815473
12594.501064	1321.580000	1744.168945	-1.254811
12594.501064	1321.580000	1743.157227	-229.599625
12594.501064	1321.580000	1742.144531	-224.165756
12594.501064	1321.580000	1741.132813	-65.334236
12594.501064	1321.580000	1740.120117	114.633171
12594.501064	1321.580000	1739.106445	-78.333778
12594.501064	1321.580000	1738.093750	-58.935265
12594.501064	1321.580000	1737.080078	-263.666626
12594.501064	1321.580000	1736.067383	95.273605
12594.501064	1321.580000	1735.053711	62.633595
12594.501064	1321.580000	1734.040039	-52.539570
12594.501064	1321.580000	1733.025391	-217.208237
12594.501064	1321.580000	1732.011719	-14.237138
12594.501064	1321.580000	1730.997070	-94.109322
12594.501064	1321.580000	1729.982422	-96.255066
12594.501064	1321.580000	1728.967773	-154.960281
12594.501064	1321.580000	1727.952148	-95.952568
12594.501064	1321.580000	1726.937500	19.502293
12594.501064	1321.580000	1725.921875	14.828700
12594.501064	1321.580000	1724.906250	61.892456
12594.501064	1321.580000	1723.890625	-93.444359
12594.501064	1321.580000	1722.875000	-53.507660
12594.501064	1321.580000	1721.858398	-77.130692
12594.501064	1321.580000	1720.841797	-23.180407
12594.501064	1321.580000	1719.825195	-44.520290
12594.501064	1321.580000	1718.808594	103.356773
12594.501064	1321.580000	1717.791992	74.880287
12594.501064	1321.580000	1716.774414	36.974674
12594.501064	1321.580000	1715.756836	20.193579
12594.501064	1321.580000	1714.739258	-62.383095
12594.501064	1321.580000	1713.721680	-206.019684
12594.501064	1321.580000	1712.704102	23.685484
12594.501064	1321.580000	1711.685547	-51.908699
12594.501064	1321.580000	1710.667969	95.466789
12594.501064	1321.580000	1709.649414	73.793037
12594.501064	1321.580000	1708.630859	-114.478607
12594.501064	1321.580000	1707.611328	213.331924
12594.501064	1321.580000	1706.592773	27.386992
12594.501064	1321.580000	1705.573242	-90.525902
12594.501064	1321.580000	1704.553711	103.370895
12594.501064	1321.580000	1703.534180	-84.889038
12594.501064	1321.580000	1702.513672	-97.356224
12594.501064	1321.580000	1701.494141	-102.813332
12594.501064	1321.580000	1700.473633	4.136288
12594.501064	1321.580000	1699.453125	-36.535221
12594.501064	1321.580000	1698.432617	-86.586266
12594.501064	1321.580000	1697.412109	88.106590
12594.501064	1321.580000	1696.390625	37.987831
12594.501064	1321.580000	1695.369141	132.957458
12594.501064	1321.580000	1694.347656	-55.255627
12594.501064	1321.580000	1693.326172	72.391960
12594.501064	1321.580000	1692.304688	-17.556412
12594.501064	1321.580000	1691.282227	-37.347755
12594.501064	1321.580000	1690.260742	8.312970
12594.501064	1321.580000	1689.238281	-30.228844
12594.501064	1321.580000	1688.214844	48.070129
12594.501064	1321.580000	1687.192383	173.052917
12594.501064	1321.580000	1686.168945	40.973015
12594.501064	1321.580000	1685.146484	102.794624
12594.501064	1321.580000	1684.123047	78.156891
12594.501064	1321.580000	1683.099609	268.313660
12594.501064	1321.580000	1682.075195	203.915192
12594.501064	1321.580000	1681.051758	83.509880
12594.501064	1321.580000	1680.027344	149.806076
12594.501064	1321.580000	1679.002930	97.067444
12594.501064	1321.580000	1677.978516	214.609863
12594.501064	1321.580000	1676.953125	80.204674
12594.501064	1321.580000	1675.928711	60.093777
12594.501064	1321.580000	1674.903320	203.153336
12594.501064	1321.580000	1673.877930	66.438133
12594.501064	1321.580000	1672.852539	181.438889
12594.501064	1321.580000	1671.826172	342.968842
12594.501064	1321.580000	1670.800781	178.297424
12594.501064	1321.580000	1669.774414	134.776230
12594.501064	1321.580000	1668.748047	95.911339
12594.501064	1321.580000	1667.721680	199.061600
12594.501064	1321.580000	1666.694336	190.420120
12594.501064	1321.580000	1665.667969	216.682236
12594.501064	1321.580000	1664.640625	201.029510
12594.501064	1321.580000	1663.613281	141.168289
12594.501064	1321.580000	1662.585938	-67.540596
12594.501064	1321.580000	1661.557617	119.135925
12594.501064	1321.580000	1660.530273	215.059341
12594.501064	1321.580000	1659.501953	143.558594
12594.501064	1321.580000	1658.473633	195.251190
12594.501064	1321.580000	1657.444336	307.319427
12594.501064	1321.580000	1656.416016	396.108246
12594.501064	1321.580000	1655.386719	245.602753
12594.501064	1321.580000	1654.358398	278.613800
12594.501064	1321.580000	1653.328125	153.702744
12594.501064	1321.580000	1652.298828	263.298492
12594.501064	1321.580000	1651.269531	29.343025
12594.501064	1321.580000	1650.239258	266.525452
12594.501064	1321.580000	1649.208984	253.041504
12594.501064	1321.580000	1648.178711	239.556702
12594.501064	1321.580000	1647.148438	214.473923
12594.501064	1321.580000	1646.117188	235.763458
12594.501064	1321.580000	1645.086914	326.592682
12594.501064	1321.580000	1644.055664	405.785492
12594.501064	1321.580000	1643.024414	255.524948
12594.501064	1321.580000	1641.992188	292.980560
12594.501064	1321.580000	1640.960938	390.653717
12594.501064	1321.580000	1639.928711	319.210083
12594.501064	1321.580000	1638.896484	345.045624
12594.501064	1321.580000	1637.864258	301.415771
12594.501064	1321.580000	1636.832031	401.310242
12594.501064	1321.580000	1635.798828	526.614441
12594.501064	1321.580000	1634.766602	508.422455
12594.501064	1321.580000	1633.733398	508.737915
12594.501064	1321.580000	1632.699219	520.611145
12594.501064	1321.580000	1631.666016	398.366699
12594.501064	1321.580000	1630.632813	537.425110
12594.501064	1321.580000	1629.598633	514.618103
12594.501064	1321.580000	1628.564453	558.843506
12594.501064	1321.580000	1627.530273	806.389893
12594.501064	1321.580000	1626.495117	638.005066
12594.501064	1321.580000	1625.460938	398.094543
12594.501064	1321.580000	1624.425781	620.131714
12594.501064	1321.580000	1623.390625	440.351379
12594.501064	1321.580000	1622.355469	549.194519
12594.501064	1321.580000	1621.319336	507.979126
12594.501064	1321.580000	1620.284180	482.945648
12594.501064	1321.580000	1619.248047	483.300079
12594.501064	1321.580000	1618.211914	608.217529
12594.501064	1321.580000	1617.174805	608.557068
12594.501064	1321.580000	1616.138672	668.859924
12594.501064	1321.580000	1615.101563	696.868225
12594.501064	1321.580000	1614.065430	761.758667
12594.501064	1321.580000	1613.027344	1031.708496
12594.501064	1321.580000	1611.990234	856.918396
12594.501064	1321.580000	1610.953125	954.015320
12594.501064	1321.580000	1609.915039	993.503845
12594.501064	1321.580000	1608.876953	993.847229
12594.501064	1321.580000	1607.838867	858.378845
12594.501064	1321.580000	1606.800781	941.633423
12594.501064	1321.580000	1605.761719	921.309082
12594.501064	1321.580000	1604.723633	744.562927
12594.501064	1321.580000	1603.684570	618.500549
12594.501064	1321.580000	1602.644531	812.177368
12594.501064	1321.580000	1601.605469	713.775513
12594.501064	1321.580000	1600.566406	820.036133
12594.501064	1321.580000	1599.526367	900.982788
12594.501064	1321.580000	1598.486328	811.858582
12594.501064	1321.580000	1597.446289	764.143494
12594.501064	1321.580000	1596.405273	597.007507
12594.501064	1321.580000	1595.365234	868.635681
12594.501064	1321.580000	1594.324219	616.621277
12594.501064	1321.580000	1593.283203	704.507263
12594.501064	1321.580000	1592.242188	718.926941
12594.501064	1321.580000	1591.200195	797.613831
12594.501064	1321.580000	1590.159180	612.433350
12594.501064	1321.580000	1589.117188	661.331665
12594.501064	1321.580000	1588.075195	646.013672
12594.501064	1321.580000	1587.032227	614.667053
12594.501064	1321.580000	1585.990234	546.678528
12594.501064	1321.580000	1584.947266	804.231689
12594.501064	1321.580000	1583.904297	701.898621
12594.501064	1321.580000	1582.861328	501.103516
12594.501064	1321.580000	1581.818359	689.863464
12594.501064	1321.580000	1580.775391	642.660339
12594.501064	1321.580000	1579.731445	641.295410
12594.501064	1321.580000	1578.687500	456.794495
12594.501064	1321.580000	1577.643555	480.701111
12594.501064	1321.580000	1576.598633	719.752991
12594.501064	1321.580000	1575.554688	677.296265
12594.501064	1321.580000	1574.509766	385.515991
12594.501064	1321.580000	1573.464844	569.637268
12594.501064	1321.580000	1572.419922	525.030518
12594.501064	1321.580000	1571.374023	487.324432
12594.501064	1321.580000	1570.329102	621.116638
12594.501064	1321.580000	1569.283203	348.062347
12594.501064	1321.580000	1568.237305	609.849182
12594.501064	1321.580000	1567.191406	558.573364
12594.501064	1321.580000	1566.144531	696.930969
12594.501064	1321.580000	1565.098633	769.043701
12594.501064	1321.580000	1564.051758	651.646240
12594.501064	1321.580000	1563.004883	721.518860
12594.501064	1321.580000	1561.957031	679.555969
12594.501064	1321.580000	1560.910156	692.416199
12594.501064	1321.580000	1559.862305	506.812927
12594.501064	1321.580000	1558.814453	608.727478
12594.501064	1321.580000	1557.766602	617.132874
12594.501064	1321.580000	1556.718750	579.969910
12594.501064	1321.580000	1555.669922	574.767151
12594.501064	1321.580000	1554.621094	585.559326
12594.501064	1321.580000	1553.573242	639.685974
12594.501064	1321.580000	1552.523438	671.035522
12594.501064	1321.580000	1551.474609	597.633301
12594.501064	1321.580000	1550.424805	522.016602
12594.501064	1321.580000	1549.375000	526.162415
12594.501064	1321.580000	1548.325195	557.664856
12594.501064	1321.580000	1547.275391	413.936401
12594.501064	1321.580000	1546.225586	527.451050
12594.501064	1321.580000	1545.174805	458.941681
12594.501064	1321.580000	1544.124023	488.314850
12594.501064	1321.580000	1543.073242	558.653870
12594.501064	1321.580000	1542.022461	335.680786
12594.501064	1321.580000	1540.970703	472.030945
12594.501064	1321.580000	1539.919922	321.981506
12594.501064	1321.580000	1538.868164	326.559784
12594.501064	1321.580000	1537.815430	324.358948
12594.501064	1321.580000	1536.763672	515.293640
12594.501064	1321.580000	1535.710938	290.569061
12594.501064	1321.580000	1534.659180	281.700226
12594.501064	1321.580000	1533.606445	313.739288
12594.501064	1321.580000	1532.552734	239.125092
12594.501064	1321.580000	1531.500000	464.146759
12594.501064	1321.580000	1530.446289	459.959259
12594.501064	1321.580000	1529.393555	346.936432
12594.501064	1321.580000	1528.338867	372.345490
12594.501064	1321.580000	1527.285156	112.080940
12594.501064	1321.580000	1526.231445	119.486572
12594.501064	1321.580000	1525.176758	101.999138
12594.501064	1321.580000	1524.122070	46.039936
12594.501064	1321.580000	1523.067383	-30.242353
12594.501064	1321.580000	1522.012695	-2.240044
12594.501064	1321.580000	1520.957031	243.224030
12594.501064	1321.580000	1519.901367	-63.884144
12594.501064	1321.580000	1518.845703	222.344864
12594.501064	1321.580000	1517.790039	30.901539
12594.501064	1321.580000	1516.734375	269.571259
12594.501064	1321.580000	1515.677734	91.865364
12594.501064	1321.580000	1514.621094	-2.018919
12594.501064	1321.580000	1513.564453	94.170563
12594.501064	1321.580000	1512.507813	-126.209526
12594.501064	1321.580000	1511.450195	-77.413269
12594.501064	1321.580000	1510.393555	127.385559
12594.501064	1321.580000	1509.335938	18.016506
12594.501064	1321.580000	1508.278320	82.725281
12594.501064	1321.580000	1507.219727	48.057774
12594.501064	1321.580000	1506.162109	-169.489304
12594.501064	1321.580000	1505.103516	46.666927
12594.501064	1321.580000	1504.044922	-55.548382
12594.501064	1321.580000	1502.986328	-69.637978
12594.501064	1321.580000	1501.926758	128.470642
12594.501064	1321.580000	1500.868164	-32.208778
12594.501064	1321.580000	1499.808594	-82.233505
12594.501064	1321.580000	1498.749023	-71.287041
12594.501064	1321.580000	1497.688477	-112.159019
12594.501064	1321.580000	1496.628906	88.281105
12594.501064	1321.580000	1495.568359	-96.763817
12594.501064	1321.580000	1494.507813	-119.416946
12594.501064	1321.580000	1493.447266	-76.661545
12594.501064	1321.580000	1492.386719	-103.705513
12594.501064	1321.580000	1491.325195	-193.753220
12594.501064	1321.580000	1490.263672	13.541676
12594.501064	1321.580000	1489.202148	-101.149834
12594.501064	1321.580000	1488.140625	61.133305
12594.501064	1321.580000	1487.079102	-53.411537
12594.501064	1321.580000	1486.016602	-116.105690
12594.501064	1321.580000	1484.954102	84.491615
12594.501064	1321.580000	1483.891602	48.897068
12594.501064	1321.580000	1482.829102	-117.055252
12594.501064	1321.580000	1481.765625	99.325226
12594.501064	1321.580000	1480.702148	72.902878
12594.501064	1321.580000	1479.638672	107.241257
12594.501064	1321.580000	1478.575195	128.120697
12594.501064	1321.580000	1477.511719	110.880127
12594.501064	1321.580000	1476.447266	109.415443
12594.501064	1321.580000	1475.382813	-24.437574
12594.501064	1321.580000	1474.318359	-25.749201
12594.501064	1321.580000	1473.253906	58.327286
12594.501064	1321.580000	1472.189453	77.275330
12594.501064	1321.580000	1471.124023	226.319199
12594.501064	1321.580000	1470.058594	166.969162
12594.501064	1321.580000	1468.993164	210.794601
12594.501064	1321.580000	1467.927734	70.656837
12594.501064	1321.580000	1466.861328	204.654388
12594.501064	1321.580000	1465.794922	241.786530
12594.501064	1321.580000	1464.728516	267.774994
12594.501064	1321.580000	1463.662109	278.474213
12594.501064	1321.580000	1462.594727	389.397949
12594.501064	1321.580000	1461.528320	368.474854
12594.501064	1321.580000	1460.460938	339.327148
12594.501064	1321.580000	1459.393555	287.538727
12594.501064	1321.580000	1458.326172	203.733612
12594.501064	1321.580000	1457.257813	241.140625
12594.501064	1321.580000	1456.189453	109.000710
12594.501064	1321.580000	1455.121094	332.061890
12594.501064	1321.580000	1454.052734	372.735260
12594.501064	1321.580000	1452.984375	407.557892
12594.501064	1321.580000	1451.915039	462.914124
12594.501064	1321.580000	1450.845703	155.254578
12594.501064	1321.580000	1449.776367	354.263794
12594.501064	1321.580000	1448.707031	336.449463
12594.501064	1321.580000	1447.636719	338.087799
12594.501064	1321.580000	1446.567383	398.689819
12594.501064	1321.580000	1445.497070	387.890930
12594.501064	1321.580000	1444.425781	293.649200
12594.501064	1321.580000	1443.355469	394.050568
12594.501064	1321.580000	1442.285156	336.431793
12594.501064	1321.580000	1441.213867	302.050751
12594.501064	1321.580000	1440.142578	395.523529
12594.501064	1321.580000	1439.070313	320.085602
12594.501064	1321.580000	1437.999023	273.699341
12594.501064	1321.580000	1436.926758	323.940369
12594.501064	1321.580000	1435.854492	377.169678
12594.501064	1321.580000	1434.782227	232.977921
12594.501064	1321.580000	1433.709961	228.832794
12594.501064	1321.580000	1432.636719	244.125336
12594.501064	1321.580000	1431.563477	355.127441
12594.501064	1321.580000	1430.490234	118.800896
12594.501064	1321.580000	1429.416992	221.999069
12594.501064	1321.580000	1428.343750	223.982544
12594.501064	1321.580000	1427.269531	77.111404
12594.501064	1321.580000	1426.195313	18.162115
12594.501064	1321.580000	1425.121094	-141.121338
12594.501064	1321.580000	1424.046875	-57.202007
12594.501064	1321.580000	1422.971680	-52.459873
12594.501064	1321.580000	1421.896484	15.994592
12594.501064	1321.580000	1420.821289	162.117279
12594.501064	1321.580000	1419.746094	89.379692
12594.501064	1321.580000	1418.669922	157.243820
12594.501064	1321.580000	1417.594727	138.828186
12594.501064	1321.580000	1416.518555	338.169281
12594.501064	1321.580000	1415.442383	209.660202
12594.501064	1321.580000	1414.365234	200.592255
12594.501064	1321.580000	1413.289063	88.288605
12594.501064	1321.580000	1412.211914	69.631836
12594.501064	1321.580000	1411.134766	161.347855
12594.501064	1321.580000	1410.057617	198.757751
12594.501064	1321.580000	1408.979492	-198.205383
12594.501064	1321.580000	1407.902344	195.615112
12594.501064	1321.580000	1406.824219	273.020264
12594.501064	1321.580000	1405.746094	192.992554
12594.501064	1321.580000	1404.666992	157.169373
12594.501064	1321.580000	1403.588867	252.840729
12594.501064	1321.580000	1402.509766	231.360779
12594.501064	1321.580000	1401.430664	256.673706
12594.501064	1321.580000	1400.351563	242.601563
12594.501064	1321.580000	1399.271484	227.398132
12594.501064	1321.580000	1398.192383	203.288498
12594.501064	1321.580000	1397.112305	280.708344
12594.501064	1321.580000	1396.031250	334.701477
12594.501064	1321.580000	1394.951172	337.484894
12594.501064	1321.580000	1393.871094	427.386688
12594.501064	1321.580000	1392.790039	207.208786
12594.501064	1321.580000	1391.708984	311.714294
12594.501064	1321.580000	1390.626953	448.977661
12594.501064	1321.580000	1389.545898	248.877502
12594.501064	1321.580000	1388.463867	288.086517
12594.501064	1321.580000	1387.381836	325.593140
12594.501064	1321.580000	1386.299805	361.989899
12594.501064	1321.580000	1385.217773	285.227661
12594.501064	1321.580000	1384.134766	243.710266
12594.501064	1321.580000	1383.051758	221.166214
12594.501064	1321.580000	1381.968750	181.425293
12594.501064	1321.580000	1380.885742	398.531128
12594.501064	1321.580000	1379.802734	435.350647
12594.501064	1321.580000	1378.718750	316.081818
12594.501064	1321.580000	1377.634766	316.182373
12594.501064	1321.580000	1376.550781	382.582703
12594.501064	1321.580000	1375.465820	301.222107
12594.501064	1321.580000	1374.381836	377.789429
12594.501064	1321.580000	1373.296875	235.984955
12594.501064	1321.580000	1372.211914	210.587463
12594.501064	1321.580000	1371.126953	551.615234
12594.501064	1321.580000	1370.041016	520.493042
12594.501064	1321.580000	1368.955078	381.791656
12594.501064	1321.580000	1367.869141	432.957977
12594.501064	1321.580000	1366.783203	358.826660
12594.501064	1321.580000	1365.697266	606.107300
12594.501064	1321.580000	1364.610352	447.518890
12594.501064	1321.580000	1363.523438	518.060608
12594.501064	1321.580000	1362.436523	549.956787
12594.501064	1321.580000	1361.349609	549.925781
12594.501064	1321.580000	1360.261719	346.354645
12594.501064	1321.580000	1359.174805	572.541565
12594.501064	1321.580000	1358.086914	522.551025
12594.501064	1321.580000	1356.998047	501.155273
12594.501064	1321.580000	1355.910156	492.875824
12594.501064	1321.580000	1354.821289	450.876129
12594.501064	1321.580000	1353.732422	485.090515
12594.501064	1321.580000	1352.643555	370.043060
12594.501064	1321.580000	1351.554688	496.323242
12594.501064	1321.580000	1350.464844	415.464966
12594.501064	1321.580000	1349.375000	446.081146
12594.501064	1321.580000	1348.285156	532.082520
12594.501064	1321.580000	1347.195313	431.261780
12594.501064	1321.580000	1346.105469	490.933899
12594.501064	1321.580000	1345.014648	412.548981
12594.501064	1321.580000	1343.923828	356.253967
12594.501064	1321.580000	1342.833008	425.052368
12594.501064	1321.580000	1341.741211	503.616974
12594.501064	1321.580000	1340.650391	442.052307
12594.501064	1321.580000	1339.558594	451.962128
12594.501064	1321.580000	1338.466797	328.034302
12594.501064	1321.580000	1337.374023	369.382111
12594.501064	1321.580000	1336.282227	449.280670
12594.501064	1321.580000	1335.189453	204.633896
12594.501064	1321.580000	1334.096680	393.500488
12594.501064	1321.580000	1333.003906	326.065643
12594.501064	1321.580000	1331.910156	494.638153
12594.501064	1321.580000	1330.817383	263.553375
12594.501064	1321.580000	1329.723633	386.352203
12594.501064	1321.580000	1328.629883	356.224060
12594.501064	1321.580000	1327.535156	498.889984
12594.501064	1321.580000	1326.441406	408.405792
12594.501064	1321.580000	1325.346680	385.842896
12594.501064	1321.580000	1324.251953	358.031219
12594.501064	1321.580000	1323.156250	370.081543
12594.501064	1321.580000	1322.061523	353.177399
12594.501064	1321.580000	1320.965820	289.747803
12594.501064	1321.580000	1319.870117	231.304245
12594.501064	1321.580000	1318.774414	226.415665
12594.501064	1321.580000	1317.678711	301.834564
12594.501064	1321.580000	1316.582031	213.100616
12594.501064	1321.580000	1315.485352	397.571869
12594.501064	1321.580000	1314.388672	301.180542
12594.501064	1321.580000	1313.291016	96.181175
12594.501064	1321.580000	1312.194336	236.382828
12594.501064	1321.580000	1311.096680	287.033325
12594.501064	1321.580000	1309.999023	89.215179
12594.501064	1321.580000	1308.901367	201.251251
12594.501064	1321.580000	1307.802734	313.212616
12594.501064	1321.580000	1306.705078	128.390503
12594.501064	1321.580000	1305.606445	92.706787
12594.501064	1321.580000	1304.506836	373.916016
12594.501064	1321.580000	1303.408203	215.250687
12594.501064	1321.580000	1302.308594	199.783218
12594.501064	1321.580000	1301.208984	180.214096
12594.501064	1321.580000	1300.109375	231.008759
12594.501064	1321.580000	1299.009766	118.935349
12594.501064	1321.580000	1297.909180	161.567078
12594.501064	1321.580000	1296.808594	181.871964
12594.501064	1321.580000	1295.708008	189.931641
12594.501064	1321.580000	1294.607422	245.448822
12594.501064	1321.580000	1293.506836	153.969971
12594.501064	1321.580000	1292.405273	219.293015
12594.501064	1321.580000	1291.303711	-32.490101
12594.501064	1321.580000	1290.202148	155.723724
12594.501064	1321.580000	1289.099609	44.204147
12594.501064	1321.580000	1287.998047	114.674362
12594.501064	1321.580000	1286.895508	24.130123
12594.501064	1321.580000	1285.792969	18.651573
12594.501064	1321.580000	1284.689453	135.438095
12594.501064	1321.580000	1283.586914	252.338776
12594.501064	1321.580000	1282.483398	175.135590
12594.501064	1321.580000	1281.379883	179.628357
12594.501064	1321.580000	1280.276367	336.072571
12594.501064	1321.580000	1279.171875	284.162750
12594.501064	1321.580000	1278.067383	153.107880
12594.501064	1321.580000	1276.962891	201.196640
12594.501064	1321.580000	1275.858398	181.647369
12594.501064	1321.580000	1274.753906	210.440140
12594.501064	1321.580000	1273.648438	320.029358
12594.501064	1321.580000	1272.542969	260.362213
12594.501064	1321.580000	1271.437500	122.619919
12594.501064	1321.580000	1270.331055	245.939560
12594.501064	1321.580000	1269.225586	276.262665
12594.501064	1321.580000	1268.119141	140.381302
12594.501064	1321.580000	1267.012695	48.167412
12594.501064	1321.580000	1265.906250	142.248550
12594.501064	1321.580000	1264.798828	-63.714771
12594.501064	1321.580000	1263.691406	-47.845737
12594.501064	1321.580000	1262.583984	-0.233604
12594.501064	1321.580000	1261.476563	-124.269379
12594.501064	1321.580000	1260.368164	46.240700
12594.501064	1321.580000	1259.260742	-94.984612
12594.501064	1321.580000	1258.152344	21.536360
12594.501064	1321.580000	1257.043945	-13.846966
12594.501064	1321.580000	1255.934570	-87.883171
12594.501064	1321.580000	1254.825195	-43.413288
12594.501064	1321.580000	1253.716797	23.650352
12594.501064	1321.580000	1252.606445	2.550094
12594.501064	1321.580000	1251.497070	-23.207150
12594.501064	1321.580000	1250.387695	-122.198074
12594.501064	1321.580000	1249.277344	-99.857742
12594.501064	1321.580000	1248.166992	-76.811386
12594.501064	1321.580000	1247.055664	-166.912033
12594.501064	1321.580000	1245.945313	-134.103165
12594.501064	1321.580000	1244.833984	-66.766235
12594.501064	1321.580000	1243.722656	-23.220819
12594.501064	1321.580000	1242.611328	-96.576660
12594.501064	1321.580000	1241.499023	-145.824448
12594.501064	1321.580000	1240.387695	-161.586395
12594.501064	1321.580000	1239.275391	-111.301552
12594.501064	1321.580000	1238.162109	-185.644104
12594.501064	1321.580000	1237.049805	-34.821194
12594.501064	1321.580000	1235.936523	-128.637115
12594.501064	1321.580000	1234.823242	-161.538391
12594.501064	1321.580000	1233.709961	-70.095673
12594.501064	1321.580000	1232.596680	19.665293
12594.501064	1321.580000	1231.482422	-23.518635
12594.501064	1321.580000	1230.369141	29.741104
12594.501064	1321.580000	1229.253906	-11.699737
12594.501064	1321.580000	1228.139648	70.257500
12594.501064	1321.580000	1227.025391	-10.386672
12594.501064	1321.580000	1225.910156	-8.527232
12594.501064	1321.580000	1224.794922	-79.472008
12594.501064	1321.580000	1223.679688	-89.242813
12594.501064	1321.580000	1222.563477	0.965559
12594.501064	1321.580000	1221.447266	28.194904
12594.501064	1321.580000	1220.331055	-56.410564
12594.501064	1321.580000	1219.214844	-122.423431
12594.501064	1321.580000	1218.098633	-139.024689
12594.501064	1321.580000	1216.981445	-54.249943
12594.501064	1321.580000	1215.864258	-107.362068
12594.501064	1321.580000	1214.747070	-31.336958
12594.501064	1321.580000	1213.629883	13.267467
12594.501064	1321.580000	1212.511719	34.078644
12594.501064	1321.580000	1211.393555	121.720474
12594.501064	1321.580000	1210.275391	81.245377
12594.501064	1321.580000	1209.157227	-49.651623
12594.501064	1321.580000	1208.038086	4.529944
12594.501064	1321.580000	1206.918945	63.831970
12594.501064	1321.580000	1205.799805	-72.127663
12594.501064	1321.580000	1204.680664	44.565781
12594.501064	1321.580000	1203.560547	68.745766
12594.501064	1321.580000	1202.441406	63.645893
12594.501064	1321.580000	1201.321289	100.301506
12594.501064	1321.580000	1200.200195	20.434961
12594.501064	1321.580000	1199.080078	116.815071
12594.501064	1321.580000	1197.958984	199.596283
12594.501064	1321.580000	1196.837891	214.987579
12594.501064	1321.580000	1195.716797	143.339279
12594.501064	1321.580000	1194.594727	195.856857
12594.501064	1321.580000	1193.473633	119.504547
12594.501064	1321.580000	1192.351563	203.432800
12594.501064	1321.580000	1191.229492	185.981522
12594.501064	1321.580000	1190.106445	68.248726
12594.501064	1321.580000	1188.984375	94.250504
12594.501064	1321.580000	1187.861328	146.648956
12594.501064	1321.580000	1186.738281	150.457870
12594.501064	1321.580000	1185.614258	70.042801
12594.501064	1321.580000	1184.491211	-94.894516
12594.501064	1321.580000	1183.367188	33.715168
12594.501064	1321.580000	1182.243164	-17.922903
12594.501064	1321.580000	1181.119141	184.669556
12594.501064	1321.580000	1179.994141	59.473293
12594.501064	1321.580000	1178.869141	14.769768
12594.501064	1321.580000	1177.744141	65.472824
12594.501064	1321.580000	1176.619141	227.414261
12594.501064	1321.580000	1175.493164	191.868744
12594.501064	1321.580000	1174.368164	98.031403
12594.501064	1321.580000	1173.242188	99.527939
12594.501064	1321.580000	1172.115234	256.288727
12594.501064	1321.580000	1170.989258	255.884064
12594.501064	1321.580000	1169.862305	175.808670
12594.501064	1321.580000	1168.735352	317.114655
12594.501064	1321.580000	1167.608398	217.594772
12594.501064	1321.580000	1166.481445	39.677570
12594.501064	1321.580000	1165.353516	19.906136
12594.501064	1321.580000	1164.225586	111.158829
12594.501064	1321.580000	1163.097656	-58.508877
12594.501064	1321.580000	1161.968750	88.977325
12594.501064	1321.580000	1160.840820	19.885254
12594.501064	1321.580000	1159.711914	86.038490
12594.501064	1321.580000	1158.583008	38.139721
12594.501064	1321.580000	1157.453125	-6.748529
12594.501064	1321.580000	1156.324219	1.960056
12594.501064	1321.580000	1155.194336	-56.662029
12594.501064	1321.580000	1154.064453	-112.543381
12594.501064	1321.580000	1152.933594	-83.726494
12594.501064	1321.580000	1151.803711	-206.886642
12594.501064	1321.580000	1150.672852	33.963600
12594.501064	1321.580000	1149.541992	-113.026657
12594.501064	1321.580000	1148.411133	-45.172993
12594.501064	1321.580000	1147.279297	-101.545807
12594.501064	1321.580000	1146.147461	-101.024742
12594.501064	1321.580000	1145.015625	-171.417053
12594.501064	1321.580000	1143.883789	-54.052471
12594.501064	1321.580000	1142.750977	-58.021976
12594.501064	1321.580000	1141.619141	-43.556637
12594.501064	1321.580000	1140.486328	-0.544337
12594.501064	1321.580000	1139.352539	36.689548
12594.501064	1321.580000	1138.219727	-143.280273
12594.501064	1321.580000	1137.085938	-71.241669
12594.501064	1321.580000	1135.952148	-115.060921
12594.501064	1321.580000	1134.818359	-104.641930
12594.501064	1321.580000	1133.683594	-31.501110
12594.501064	1321.580000	1132.549805	-45.695854
12594.501064	1321.580000	1131.415039	108.245529
12594.501064	1321.580000	1130.279297	14.938123
12594.501064	1321.580000	1129.144531	187.580994
12594.501064	1321.580000	1128.008789	44.291714
12594.501064	1321.580000	1126.873047	177.806763
12594.501064	1321.580000	1125.737305	-39.896908
12594.501064	1321.580000	1124.601563	105.881294
12594.501064	1321.580000	1123.464844	170.710770
12594.501064	1321.580000	1122.328125	47.685963
12594.501064	1321.580000	1121.191406	120.790207
12594.501064	1321.580000	1120.054688	65.249977
12594.501064	1321.580000	1118.916992	38.067215
12594.501064	1321.580000	1117.779297	185.255417
12594.501064	1321.580000	1116.641602	156.878479
12594.501064	1321.580000	1115.503906	311.239563
12594.501064	1321.580000	1114.365234	261.229706
12594.501064	1321.580000	1113.226563	286.630524
12594.501064	1321.580000	1112.087891	342.994720
12594.501064	1321.580000	1110.949219	195.438461
12594.501064	1321.580000	1109.809570	196.554825
12594.501064	1321.580000	1108.669922	34.724709
12594.501064	1321.580000	1107.530273	66.000778
12594.501064	1321.580000	1106.390625	133.892761
12594.501064	1321.580000	1105.250000	92.918999
12594.501064	1321.580000	1104.109375	93.732887
12594.501064	1321.580000	1102.968750	112.359314
12594.501064	1321.580000	1101.828125	97.178116
12594.501064	1321.580000	1100.686523	154.982941
12594.501064	1321.580000	1099.544922	197.127991
12594.501064	1321.580000	1098.403320	195.700653
12594.501064	1321.580000	1097.261719	188.154007
12594.501064	1321.580000	1096.120117	191.910889
12594.501064	1321.580000	1094.977539	128.582718
12594.501064	1321.580000	1093.834961	255.060944
12594.501064	1321.580000	1092.691406	148.273834
12594.501064	1321.580000	1091.548828	88.934105
12594.501064	1321.580000	1090.405273	167.435410
12594.501064	1321.580000	1089.261719	243.829453
12594.501064	1321.580000	1088.118164	89.504890
12594.501064	1321.580000	1086.973633	86.121841
12594.501064	1321.580000	1085.829102	73.119751
12594.501064	1321.580000	1084.684570	150.348236
12594.501064	1321.580000	1083.540039	-13.776195
12594.501064	1321.580000	1082.395508	-56.627560
12594.501064	1321.580000	1081.250000	-77.386162
12594.501064	1321.580000	1080.104492	-17.496714
12594.501064	1321.580000	1078.958984	-50.273167
12594.501064	1321.580000	1077.812500	71.600212
12594.501064	1321.580000	1076.666016	-28.143003
12594.501064	1321.580000	1075.519531	125.286766
12594.501064	1321.580000	1074.373047	49.828506
12594.501064	1321.580000	1073.226563	-97.214043
12594.501064	1321.580000	1072.079102	90.830223
12594.501064	1321.580000	1070.931641	32.898613
12594.501064	1321.580000	1069.784180	109.381294
12594.501064	1321.580000	1068.635742	99.966896
12594.501064	1321.580000	1067.487305	104.404327
12594.501064	1321.580000	1066.338867	178.137955
12594.501064	1321.580000	1065.190430	196.670258
12594.501064	1321.580000	1064.041992	190.709778
12594.501064	1321.580000	1062.892578	140.980713
12594.501064	1321.580000	1061.743164	255.854614
12594.501064	1321.580000	1060.593750	106.914543
12594.501064	1321.580000	1059.443359	6.991557
12594.501064	1321.580000	1058.292969	-11.658907
12594.501064	1321.580000	1057.142578	75.884102
12594.501064	1321.580000	1055.992188	102.223663
12594.501064	1321.580000	1054.841797	100.217270
12594.501064	1321.580000	1053.690430	53.684151
12594.501064	1321.580000	1052.539063	-17.606960
12594.501064	1321.580000	1051.387695	214.582291
12594.501064	1321.580000	1050.235352	87.512962
12594.501064	1321.580000	1049.083984	17.336926
12594.501064	1321.580000	1047.931641	0.580150
12594.501064	1321.580000	1046.778320	-0.905786
12594.501064	1321.580000	1045.625977	163.877274
12594.501064	1321.580000	1044.472656	160.727676
12594.501064	1321.580000	1043.319336	115.579338
12594.501064	1321.580000	1042.166016	149.405991
12594.501064	1321.580000	1041.012695	94.593941
12594.501064	1321.580000	1039.858398	22.978809
12594.501064	1321.580000	1038.704102	11.755364
12594.501064	1321.580000	1037.549805	102.713730
12594.501064	1321.580000	1036.394531	-24.203588
12594.501064	1321.580000	1035.239258	-118.662598
12594.501064	1321.580000	1034.083984	-21.783815
12594.501064	1321.580000	1032.928711	-43.799576
12594.501064	1321.580000	1031.773438	-39.434883
12594.501064	1321.580000	1030.617188	-57.080341
12594.501064	1321.580000	1029.460938	190.271011
12594.501064	1321.580000	1028.304688	111.034302
12594.501064	1321.580000	1027.147461	13.705106
12594.501064	1321.580000	1025.991211	-11.315862
12594.501064	1321.580000	1024.833984	56.971725
12594.501064	1321.580000	1023.675781	9.120639
12594.501064	1321.580000	1022.518555	-76.482452
12594.501064	1321.580000	1021.360352	53.359436
12594.501064	1321.580000	1020.202148	36.776478
12594.501064	1321.580000	1019.043945	11.616422
12594.501064	1321.580000	1017.884766	76.423538
12594.501064	1321.580000	1016.726563	76.582733
12594.501064	1321.580000	1015.567383	-95.683800
12594.501064	1321.580000	1014.407227	-77.872581
12594.501064	1321.580000	1013.248047	-198.675751
12594.501064	1321.580000	1012.087891	-25.362417
12594.501064	1321.580000	1010.927734	113.537575
12594.501064	1321.580000	1009.767578	30.972572
12594.501064	1321.580000	1008.606445	11.856341
12594.501064	1321.580000	1007.446289	1.975441
12594.501064	1321.580000	1006.285156	-13.492147
12594.501064	1321.580000	1005.123047	-10.701639
12594.501064	1321.580000	1003.961914	29.594572
12594.501064	1321.580000	1002.799805	22.601706
12594.501064	1321.580000	1001.637695	29.312531
12594.501064	1321.580000	1000.475586	149.582138
12594.501064	1321.580000	999.312500	-10.841372
12594.501064	1321.580000	998.149414	39.501614
12594.501064	1321.580000	996.986328	71.024788
12594.501064	1321.580000	995.823242	-33.929935
12594.501064	1321.580000	994.659180	-43.254662
12594.501064	1321.580000	993.496094	34.087585
12594.501064	1321.580000	992.332031	41.895477
12594.501064	1321.580000	991.166992	66.691055
12594.501064	1321.580000	990.002930	44.533367
12594.501064	1321.580000	988.837891	20.120405
12594.501064	1321.580000	987.672852	83.930000
12594.501064	1321.580000	986.506836	-110.692268
12594.501064	1321.580000	985.341797	77.986115
12594.501064	1321.580000	984.175781	84.472588
12594.501064	1321.580000	983.009766	-19.881914
12594.501064	1321.580000	981.843750	-39.938107
12594.501064	1321.580000	980.676758	-196.684967
12594.501064	1321.580000	979.509766	-39.185059
12594.501064	1321.580000	978.342773	60.769234
12594.501064	1321.580000	977.175781	-58.843937
12594.501064	1321.580000	976.007813	90.244698
12594.501064	1321.580000	974.839844	51.297318
12594.501064	1321.580000	973.671875	56.253986
12594.501064	1321.580000	972.503906	75.798904
12594.501064	1321.580000	971.334961	211.718857
12594.501064	1321.580000	970.166016	220.495819
12594.501064	1321.580000	968.997070	153.605484
12594.501064	1321.580000	967.828125	151.879013
12594.501064	1321.580000	966.658203	217.436661
12594.501064	1321.580000	965.488281	243.928879
12594.501064	1321.580000	964.318359	270.112152
12594.501064	1321.580000	963.148438	397.989990
12594.501064	1321.580000	961.977539	371.645477
12594.501064	1321.580000	960.806641	457.481567
12594.501064	1321.580000	959.635742	325.334839
12594.501064	1321.580000	958.463867	269.020660
12594.501064	1321.580000	957.292969	373.635590
12594.501064	1321.580000	956.121094	266.391907
12594.501064	1321.580000	954.948242	198.273056
12594.501064	1321.580000	953.776367	110.041649
12594.501064	1321.580000	952.603516	-94.992950
12594.501064	1321.580000	951.430664	25.424400
12594.501064	1321.580000	950.257813	66.366074
12594.501064	1321.580000	949.084961	-126.897804
12594.501064	1321.580000	947.911133	45.947582
12594.501064	1321.580000	946.737305	46.798046
12594.501064	1321.580000	945.563477	-51.142200
12594.501064	1321.580000	944.388672	73.565636
12594.501064	1321.580000	943.213867	-71.730438
12594.501064	1321.580000	942.039063	-66.329651
12594.501064	1321.580000	940.864258	-44.380817
12594.501064	1321.580000	939.688477	3.601683
12594.501064	1321.580000	938.513672	-0.693938
12594.501064	1321.580000	937.337891	-86.289711
12594.501064	1321.580000	936.161133	105.206528
12594.501064	1321.580000	934.985352	179.667114
12594.501064	1321.580000	933.808594	98.738922
12594.501064	1321.580000	932.631836	103.924820
12594.501064	1321.580000	931.454102	202.078018
12594.501064	1321.580000	930.277344	59.040199
12594.501064	1321.580000	929.099609	28.327753
12594.501064	1321.580000	927.921875	126.499748
12594.501064	1321.580000	926.743164	26.470867
12594.501064	1321.580000	925.565430	141.316772
12594.501064	1321.580000	924.386719	-20.748491
12594.501064	1321.580000	923.208008	48.698925
12594.501064	1321.580000	922.028320	-1.183176
12594.501064	1321.580000	920.849609	-34.358109
12594.501064	1321.580000	919.669922	-32.611446
12594.501064	1321.580000	919.474609	140.239182
12594.501064	1321.580000	918.309570	109.389244
12594.501064	1321.580000	917.143555	-62.107014
12594.501064	1321.580000	915.977539	-40.493153
12594.501064	1321.580000	914.810547	-176.170044
12594.501064	1321.580000	913.644531	-61.654106
12594.501064	1321.580000	912.477539	-30.563087
12594.501064	1321.580000	911.310547	-156.671265
12594.501064	1321.580000	910.143555	12.496514
12594.501064	1321.580000	908.975586	50.658459
12594.501064	1321.580000	907.807617	-161.104706
12594.501064	1321.580000	906.639648	-163.398392
12594.501064	1321.580000	905.471680	53.164185
12594.501064	1321.580000	904.303711	53.181705
12594.501064	1321.580000	903.134766	-106.140869
12594.501064	1321.580000	901.965820	-158.420517
12594.501064	1321.580000	900.796875	-148.887177
12594.501064	1321.580000	899.626953	57.887241
12594.501064	1321.580000	898.457031	-51.455452
12594.501064	1321.580000	897.287109	-191.648605
12594.501064	1321.580000	896.117188	52.974838
12594.501064	1321.580000	894.947266	3.030136
12594.501064	1321.580000	893.776367	12.448722
12594.501064	1321.580000	892.605469	-103.952721
12594.501064	1321.580000	891.434570	-77.927574
12594.501064	1321.580000	890.262695	42.985336
12594.501064	1321.580000	889.091797	52.340813
12594.501064	1321.580000	887.919922	-7.098515
12594.501064	1321.580000	886.748047	-85.495407
12594.501064	1321.580000	885.575195	96.913986
12594.501064	1321.580000	884.403320	42.207008
12594.501064	1321.580000	883.230469	-43.295200
12594.501064	1321.580000	882.057617	-95.604012
12594.501064	1321.580000	880.883789	-83.943398
12594.501064	1321.580000	879.710938	-3.618286
12594.501064	1321.580000	878.537109	-72.512207
12594.501064	1321.580000	877.362305	59.839195
12594.501064	1321.580000	876.188477	-139.242508
12594.501064	1321.580000	875.013672	71.136948
12594.501064	1321.580000	873.839844	87.410980
12594.501064	1321.580000	872.664063	16.147198
12594.501064	1321.580000	871.489258	150.651566
12594.501064	1321.580000	870.313477	197.604355
12594.501064	1321.580000	869.138672	275.257446
12594.501064	1321.580000	867.962891	189.786209
12594.501064	1321.580000	866.786133	118.516785
12594.501064	1321.580000	865.610352	-63.774982
12594.501064	1321.580000	864.433594	-64.124718
12594.501064	1321.580000	863.256836	-232.157944
12594.501064	1321.580000	862.079102	-45.969391
12594.501064	1321.580000	860.902344	33.902870
12594.501064	1321.580000	859.724609	-77.438194
12594.501064	1321.580000	858.546875	44.858982
12594.501064	1321.580000	857.368164	-163.186630
12594.501064	1321.580000	856.190430	-90.478233
12594.501064	1321.580000	855.011719	116.606071
12594.501064	1321.580000	853.833008	139.692810
12594.501064	1321.580000	852.654297	-54.105263
12594.501064	1321.580000	851.474609	-318.537292
12594.501064	1321.580000	850.294922	-135.185730
12594.501064	1321.580000	849.115234	-147.449524
12594.501064	1321.580000	847.935547	-192.694427
12594.501064	1321.580000	846.754883	-51.903034
12594.501064	1321.580000	845.575195	-75.983780
12594.501064	1321.580000	844.393555	15.271798
12594.501064	1321.580000	843.212891	33.523342
12594.501064	1321.580000	842.032227	11.756488
12594.501064	1321.580000	840.850586	-52.355659
12594.501064	1321.580000	839.668945	-10.618623
12594.501064	1321.580000	838.486328	7.575247
12594.501064	1321.580000	837.304688	32.801540
12594.501064	1321.580000	836.122070	144.972351
12594.501064	1321.580000	834.939453	-121.259308
12594.501064	1321.580000	833.756836	122.441963
12594.501064	1321.580000	832.573242	112.340012
12594.501064	1321.580000	831.389648	172.684540
12594.501064	1321.580000	830.206055	-121.560143
12594.501064	1321.580000	829.022461	-14.266643
12594.501064	1321.580000	827.838867	-83.060020
12594.501064	1321.580000	826.654297	-109.598862
12594.501064	1321.580000	825.469727	-119.716896
12594.501064	1321.580000	824.284180	-87.623039
12594.501064	1321.580000	823.099609	82.806396
12594.501064	1321.580000	821.914063	28.067701
12594.501064	1321.580000	820.728516	-5.564423
12594.501064	1321.580000	819.542969	-32.165234
12594.501064	1321.580000	818.356445	60.734524
12594.501064	1321.580000	817.169922	-33.833588
12594.501064	1321.580000	815.983398	70.712395
12594.501064	1321.580000	814.796875	34.696625
12594.501064	1321.580000	813.609375	-15.364333
12594.501064	1321.580000	812.422852	-46.693298
12594.501064	1321.580000	811.235352	240.256119
12594.501064	1321.580000	810.046875	40.394928
12594.501064	1321.580000	808.859375	-21.379015
12594.501064	1321.580000	807.670898	8.073376
12594.501064	1321.580000	806.482422	112.326721
12594.501064	1321.580000	805.293945	-108.440842
12594.501064	1321.580000	804.104492	-193.563416
12594.501064	1321.580000	802.915039	11.110784
12594.501064	1321.580000	801.725586	227.367325
12594.501064	1321.580000	800.536133	-7.315357
12594.501064	1321.580000	799.345703	-134.485306
12594.501064	1321.580000	798.155273	6.904356
12594.501064	1321.580000	796.964844	-8.190418
12594.501064	1321.580000	795.774414	-67.640320
12594.501064	1321.580000	794.583008	-124.746849
12594.501064	1321.580000	793.392578	23.461864
12594.501064	1321.580000	792.200195	45.636131
12594.501064	1321.580000	791.008789	140.079559
12594.501064	1321.580000	789.816406	19.962591
12594.501064	1321.580000	788.625000	139.982788
12594.501064	1321.580000	787.432617	29.206551
12594.501064	1321.580000	786.239258	76.909126
12594.501064	1321.580000	785.046875	33.719791
12594.501064	1321.580000	783.853516	-90.988991
12594.501064	1321.580000	782.660156	26.520716
12594.501064	1321.580000	781.465820	162.591293
12594.501064	1321.580000	780.272461	58.833569
12594.501064	1321.580000	779.078125	-33.261456
12594.501064	1321.580000	777.883789	53.824970
12594.501064	1321.580000	776.688477	-82.463745
12594.501064	1321.580000	775.494141	-67.536209
12594.501064	1321.580000	774.298828	119.439781
12594.501064	1321.580000	773.103516	185.430786
12594.501064	1321.580000	771.907227	74.727318
12594.501064	1321.580000	770.711914	235.942856
12594.501064	1321.580000	769.515625	-28.102707
12594.501064	1321.580000	768.318359	88.897614
12594.501064	1321.580000	767.122070	43.262451
12594.501064	1321.580000	765.924805	83.540131
12594.501064	1321.580000	764.727539	181.818878
12594.501064	1321.580000	763.530273	71.152313
12594.501064	1321.580000	762.333008	-16.281937
12594.501064	1321.580000	761.134766	7.661503
12594.501064	1321.580000	759.936523	117.398064
12594.501064	1321.580000	758.738281	25.315344
12594.501064	1321.580000	757.540039	-38.925137
12594.501064	1321.580000	756.340820	84.605141
12594.501064	1321.580000	755.141602	34.246475
12594.501064	1321.580000	753.942383	99.744370
12594.501064	1321.580000	752.742188	243.960403
12594.501064	1321.580000	751.541992	87.000069
12594.501064	1321.580000	750.341797	75.971649
12594.501064	1321.580000	749.141602	62.613342
12594.501064	1321.580000	747.941406	-47.975834
12594.501064	1321.580000	746.740234	116.850784
12594.501064	1321.580000	745.539063	117.314972
12594.501064	1321.580000	744.337891	201.035278
12594.501064	1321.580000	743.135742	141.309692
12594.501064	1321.580000	741.933594	231.886398
12594.501064	1321.580000	740.731445	130.527023
12594.501064	1321.580000	739.529297	255.696823
12594.501064	1321.580000	738.326172	366.928558
12594.501064	1321.580000	737.124023	297.887360
12594.501064	1321.580000	735.919922	533.754700
12594.501064	1321.580000	734.716797	245.275177
12594.501064	1321.580000	733.513672	390.966431
12594.501064	1321.580000	732.309570	308.043335
12594.501064	1321.580000	731.105469	347.453400
12594.501064	1321.580000	729.900391	96.087730
12594.501064	1321.580000	728.696289	204.692215
12594.501064	1321.580000	727.491211	43.371368
12594.501064	1321.580000	726.286133	64.270058
12594.501064	1321.580000	725.080078	4.444847
12594.501064	1321.580000	723.874023	66.789680
12594.501064	1321.580000	722.668945	112.954933
12594.501064	1321.580000	721.461914	119.909119
12594.501064	1321.580000	720.255859	25.481436
12594.501064	1321.580000	719.048828	110.712181
12594.501064	1321.580000	717.841797	13.978804
12594.501064	1321.580000	716.634766	27.765612
12594.501064	1321.580000	715.427734	239.467072
12594.501064	1321.580000	714.219727	87.471138
12594.501064	1321.580000	713.011719	144.879456
12594.501064	1321.580000	711.803711	-76.083931
12594.501064	1321.580000	710.594727	47.981113
12594.501064	1321.580000	709.385742	-11.968258
12594.501064	1321.580000	708.176758	17.736366
12594.501064	1321.580000	706.967773	118.652069
12594.501064	1321.580000	705.758789	31.083973
12594.501064	1321.580000	704.548828	28.528795
12594.501064	1321.580000	703.338867	-3.906785
12594.501064	1321.580000	702.127930	-114.428719
12594.501064	1321.580000	700.917969	-96.357658
12594.501064	1321.580000	699.707031	-140.293472
12594.501064	1321.580000	698.496094	-140.631348
12594.501064	1321.580000	697.285156	-40.037346
12594.501064	1321.580000	696.073242	-15.210157
12594.501064	1321.580000	694.861328	55.452152
12594.501064	1321.580000	693.649414	-22.981594
12594.501064	1321.580000	692.436523	125.550102
12594.501064	1321.580000	691.224609	113.556015
12594.501064	1321.580000	690.011719	179.454056
12594.501064	1321.580000	688.798828	265.920990
12594.501064	1321.580000	687.584961	198.858078
12594.501064	1321.580000	686.372070	143.251801
12594.501064	1321.580000	685.158203	215.862228
12594.501064	1321.580000	683.943359	96.130714
12594.501064	1321.580000	682.729492	95.436409
12594.501064	1321.580000	681.514648	158.785873
12594.501064	1321.580000	680.299805	36.783260
12594.501064	1321.580000	679.084961	56.614601
12594.501064	1321.580000	677.869141	149.587311
12594.501064	1321.580000	676.653320	84.747505
12594.501064	1321.580000	675.437500	54.197247
12594.501064	1321.580000	674.221680	-54.062958
12594.501064	1321.580000	673.004883	-98.328293
12594.501064	1321.580000	671.789063	35.578606
12594.501064	1321.580000	670.571289	160.267181
12594.501064	1321.580000	669.354492	120.480598
12594.501064	1321.580000	668.136719	165.151321
12594.501064	1321.580000	666.919922	-9.327310
12594.501064	1321.580000	665.701172	-1.206890
12594.501064	1321.580000	664.483398	155.180283
12594.501064	1321.580000	663.264648	76.539993
12594.501064	1321.580000	662.045898	223.674942
12594.501064	1321.580000	660.827148	-35.111584
12594.501064	1321.580000	659.608398	18.478813
12594.501064	1321.580000	658.388672	-53.324322
12594.501064	1321.580000	657.168945	102.732971
12594.501064	1321.580000	655.949219	3.559455
12594.501064	1321.580000	654.728516	-141.148575
12594.501064	1321.580000	653.507813	44.359993
12594.501064	1321.580000	652.287109	-9.277079
12594.501064	1321.580000	651.066406	-46.981571
12594.501064	1321.580000	649.844727	133.767471
12594.501064	1321.580000	648.623047	57.323746
12594.501064	1321.580000	647.401367	-46.406868
12594.501064	1321.580000	646.179688	47.739788
12594.501064	1321.580000	644.957031	69.063423
12594.501064	1321.580000	643.734375	-9.667129
12594.501064	1321.580000	642.511719	-67.932220
12594.501064	1321.580000	641.289063	110.122269
12594.501064	1321.580000	640.065430	58.626060
12594.501064	1321.580000	638.841797	122.966743
12594.501064	1321.580000	637.618164	53.278706
12594.501064	1321.580000	636.393555	135.710693
12594.501064	1321.580000	635.168945	77.353951
12594.501064	1321.580000	633.944336	75.734482
12594.501064	1321.580000	632.719727	30.985750
12594.501064	1321.580000	631.494141	117.801346
12594.501064	1321.580000	630.269531	-8.626410
12594.501064	1321.580000	629.042969	89.453865
12594.501064	1321.580000	627.817383	83.192459
12594.501064	1321.580000	626.590820	-4.683779
12594.501064	1321.580000	625.365234	4.897970
12594.501064	1321.580000	624.137695	152.649857
12594.501064	1321.580000	622.911133	218.778046
12594.501064	1321.580000	621.683594	38.016090
12594.501064	1321.580000	620.456055	-79.294037
12594.501064	1321.580000	619.228516	-10.957331
12594.501064	1321.580000	618.000977	3.015644
12594.501064	1321.580000	616.772461	73.527824
12594.501064	1321.580000	615.543945	58.027206
12594.501064	1321.580000	614.314453	-14.030074
12594.501064	1321.580000	613.085938	-31.804760
12594.501064	1321.580000	611.856445	-33.767582
12594.501064	1321.580000	610.626953	120.210182
12594.501064	1321.580000	609.397461	34.567207
12594.501064	1321.580000	608.166992	-112.061707
12594.501064	1321.580000	606.936523	-254.127869
12594.501064	1321.580000	605.706055	-240.326370
12594.501064	1321.580000	604.474609	15.041017
12594.501064	1321.580000	603.244141	-95.411308
12594.501064	1321.580000	602.012695	-142.643036
12594.501064	1321.580000	600.780273	92.179016
12594.501064	1321.580000	599.548828	40.381729
12594.501064	1321.580000	598.316406	47.229473
12594.501064	1321.580000	597.083984	-0.061467
12594.501064	1321.580000	595.851563	38.322617
12594.501064	1321.580000	594.618164	31.591602
12594.501064	1321.580000	593.384766	-207.267670
12594.501064	1321.580000	592.151367	-8.946358
12594.501064	1321.580000	590.917969	-22.467197
12594.501064	1321.580000	589.683594	-24.739964
12594.501064	1321.580000	588.449219	-27.025814
12594.501064	1321.580000	587.214844	20.199417
12594.501064	1321.580000	585.979492	78.641151
12594.501064	1321.580000	584.745117	49.288654
12594.501064	1321.580000	583.509766	-9.314161
12594.501064	1321.580000	582.273438	-54.412209
12594.501064	1321.580000	581.038086	57.910110
12594.501064	1321.580000	579.801758	17.286491
12594.501064	1321.580000	578.565430	-30.076365
12594.501064	1321.580000	577.329102	129.320801
12594.501064	1321.580000	576.091797	81.926521
12594.501064	1321.580000	574.854492	72.727783
12594.501064	1321.580000	573.617188	-15.084244
12594.501064	1321.580000	572.378906	-4.076209
12594.501064	1321.580000	571.141602	-150.226425
12594.501064	1321.580000	569.903320	-42.706509
12594.501064	1321.580000	568.664063	-51.931774
12594.501064	1321.580000	567.425781	-52.188110
12594.501064	1321.580000	566.186523	-43.485565
12594.501064	1321.580000	564.947266	36.963703
12594.501064	1321.580000	563.708008	130.820084
12594.501064	1321.580000	562.467773	27.366461
12594.501064	1321.580000	561.227539	15.831616
12594.501064	1321.580000	559.987305	134.247025
12594.501064	1321.580000	558.747070	-69.975983
12594.501064	1321.580000	557.505859	52.864914
12594.501064	1321.580000	556.264648	-54.989792
12594.501064	1321.580000	555.023438	137.176910
12594.501064	1321.580000	553.781250	-53.483498
12594.501064	1321.580000	552.539063	51.309532
12594.501064	1321.580000	551.296875	12.865286
12594.501064	1321.580000	550.054688	-21.096811
12594.501064	1321.580000	548.811523	128.320786
12594.501064	1321.580000	547.569336	58.559872
12594.501064	1321.580000	546.325195	-140.833801
12594.501064	1321.580000	545.082031	-161.358276
12594.501064	1321.580000	543.837891	61.664112
12594.501064	1321.580000	542.593750	-23.695066
12594.501064	1321.580000	541.349609	-133.591904
12594.501064	1321.580000	540.105469	145.083588
12594.501064	1321.580000	538.860352	-36.257431
12594.501064	1321.580000	537.615234	77.095245
12594.501064	1321.580000	536.369141	-84.085442
12594.501064	1321.580000	535.124023	26.985069
12594.501064	1321.580000	533.877930	28.702118
12594.501064	1321.580000	532.631836	52.712914
12594.501064	1321.580000	531.384766	-19.167665
12594.501064	1321.580000	530.138672	223.285370
12594.501064	1321.580000	528.891602	111.271492
12594.501064	1321.580000	527.643555	17.122286
12594.501064	1321.580000	526.396484	101.225334
12594.501064	1321.580000	525.148438	58.333279
12594.501064	1321.580000	523.900391	-71.388657
12594.501064	1321.580000	522.652344	-129.820328
12594.501064	1321.580000	521.403320	-203.815933
12594.501064	1321.580000	520.154297	-55.255676
12594.501064	1321.580000	518.905273	-89.200607
12594.501064	1321.580000	517.656250	-189.866592
12594.501064	1321.580000	516.406250	-112.588333
12594.501064	1321.580000	515.156250	-55.360352
12594.501064	1321.580000	513.906250	17.397840
12594.501064	1321.580000	512.655273	-43.230061
12594.501064	1321.580000	511.404297	-74.952477
12594.501064	1321.580000	510.153320	39.949703
12594.501064	1321.580000	508.902344	-147.259995
12594.501064	1321.580000	507.650391	-256.680084
12594.501064	1321.580000	506.398438	-50.813454
12594.501064	1321.580000	505.146484	-166.880051
12594.501064	1321.580000	503.893555	-107.598579
12594.501064	1321.580000	502.641602	-41.690990
12594.501064	1321.580000	501.388672	-117.783478
12594.501064	1321.580000	500.134766	54.524059
12594.501064	1321.580000	498.881836	-141.300446
12594.501064	1321.580000	497.627930	-246.166946
12594.501064	1321.580000	496.374023	-127.158577
12594.501064	1321.580000	495.119141	-205.415115
12594.501064	1321.580000	493.865234	-75.409569
12594.501064	1321.580000	492.610352	10.231133
12594.501064	1321.580000	491.355469	-81.321297
12594.501064	1321.580000	490.099609	52.964123
12594.501064	1321.580000	488.843750	-142.611542
12594.501064	1321.580000	487.587891	73.481941
12594.501064	1321.580000	486.332031	-66.728127
12594.501064	1321.580000	485.075195	-147.171829
12594.501064	1321.580000	483.818359	-150.193695
12594.501064	1321.580000	482.561523	-2.881769
12594.501064	1321.580000	481.304688	-76.699585
12594.501064	1321.580000	480.046875	-68.732666
12594.501064	1321.580000	478.789063	32.015190
12594.501064	1321.580000	477.531250	-6.469459
12594.501064	1321.580000	476.272461	91.974808
12594.501064	1321.580000	475.013672	64.494026
12594.501064	1321.580000	473.754883	-7.147035
12594.501064	1321.580000	472.496094	58.066372
12594.501064	1321.580000	471.236328	-57.722107
12594.501064	1321.580000	469.976563	51.551437
12594.501064	1321.580000	468.716797	173.988068
12594.501064	1321.580000	467.456055	31.712711
12594.501064	1321.580000	466.196289	103.340027
12594.501064	1321.580000	464.935547	232.218948
12594.501064	1321.580000	463.673828	100.958618
12594.501064	1321.580000	462.413086	139.386581
12594.501064	1321.580000	461.151367	102.866669
12594.501064	1321.580000	459.889648	123.593460
12594.501064	1321.580000	458.626953	243.361862
12594.501064	1321.580000	457.364258	270.581726
12594.501064	1321.580000	456.101563	295.553925
12594.501064	1321.580000	454.838867	102.626572
12594.501064	1321.580000	453.575195	101.143585
12594.501064	1321.580000	452.312500	137.015549
12594.501064	1321.580000	451.047852	212.407410
12594.501064	1321.580000	449.784180	144.815491
12594.501064	1321.580000	448.519531	28.845274
12594.501064	1321.580000	447.254883	75.503632
12594.501064	1321.580000	445.990234	47.388348
12594.501064	1321.580000	444.725586	67.561508
12594.501064	1321.580000	443.459961	120.611931
12594.501064	1321.580000	442.194336	63.796886
12594.501064	1321.580000	440.927734	92.560944
12594.501064	1321.580000	439.662109	130.035080
12594.501064	1321.580000	438.395508	198.148880
12594.501064	1321.580000	437.127930	103.819412
12594.501064	1321.580000	435.861328	220.032211
12594.501064	1321.580000	434.593750	110.253052
12594.501064	1321.580000	433.326172	66.222931
12594.501064	1321.580000	432.058594	46.248932
12594.501064	1321.580000	430.790039	91.947563
12594.501064	1321.580000	429.521484	295.299561
12594.501064	1321.580000	428.252930	235.617126
12594.501064	1321.580000	426.984375	401.451233
12594.501064	1321.580000	425.714844	227.736191
12594.501064	1321.580000	424.445313	89.031761
12594.501064	1321.580000	423.174805	-47.522434
12594.501064	1321.580000	421.905273	58.774998
12594.501064	1321.580000	420.634766	339.936981
12594.501064	1321.580000	419.364258	174.681931
12594.501064	1321.580000	418.092773	169.018463
12594.501064	1321.580000	416.822266	355.641907
12594.501064	1321.580000	415.550781	133.324509
12594.501064	1321.580000	414.278320	313.077057
12594.501064	1321.580000	413.006836	208.606888
12594.501064	1321.580000	411.734375	80.023315
12594.501064	1321.580000	410.461914	88.951469
12594.501064	1321.580000	409.188477	104.286400
12594.501064	1321.580000	407.916016	272.289520
12594.501064	1321.580000	406.642578	112.700851
12594.501064	1321.580000	405.368164	123.226784
12594.501064	1321.580000	404.094727	190.321472
12594.501064	1321.580000	402.820313	135.088242
12594.501064	1321.580000	401.545898	101.524307
12594.501064	1321.580000	400.270508	-32.479687
12594.501064	1321.580000	398.996094	125.481140
12594.501064	1321.580000	397.720703	95.786057
12594.501064	1321.580000	396.444336	-60.446243
12594.501064	1321.580000	395.168945	62.022594
12594.501064	1321.580000	393.892578	55.754303
12594.501064	1321.580000	392.616211	158.157364
12594.501064	1321.580000	391.339844	27.398283
12594.501064	1321.580000	390.062500	-12.111875
12594.501064	1321.580000	388.785156	128.776672
12594.501064	1321.580000	387.507813	127.987877
12594.501064	1321.580000	386.229492	227.012024
12594.501064	1321.580000	384.951172	56.133762
12594.501064	1321.580000	383.672852	63.357723
12594.501064	1321.580000	382.394531	92.069283
12594.501064	1321.580000	381.115234	-72.887047
12594.501064	1321.580000	379.835938	-153.298706
12594.501064	1321.580000	378.556641	52.772984
12594.501064	1321.580000	377.277344	102.129852
12594.501064	1321.580000	375.997070	172.890472
12594.501064	1321.580000	374.716797	110.925827
12594.501064	1321.580000	373.435547	26.984608
12594.501064	1321.580000	372.155273	-11.645872
12594.501064	1321.580000	370.874023	-13.700799
12594.501064	1321.580000	369.591797	46.814430
12594.501064	1321.580000	368.310547	119.998604
12594.501064	1321.580000	367.028320	-19.636311
12594.501064	1321.580000	365.746094	33.342693
12594.501064	1321.580000	364.463867	81.615845
12594.501064	1321.580000	363.180664	118.667915
12594.501064	1321.580000	361.897461	-145.726028
12594.501064	1321.580000	360.614258	126.651848
12594.501064	1321.580000	359.330078	10.982221
12594.501064	1321.580000	358.045898	-29.272028
12594.501064	1321.580000	356.761719	16.648409
12594.501064	1321.580000	355.477539	-52.533459
12594.501064	1321.580000	354.192383	-256.232635
12594.501064	1321.580000	352.907227	-53.704479
12594.501064	1321.580000	351.622070	25.049805
12594.501064	1321.580000	350.336914	-41.517014
12594.501064	1321.580000	349.050781	-80.438217
12594.501064	1321.580000	347.764648	44.396584
12594.501064	1321.580000	346.477539	13.136581
12594.501064	1321.580000	345.191406	-182.736786
12594.501064	1321.580000	343.904297	-223.580261
12594.501064	1321.580000	342.616211	-55.535164
12594.501064	1321.580000	341.329102	-32.690685
12594.501064	1321.580000	340.041016	-131.262924
12594.501064	1321.580000	338.752930	-103.061218
12594.501064	1321.580000	337.463867	-112.129089
12594.501064	1321.580000	336.175781	-145.480011
12594.501064	1321.580000	334.886719	-220.395813
12594.501064	1321.580000	333.596680	-205.375015
12594.501064	1321.580000	332.307617	-130.622452
12594.501064	1321.580000	331.017578	-71.642075
12594.501064	1321.580000	329.727539	-62.884380
12594.501064	1321.580000	328.436523	-91.429939
12594.501064	1321.580000	327.146484	114.077919
12594.501064	1321.580000	325.855469	2.327626
12594.501064	1321.580000	324.563477	1.811023
12594.501064	1321.580000	323.272461	-175.855042
12594.501064	1321.580000	321.980469	-46.567097
12594.501064	1321.580000	320.688477	-66.502296
12594.501064	1321.580000	319.395508	-70.023125
12594.501064	1321.580000	318.103516	69.738747
12594.501064	1321.580000	316.810547	-85.865829
12594.501064	1321.580000	315.516602	92.988899
12594.501064	1321.580000	314.223633	159.230682
12594.501064	1321.580000	312.929688	198.782074
12594.501064	1321.580000	311.635742	162.275742
12594.501064	1321.580000	310.340820	238.660294
12594.501064	1321.580000	309.045898	120.903061
12594.501064	1321.580000	307.750977	152.497879
12594.501064	1321.580000	306.456055	339.766479
12594.501064	1321.580000	305.160156	232.056808
12594.501064	1321.580000	303.865234	117.006248
12594.501064	1321.580000	302.568359	301.130341
12594.501064	1321.580000	301.272461	479.893677
12594.501064	1321.580000	299.975586	640.348511
12594.501064	1321.580000	298.678711	559.660767
