#X		#Y		#Wave		#Intensity
12500.506915	1429.306667	1999.980469	-13.969213
12500.506915	1429.306667	1999.016602	119.757225
12500.506915	1429.306667	1998.052734	-0.251648
12500.506915	1429.306667	1997.087891	142.408936
12500.506915	1429.306667	1996.123047	-136.241531
12500.506915	1429.306667	1995.158203	18.670177
12500.506915	1429.306667	1994.193359	-7.329362
12500.506915	1429.306667	1993.228516	28.537821
12500.506915	1429.306667	1992.262695	-54.496273
12500.506915	1429.306667	1991.297852	-28.629753
12500.506915	1429.306667	1990.332031	49.154865
12500.506915	1429.306667	1989.366211	32.838127
12500.506915	1429.306667	1988.399414	127.813835
12500.506915	1429.306667	1987.433594	180.663910
12500.506915	1429.306667	1986.466797	82.596756
12500.506915	1429.306667	1985.500977	88.378487
12500.506915	1429.306667	1984.534180	69.398453
12500.506915	1429.306667	1983.567383	42.975163
12500.506915	1429.306667	1982.599609	-15.599537
12500.506915	1429.306667	1981.632813	108.653023
12500.506915	1429.306667	1980.665039	42.611561
12500.506915	1429.306667	1979.697266	21.021370
12500.506915	1429.306667	1978.729492	24.103828
12500.506915	1429.306667	1977.761719	34.563694
12500.506915	1429.306667	1976.792969	20.306242
12500.506915	1429.306667	1975.825195	-13.715539
12500.506915	1429.306667	1974.856445	107.706154
12500.506915	1429.306667	1973.887695	-29.988550
12500.506915	1429.306667	1972.918945	91.343460
12500.506915	1429.306667	1971.949219	-115.397186
12500.506915	1429.306667	1970.980469	45.313919
12500.506915	1429.306667	1970.010742	33.374149
12500.506915	1429.306667	1969.041016	-8.159166
12500.506915	1429.306667	1968.071289	-37.373516
12500.506915	1429.306667	1967.101563	-19.780235
12500.506915	1429.306667	1966.130859	17.495670
12500.506915	1429.306667	1965.161133	86.761887
12500.506915	1429.306667	1964.190430	-82.880447
12500.506915	1429.306667	1963.219727	153.768539
12500.506915	1429.306667	1962.249023	151.538712
12500.506915	1429.306667	1961.277344	104.994347
12500.506915	1429.306667	1960.306641	43.691689
12500.506915	1429.306667	1959.334961	66.047562
12500.506915	1429.306667	1958.363281	162.177826
12500.506915	1429.306667	1957.391602	68.893196
12500.506915	1429.306667	1956.419922	-12.072292
12500.506915	1429.306667	1955.447266	-4.514894
12500.506915	1429.306667	1954.474609	10.404843
12500.506915	1429.306667	1953.501953	-77.903809
12500.506915	1429.306667	1952.529297	131.115387
12500.506915	1429.306667	1951.556641	10.867269
12500.506915	1429.306667	1950.583984	99.428535
12500.506915	1429.306667	1949.610352	28.330427
12500.506915	1429.306667	1948.636719	-23.104271
12500.506915	1429.306667	1947.663086	-3.336994
12500.506915	1429.306667	1946.689453	26.235744
12500.506915	1429.306667	1945.715820	70.516739
12500.506915	1429.306667	1944.741211	58.348152
12500.506915	1429.306667	1943.767578	16.747108
12500.506915	1429.306667	1942.792969	21.754915
12500.506915	1429.306667	1941.818359	90.510674
12500.506915	1429.306667	1940.842773	-31.984812
12500.506915	1429.306667	1939.868164	-9.818967
12500.506915	1429.306667	1938.892578	152.022598
12500.506915	1429.306667	1937.916992	49.181847
12500.506915	1429.306667	1936.941406	61.516533
12500.506915	1429.306667	1935.965820	51.802822
12500.506915	1429.306667	1934.990234	-70.553719
12500.506915	1429.306667	1934.013672	12.797209
12500.506915	1429.306667	1933.037109	-28.725615
12500.506915	1429.306667	1932.060547	37.455204
12500.506915	1429.306667	1931.083984	10.626518
12500.506915	1429.306667	1930.107422	-92.033722
12500.506915	1429.306667	1929.129883	40.168503
12500.506915	1429.306667	1928.153320	125.857986
12500.506915	1429.306667	1927.175781	-15.886565
12500.506915	1429.306667	1926.198242	-86.679184
12500.506915	1429.306667	1925.219727	28.319613
12500.506915	1429.306667	1924.242188	-15.568663
12500.506915	1429.306667	1923.263672	65.171692
12500.506915	1429.306667	1922.285156	92.140930
12500.506915	1429.306667	1921.306641	-56.754078
12500.506915	1429.306667	1920.328125	50.818802
12500.506915	1429.306667	1919.349609	26.511044
12500.506915	1429.306667	1918.370117	-88.105988
12500.506915	1429.306667	1917.391602	7.218302
12500.506915	1429.306667	1916.412109	-7.299234
12500.506915	1429.306667	1915.431641	-4.731765
12500.506915	1429.306667	1914.452148	44.185417
12500.506915	1429.306667	1913.472656	132.108124
12500.506915	1429.306667	1912.492188	105.398201
12500.506915	1429.306667	1911.511719	44.570831
12500.506915	1429.306667	1910.531250	-35.730419
12500.506915	1429.306667	1909.550781	-72.131996
12500.506915	1429.306667	1908.569336	-125.573814
12500.506915	1429.306667	1907.588867	-103.472916
12500.506915	1429.306667	1906.607422	106.164406
12500.506915	1429.306667	1905.625977	103.867401
12500.506915	1429.306667	1904.644531	65.054504
12500.506915	1429.306667	1903.662109	162.575821
12500.506915	1429.306667	1902.680664	21.553318
12500.506915	1429.306667	1901.698242	-97.514923
12500.506915	1429.306667	1900.715820	48.649826
12500.506915	1429.306667	1899.733398	-89.831902
12500.506915	1429.306667	1898.750000	58.713257
12500.506915	1429.306667	1897.767578	-1.903384
12500.506915	1429.306667	1896.784180	-16.305777
12500.506915	1429.306667	1895.800781	-23.407640
12500.506915	1429.306667	1894.817383	32.679615
12500.506915	1429.306667	1893.833984	122.764488
12500.506915	1429.306667	1892.850586	-85.979279
12500.506915	1429.306667	1891.866211	-8.045830
12500.506915	1429.306667	1890.881836	60.147160
12500.506915	1429.306667	1889.897461	-68.341331
12500.506915	1429.306667	1888.913086	38.680969
12500.506915	1429.306667	1887.927734	19.461115
12500.506915	1429.306667	1886.943359	63.341560
12500.506915	1429.306667	1885.958008	27.145630
12500.506915	1429.306667	1884.972656	-4.183544
12500.506915	1429.306667	1883.987305	-91.277931
12500.506915	1429.306667	1883.001953	-91.049286
12500.506915	1429.306667	1882.015625	-64.153877
12500.506915	1429.306667	1881.029297	-88.166672
12500.506915	1429.306667	1880.042969	35.654381
12500.506915	1429.306667	1879.056641	69.782761
12500.506915	1429.306667	1878.070313	84.519585
12500.506915	1429.306667	1877.083984	-9.737348
12500.506915	1429.306667	1876.096680	-19.206812
12500.506915	1429.306667	1875.109375	19.749577
12500.506915	1429.306667	1874.122070	51.429512
12500.506915	1429.306667	1873.134766	68.576477
12500.506915	1429.306667	1872.146484	3.444844
12500.506915	1429.306667	1871.159180	10.916988
12500.506915	1429.306667	1870.170898	-73.530922
12500.506915	1429.306667	1869.182617	-8.009539
12500.506915	1429.306667	1868.194336	45.396980
12500.506915	1429.306667	1867.205078	11.753047
12500.506915	1429.306667	1866.216797	65.133415
12500.506915	1429.306667	1865.227539	-130.412506
12500.506915	1429.306667	1864.238281	31.694063
12500.506915	1429.306667	1863.249023	-9.174977
12500.506915	1429.306667	1862.259766	85.218956
12500.506915	1429.306667	1861.269531	0.884602
12500.506915	1429.306667	1860.279297	-97.905891
12500.506915	1429.306667	1859.290039	105.066895
12500.506915	1429.306667	1858.298828	-61.287189
12500.506915	1429.306667	1857.308594	61.969296
12500.506915	1429.306667	1856.318359	13.891952
12500.506915	1429.306667	1855.327148	9.244376
12500.506915	1429.306667	1854.335938	-9.874612
12500.506915	1429.306667	1853.344727	108.442513
12500.506915	1429.306667	1852.353516	96.536880
12500.506915	1429.306667	1851.362305	178.628998
12500.506915	1429.306667	1850.370117	38.988811
12500.506915	1429.306667	1849.377930	82.502243
12500.506915	1429.306667	1848.385742	85.044601
12500.506915	1429.306667	1847.393555	-18.387222
12500.506915	1429.306667	1846.401367	-23.060509
12500.506915	1429.306667	1845.408203	140.785370
12500.506915	1429.306667	1844.415039	-27.605701
12500.506915	1429.306667	1843.421875	-25.071808
12500.506915	1429.306667	1842.428711	148.289703
12500.506915	1429.306667	1841.435547	117.098274
12500.506915	1429.306667	1840.441406	105.153099
12500.506915	1429.306667	1839.448242	-70.316628
12500.506915	1429.306667	1838.454102	23.554733
12500.506915	1429.306667	1837.459961	117.384148
12500.506915	1429.306667	1836.464844	-29.170826
12500.506915	1429.306667	1835.470703	11.754322
12500.506915	1429.306667	1834.475586	62.265419
12500.506915	1429.306667	1833.480469	31.080530
12500.506915	1429.306667	1832.485352	115.176529
12500.506915	1429.306667	1831.490234	177.623062
12500.506915	1429.306667	1830.495117	33.578167
12500.506915	1429.306667	1829.499023	-72.017426
12500.506915	1429.306667	1828.502930	100.793159
12500.506915	1429.306667	1827.506836	83.982887
12500.506915	1429.306667	1826.510742	47.979332
12500.506915	1429.306667	1825.513672	11.979063
12500.506915	1429.306667	1824.517578	11.954660
12500.506915	1429.306667	1823.520508	26.304789
12500.506915	1429.306667	1822.523438	210.832077
12500.506915	1429.306667	1821.526367	-7.351343
12500.506915	1429.306667	1820.529297	38.116211
12500.506915	1429.306667	1819.531250	93.138283
12500.506915	1429.306667	1818.533203	124.176735
12500.506915	1429.306667	1817.535156	126.456009
12500.506915	1429.306667	1816.537109	66.471085
12500.506915	1429.306667	1815.539063	44.800438
12500.506915	1429.306667	1814.540039	6.371996
12500.506915	1429.306667	1813.541992	18.202017
12500.506915	1429.306667	1812.542969	20.444849
12500.506915	1429.306667	1811.543945	22.676186
12500.506915	1429.306667	1810.543945	60.768269
12500.506915	1429.306667	1809.544922	98.836563
12500.506915	1429.306667	1808.544922	165.566589
12500.506915	1429.306667	1807.544922	64.938881
12500.506915	1429.306667	1806.544922	59.931835
12500.506915	1429.306667	1805.544922	143.322174
12500.506915	1429.306667	1804.544922	37.942806
12500.506915	1429.306667	1803.543945	-19.640741
12500.506915	1429.306667	1802.542969	132.932495
12500.506915	1429.306667	1801.541992	20.414377
12500.506915	1429.306667	1800.541016	108.444916
12500.506915	1429.306667	1799.539063	22.200953
12500.506915	1429.306667	1798.538086	100.627808
12500.506915	1429.306667	1797.536133	43.021633
12500.506915	1429.306667	1796.534180	133.314774
12500.506915	1429.306667	1795.532227	82.853310
12500.506915	1429.306667	1794.529297	196.920990
12500.506915	1429.306667	1793.527344	86.840675
12500.506915	1429.306667	1792.524414	64.977783
12500.506915	1429.306667	1791.521484	57.408257
12500.506915	1429.306667	1790.518555	73.653999
12500.506915	1429.306667	1789.514648	259.011871
12500.506915	1429.306667	1788.511719	117.993355
12500.506915	1429.306667	1787.507813	86.550674
12500.506915	1429.306667	1786.503906	28.917568
12500.506915	1429.306667	1785.500000	23.659887
12500.506915	1429.306667	1784.496094	23.150618
12500.506915	1429.306667	1783.491211	53.558147
12500.506915	1429.306667	1782.486328	95.835526
12500.506915	1429.306667	1781.481445	38.183384
12500.506915	1429.306667	1780.476563	18.588484
12500.506915	1429.306667	1779.471680	60.806149
12500.506915	1429.306667	1778.465820	-18.246256
12500.506915	1429.306667	1777.460938	-25.977823
12500.506915	1429.306667	1776.455078	151.627853
12500.506915	1429.306667	1775.449219	198.480469
12500.506915	1429.306667	1774.442383	-30.247263
12500.506915	1429.306667	1773.436523	-71.279770
12500.506915	1429.306667	1772.429688	42.028671
12500.506915	1429.306667	1771.422852	0.966239
12500.506915	1429.306667	1770.416016	95.200394
12500.506915	1429.306667	1769.409180	-0.467619
12500.506915	1429.306667	1768.402344	20.147738
12500.506915	1429.306667	1767.394531	202.051117
12500.506915	1429.306667	1766.386719	75.537628
12500.506915	1429.306667	1765.378906	143.507645
12500.506915	1429.306667	1764.371094	104.747292
12500.506915	1429.306667	1763.362305	146.579071
12500.506915	1429.306667	1762.354492	110.172928
12500.506915	1429.306667	1761.345703	135.372070
12500.506915	1429.306667	1760.336914	30.246613
12500.506915	1429.306667	1759.328125	55.421547
12500.506915	1429.306667	1758.318359	94.778893
12500.506915	1429.306667	1757.308594	10.984491
12500.506915	1429.306667	1756.299805	-30.179535
12500.506915	1429.306667	1755.290039	-151.816895
12500.506915	1429.306667	1754.279297	-22.588732
12500.506915	1429.306667	1753.269531	30.868040
12500.506915	1429.306667	1752.258789	86.652771
12500.506915	1429.306667	1751.249023	156.594437
12500.506915	1429.306667	1750.238281	44.419762
12500.506915	1429.306667	1749.226563	-122.104149
12500.506915	1429.306667	1748.215820	32.883011
12500.506915	1429.306667	1747.204102	20.005863
12500.506915	1429.306667	1746.193359	-14.144279
12500.506915	1429.306667	1745.181641	152.500046
12500.506915	1429.306667	1744.168945	-136.777954
12500.506915	1429.306667	1743.157227	-10.346839
12500.506915	1429.306667	1742.144531	-53.971241
12500.506915	1429.306667	1741.132813	-92.869286
12500.506915	1429.306667	1740.120117	42.875984
12500.506915	1429.306667	1739.106445	81.808540
12500.506915	1429.306667	1738.093750	-42.068451
12500.506915	1429.306667	1737.080078	128.925568
12500.506915	1429.306667	1736.067383	-11.448876
12500.506915	1429.306667	1735.053711	-0.885280
12500.506915	1429.306667	1734.040039	78.023773
12500.506915	1429.306667	1733.025391	-36.380974
12500.506915	1429.306667	1732.011719	-58.850586
12500.506915	1429.306667	1730.997070	-104.888237
12500.506915	1429.306667	1729.982422	25.746572
12500.506915	1429.306667	1728.967773	-135.717560
12500.506915	1429.306667	1727.952148	-7.511200
12500.506915	1429.306667	1726.937500	28.821234
12500.506915	1429.306667	1725.921875	25.109980
12500.506915	1429.306667	1724.906250	21.386606
12500.506915	1429.306667	1723.890625	114.119980
12500.506915	1429.306667	1722.875000	-82.542824
12500.506915	1429.306667	1721.858398	3.090417
12500.506915	1429.306667	1720.841797	34.593811
12500.506915	1429.306667	1719.825195	84.880562
12500.506915	1429.306667	1718.808594	-43.511120
12500.506915	1429.306667	1717.791992	27.898870
12500.506915	1429.306667	1716.774414	73.419403
12500.506915	1429.306667	1715.756836	102.465485
12500.506915	1429.306667	1714.739258	-47.021851
12500.506915	1429.306667	1713.721680	-48.516090
12500.506915	1429.306667	1712.704102	126.072746
12500.506915	1429.306667	1711.685547	-58.582745
12500.506915	1429.306667	1710.667969	59.589638
12500.506915	1429.306667	1709.649414	25.175188
12500.506915	1429.306667	1708.630859	-60.851440
12500.506915	1429.306667	1707.611328	-76.489052
12500.506915	1429.306667	1706.592773	8.716457
12500.506915	1429.306667	1705.573242	-46.811295
12500.506915	1429.306667	1704.553711	-81.228958
12500.506915	1429.306667	1703.534180	-19.545164
12500.506915	1429.306667	1702.513672	25.698277
12500.506915	1429.306667	1701.494141	-22.802246
12500.506915	1429.306667	1700.473633	15.376816
12500.506915	1429.306667	1699.453125	-96.361572
12500.506915	1429.306667	1698.432617	-23.078268
12500.506915	1429.306667	1697.412109	-10.703287
12500.506915	1429.306667	1696.390625	-94.314606
12500.506915	1429.306667	1695.369141	16.339424
12500.506915	1429.306667	1694.347656	70.786316
12500.506915	1429.306667	1693.326172	73.737679
12500.506915	1429.306667	1692.304688	25.222488
12500.506915	1429.306667	1691.282227	100.653961
12500.506915	1429.306667	1690.260742	14.727210
12500.506915	1429.306667	1689.238281	-101.566002
12500.506915	1429.306667	1688.214844	-65.912041
12500.506915	1429.306667	1687.192383	86.557106
12500.506915	1429.306667	1686.168945	115.137375
12500.506915	1429.306667	1685.146484	82.971695
12500.506915	1429.306667	1684.123047	50.808121
12500.506915	1429.306667	1683.099609	49.003876
12500.506915	1429.306667	1682.075195	91.544395
12500.506915	1429.306667	1681.051758	-89.997658
12500.506915	1429.306667	1680.027344	48.215111
12500.506915	1429.306667	1679.002930	97.711319
12500.506915	1429.306667	1677.978516	32.883259
12500.506915	1429.306667	1676.953125	49.697800
12500.506915	1429.306667	1675.928711	108.474243
12500.506915	1429.306667	1674.903320	-2.963728
12500.506915	1429.306667	1673.877930	51.124935
12500.506915	1429.306667	1672.852539	42.267296
12500.506915	1429.306667	1671.826172	103.303749
12500.506915	1429.306667	1670.800781	-54.657299
12500.506915	1429.306667	1669.774414	29.655560
12500.506915	1429.306667	1668.748047	72.017090
12500.506915	1429.306667	1667.721680	44.513443
12500.506915	1429.306667	1666.694336	200.901993
12500.506915	1429.306667	1665.667969	75.632996
12500.506915	1429.306667	1664.640625	136.549103
12500.506915	1429.306667	1663.613281	257.923645
12500.506915	1429.306667	1662.585938	109.444839
12500.506915	1429.306667	1661.557617	351.692322
12500.506915	1429.306667	1660.530273	173.022583
12500.506915	1429.306667	1659.501953	159.459457
12500.506915	1429.306667	1658.473633	285.345123
12500.506915	1429.306667	1657.444336	188.106873
12500.506915	1429.306667	1656.416016	142.018234
12500.506915	1429.306667	1655.386719	51.811008
12500.506915	1429.306667	1654.358398	33.631767
12500.506915	1429.306667	1653.328125	117.613533
12500.506915	1429.306667	1652.298828	231.743835
12500.506915	1429.306667	1651.269531	148.548141
12500.506915	1429.306667	1650.239258	299.752106
12500.506915	1429.306667	1649.208984	202.651993
12500.506915	1429.306667	1648.178711	170.538589
12500.506915	1429.306667	1647.148438	126.842278
12500.506915	1429.306667	1646.117188	166.633942
12500.506915	1429.306667	1645.086914	280.598206
12500.506915	1429.306667	1644.055664	139.557755
12500.506915	1429.306667	1643.024414	181.644302
12500.506915	1429.306667	1641.992188	200.544479
12500.506915	1429.306667	1640.960938	191.644058
12500.506915	1429.306667	1639.928711	182.746689
12500.506915	1429.306667	1638.896484	143.752167
12500.506915	1429.306667	1637.864258	130.241776
12500.506915	1429.306667	1636.832031	225.528732
12500.506915	1429.306667	1635.798828	237.467178
12500.506915	1429.306667	1634.766602	154.542419
12500.506915	1429.306667	1633.733398	134.109940
12500.506915	1429.306667	1632.699219	122.937576
12500.506915	1429.306667	1631.666016	292.144897
12500.506915	1429.306667	1630.632813	269.397583
12500.506915	1429.306667	1629.598633	410.778259
12500.506915	1429.306667	1628.564453	394.956207
12500.506915	1429.306667	1627.530273	298.272522
12500.506915	1429.306667	1626.495117	120.772758
12500.506915	1429.306667	1625.460938	363.720947
12500.506915	1429.306667	1624.425781	310.989288
12500.506915	1429.306667	1623.390625	152.078049
12500.506915	1429.306667	1622.355469	277.165222
12500.506915	1429.306667	1621.319336	266.039581
12500.506915	1429.306667	1620.284180	365.686279
12500.506915	1429.306667	1619.248047	158.462936
12500.506915	1429.306667	1618.211914	265.023132
12500.506915	1429.306667	1617.174805	157.075089
12500.506915	1429.306667	1616.138672	360.447174
12500.506915	1429.306667	1615.101563	388.546875
12500.506915	1429.306667	1614.065430	204.605820
12500.506915	1429.306667	1613.027344	288.042786
12500.506915	1429.306667	1611.990234	491.260742
12500.506915	1429.306667	1610.953125	392.656952
12500.506915	1429.306667	1609.915039	416.156464
12500.506915	1429.306667	1608.876953	409.722900
12500.506915	1429.306667	1607.838867	460.853485
12500.506915	1429.306667	1606.800781	433.717926
12500.506915	1429.306667	1605.761719	369.780426
12500.506915	1429.306667	1604.723633	414.016571
12500.506915	1429.306667	1603.684570	515.750061
12500.506915	1429.306667	1602.644531	385.166748
12500.506915	1429.306667	1601.605469	411.007233
12500.506915	1429.306667	1600.566406	464.435974
12500.506915	1429.306667	1599.526367	350.061737
12500.506915	1429.306667	1598.486328	258.723511
12500.506915	1429.306667	1597.446289	245.551819
12500.506915	1429.306667	1596.405273	195.639923
12500.506915	1429.306667	1595.365234	368.543762
12500.506915	1429.306667	1594.324219	330.133148
12500.506915	1429.306667	1593.283203	427.203949
12500.506915	1429.306667	1592.242188	391.117737
12500.506915	1429.306667	1591.200195	423.903809
12500.506915	1429.306667	1590.159180	397.036438
12500.506915	1429.306667	1589.117188	411.483215
12500.506915	1429.306667	1588.075195	469.515564
12500.506915	1429.306667	1587.032227	442.691132
12500.506915	1429.306667	1585.990234	353.991943
12500.506915	1429.306667	1584.947266	354.736206
12500.506915	1429.306667	1583.904297	300.491730
12500.506915	1429.306667	1582.861328	278.362213
12500.506915	1429.306667	1581.818359	242.510956
12500.506915	1429.306667	1580.775391	344.115387
12500.506915	1429.306667	1579.731445	269.363647
12500.506915	1429.306667	1578.687500	391.557831
12500.506915	1429.306667	1577.643555	330.592590
12500.506915	1429.306667	1576.598633	274.242126
12500.506915	1429.306667	1575.554688	309.460205
12500.506915	1429.306667	1574.509766	273.758331
12500.506915	1429.306667	1573.464844	327.292389
12500.506915	1429.306667	1572.419922	232.176895
12500.506915	1429.306667	1571.374023	315.452637
12500.506915	1429.306667	1570.329102	270.702637
12500.506915	1429.306667	1569.283203	143.707092
12500.506915	1429.306667	1568.237305	396.097900
12500.506915	1429.306667	1567.191406	346.840149
12500.506915	1429.306667	1566.144531	190.261795
12500.506915	1429.306667	1565.098633	243.867584
12500.506915	1429.306667	1564.051758	144.489609
12500.506915	1429.306667	1563.004883	307.692810
12500.506915	1429.306667	1561.957031	176.423935
12500.506915	1429.306667	1560.910156	262.010284
12500.506915	1429.306667	1559.862305	217.536072
12500.506915	1429.306667	1558.814453	293.993378
12500.506915	1429.306667	1557.766602	178.872177
12500.506915	1429.306667	1556.718750	323.750244
12500.506915	1429.306667	1555.669922	169.951828
12500.506915	1429.306667	1554.621094	150.708740
12500.506915	1429.306667	1553.573242	277.337616
12500.506915	1429.306667	1552.523438	324.191895
12500.506915	1429.306667	1551.474609	323.214874
12500.506915	1429.306667	1550.424805	499.897308
12500.506915	1429.306667	1549.375000	405.569977
12500.506915	1429.306667	1548.325195	252.111008
12500.506915	1429.306667	1547.275391	392.350128
12500.506915	1429.306667	1546.225586	161.625366
12500.506915	1429.306667	1545.174805	533.938477
12500.506915	1429.306667	1544.124023	494.397888
12500.506915	1429.306667	1543.073242	341.180084
12500.506915	1429.306667	1542.022461	488.193390
12500.506915	1429.306667	1540.970703	576.061157
12500.506915	1429.306667	1539.919922	488.900909
12500.506915	1429.306667	1538.868164	265.446075
12500.506915	1429.306667	1537.815430	385.181702
12500.506915	1429.306667	1536.763672	364.054718
12500.506915	1429.306667	1535.710938	415.635132
12500.506915	1429.306667	1534.659180	433.159790
12500.506915	1429.306667	1533.606445	228.212982
12500.506915	1429.306667	1532.552734	459.174744
12500.506915	1429.306667	1531.500000	372.358978
12500.506915	1429.306667	1530.446289	269.717712
12500.506915	1429.306667	1529.393555	384.916290
12500.506915	1429.306667	1528.338867	350.400513
12500.506915	1429.306667	1527.285156	184.405472
12500.506915	1429.306667	1526.231445	403.912720
12500.506915	1429.306667	1525.176758	219.886734
12500.506915	1429.306667	1524.122070	217.257339
12500.506915	1429.306667	1523.067383	207.857162
12500.506915	1429.306667	1522.012695	264.179993
12500.506915	1429.306667	1520.957031	232.174271
12500.506915	1429.306667	1519.901367	105.100296
12500.506915	1429.306667	1518.845703	143.373215
12500.506915	1429.306667	1517.790039	245.036072
12500.506915	1429.306667	1516.734375	149.795532
12500.506915	1429.306667	1515.677734	233.366318
12500.506915	1429.306667	1514.621094	181.197998
12500.506915	1429.306667	1513.564453	285.137360
12500.506915	1429.306667	1512.507813	54.389061
12500.506915	1429.306667	1511.450195	287.232880
12500.506915	1429.306667	1510.393555	183.211151
12500.506915	1429.306667	1509.335938	332.372070
12500.506915	1429.306667	1508.278320	115.459038
12500.506915	1429.306667	1507.219727	291.735260
12500.506915	1429.306667	1506.162109	391.177002
12500.506915	1429.306667	1505.103516	316.725677
12500.506915	1429.306667	1504.044922	413.918030
12500.506915	1429.306667	1502.986328	278.599823
12500.506915	1429.306667	1501.926758	387.098877
12500.506915	1429.306667	1500.868164	339.893097
12500.506915	1429.306667	1499.808594	231.822144
12500.506915	1429.306667	1498.749023	180.209229
12500.506915	1429.306667	1497.688477	49.717194
12500.506915	1429.306667	1496.628906	178.583023
12500.506915	1429.306667	1495.568359	-78.033119
12500.506915	1429.306667	1494.507813	-23.509800
12500.506915	1429.306667	1493.447266	53.551952
12500.506915	1429.306667	1492.386719	45.005215
12500.506915	1429.306667	1491.325195	0.451480
12500.506915	1429.306667	1490.263672	-170.162750
12500.506915	1429.306667	1489.202148	111.861305
12500.506915	1429.306667	1488.140625	-49.646736
12500.506915	1429.306667	1487.079102	50.002625
12500.506915	1429.306667	1486.016602	70.886589
12500.506915	1429.306667	1484.954102	-2.695463
12500.506915	1429.306667	1483.891602	-98.711754
12500.506915	1429.306667	1482.829102	-19.256498
12500.506915	1429.306667	1481.765625	39.960007
12500.506915	1429.306667	1480.702148	87.940155
12500.506915	1429.306667	1479.638672	144.915421
12500.506915	1429.306667	1478.575195	53.621170
12500.506915	1429.306667	1477.511719	-6.181836
12500.506915	1429.306667	1476.447266	174.370438
12500.506915	1429.306667	1475.382813	139.338364
12500.506915	1429.306667	1474.318359	41.526638
12500.506915	1429.306667	1473.253906	15.573926
12500.506915	1429.306667	1472.189453	-118.013893
12500.506915	1429.306667	1471.124023	31.196674
12500.506915	1429.306667	1470.058594	14.239480
12500.506915	1429.306667	1468.993164	93.827896
12500.506915	1429.306667	1467.927734	88.286148
12500.506915	1429.306667	1466.861328	10.852023
12500.506915	1429.306667	1465.794922	94.948906
12500.506915	1429.306667	1464.728516	98.477180
12500.506915	1429.306667	1463.662109	191.309875
12500.506915	1429.306667	1462.594727	69.722969
12500.506915	1429.306667	1461.528320	57.392033
12500.506915	1429.306667	1460.460938	154.969650
12500.506915	1429.306667	1459.393555	55.490829
12500.506915	1429.306667	1458.326172	54.822746
12500.506915	1429.306667	1457.257813	156.633118
12500.506915	1429.306667	1456.189453	117.839172
12500.506915	1429.306667	1455.121094	224.142075
12500.506915	1429.306667	1454.052734	20.324020
12500.506915	1429.306667	1452.984375	82.246292
12500.506915	1429.306667	1451.915039	16.544018
12500.506915	1429.306667	1450.845703	24.859888
12500.506915	1429.306667	1449.776367	146.831558
12500.506915	1429.306667	1448.707031	-33.865234
12500.506915	1429.306667	1447.636719	119.178169
12500.506915	1429.306667	1446.567383	145.206360
12500.506915	1429.306667	1445.497070	118.242294
12500.506915	1429.306667	1444.425781	28.418795
12500.506915	1429.306667	1443.355469	-64.785324
12500.506915	1429.306667	1442.285156	-140.456497
12500.506915	1429.306667	1441.213867	-45.575542
12500.506915	1429.306667	1440.142578	53.280193
12500.506915	1429.306667	1439.070313	-2.088337
12500.506915	1429.306667	1437.999023	-79.296364
12500.506915	1429.306667	1436.926758	84.114044
12500.506915	1429.306667	1435.854492	26.640636
12500.506915	1429.306667	1434.782227	98.206688
12500.506915	1429.306667	1433.709961	-21.356325
12500.506915	1429.306667	1432.636719	-21.535898
12500.506915	1429.306667	1431.563477	-37.419830
12500.506915	1429.306667	1430.490234	125.364845
12500.506915	1429.306667	1429.416992	25.181820
12500.506915	1429.306667	1428.343750	51.558357
12500.506915	1429.306667	1427.269531	-104.856682
12500.506915	1429.306667	1426.195313	31.378550
12500.506915	1429.306667	1425.121094	46.846478
12500.506915	1429.306667	1424.046875	85.875137
12500.506915	1429.306667	1422.971680	72.560272
12500.506915	1429.306667	1421.896484	-4.659332
12500.506915	1429.306667	1420.821289	-61.343327
12500.506915	1429.306667	1419.746094	103.677620
12500.506915	1429.306667	1418.669922	34.754704
12500.506915	1429.306667	1417.594727	-109.142860
12500.506915	1429.306667	1416.518555	108.846611
12500.506915	1429.306667	1415.442383	-27.999369
12500.506915	1429.306667	1414.365234	59.595783
12500.506915	1429.306667	1413.289063	75.006340
12500.506915	1429.306667	1412.211914	-75.892143
12500.506915	1429.306667	1411.134766	-17.336426
12500.506915	1429.306667	1410.057617	11.296916
12500.506915	1429.306667	1408.979492	-57.622162
12500.506915	1429.306667	1407.902344	-70.664948
12500.506915	1429.306667	1406.824219	88.783112
12500.506915	1429.306667	1405.746094	-2.020726
12500.506915	1429.306667	1404.666992	157.523560
12500.506915	1429.306667	1403.588867	60.762943
12500.506915	1429.306667	1402.509766	-43.484711
12500.506915	1429.306667	1401.430664	187.720856
12500.506915	1429.306667	1400.351563	105.837502
12500.506915	1429.306667	1399.271484	61.905331
12500.506915	1429.306667	1398.192383	70.655334
12500.506915	1429.306667	1397.112305	49.895348
12500.506915	1429.306667	1396.031250	61.297188
12500.506915	1429.306667	1394.951172	148.747955
12500.506915	1429.306667	1393.871094	155.759949
12500.506915	1429.306667	1392.790039	103.000298
12500.506915	1429.306667	1391.708984	187.070190
12500.506915	1429.306667	1390.626953	140.003998
12500.506915	1429.306667	1389.545898	249.664673
12500.506915	1429.306667	1388.463867	170.487854
12500.506915	1429.306667	1387.381836	94.885147
12500.506915	1429.306667	1386.299805	105.207474
12500.506915	1429.306667	1385.217773	178.612411
12500.506915	1429.306667	1384.134766	214.954285
12500.506915	1429.306667	1383.051758	201.024002
12500.506915	1429.306667	1381.968750	168.743286
12500.506915	1429.306667	1380.885742	114.656418
12500.506915	1429.306667	1379.802734	277.505432
12500.506915	1429.306667	1378.718750	108.071510
12500.506915	1429.306667	1377.634766	224.036575
12500.506915	1429.306667	1376.550781	129.442429
12500.506915	1429.306667	1375.465820	209.856491
12500.506915	1429.306667	1374.381836	161.812943
12500.506915	1429.306667	1373.296875	223.694290
12500.506915	1429.306667	1372.211914	251.620804
12500.506915	1429.306667	1371.126953	260.650909
12500.506915	1429.306667	1370.041016	192.249084
12500.506915	1429.306667	1368.955078	207.754730
12500.506915	1429.306667	1367.869141	241.134018
12500.506915	1429.306667	1366.783203	168.159241
12500.506915	1429.306667	1365.697266	311.639282
12500.506915	1429.306667	1364.610352	48.276005
12500.506915	1429.306667	1363.523438	47.334038
12500.506915	1429.306667	1362.436523	93.991432
12500.506915	1429.306667	1361.349609	143.457489
12500.506915	1429.306667	1360.261719	88.718765
12500.506915	1429.306667	1359.174805	177.206390
12500.506915	1429.306667	1358.086914	158.658371
12500.506915	1429.306667	1356.998047	332.304047
12500.506915	1429.306667	1355.910156	123.186241
12500.506915	1429.306667	1354.821289	283.567474
12500.506915	1429.306667	1353.732422	121.758118
12500.506915	1429.306667	1352.643555	120.956711
12500.506915	1429.306667	1351.554688	223.114731
12500.506915	1429.306667	1350.464844	134.513809
12500.506915	1429.306667	1349.375000	194.189850
12500.506915	1429.306667	1348.285156	154.447342
12500.506915	1429.306667	1347.195313	359.369110
12500.506915	1429.306667	1346.105469	147.423676
12500.506915	1429.306667	1345.014648	268.375732
12500.506915	1429.306667	1343.923828	235.744415
12500.506915	1429.306667	1342.833008	237.106232
12500.506915	1429.306667	1341.741211	178.671646
12500.506915	1429.306667	1340.650391	119.017174
12500.506915	1429.306667	1339.558594	147.886261
12500.506915	1429.306667	1338.466797	116.719879
12500.506915	1429.306667	1337.374023	100.199760
12500.506915	1429.306667	1336.282227	158.383270
12500.506915	1429.306667	1335.189453	126.896263
12500.506915	1429.306667	1334.096680	126.803696
12500.506915	1429.306667	1333.003906	83.102928
12500.506915	1429.306667	1331.910156	94.390305
12500.506915	1429.306667	1330.817383	84.213760
12500.506915	1429.306667	1329.723633	233.269119
12500.506915	1429.306667	1328.629883	195.914719
12500.506915	1429.306667	1327.535156	143.546768
12500.506915	1429.306667	1326.441406	210.416687
12500.506915	1429.306667	1325.346680	160.405487
12500.506915	1429.306667	1324.251953	37.700535
12500.506915	1429.306667	1323.156250	104.673187
12500.506915	1429.306667	1322.061523	189.412170
12500.506915	1429.306667	1320.965820	174.842041
12500.506915	1429.306667	1319.870117	299.603271
12500.506915	1429.306667	1318.774414	200.130661
12500.506915	1429.306667	1317.678711	98.037811
12500.506915	1429.306667	1316.582031	139.869476
12500.506915	1429.306667	1315.485352	215.619080
12500.506915	1429.306667	1314.388672	228.640427
12500.506915	1429.306667	1313.291016	259.222931
12500.506915	1429.306667	1312.194336	257.896027
12500.506915	1429.306667	1311.096680	221.688461
12500.506915	1429.306667	1309.999023	173.934464
12500.506915	1429.306667	1308.901367	162.816895
12500.506915	1429.306667	1307.802734	162.265381
12500.506915	1429.306667	1306.705078	121.411797
12500.506915	1429.306667	1305.606445	129.500824
12500.506915	1429.306667	1304.506836	188.558640
12500.506915	1429.306667	1303.408203	179.078400
12500.506915	1429.306667	1302.308594	-76.681984
12500.506915	1429.306667	1301.208984	137.035919
12500.506915	1429.306667	1300.109375	113.945770
12500.506915	1429.306667	1299.009766	191.563477
12500.506915	1429.306667	1297.909180	127.286980
12500.506915	1429.306667	1296.808594	60.020187
12500.506915	1429.306667	1295.708008	172.455261
12500.506915	1429.306667	1294.607422	154.914276
12500.506915	1429.306667	1293.506836	60.502472
12500.506915	1429.306667	1292.405273	128.471359
12500.506915	1429.306667	1291.303711	125.590050
12500.506915	1429.306667	1290.202148	164.391510
12500.506915	1429.306667	1289.099609	111.662445
12500.506915	1429.306667	1287.998047	211.017838
12500.506915	1429.306667	1286.895508	146.770020
12500.506915	1429.306667	1285.792969	60.086487
12500.506915	1429.306667	1284.689453	102.544975
12500.506915	1429.306667	1283.586914	49.613937
12500.506915	1429.306667	1282.483398	62.991020
12500.506915	1429.306667	1281.379883	56.072205
12500.506915	1429.306667	1280.276367	177.235229
12500.506915	1429.306667	1279.171875	-8.685340
12500.506915	1429.306667	1278.067383	20.746037
12500.506915	1429.306667	1276.962891	-35.384426
12500.506915	1429.306667	1275.858398	-2.600856
12500.506915	1429.306667	1274.753906	11.472518
12500.506915	1429.306667	1273.648438	17.471581
12500.506915	1429.306667	1272.542969	18.662884
12500.506915	1429.306667	1271.437500	112.824547
12500.506915	1429.306667	1270.331055	71.105156
12500.506915	1429.306667	1269.225586	-2.382419
12500.506915	1429.306667	1268.119141	-46.713352
12500.506915	1429.306667	1267.012695	-14.614274
12500.506915	1429.306667	1265.906250	8.945868
12500.506915	1429.306667	1264.798828	25.420858
12500.506915	1429.306667	1263.691406	38.194412
12500.506915	1429.306667	1262.583984	45.123753
12500.506915	1429.306667	1261.476563	-28.958311
12500.506915	1429.306667	1260.368164	-34.576004
12500.506915	1429.306667	1259.260742	-21.949038
12500.506915	1429.306667	1258.152344	1.408515
12500.506915	1429.306667	1257.043945	29.719217
12500.506915	1429.306667	1255.934570	22.640007
12500.506915	1429.306667	1254.825195	-14.919541
12500.506915	1429.306667	1253.716797	-55.280811
12500.506915	1429.306667	1252.606445	-11.185496
12500.506915	1429.306667	1251.497070	10.691212
12500.506915	1429.306667	1250.387695	45.130272
12500.506915	1429.306667	1249.277344	-16.911072
12500.506915	1429.306667	1248.166992	41.720890
12500.506915	1429.306667	1247.055664	71.254883
12500.506915	1429.306667	1245.945313	-2.616225
12500.506915	1429.306667	1244.833984	31.437275
12500.506915	1429.306667	1243.722656	-39.730217
12500.506915	1429.306667	1242.611328	55.636486
12500.506915	1429.306667	1241.499023	42.982414
12500.506915	1429.306667	1240.387695	55.536098
12500.506915	1429.306667	1239.275391	-17.256063
12500.506915	1429.306667	1238.162109	30.979282
12500.506915	1429.306667	1237.049805	-79.802284
12500.506915	1429.306667	1235.936523	-22.415583
12500.506915	1429.306667	1234.823242	-27.710802
12500.506915	1429.306667	1233.709961	6.105831
12500.506915	1429.306667	1232.596680	61.445274
12500.506915	1429.306667	1231.482422	-27.792854
12500.506915	1429.306667	1230.369141	-36.830193
12500.506915	1429.306667	1229.253906	-58.864998
12500.506915	1429.306667	1228.139648	-99.421524
12500.506915	1429.306667	1227.025391	-126.621147
12500.506915	1429.306667	1225.910156	-58.770306
12500.506915	1429.306667	1224.794922	-135.798248
12500.506915	1429.306667	1223.679688	49.747475
12500.506915	1429.306667	1222.563477	-97.115837
12500.506915	1429.306667	1221.447266	40.760216
12500.506915	1429.306667	1220.331055	-19.788603
12500.506915	1429.306667	1219.214844	-99.385986
12500.506915	1429.306667	1218.098633	-59.779171
12500.506915	1429.306667	1216.981445	-28.214064
12500.506915	1429.306667	1215.864258	-2.058852
12500.506915	1429.306667	1214.747070	-22.586639
12500.506915	1429.306667	1213.629883	-47.068581
12500.506915	1429.306667	1212.511719	-34.050407
12500.506915	1429.306667	1211.393555	-33.820690
12500.506915	1429.306667	1210.275391	90.430962
12500.506915	1429.306667	1209.157227	104.720520
12500.506915	1429.306667	1208.038086	-71.511444
12500.506915	1429.306667	1206.918945	-45.265877
12500.506915	1429.306667	1205.799805	-3.433060
12500.506915	1429.306667	1204.680664	-46.364220
12500.506915	1429.306667	1203.560547	-12.412729
12500.506915	1429.306667	1202.441406	-0.464071
12500.506915	1429.306667	1201.321289	2.902093
12500.506915	1429.306667	1200.200195	-69.820251
12500.506915	1429.306667	1199.080078	-127.981888
12500.506915	1429.306667	1197.958984	-35.643456
12500.506915	1429.306667	1196.837891	-47.823914
12500.506915	1429.306667	1195.716797	-43.735802
12500.506915	1429.306667	1194.594727	-19.894648
12500.506915	1429.306667	1193.473633	-45.008575
12500.506915	1429.306667	1192.351563	-21.119734
12500.506915	1429.306667	1191.229492	41.420433
12500.506915	1429.306667	1190.106445	-9.748834
12500.506915	1429.306667	1188.984375	27.219088
12500.506915	1429.306667	1187.861328	-64.685783
12500.506915	1429.306667	1186.738281	96.787697
12500.506915	1429.306667	1185.614258	16.497000
12500.506915	1429.306667	1184.491211	-73.723892
12500.506915	1429.306667	1183.367188	18.819597
12500.506915	1429.306667	1182.243164	-52.509071
12500.506915	1429.306667	1181.119141	-27.266649
12500.506915	1429.306667	1179.994141	-12.404290
12500.506915	1429.306667	1178.869141	-9.069719
12500.506915	1429.306667	1177.744141	-4.458854
12500.506915	1429.306667	1176.619141	-47.699734
12500.506915	1429.306667	1175.493164	-30.601933
12500.506915	1429.306667	1174.368164	-15.722420
12500.506915	1429.306667	1173.242188	-74.813545
12500.506915	1429.306667	1172.115234	-71.106392
12500.506915	1429.306667	1170.989258	2.685879
12500.506915	1429.306667	1169.862305	-38.425461
12500.506915	1429.306667	1168.735352	140.927582
12500.506915	1429.306667	1167.608398	65.669205
12500.506915	1429.306667	1166.481445	-17.334459
12500.506915	1429.306667	1165.353516	27.512701
12500.506915	1429.306667	1164.225586	72.367775
12500.506915	1429.306667	1163.097656	53.084675
12500.506915	1429.306667	1161.968750	-4.278593
12500.506915	1429.306667	1160.840820	66.664597
12500.506915	1429.306667	1159.711914	82.905846
12500.506915	1429.306667	1158.583008	14.122797
12500.506915	1429.306667	1157.453125	35.513081
12500.506915	1429.306667	1156.324219	60.058125
12500.506915	1429.306667	1155.194336	63.565868
12500.506915	1429.306667	1154.064453	-0.462271
12500.506915	1429.306667	1152.933594	60.649818
12500.506915	1429.306667	1151.803711	13.133169
12500.506915	1429.306667	1150.672852	-24.924091
12500.506915	1429.306667	1149.541992	-68.197739
12500.506915	1429.306667	1148.411133	-33.061867
12500.506915	1429.306667	1147.279297	9.824136
12500.506915	1429.306667	1146.147461	-16.544081
12500.506915	1429.306667	1145.015625	101.252357
12500.506915	1429.306667	1143.883789	39.103035
12500.506915	1429.306667	1142.750977	52.544331
12500.506915	1429.306667	1141.619141	14.577004
12500.506915	1429.306667	1140.486328	-22.565964
12500.506915	1429.306667	1139.352539	13.946874
12500.506915	1429.306667	1138.219727	139.036758
12500.506915	1429.306667	1137.085938	43.306721
12500.506915	1429.306667	1135.952148	-20.018963
12500.506915	1429.306667	1134.818359	56.474689
12500.506915	1429.306667	1133.683594	83.616463
12500.506915	1429.306667	1132.549805	58.417557
12500.506915	1429.306667	1131.415039	120.102493
12500.506915	1429.306667	1130.279297	22.557411
12500.506915	1429.306667	1129.144531	147.811661
12500.506915	1429.306667	1128.008789	99.519363
12500.506915	1429.306667	1126.873047	141.651001
12500.506915	1429.306667	1125.737305	115.036591
12500.506915	1429.306667	1124.601563	26.412928
12500.506915	1429.306667	1123.464844	121.136536
12500.506915	1429.306667	1122.328125	135.956238
12500.506915	1429.306667	1121.191406	76.243118
12500.506915	1429.306667	1120.054688	66.897995
12500.506915	1429.306667	1118.916992	83.089378
12500.506915	1429.306667	1117.779297	18.026123
12500.506915	1429.306667	1116.641602	16.762394
12500.506915	1429.306667	1115.503906	141.729797
12500.506915	1429.306667	1114.365234	91.242310
12500.506915	1429.306667	1113.226563	82.598190
12500.506915	1429.306667	1112.087891	32.120159
12500.506915	1429.306667	1110.949219	-85.362701
12500.506915	1429.306667	1109.809570	41.128571
12500.506915	1429.306667	1108.669922	-12.070109
12500.506915	1429.306667	1107.530273	41.725319
12500.506915	1429.306667	1106.390625	40.957703
12500.506915	1429.306667	1105.250000	119.169456
12500.506915	1429.306667	1104.109375	-5.308358
12500.506915	1429.306667	1102.968750	28.143396
12500.506915	1429.306667	1101.828125	60.400681
12500.506915	1429.306667	1100.686523	56.526367
12500.506915	1429.306667	1099.544922	87.160660
12500.506915	1429.306667	1098.403320	98.060883
12500.506915	1429.306667	1097.261719	111.654274
12500.506915	1429.306667	1096.120117	123.956444
12500.506915	1429.306667	1094.977539	-47.411190
12500.506915	1429.306667	1093.834961	139.490967
12500.506915	1429.306667	1092.691406	126.663696
12500.506915	1429.306667	1091.548828	155.915955
12500.506915	1429.306667	1090.405273	93.339661
12500.506915	1429.306667	1089.261719	-20.005457
12500.506915	1429.306667	1088.118164	19.908947
12500.506915	1429.306667	1086.973633	-19.696188
12500.506915	1429.306667	1085.829102	101.655449
12500.506915	1429.306667	1084.684570	66.113754
12500.506915	1429.306667	1083.540039	108.717331
12500.506915	1429.306667	1082.395508	167.285995
12500.506915	1429.306667	1081.250000	70.379036
12500.506915	1429.306667	1080.104492	103.030914
12500.506915	1429.306667	1078.958984	31.620562
12500.506915	1429.306667	1077.812500	33.934753
12500.506915	1429.306667	1076.666016	-16.341608
12500.506915	1429.306667	1075.519531	86.899902
12500.506915	1429.306667	1074.373047	26.588493
12500.506915	1429.306667	1073.226563	-17.424250
12500.506915	1429.306667	1072.079102	41.747520
12500.506915	1429.306667	1070.931641	119.943077
12500.506915	1429.306667	1069.784180	28.614584
12500.506915	1429.306667	1068.635742	90.915436
12500.506915	1429.306667	1067.487305	-45.095325
12500.506915	1429.306667	1066.338867	104.528122
12500.506915	1429.306667	1065.190430	33.763336
12500.506915	1429.306667	1064.041992	29.720709
12500.506915	1429.306667	1062.892578	-64.710587
12500.506915	1429.306667	1061.743164	9.026115
12500.506915	1429.306667	1060.593750	136.951828
12500.506915	1429.306667	1059.443359	75.588531
12500.506915	1429.306667	1058.292969	123.747292
12500.506915	1429.306667	1057.142578	-9.584044
12500.506915	1429.306667	1055.992188	-51.896660
12500.506915	1429.306667	1054.841797	-36.504486
12500.506915	1429.306667	1053.690430	13.525031
12500.506915	1429.306667	1052.539063	84.929314
12500.506915	1429.306667	1051.387695	45.062897
12500.506915	1429.306667	1050.235352	114.088280
12500.506915	1429.306667	1049.083984	90.664452
12500.506915	1429.306667	1047.931641	142.145660
12500.506915	1429.306667	1046.778320	76.663277
12500.506915	1429.306667	1045.625977	70.493538
12500.506915	1429.306667	1044.472656	-27.134367
12500.506915	1429.306667	1043.319336	-13.712409
12500.506915	1429.306667	1042.166016	34.755062
12500.506915	1429.306667	1041.012695	52.652370
12500.506915	1429.306667	1039.858398	57.652176
12500.506915	1429.306667	1038.704102	163.461288
12500.506915	1429.306667	1037.549805	-115.861656
12500.506915	1429.306667	1036.394531	114.846222
12500.506915	1429.306667	1035.239258	25.048582
12500.506915	1429.306667	1034.083984	74.975952
12500.506915	1429.306667	1032.928711	28.818329
12500.506915	1429.306667	1031.773438	155.719315
12500.506915	1429.306667	1030.617188	31.961353
12500.506915	1429.306667	1029.460938	34.457886
12500.506915	1429.306667	1028.304688	62.921371
12500.506915	1429.306667	1027.147461	25.161570
12500.506915	1429.306667	1025.991211	83.408234
12500.506915	1429.306667	1024.833984	41.720760
12500.506915	1429.306667	1023.675781	82.501038
12500.506915	1429.306667	1022.518555	-28.468882
12500.506915	1429.306667	1021.360352	79.233627
12500.506915	1429.306667	1020.202148	78.015755
12500.506915	1429.306667	1019.043945	44.824806
12500.506915	1429.306667	1017.884766	70.571060
12500.506915	1429.306667	1016.726563	-14.506770
12500.506915	1429.306667	1015.567383	73.063148
12500.506915	1429.306667	1014.407227	87.473717
12500.506915	1429.306667	1013.248047	131.774750
12500.506915	1429.306667	1012.087891	-26.185034
12500.506915	1429.306667	1010.927734	1.517754
12500.506915	1429.306667	1009.767578	108.077995
12500.506915	1429.306667	1008.606445	64.831665
12500.506915	1429.306667	1007.446289	161.576721
12500.506915	1429.306667	1006.285156	-70.846512
12500.506915	1429.306667	1005.123047	27.160156
12500.506915	1429.306667	1003.961914	48.880573
12500.506915	1429.306667	1002.799805	54.635975
12500.506915	1429.306667	1001.637695	97.757042
12500.506915	1429.306667	1000.475586	64.081245
12500.506915	1429.306667	999.312500	-3.987642
12500.506915	1429.306667	998.149414	66.469467
12500.506915	1429.306667	996.986328	27.864752
12500.506915	1429.306667	995.823242	-4.106415
12500.506915	1429.306667	994.659180	-50.751236
12500.506915	1429.306667	993.496094	-22.169958
12500.506915	1429.306667	992.332031	-3.509293
12500.506915	1429.306667	991.166992	-38.685703
12500.506915	1429.306667	990.002930	-8.940016
12500.506915	1429.306667	988.837891	18.242634
12500.506915	1429.306667	987.672852	97.134453
12500.506915	1429.306667	986.506836	-63.900936
12500.506915	1429.306667	985.341797	-28.343042
12500.506915	1429.306667	984.175781	49.291183
12500.506915	1429.306667	983.009766	12.690479
12500.506915	1429.306667	981.843750	93.070740
12500.506915	1429.306667	980.676758	118.256477
12500.506915	1429.306667	979.509766	57.608356
12500.506915	1429.306667	978.342773	-128.813019
12500.506915	1429.306667	977.175781	-1.488064
12500.506915	1429.306667	976.007813	64.544937
12500.506915	1429.306667	974.839844	49.307297
12500.506915	1429.306667	973.671875	-37.817123
12500.506915	1429.306667	972.503906	-25.204727
12500.506915	1429.306667	971.334961	127.573441
12500.506915	1429.306667	970.166016	153.368805
12500.506915	1429.306667	968.997070	146.712189
12500.506915	1429.306667	967.828125	60.229656
12500.506915	1429.306667	966.658203	-16.614742
12500.506915	1429.306667	965.488281	10.066602
12500.506915	1429.306667	964.318359	220.206848
12500.506915	1429.306667	963.148438	131.466232
12500.506915	1429.306667	961.977539	-7.050105
12500.506915	1429.306667	960.806641	-3.686953
12500.506915	1429.306667	959.635742	42.620693
12500.506915	1429.306667	958.463867	-60.510807
12500.506915	1429.306667	957.292969	-3.314979
12500.506915	1429.306667	956.121094	34.792397
12500.506915	1429.306667	954.948242	-172.339035
12500.506915	1429.306667	953.776367	55.875610
12500.506915	1429.306667	952.603516	-110.542496
12500.506915	1429.306667	951.430664	51.063385
12500.506915	1429.306667	950.257813	2.048289
12500.506915	1429.306667	949.084961	96.758949
12500.506915	1429.306667	947.911133	-13.525736
12500.506915	1429.306667	946.737305	48.039459
12500.506915	1429.306667	945.563477	-109.512199
12500.506915	1429.306667	944.388672	64.949707
12500.506915	1429.306667	943.213867	-127.590393
12500.506915	1429.306667	942.039063	-33.135391
12500.506915	1429.306667	940.864258	23.530111
12500.506915	1429.306667	939.688477	-23.234488
12500.506915	1429.306667	938.513672	21.757431
12500.506915	1429.306667	937.337891	168.010742
12500.506915	1429.306667	936.161133	-29.486713
12500.506915	1429.306667	934.985352	-85.809036
12500.506915	1429.306667	933.808594	25.198513
12500.506915	1429.306667	932.631836	-146.456879
12500.506915	1429.306667	931.454102	13.859755
12500.506915	1429.306667	930.277344	-58.891182
12500.506915	1429.306667	929.099609	56.576099
12500.506915	1429.306667	927.921875	99.140617
12500.506915	1429.306667	926.743164	87.593826
12500.506915	1429.306667	925.565430	-22.759838
12500.506915	1429.306667	924.386719	87.947136
12500.506915	1429.306667	923.208008	3.479060
12500.506915	1429.306667	922.028320	109.436920
12500.506915	1429.306667	920.849609	-66.677528
12500.506915	1429.306667	919.669922	-65.655037
12500.506915	1429.306667	919.474609	34.708031
12500.506915	1429.306667	918.309570	48.941257
12500.506915	1429.306667	917.143555	-98.903160
12500.506915	1429.306667	915.977539	-47.089226
12500.506915	1429.306667	914.810547	23.480120
12500.506915	1429.306667	913.644531	2.466349
12500.506915	1429.306667	912.477539	70.635780
12500.506915	1429.306667	911.310547	-18.437664
12500.506915	1429.306667	910.143555	40.310989
12500.506915	1429.306667	908.975586	-100.332283
12500.506915	1429.306667	907.807617	31.089275
12500.506915	1429.306667	906.639648	-4.006829
12500.506915	1429.306667	905.471680	-41.439899
12500.506915	1429.306667	904.303711	28.937550
12500.506915	1429.306667	903.134766	57.105316
12500.506915	1429.306667	901.965820	-57.641449
12500.506915	1429.306667	900.796875	33.755390
12500.506915	1429.306667	899.626953	-87.977325
12500.506915	1429.306667	898.457031	-48.129391
12500.506915	1429.306667	897.287109	-158.106049
12500.506915	1429.306667	896.117188	164.888611
12500.506915	1429.306667	894.947266	113.392708
12500.506915	1429.306667	893.776367	108.696030
12500.506915	1429.306667	892.605469	8.105992
12500.506915	1429.306667	891.434570	-12.948199
12500.506915	1429.306667	890.262695	-15.297366
12500.506915	1429.306667	889.091797	-10.640651
12500.506915	1429.306667	887.919922	110.850021
12500.506915	1429.306667	886.748047	-62.097527
12500.506915	1429.306667	885.575195	78.028641
12500.506915	1429.306667	884.403320	152.698837
12500.506915	1429.306667	883.230469	-1.490334
12500.506915	1429.306667	882.057617	105.835442
12500.506915	1429.306667	880.883789	31.061602
12500.506915	1429.306667	879.710938	93.987129
12500.506915	1429.306667	878.537109	5.234931
12500.506915	1429.306667	877.362305	-6.512883
12500.506915	1429.306667	876.188477	-97.553238
12500.506915	1429.306667	875.013672	-92.967133
12500.506915	1429.306667	873.839844	-111.701141
12500.506915	1429.306667	872.664063	-9.239708
12500.506915	1429.306667	871.489258	13.947276
12500.506915	1429.306667	870.313477	30.129843
12500.506915	1429.306667	869.138672	27.665174
12500.506915	1429.306667	867.962891	-98.227501
12500.506915	1429.306667	866.786133	4.094614
12500.506915	1429.306667	865.610352	-28.643343
12500.506915	1429.306667	864.433594	-45.083023
12500.506915	1429.306667	863.256836	54.818924
12500.506915	1429.306667	862.079102	38.356033
12500.506915	1429.306667	860.902344	35.848442
12500.506915	1429.306667	859.724609	58.914955
12500.506915	1429.306667	858.546875	44.766907
12500.506915	1429.306667	857.368164	30.618708
12500.506915	1429.306667	856.190430	46.680672
12500.506915	1429.306667	855.011719	-6.974835
12500.506915	1429.306667	853.833008	-18.801004
12500.506915	1429.306667	852.654297	13.499515
12500.506915	1429.306667	851.474609	6.305157
12500.506915	1429.306667	850.294922	-21.786478
12500.506915	1429.306667	849.115234	94.034164
12500.506915	1429.306667	847.935547	-40.826183
12500.506915	1429.306667	846.754883	72.617805
12500.506915	1429.306667	845.575195	-129.467148
12500.506915	1429.306667	844.393555	48.872803
12500.506915	1429.306667	843.212891	34.678883
12500.506915	1429.306667	842.032227	-49.063812
12500.506915	1429.306667	840.850586	3.969870
12500.506915	1429.306667	839.668945	-133.042343
12500.506915	1429.306667	838.486328	-26.740170
12500.506915	1429.306667	837.304688	5.388155
12500.506915	1429.306667	836.122070	120.867928
12500.506915	1429.306667	834.939453	69.585381
12500.506915	1429.306667	833.756836	41.466278
12500.506915	1429.306667	832.573242	52.697048
12500.506915	1429.306667	831.389648	33.834843
12500.506915	1429.306667	830.206055	-12.788827
12500.506915	1429.306667	829.022461	40.058926
12500.506915	1429.306667	827.838867	32.751602
12500.506915	1429.306667	826.654297	27.752466
12500.506915	1429.306667	825.469727	-46.598598
12500.506915	1429.306667	824.284180	103.249550
12500.506915	1429.306667	823.099609	-3.450000
12500.506915	1429.306667	821.914063	-26.947487
12500.506915	1429.306667	820.728516	48.872387
12500.506915	1429.306667	819.542969	96.943672
12500.506915	1429.306667	818.356445	41.095303
12500.506915	1429.306667	817.169922	82.208710
12500.506915	1429.306667	815.983398	-22.091148
12500.506915	1429.306667	814.796875	72.070206
12500.506915	1429.306667	813.609375	-64.494919
12500.506915	1429.306667	812.422852	6.557492
12500.506915	1429.306667	811.235352	6.091826
12500.506915	1429.306667	810.046875	81.695915
12500.506915	1429.306667	808.859375	85.809029
12500.506915	1429.306667	807.670898	71.477158
12500.506915	1429.306667	806.482422	29.495848
12500.506915	1429.306667	805.293945	-30.903505
12500.506915	1429.306667	804.104492	-33.711380
12500.506915	1429.306667	802.915039	-98.693985
12500.506915	1429.306667	801.725586	112.586868
12500.506915	1429.306667	800.536133	63.695354
12500.506915	1429.306667	799.345703	-24.302654
12500.506915	1429.306667	798.155273	-34.051994
12500.506915	1429.306667	796.964844	27.499044
12500.506915	1429.306667	795.774414	68.318680
12500.506915	1429.306667	794.583008	-65.624405
12500.506915	1429.306667	793.392578	-47.806049
12500.506915	1429.306667	792.200195	41.241398
12500.506915	1429.306667	791.008789	49.821674
12500.506915	1429.306667	789.816406	10.147551
12500.506915	1429.306667	788.625000	43.978344
12500.506915	1429.306667	787.432617	89.267525
12500.506915	1429.306667	786.239258	-30.771111
12500.506915	1429.306667	785.046875	74.176971
12500.506915	1429.306667	783.853516	146.944107
12500.506915	1429.306667	782.660156	-7.475317
12500.506915	1429.306667	781.465820	-1.263796
12500.506915	1429.306667	780.272461	101.261902
12500.506915	1429.306667	779.078125	-73.716583
12500.506915	1429.306667	777.883789	86.075699
12500.506915	1429.306667	776.688477	28.048733
12500.506915	1429.306667	775.494141	-39.129566
12500.506915	1429.306667	774.298828	-53.594749
12500.506915	1429.306667	773.103516	30.432796
12500.506915	1429.306667	771.907227	-114.597176
12500.506915	1429.306667	770.711914	40.368805
12500.506915	1429.306667	769.515625	0.679987
12500.506915	1429.306667	768.318359	128.073608
12500.506915	1429.306667	767.122070	54.040203
12500.506915	1429.306667	765.924805	115.005630
12500.506915	1429.306667	764.727539	125.615280
12500.506915	1429.306667	763.530273	47.025364
12500.506915	1429.306667	762.333008	-47.546391
12500.506915	1429.306667	761.134766	-2.651283
12500.506915	1429.306667	759.936523	-60.627281
12500.506915	1429.306667	758.738281	-45.472477
12500.506915	1429.306667	757.540039	15.354591
12500.506915	1429.306667	756.340820	35.034531
12500.506915	1429.306667	755.141602	29.578033
12500.506915	1429.306667	753.942383	-12.414352
12500.506915	1429.306667	752.742188	87.116867
12500.506915	1429.306667	751.541992	86.185333
12500.506915	1429.306667	750.341797	71.555168
12500.506915	1429.306667	749.141602	109.385033
12500.506915	1429.306667	747.941406	1.229075
12500.506915	1429.306667	746.740234	20.795681
12500.506915	1429.306667	745.539063	163.445709
12500.506915	1429.306667	744.337891	-22.178782
12500.506915	1429.306667	743.135742	52.037300
12500.506915	1429.306667	741.933594	0.908456
12500.506915	1429.306667	740.731445	-0.099527
12500.506915	1429.306667	739.529297	17.100719
12500.506915	1429.306667	738.326172	116.248283
12500.506915	1429.306667	737.124023	258.593384
12500.506915	1429.306667	735.919922	79.971527
12500.506915	1429.306667	734.716797	224.517853
12500.506915	1429.306667	733.513672	268.897247
12500.506915	1429.306667	732.309570	206.347260
12500.506915	1429.306667	731.105469	107.429581
12500.506915	1429.306667	729.900391	65.378349
12500.506915	1429.306667	728.696289	136.984955
12500.506915	1429.306667	727.491211	44.927174
12500.506915	1429.306667	726.286133	18.786249
12500.506915	1429.306667	725.080078	144.840729
12500.506915	1429.306667	723.874023	225.409180
12500.506915	1429.306667	722.668945	185.588989
12500.506915	1429.306667	721.461914	173.015610
12500.506915	1429.306667	720.255859	153.626816
12500.506915	1429.306667	719.048828	57.081711
12500.506915	1429.306667	717.841797	51.314629
12500.506915	1429.306667	716.634766	6.977905
12500.506915	1429.306667	715.427734	3.468498
12500.506915	1429.306667	714.219727	-52.199265
12500.506915	1429.306667	713.011719	34.954887
12500.506915	1429.306667	711.803711	115.262482
12500.506915	1429.306667	710.594727	59.570847
12500.506915	1429.306667	709.385742	-11.966878
12500.506915	1429.306667	708.176758	-65.366806
12500.506915	1429.306667	706.967773	-114.226830
12500.506915	1429.306667	705.758789	-13.655108
12500.506915	1429.306667	704.548828	-82.900803
12500.506915	1429.306667	703.338867	13.072359
12500.506915	1429.306667	702.127930	7.178033
12500.506915	1429.306667	700.917969	10.323281
12500.506915	1429.306667	699.707031	72.256813
12500.506915	1429.306667	698.496094	122.847198
12500.506915	1429.306667	697.285156	33.243881
12500.506915	1429.306667	696.073242	6.951303
12500.506915	1429.306667	694.861328	-75.835014
12500.506915	1429.306667	693.649414	146.399353
12500.506915	1429.306667	692.436523	29.713285
12500.506915	1429.306667	691.224609	143.410721
12500.506915	1429.306667	690.011719	26.751469
12500.506915	1429.306667	688.798828	-26.664843
12500.506915	1429.306667	687.584961	14.717950
12500.506915	1429.306667	686.372070	-0.337881
12500.506915	1429.306667	685.158203	52.278000
12500.506915	1429.306667	683.943359	122.903496
12500.506915	1429.306667	682.729492	64.955238
12500.506915	1429.306667	681.514648	196.397034
12500.506915	1429.306667	680.299805	75.321747
12500.506915	1429.306667	679.084961	197.668869
12500.506915	1429.306667	677.869141	166.744049
12500.506915	1429.306667	676.653320	158.347183
12500.506915	1429.306667	675.437500	167.959290
12500.506915	1429.306667	674.221680	222.589233
12500.506915	1429.306667	673.004883	315.454224
12500.506915	1429.306667	671.789063	113.428574
12500.506915	1429.306667	670.571289	41.988529
12500.506915	1429.306667	669.354492	213.541275
12500.506915	1429.306667	668.136719	61.114441
12500.506915	1429.306667	666.919922	106.636612
12500.506915	1429.306667	665.701172	95.918892
12500.506915	1429.306667	664.483398	78.452576
12500.506915	1429.306667	663.264648	110.423912
12500.506915	1429.306667	662.045898	54.742817
12500.506915	1429.306667	660.827148	-52.593548
12500.506915	1429.306667	659.608398	28.765484
12500.506915	1429.306667	658.388672	96.605919
12500.506915	1429.306667	657.168945	63.382633
12500.506915	1429.306667	655.949219	59.341824
12500.506915	1429.306667	654.728516	-12.029844
12500.506915	1429.306667	653.507813	89.374893
12500.506915	1429.306667	652.287109	87.543922
12500.506915	1429.306667	651.066406	72.247856
12500.506915	1429.306667	649.844727	-48.433380
12500.506915	1429.306667	648.623047	-39.055584
12500.506915	1429.306667	647.401367	17.374037
12500.506915	1429.306667	646.179688	24.474735
12500.506915	1429.306667	644.957031	47.243889
12500.506915	1429.306667	643.734375	47.596455
12500.506915	1429.306667	642.511719	106.162430
12500.506915	1429.306667	641.289063	187.082581
12500.506915	1429.306667	640.065430	-27.505610
12500.506915	1429.306667	638.841797	8.632682
12500.506915	1429.306667	637.618164	-62.648895
12500.506915	1429.306667	636.393555	22.676790
12500.506915	1429.306667	635.168945	76.647324
12500.506915	1429.306667	633.944336	-79.597023
12500.506915	1429.306667	632.719727	74.954636
12500.506915	1429.306667	631.494141	37.218094
12500.506915	1429.306667	630.269531	-18.386333
12500.506915	1429.306667	629.042969	42.197025
12500.506915	1429.306667	627.817383	-24.568645
12500.506915	1429.306667	626.590820	-15.387077
12500.506915	1429.306667	625.365234	7.180650
12500.506915	1429.306667	624.137695	20.800999
12500.506915	1429.306667	622.911133	105.825897
12500.506915	1429.306667	621.683594	110.481262
12500.506915	1429.306667	620.456055	54.896587
12500.506915	1429.306667	619.228516	35.014408
12500.506915	1429.306667	618.000977	75.340279
12500.506915	1429.306667	616.772461	39.843666
12500.506915	1429.306667	615.543945	-20.161348
12500.506915	1429.306667	614.314453	-11.066627
12500.506915	1429.306667	613.085938	-95.554230
12500.506915	1429.306667	611.856445	-70.865562
12500.506915	1429.306667	610.626953	5.028798
12500.506915	1429.306667	609.397461	-50.479843
12500.506915	1429.306667	608.166992	107.731300
12500.506915	1429.306667	606.936523	18.830833
12500.506915	1429.306667	605.706055	-9.958396
12500.506915	1429.306667	604.474609	-47.638599
12500.506915	1429.306667	603.244141	25.902172
12500.506915	1429.306667	602.012695	-0.659064
12500.506915	1429.306667	600.780273	35.036285
12500.506915	1429.306667	599.548828	-24.863680
12500.506915	1429.306667	598.316406	-29.185368
12500.506915	1429.306667	597.083984	-44.617558
12500.506915	1429.306667	595.851563	-62.266979
12500.506915	1429.306667	594.618164	17.805557
12500.506915	1429.306667	593.384766	-39.822605
12500.506915	1429.306667	592.151367	62.405388
12500.506915	1429.306667	590.917969	42.519039
12500.506915	1429.306667	589.683594	67.017609
12500.506915	1429.306667	588.449219	40.478928
12500.506915	1429.306667	587.214844	82.709366
12500.506915	1429.306667	585.979492	14.041676
12500.506915	1429.306667	584.745117	-125.542511
12500.506915	1429.306667	583.509766	-70.007782
12500.506915	1429.306667	582.273438	-21.146412
12500.506915	1429.306667	581.038086	5.538384
12500.506915	1429.306667	579.801758	65.438454
12500.506915	1429.306667	578.565430	54.442188
12500.506915	1429.306667	577.329102	61.165527
12500.506915	1429.306667	576.091797	-71.581711
12500.506915	1429.306667	574.854492	-44.914562
12500.506915	1429.306667	573.617188	-0.554482
12500.506915	1429.306667	572.378906	30.512934
12500.506915	1429.306667	571.141602	-13.634502
12500.506915	1429.306667	569.903320	94.825256
12500.506915	1429.306667	568.664063	4.255718
12500.506915	1429.306667	567.425781	-26.590029
12500.506915	1429.306667	566.186523	-48.580841
12500.506915	1429.306667	564.947266	-141.263901
12500.506915	1429.306667	563.708008	86.407410
12500.506915	1429.306667	562.467773	-32.762947
12500.506915	1429.306667	561.227539	84.388771
12500.506915	1429.306667	559.987305	119.811028
12500.506915	1429.306667	558.747070	86.799927
12500.506915	1429.306667	557.505859	113.386993
12500.506915	1429.306667	556.264648	-27.705942
12500.506915	1429.306667	555.023438	-67.269691
12500.506915	1429.306667	553.781250	-9.781034
12500.506915	1429.306667	552.539063	-51.527912
12500.506915	1429.306667	551.296875	89.707642
12500.506915	1429.306667	550.054688	23.725140
12500.506915	1429.306667	548.811523	32.690876
12500.506915	1429.306667	547.569336	-70.689568
12500.506915	1429.306667	546.325195	-118.960640
12500.506915	1429.306667	545.082031	-24.076061
12500.506915	1429.306667	543.837891	48.758499
12500.506915	1429.306667	542.593750	-25.901224
12500.506915	1429.306667	541.349609	-45.507694
12500.506915	1429.306667	540.105469	14.103310
12500.506915	1429.306667	538.860352	-29.686562
12500.506915	1429.306667	537.615234	-38.264484
12500.506915	1429.306667	536.369141	71.896202
12500.506915	1429.306667	535.124023	-59.784718
12500.506915	1429.306667	533.877930	129.466629
12500.506915	1429.306667	532.631836	65.959320
12500.506915	1429.306667	531.384766	55.209282
12500.506915	1429.306667	530.138672	103.772926
12500.506915	1429.306667	528.891602	-89.220367
12500.506915	1429.306667	527.643555	-27.459433
12500.506915	1429.306667	526.396484	100.131134
12500.506915	1429.306667	525.148438	-0.546318
12500.506915	1429.306667	523.900391	74.344528
12500.506915	1429.306667	522.652344	-41.622040
12500.506915	1429.306667	521.403320	96.859962
12500.506915	1429.306667	520.154297	-113.324875
12500.506915	1429.306667	518.905273	-141.467987
12500.506915	1429.306667	517.656250	-11.793933
12500.506915	1429.306667	516.406250	93.729797
12500.506915	1429.306667	515.156250	4.247516
12500.506915	1429.306667	513.906250	72.506805
12500.506915	1429.306667	512.655273	-25.674183
12500.506915	1429.306667	511.404297	25.065613
12500.506915	1429.306667	510.153320	-7.381736
12500.506915	1429.306667	508.902344	152.765976
12500.506915	1429.306667	507.650391	-63.456326
12500.506915	1429.306667	506.398438	-69.589012
12500.506915	1429.306667	505.146484	20.513359
12500.506915	1429.306667	503.893555	-3.109406
12500.506915	1429.306667	502.641602	8.262644
12500.506915	1429.306667	501.388672	-56.854286
12500.506915	1429.306667	500.134766	50.681309
12500.506915	1429.306667	498.881836	-12.215884
12500.506915	1429.306667	497.627930	69.071419
12500.506915	1429.306667	496.374023	28.049036
12500.506915	1429.306667	495.119141	-6.398537
12500.506915	1429.306667	493.865234	-45.188759
12500.506915	1429.306667	492.610352	-1.031512
12500.506915	1429.306667	491.355469	-85.608070
12500.506915	1429.306667	490.099609	-13.091111
12500.506915	1429.306667	488.843750	-3.841649
12500.506915	1429.306667	487.587891	31.574610
12500.506915	1429.306667	486.332031	-44.191261
12500.506915	1429.306667	485.075195	76.226089
12500.506915	1429.306667	483.818359	78.935280
12500.506915	1429.306667	482.561523	-73.021072
12500.506915	1429.306667	481.304688	42.984100
12500.506915	1429.306667	480.046875	-15.257650
12500.506915	1429.306667	478.789063	46.266983
12500.506915	1429.306667	477.531250	53.354923
12500.506915	1429.306667	476.272461	47.385563
12500.506915	1429.306667	475.013672	-19.496531
12500.506915	1429.306667	473.754883	213.824844
12500.506915	1429.306667	472.496094	131.716812
12500.506915	1429.306667	471.236328	95.303810
12500.506915	1429.306667	469.976563	6.736644
12500.506915	1429.306667	468.716797	5.138729
12500.506915	1429.306667	467.456055	36.132942
12500.506915	1429.306667	466.196289	49.733807
12500.506915	1429.306667	464.935547	130.654449
12500.506915	1429.306667	463.673828	207.194458
12500.506915	1429.306667	462.413086	96.997154
12500.506915	1429.306667	461.151367	229.935257
12500.506915	1429.306667	459.889648	-14.769840
12500.506915	1429.306667	458.626953	222.261353
12500.506915	1429.306667	457.364258	131.653961
12500.506915	1429.306667	456.101563	90.955933
12500.506915	1429.306667	454.838867	106.638008
12500.506915	1429.306667	453.575195	9.584894
12500.506915	1429.306667	452.312500	98.941711
12500.506915	1429.306667	451.047852	19.242849
12500.506915	1429.306667	449.784180	41.380035
12500.506915	1429.306667	448.519531	46.167416
12500.506915	1429.306667	447.254883	53.102463
12500.506915	1429.306667	445.990234	44.864166
12500.506915	1429.306667	444.725586	49.598774
12500.506915	1429.306667	443.459961	119.228691
12500.506915	1429.306667	442.194336	130.395813
12500.506915	1429.306667	440.927734	126.394516
12500.506915	1429.306667	439.662109	57.498180
12500.506915	1429.306667	438.395508	10.226962
12500.506915	1429.306667	437.127930	105.613029
12500.506915	1429.306667	435.861328	205.253967
12500.506915	1429.306667	434.593750	-30.076910
12500.506915	1429.306667	433.326172	192.619049
12500.506915	1429.306667	432.058594	218.654144
12500.506915	1429.306667	430.790039	89.177696
12500.506915	1429.306667	429.521484	39.596462
12500.506915	1429.306667	428.252930	67.697708
12500.506915	1429.306667	426.984375	41.801357
12500.506915	1429.306667	425.714844	179.833755
12500.506915	1429.306667	424.445313	123.642464
12500.506915	1429.306667	423.174805	88.993507
12500.506915	1429.306667	421.905273	226.789200
12500.506915	1429.306667	420.634766	129.526306
12500.506915	1429.306667	419.364258	185.260300
12500.506915	1429.306667	418.092773	176.278305
12500.506915	1429.306667	416.822266	210.326492
12500.506915	1429.306667	415.550781	196.920059
12500.506915	1429.306667	414.278320	116.708855
12500.506915	1429.306667	413.006836	262.502563
12500.506915	1429.306667	411.734375	205.856003
12500.506915	1429.306667	410.461914	119.040390
12500.506915	1429.306667	409.188477	195.687241
12500.506915	1429.306667	407.916016	98.011230
12500.506915	1429.306667	406.642578	213.183670
12500.506915	1429.306667	405.368164	96.035988
12500.506915	1429.306667	404.094727	122.868431
12500.506915	1429.306667	402.820313	214.070023
12500.506915	1429.306667	401.545898	144.005585
12500.506915	1429.306667	400.270508	228.534760
12500.506915	1429.306667	398.996094	31.603050
12500.506915	1429.306667	397.720703	-17.195824
12500.506915	1429.306667	396.444336	51.986103
12500.506915	1429.306667	395.168945	200.440750
12500.506915	1429.306667	393.892578	69.779213
12500.506915	1429.306667	392.616211	110.678810
12500.506915	1429.306667	391.339844	160.021591
12500.506915	1429.306667	390.062500	172.765961
12500.506915	1429.306667	388.785156	211.105362
12500.506915	1429.306667	387.507813	69.256065
12500.506915	1429.306667	386.229492	-49.096046
12500.506915	1429.306667	384.951172	143.117477
12500.506915	1429.306667	383.672852	-44.022629
12500.506915	1429.306667	382.394531	72.865089
12500.506915	1429.306667	381.115234	80.354378
12500.506915	1429.306667	379.835938	130.496155
12500.506915	1429.306667	378.556641	116.252625
12500.506915	1429.306667	377.277344	142.502899
12500.506915	1429.306667	375.997070	25.243664
12500.506915	1429.306667	374.716797	147.394577
12500.506915	1429.306667	373.435547	104.663284
12500.506915	1429.306667	372.155273	134.453751
12500.506915	1429.306667	370.874023	97.779175
12500.506915	1429.306667	369.591797	-50.196270
12500.506915	1429.306667	368.310547	70.878220
12500.506915	1429.306667	367.028320	144.697723
12500.506915	1429.306667	365.746094	-121.264664
12500.506915	1429.306667	364.463867	103.715271
12500.506915	1429.306667	363.180664	99.972443
12500.506915	1429.306667	361.897461	128.010345
12500.506915	1429.306667	360.614258	68.320908
12500.506915	1429.306667	359.330078	-10.790650
12500.506915	1429.306667	358.045898	-98.650299
12500.506915	1429.306667	356.761719	-39.607765
12500.506915	1429.306667	355.477539	87.359650
12500.506915	1429.306667	354.192383	167.105652
12500.506915	1429.306667	352.907227	41.981789
12500.506915	1429.306667	351.622070	-36.506733
12500.506915	1429.306667	350.336914	114.772629
12500.506915	1429.306667	349.050781	-83.545113
12500.506915	1429.306667	347.764648	-94.738007
12500.506915	1429.306667	346.477539	-29.625402
12500.506915	1429.306667	345.191406	9.607145
12500.506915	1429.306667	343.904297	39.971497
12500.506915	1429.306667	342.616211	-19.364317
12500.506915	1429.306667	341.329102	-93.900719
12500.506915	1429.306667	340.041016	75.736916
12500.506915	1429.306667	338.752930	23.862020
12500.506915	1429.306667	337.463867	16.254406
12500.506915	1429.306667	336.175781	-36.344082
12500.506915	1429.306667	334.886719	21.140507
12500.506915	1429.306667	333.596680	25.090805
12500.506915	1429.306667	332.307617	39.254330
12500.506915	1429.306667	331.017578	-80.765038
12500.506915	1429.306667	329.727539	-1.654007
12500.506915	1429.306667	328.436523	-50.350918
12500.506915	1429.306667	327.146484	25.703188
12500.506915	1429.306667	325.855469	-40.861809
12500.506915	1429.306667	324.563477	-50.628483
12500.506915	1429.306667	323.272461	-43.901093
12500.506915	1429.306667	321.980469	114.930504
12500.506915	1429.306667	320.688477	23.120144
12500.506915	1429.306667	319.395508	57.941490
12500.506915	1429.306667	318.103516	-13.680909
12500.506915	1429.306667	316.810547	3.119537
12500.506915	1429.306667	315.516602	-99.228058
12500.506915	1429.306667	314.223633	35.010796
12500.506915	1429.306667	312.929688	-11.299899
12500.506915	1429.306667	311.635742	56.080910
12500.506915	1429.306667	310.340820	-80.277191
12500.506915	1429.306667	309.045898	32.382420
12500.506915	1429.306667	307.750977	64.007889
12500.506915	1429.306667	306.456055	-17.071997
12500.506915	1429.306667	305.160156	175.982071
12500.506915	1429.306667	303.865234	38.642082
12500.506915	1429.306667	302.568359	25.287292
12500.506915	1429.306667	301.272461	30.268715
12500.506915	1429.306667	299.975586	150.661407
12500.506915	1429.306667	298.678711	46.469151
