#X		#Y		#Wave		#Intensity
11994.688830	2826.135000	1999.980469	92.126427
11994.688830	2826.135000	1999.016602	-77.200699
11994.688830	2826.135000	1998.052734	-27.101297
11994.688830	2826.135000	1997.087891	45.199032
11994.688830	2826.135000	1996.123047	62.880623
11994.688830	2826.135000	1995.158203	-144.951675
11994.688830	2826.135000	1994.193359	-8.518205
11994.688830	2826.135000	1993.228516	-33.172657
11994.688830	2826.135000	1992.262695	-25.706564
11994.688830	2826.135000	1991.297852	21.286213
11994.688830	2826.135000	1990.332031	48.391129
11994.688830	2826.135000	1989.366211	75.414413
11994.688830	2826.135000	1988.399414	-51.028610
11994.688830	2826.135000	1987.433594	3.074160
11994.688830	2826.135000	1986.466797	-83.874115
11994.688830	2826.135000	1985.500977	-99.149689
11994.688830	2826.135000	1984.534180	108.012123
11994.688830	2826.135000	1983.567383	-50.776505
11994.688830	2826.135000	1982.599609	5.431755
11994.688830	2826.135000	1981.632813	2.261470
11994.688830	2826.135000	1980.665039	-28.138018
11994.688830	2826.135000	1979.697266	10.573674
11994.688830	2826.135000	1978.729492	115.890198
11994.688830	2826.135000	1977.761719	-25.779778
11994.688830	2826.135000	1976.792969	89.274284
11994.688830	2826.135000	1975.825195	38.876713
11994.688830	2826.135000	1974.856445	-14.018751
11994.688830	2826.135000	1973.887695	-47.205311
11994.688830	2826.135000	1972.918945	-3.959456
11994.688830	2826.135000	1971.949219	68.819633
11994.688830	2826.135000	1970.980469	-48.334354
11994.688830	2826.135000	1970.010742	36.666039
11994.688830	2826.135000	1969.041016	-75.592873
11994.688830	2826.135000	1968.071289	14.228055
11994.688830	2826.135000	1967.101563	32.523094
11994.688830	2826.135000	1966.130859	45.846329
11994.688830	2826.135000	1965.161133	-96.040161
11994.688830	2826.135000	1964.190430	32.969521
11994.688830	2826.135000	1963.219727	90.496010
11994.688830	2826.135000	1962.249023	17.501850
11994.688830	2826.135000	1961.277344	10.953934
11994.688830	2826.135000	1960.306641	65.894867
11994.688830	2826.135000	1959.334961	101.102974
11994.688830	2826.135000	1958.363281	45.256577
11994.688830	2826.135000	1957.391602	16.455812
11994.688830	2826.135000	1956.419922	108.123077
11994.688830	2826.135000	1955.447266	96.476448
11994.688830	2826.135000	1954.474609	-28.257858
11994.688830	2826.135000	1953.501953	-20.264935
11994.688830	2826.135000	1952.529297	14.729591
11994.688830	2826.135000	1951.556641	76.711006
11994.688830	2826.135000	1950.583984	-33.281700
11994.688830	2826.135000	1949.610352	21.275454
11994.688830	2826.135000	1948.636719	250.112610
11994.688830	2826.135000	1947.663086	-14.561357
11994.688830	2826.135000	1946.689453	71.810509
11994.688830	2826.135000	1945.715820	121.325211
11994.688830	2826.135000	1944.741211	67.761444
11994.688830	2826.135000	1943.767578	166.284378
11994.688830	2826.135000	1942.792969	2.339219
11994.688830	2826.135000	1941.818359	-70.834099
11994.688830	2826.135000	1940.842773	-166.059540
11994.688830	2826.135000	1939.868164	35.323212
11994.688830	2826.135000	1938.892578	141.041931
11994.688830	2826.135000	1937.916992	234.458588
11994.688830	2826.135000	1936.941406	227.389755
11994.688830	2826.135000	1935.965820	114.994286
11994.688830	2826.135000	1934.990234	152.009125
11994.688830	2826.135000	1934.013672	181.655045
11994.688830	2826.135000	1933.037109	37.479065
11994.688830	2826.135000	1932.060547	57.328434
11994.688830	2826.135000	1931.083984	20.881931
11994.688830	2826.135000	1930.107422	-76.721222
11994.688830	2826.135000	1929.129883	-7.962020
11994.688830	2826.135000	1928.153320	48.539108
11994.688830	2826.135000	1927.175781	114.793243
11994.688830	2826.135000	1926.198242	31.889324
11994.688830	2826.135000	1925.219727	-58.321690
11994.688830	2826.135000	1924.242188	15.233120
11994.688830	2826.135000	1923.263672	64.322540
11994.688830	2826.135000	1922.285156	-140.671539
11994.688830	2826.135000	1921.306641	-155.080765
11994.688830	2826.135000	1920.328125	60.059647
11994.688830	2826.135000	1919.349609	87.119690
11994.688830	2826.135000	1918.370117	-49.385239
11994.688830	2826.135000	1917.391602	-14.995567
11994.688830	2826.135000	1916.412109	-139.231689
11994.688830	2826.135000	1915.431641	17.143538
11994.688830	2826.135000	1914.452148	75.890915
11994.688830	2826.135000	1913.472656	66.330452
11994.688830	2826.135000	1912.492188	110.415947
11994.688830	2826.135000	1911.511719	-8.853193
11994.688830	2826.135000	1910.531250	52.293320
11994.688830	2826.135000	1909.550781	-96.161835
11994.688830	2826.135000	1908.569336	142.845917
11994.688830	2826.135000	1907.588867	33.409321
11994.688830	2826.135000	1906.607422	19.002975
11994.688830	2826.135000	1905.625977	21.650145
11994.688830	2826.135000	1904.644531	60.819279
11994.688830	2826.135000	1903.662109	-58.251244
11994.688830	2826.135000	1902.680664	29.599075
11994.688830	2826.135000	1901.698242	-9.115619
11994.688830	2826.135000	1900.715820	51.935474
11994.688830	2826.135000	1899.733398	-20.817337
11994.688830	2826.135000	1898.750000	88.857445
11994.688830	2826.135000	1897.767578	52.604610
11994.688830	2826.135000	1896.784180	-27.392284
11994.688830	2826.135000	1895.800781	-46.590111
11994.688830	2826.135000	1894.817383	-29.324722
11994.688830	2826.135000	1893.833984	-21.781113
11994.688830	2826.135000	1892.850586	-67.680412
11994.688830	2826.135000	1891.866211	15.166354
11994.688830	2826.135000	1890.881836	-57.427738
11994.688830	2826.135000	1889.897461	86.090561
11994.688830	2826.135000	1888.913086	64.493736
11994.688830	2826.135000	1887.927734	-78.440887
11994.688830	2826.135000	1886.943359	-39.327995
11994.688830	2826.135000	1885.958008	-9.931318
11994.688830	2826.135000	1884.972656	50.991341
11994.688830	2826.135000	1883.987305	94.918472
11994.688830	2826.135000	1883.001953	12.748468
11994.688830	2826.135000	1882.015625	136.673203
11994.688830	2826.135000	1881.029297	-93.319611
11994.688830	2826.135000	1880.042969	54.819313
11994.688830	2826.135000	1879.056641	30.880909
11994.688830	2826.135000	1878.070313	-46.338516
11994.688830	2826.135000	1877.083984	-53.288269
11994.688830	2826.135000	1876.096680	102.009132
11994.688830	2826.135000	1875.109375	56.302582
11994.688830	2826.135000	1874.122070	10.615895
11994.688830	2826.135000	1873.134766	-93.134537
11994.688830	2826.135000	1872.146484	49.966732
11994.688830	2826.135000	1871.159180	23.669487
11994.688830	2826.135000	1870.170898	-36.479450
11994.688830	2826.135000	1869.182617	-55.491493
11994.688830	2826.135000	1868.194336	-226.821884
11994.688830	2826.135000	1867.205078	32.218750
11994.688830	2826.135000	1866.216797	20.461655
11994.688830	2826.135000	1865.227539	-42.037067
11994.688830	2826.135000	1864.238281	-19.948063
11994.688830	2826.135000	1863.249023	-9.944368
11994.688830	2826.135000	1862.259766	-106.210747
11994.688830	2826.135000	1861.269531	-59.971928
11994.688830	2826.135000	1860.279297	44.192707
11994.688830	2826.135000	1859.290039	-1.337232
11994.688830	2826.135000	1858.298828	-20.304424
11994.688830	2826.135000	1857.308594	-126.128250
11994.688830	2826.135000	1856.318359	-96.814232
11994.688830	2826.135000	1855.327148	45.851341
11994.688830	2826.135000	1854.335938	-2.049808
11994.688830	2826.135000	1853.344727	-64.400246
11994.688830	2826.135000	1852.353516	-39.944847
11994.688830	2826.135000	1851.362305	-119.138451
11994.688830	2826.135000	1850.370117	-152.519333
11994.688830	2826.135000	1849.377930	-5.193272
11994.688830	2826.135000	1848.385742	38.495697
11994.688830	2826.135000	1847.393555	19.547798
11994.688830	2826.135000	1846.401367	-35.514290
11994.688830	2826.135000	1845.408203	188.708145
11994.688830	2826.135000	1844.415039	-42.085033
11994.688830	2826.135000	1843.421875	-63.422943
11994.688830	2826.135000	1842.428711	-51.070992
11994.688830	2826.135000	1841.435547	-38.727226
11994.688830	2826.135000	1840.441406	-52.850883
11994.688830	2826.135000	1839.448242	135.026886
11994.688830	2826.135000	1838.454102	89.609970
11994.688830	2826.135000	1837.459961	58.628490
11994.688830	2826.135000	1836.464844	-10.802597
11994.688830	2826.135000	1835.470703	54.352951
11994.688830	2826.135000	1834.475586	40.194004
11994.688830	2826.135000	1833.480469	83.683586
11994.688830	2826.135000	1832.485352	-43.363663
11994.688830	2826.135000	1831.490234	64.942055
11994.688830	2826.135000	1830.495117	77.171722
11994.688830	2826.135000	1829.499023	-4.221386
11994.688830	2826.135000	1828.502930	77.593941
11994.688830	2826.135000	1827.506836	111.382996
11994.688830	2826.135000	1826.510742	58.790474
11994.688830	2826.135000	1825.513672	-36.963783
11994.688830	2826.135000	1824.517578	-3.199370
11994.688830	2826.135000	1823.520508	30.541292
11994.688830	2826.135000	1822.523438	-74.771385
11994.688830	2826.135000	1821.526367	-14.688040
11994.688830	2826.135000	1820.529297	-69.653824
11994.688830	2826.135000	1819.531250	28.714113
11994.688830	2826.135000	1818.533203	124.638176
11994.688830	2826.135000	1817.535156	45.693207
11994.688830	2826.135000	1816.537109	-30.839880
11994.688830	2826.135000	1815.539063	-16.388187
11994.688830	2826.135000	1814.540039	67.454033
11994.688830	2826.135000	1813.541992	60.318089
11994.688830	2826.135000	1812.542969	26.852234
11994.688830	2826.135000	1811.543945	-56.848995
11994.688830	2826.135000	1810.543945	79.497047
11994.688830	2826.135000	1809.544922	26.873827
11994.688830	2826.135000	1808.544922	-1.838582
11994.688830	2826.135000	1807.544922	165.448547
11994.688830	2826.135000	1806.544922	96.062035
11994.688830	2826.135000	1805.544922	72.084526
11994.688830	2826.135000	1804.544922	57.655327
11994.688830	2826.135000	1803.543945	4.996930
11994.688830	2826.135000	1802.542969	52.639545
11994.688830	2826.135000	1801.541992	140.834778
11994.688830	2826.135000	1800.541016	164.526138
11994.688830	2826.135000	1799.539063	-7.518549
11994.688830	2826.135000	1798.538086	42.403763
11994.688830	2826.135000	1797.536133	163.859818
11994.688830	2826.135000	1796.534180	49.103577
11994.688830	2826.135000	1795.532227	20.226488
11994.688830	2826.135000	1794.529297	67.640343
11994.688830	2826.135000	1793.527344	179.384308
11994.688830	2826.135000	1792.524414	43.178261
11994.688830	2826.135000	1791.521484	-114.445412
11994.688830	2826.135000	1790.518555	-5.177970
11994.688830	2826.135000	1789.514648	-12.700975
11994.688830	2826.135000	1788.511719	215.547394
11994.688830	2826.135000	1787.507813	36.489487
11994.688830	2826.135000	1786.503906	50.322807
11994.688830	2826.135000	1785.500000	-40.608727
11994.688830	2826.135000	1784.496094	265.915253
11994.688830	2826.135000	1783.491211	132.098358
11994.688830	2826.135000	1782.486328	83.952110
11994.688830	2826.135000	1781.481445	80.992332
11994.688830	2826.135000	1780.476563	-31.384317
11994.688830	2826.135000	1779.471680	3.670966
11994.688830	2826.135000	1778.465820	114.756187
11994.688830	2826.135000	1777.460938	-7.146404
11994.688830	2826.135000	1776.455078	18.299622
11994.688830	2826.135000	1775.449219	72.220268
11994.688830	2826.135000	1774.442383	52.454159
11994.688830	2826.135000	1773.436523	-24.328732
11994.688830	2826.135000	1772.429688	5.741028
11994.688830	2826.135000	1771.422852	147.351074
11994.688830	2826.135000	1770.416016	160.705719
11994.688830	2826.135000	1769.409180	-101.257843
11994.688830	2826.135000	1768.402344	80.543137
11994.688830	2826.135000	1767.394531	-31.914202
11994.688830	2826.135000	1766.386719	-111.153023
11994.688830	2826.135000	1765.378906	18.286852
11994.688830	2826.135000	1764.371094	21.990606
11994.688830	2826.135000	1763.362305	1.955791
11994.688830	2826.135000	1762.354492	112.250450
11994.688830	2826.135000	1761.345703	-64.244324
11994.688830	2826.135000	1760.336914	3.313236
11994.688830	2826.135000	1759.328125	58.970734
11994.688830	2826.135000	1758.318359	62.472664
11994.688830	2826.135000	1757.308594	65.942146
11994.688830	2826.135000	1756.299805	19.667461
11994.688830	2826.135000	1755.290039	23.078686
11994.688830	2826.135000	1754.279297	-20.873331
11994.688830	2826.135000	1753.269531	-71.936882
11994.688830	2826.135000	1752.258789	42.566479
11994.688830	2826.135000	1751.249023	-112.617271
11994.688830	2826.135000	1750.238281	11.241947
11994.688830	2826.135000	1749.226563	28.632114
11994.688830	2826.135000	1748.215820	22.347256
11994.688830	2826.135000	1747.204102	51.476658
11994.688830	2826.135000	1746.193359	33.307159
11994.688830	2826.135000	1745.181641	119.049507
11994.688830	2826.135000	1744.168945	39.390427
11994.688830	2826.135000	1743.157227	2.235121
11994.688830	2826.135000	1742.144531	-1.890899
11994.688830	2826.135000	1741.132813	15.197009
11994.688830	2826.135000	1740.120117	-17.321959
11994.688830	2826.135000	1739.106445	-87.620926
11994.688830	2826.135000	1738.093750	-84.792381
11994.688830	2826.135000	1737.080078	0.551182
11994.688830	2826.135000	1736.067383	45.737823
11994.688830	2826.135000	1735.053711	74.362938
11994.688830	2826.135000	1734.040039	13.360026
11994.688830	2826.135000	1733.025391	-42.945564
11994.688830	2826.135000	1732.011719	-2.648827
11994.688830	2826.135000	1730.997070	138.901047
11994.688830	2826.135000	1729.982422	176.714355
11994.688830	2826.135000	1728.967773	-30.457527
11994.688830	2826.135000	1727.952148	23.777462
11994.688830	2826.135000	1726.937500	26.164066
11994.688830	2826.135000	1725.921875	28.508520
11994.688830	2826.135000	1724.906250	-25.665958
11994.688830	2826.135000	1723.890625	84.842682
11994.688830	2826.135000	1722.875000	7.076813
11994.688830	2826.135000	1721.858398	-77.757202
11994.688830	2826.135000	1720.841797	-56.779045
11994.688830	2826.135000	1719.825195	-78.167038
11994.688830	2826.135000	1718.808594	46.152489
11994.688830	2826.135000	1717.791992	8.223886
11994.688830	2826.135000	1716.774414	108.900330
11994.688830	2826.135000	1715.756836	0.413901
11994.688830	2826.135000	1714.739258	-54.047478
11994.688830	2826.135000	1713.721680	131.006378
11994.688830	2826.135000	1712.704102	-59.717537
11994.688830	2826.135000	1711.685547	-29.749517
11994.688830	2826.135000	1710.667969	136.298477
11994.688830	2826.135000	1709.649414	62.888866
11994.688830	2826.135000	1708.630859	-153.645416
11994.688830	2826.135000	1707.611328	-91.005676
11994.688830	2826.135000	1706.592773	-0.283538
11994.688830	2826.135000	1705.573242	73.946999
11994.688830	2826.135000	1704.553711	-55.847168
11994.688830	2826.135000	1703.534180	25.316874
11994.688830	2826.135000	1702.513672	-41.229622
11994.688830	2826.135000	1701.494141	-168.704361
11994.688830	2826.135000	1700.473633	-59.579147
11994.688830	2826.135000	1699.453125	-18.455709
11994.688830	2826.135000	1698.432617	174.816849
11994.688830	2826.135000	1697.412109	-46.412323
11994.688830	2826.135000	1696.390625	-134.179840
11994.688830	2826.135000	1695.369141	61.219387
11994.688830	2826.135000	1694.347656	57.618877
11994.688830	2826.135000	1693.326172	39.943005
11994.688830	2826.135000	1692.304688	33.929127
11994.688830	2826.135000	1691.282227	6.826122
11994.688830	2826.135000	1690.260742	-1.597016
11994.688830	2826.135000	1689.238281	15.651525
11994.688830	2826.135000	1688.214844	116.985779
11994.688830	2826.135000	1687.192383	129.451813
11994.688830	2826.135000	1686.168945	-26.339605
11994.688830	2826.135000	1685.146484	42.128937
11994.688830	2826.135000	1684.123047	82.502243
11994.688830	2826.135000	1683.099609	101.807167
11994.688830	2826.135000	1682.075195	4.338213
11994.688830	2826.135000	1681.051758	-93.127136
11994.688830	2826.135000	1680.027344	196.766602
11994.688830	2826.135000	1679.002930	162.211487
11994.688830	2826.135000	1677.978516	122.964943
11994.688830	2826.135000	1676.953125	116.340393
11994.688830	2826.135000	1675.928711	156.318817
11994.688830	2826.135000	1674.903320	98.324219
11994.688830	2826.135000	1673.877930	107.907242
11994.688830	2826.135000	1672.852539	98.805344
11994.688830	2826.135000	1671.826172	1.125237
11994.688830	2826.135000	1670.800781	122.422005
11994.688830	2826.135000	1669.774414	264.589539
11994.688830	2826.135000	1668.748047	143.533691
11994.688830	2826.135000	1667.721680	127.253143
11994.688830	2826.135000	1666.694336	155.161606
11994.688830	2826.135000	1665.667969	292.407776
11994.688830	2826.135000	1664.640625	429.558105
11994.688830	2826.135000	1663.613281	189.750534
11994.688830	2826.135000	1662.585938	329.119049
11994.688830	2826.135000	1661.557617	535.829163
11994.688830	2826.135000	1660.530273	307.654480
11994.688830	2826.135000	1659.501953	581.627380
11994.688830	2826.135000	1658.473633	451.065277
11994.688830	2826.135000	1657.444336	462.254120
11994.688830	2826.135000	1656.416016	438.560547
11994.688830	2826.135000	1655.386719	384.638824
11994.688830	2826.135000	1654.358398	333.030548
11994.688830	2826.135000	1653.328125	418.384491
11994.688830	2826.135000	1652.298828	468.855072
11994.688830	2826.135000	1651.269531	328.953339
11994.688830	2826.135000	1650.239258	472.166290
11994.688830	2826.135000	1649.208984	726.651917
11994.688830	2826.135000	1648.178711	732.807434
11994.688830	2826.135000	1647.148438	720.372864
11994.688830	2826.135000	1646.117188	798.333130
11994.688830	2826.135000	1645.086914	815.961365
11994.688830	2826.135000	1644.055664	703.745667
11994.688830	2826.135000	1643.024414	820.959534
11994.688830	2826.135000	1641.992188	889.433960
11994.688830	2826.135000	1640.960938	943.956421
11994.688830	2826.135000	1639.928711	1023.895752
11994.688830	2826.135000	1638.896484	1226.496704
11994.688830	2826.135000	1637.864258	1121.077881
11994.688830	2826.135000	1636.832031	1147.604004
11994.688830	2826.135000	1635.798828	1255.080322
11994.688830	2826.135000	1634.766602	1364.803955
11994.688830	2826.135000	1633.733398	1386.542725
11994.688830	2826.135000	1632.699219	1241.708984
11994.688830	2826.135000	1631.666016	1360.525024
11994.688830	2826.135000	1630.632813	1430.713135
11994.688830	2826.135000	1629.598633	1221.144165
11994.688830	2826.135000	1628.564453	1254.290161
11994.688830	2826.135000	1627.530273	1342.850342
11994.688830	2826.135000	1626.495117	1489.095215
11994.688830	2826.135000	1625.460938	1619.094482
11994.688830	2826.135000	1624.425781	1520.389038
11994.688830	2826.135000	1623.390625	1467.872437
11994.688830	2826.135000	1622.355469	1410.732666
11994.688830	2826.135000	1621.319336	1404.355957
11994.688830	2826.135000	1620.284180	1499.491333
11994.688830	2826.135000	1619.248047	1359.240112
11994.688830	2826.135000	1618.211914	1419.690308
11994.688830	2826.135000	1617.174805	1496.228149
11994.688830	2826.135000	1616.138672	1685.696655
11994.688830	2826.135000	1615.101563	1649.147095
11994.688830	2826.135000	1614.065430	1649.471436
11994.688830	2826.135000	1613.027344	1488.453247
11994.688830	2826.135000	1611.990234	1650.027344
11994.688830	2826.135000	1610.953125	1477.515625
11994.688830	2826.135000	1609.915039	1569.886230
11994.688830	2826.135000	1608.876953	1699.039795
11994.688830	2826.135000	1607.838867	1521.942627
11994.688830	2826.135000	1606.800781	1692.440796
11994.688830	2826.135000	1605.761719	1821.424316
11994.688830	2826.135000	1604.723633	1918.132202
11994.688830	2826.135000	1603.684570	1793.947144
11994.688830	2826.135000	1602.644531	1856.071045
11994.688830	2826.135000	1601.605469	1952.649780
11994.688830	2826.135000	1600.566406	1851.462280
11994.688830	2826.135000	1599.526367	2118.048584
11994.688830	2826.135000	1598.486328	2065.083252
11994.688830	2826.135000	1597.446289	2175.251221
11994.688830	2826.135000	1596.405273	2064.824219
11994.688830	2826.135000	1595.365234	1979.694580
11994.688830	2826.135000	1594.324219	2059.905518
11994.688830	2826.135000	1593.283203	1869.162598
11994.688830	2826.135000	1592.242188	2041.146973
11994.688830	2826.135000	1591.200195	1983.549194
11994.688830	2826.135000	1590.159180	2024.629150
11994.688830	2826.135000	1589.117188	2139.081055
11994.688830	2826.135000	1588.075195	2001.180054
11994.688830	2826.135000	1587.032227	1858.726929
11994.688830	2826.135000	1585.990234	1620.031494
11994.688830	2826.135000	1584.947266	1874.238037
11994.688830	2826.135000	1583.904297	1869.362915
11994.688830	2826.135000	1582.861328	1724.706543
11994.688830	2826.135000	1581.818359	1777.111206
11994.688830	2826.135000	1580.775391	1556.923828
11994.688830	2826.135000	1579.731445	1700.912231
11994.688830	2826.135000	1578.687500	1712.042114
11994.688830	2826.135000	1577.643555	1565.211304
11994.688830	2826.135000	1576.598633	1674.749146
11994.688830	2826.135000	1575.554688	1731.615723
11994.688830	2826.135000	1574.509766	1722.098877
11994.688830	2826.135000	1573.464844	1900.137939
11994.688830	2826.135000	1572.419922	1961.470581
11994.688830	2826.135000	1571.374023	1869.576660
11994.688830	2826.135000	1570.329102	2154.902588
11994.688830	2826.135000	1569.283203	2003.572021
11994.688830	2826.135000	1568.237305	1939.128784
11994.688830	2826.135000	1567.191406	1952.382202
11994.688830	2826.135000	1566.144531	1899.379028
11994.688830	2826.135000	1565.098633	1885.223022
11994.688830	2826.135000	1564.051758	2017.191528
11994.688830	2826.135000	1563.004883	1907.126831
11994.688830	2826.135000	1561.957031	1890.672852
11994.688830	2826.135000	1560.910156	1684.832886
11994.688830	2826.135000	1559.862305	1944.484253
11994.688830	2826.135000	1558.814453	1845.913330
11994.688830	2826.135000	1557.766602	1888.776611
11994.688830	2826.135000	1556.718750	1835.857910
11994.688830	2826.135000	1555.669922	1994.962891
11994.688830	2826.135000	1554.621094	1759.701050
11994.688830	2826.135000	1553.573242	1736.467651
11994.688830	2826.135000	1552.523438	1822.590088
11994.688830	2826.135000	1551.474609	1876.799683
11994.688830	2826.135000	1550.424805	1744.233765
11994.688830	2826.135000	1549.375000	1932.778931
11994.688830	2826.135000	1548.325195	1782.049927
11994.688830	2826.135000	1547.275391	1635.937988
11994.688830	2826.135000	1546.225586	1776.619385
11994.688830	2826.135000	1545.174805	1646.495483
11994.688830	2826.135000	1544.124023	1505.056519
11994.688830	2826.135000	1543.073242	1645.692505
11994.688830	2826.135000	1542.022461	1527.061401
11994.688830	2826.135000	1540.970703	1681.286255
11994.688830	2826.135000	1539.919922	1355.873047
11994.688830	2826.135000	1538.868164	1230.569702
11994.688830	2826.135000	1537.815430	1512.016602
11994.688830	2826.135000	1536.763672	1454.900146
11994.688830	2826.135000	1535.710938	1436.418701
11994.688830	2826.135000	1534.659180	1417.962646
11994.688830	2826.135000	1533.606445	1267.842773
11994.688830	2826.135000	1532.552734	1365.197266
11994.688830	2826.135000	1531.500000	1251.480957
11994.688830	2826.135000	1530.446289	1190.000854
11994.688830	2826.135000	1529.393555	1221.573120
11994.688830	2826.135000	1528.338867	1368.802246
11994.688830	2826.135000	1527.285156	1064.745728
11994.688830	2826.135000	1526.231445	1200.648193
11994.688830	2826.135000	1525.176758	1089.436768
11994.688830	2826.135000	1524.122070	1216.239868
11994.688830	2826.135000	1523.067383	1222.922363
11994.688830	2826.135000	1522.012695	1163.924194
11994.688830	2826.135000	1520.957031	1150.258423
11994.688830	2826.135000	1519.901367	1147.937378
11994.688830	2826.135000	1518.845703	1301.851074
11994.688830	2826.135000	1517.790039	1265.584961
11994.688830	2826.135000	1516.734375	1188.617188
11994.688830	2826.135000	1515.677734	1419.413086
11994.688830	2826.135000	1514.621094	1272.349976
11994.688830	2826.135000	1513.564453	1163.816040
11994.688830	2826.135000	1512.507813	1068.914307
11994.688830	2826.135000	1511.450195	1134.584961
11994.688830	2826.135000	1510.393555	1091.759644
11994.688830	2826.135000	1509.335938	1143.886353
11994.688830	2826.135000	1508.278320	1130.489136
11994.688830	2826.135000	1507.219727	1083.227661
11994.688830	2826.135000	1506.162109	1191.860596
11994.688830	2826.135000	1505.103516	1149.171387
11994.688830	2826.135000	1504.044922	1323.265625
11994.688830	2826.135000	1502.986328	1115.837036
11994.688830	2826.135000	1501.926758	1131.935303
11994.688830	2826.135000	1500.868164	1184.162720
11994.688830	2826.135000	1499.808594	1207.063477
11994.688830	2826.135000	1498.749023	1182.616089
11994.688830	2826.135000	1497.688477	1356.643921
11994.688830	2826.135000	1496.628906	1589.256592
11994.688830	2826.135000	1495.568359	1458.882446
11994.688830	2826.135000	1494.507813	1416.483276
11994.688830	2826.135000	1493.447266	1403.422729
11994.688830	2826.135000	1492.386719	1509.796021
11994.688830	2826.135000	1491.325195	1253.522217
11994.688830	2826.135000	1490.263672	1294.633423
11994.688830	2826.135000	1489.202148	1292.981567
11994.688830	2826.135000	1488.140625	1327.378418
11994.688830	2826.135000	1487.079102	1168.245605
11994.688830	2826.135000	1486.016602	885.447388
11994.688830	2826.135000	1484.954102	1032.480591
11994.688830	2826.135000	1483.891602	920.828003
11994.688830	2826.135000	1482.829102	935.186340
11994.688830	2826.135000	1481.765625	821.417297
11994.688830	2826.135000	1480.702148	781.903198
11994.688830	2826.135000	1479.638672	744.703003
11994.688830	2826.135000	1478.575195	691.824890
11994.688830	2826.135000	1477.511719	591.844482
11994.688830	2826.135000	1476.447266	489.765289
11994.688830	2826.135000	1475.382813	423.578766
11994.688830	2826.135000	1474.318359	451.782318
11994.688830	2826.135000	1473.253906	361.109772
11994.688830	2826.135000	1472.189453	295.289948
11994.688830	2826.135000	1471.124023	453.685974
11994.688830	2826.135000	1470.058594	470.799774
11994.688830	2826.135000	1468.993164	539.657166
11994.688830	2826.135000	1467.927734	487.518250
11994.688830	2826.135000	1466.861328	240.311646
11994.688830	2826.135000	1465.794922	369.869263
11994.688830	2826.135000	1464.728516	295.085968
11994.688830	2826.135000	1463.662109	216.841034
11994.688830	2826.135000	1462.594727	95.265381
11994.688830	2826.135000	1461.528320	115.146011
11994.688830	2826.135000	1460.460938	188.361710
11994.688830	2826.135000	1459.393555	109.721169
11994.688830	2826.135000	1458.326172	4.306720
11994.688830	2826.135000	1457.257813	71.400398
11994.688830	2826.135000	1456.189453	-12.934871
11994.688830	2826.135000	1455.121094	120.066360
11994.688830	2826.135000	1454.052734	-93.918365
11994.688830	2826.135000	1452.984375	-131.673889
11994.688830	2826.135000	1451.915039	-24.027376
11994.688830	2826.135000	1450.845703	9.186905
11994.688830	2826.135000	1449.776367	-115.289551
11994.688830	2826.135000	1448.707031	-235.975494
11994.688830	2826.135000	1447.636719	-4.825367
11994.688830	2826.135000	1446.567383	-197.159882
11994.688830	2826.135000	1445.497070	-14.869115
11994.688830	2826.135000	1444.425781	-52.391609
11994.688830	2826.135000	1443.355469	-307.600128
11994.688830	2826.135000	1442.285156	119.289215
11994.688830	2826.135000	1441.213867	22.301281
11994.688830	2826.135000	1440.142578	90.773651
11994.688830	2826.135000	1439.070313	84.907501
11994.688830	2826.135000	1437.999023	127.237785
11994.688830	2826.135000	1436.926758	149.305313
11994.688830	2826.135000	1435.854492	36.246326
11994.688830	2826.135000	1434.782227	38.945797
11994.688830	2826.135000	1433.709961	25.986967
11994.688830	2826.135000	1432.636719	116.010735
11994.688830	2826.135000	1431.563477	97.021263
11994.688830	2826.135000	1430.490234	299.186737
11994.688830	2826.135000	1429.416992	223.985886
11994.688830	2826.135000	1428.343750	251.689407
11994.688830	2826.135000	1427.269531	395.970642
11994.688830	2826.135000	1426.195313	217.944855
11994.688830	2826.135000	1425.121094	222.745010
11994.688830	2826.135000	1424.046875	186.743393
11994.688830	2826.135000	1422.971680	199.508041
11994.688830	2826.135000	1421.896484	191.987946
11994.688830	2826.135000	1420.821289	321.501678
11994.688830	2826.135000	1419.746094	202.676300
11994.688830	2826.135000	1418.669922	85.983421
11994.688830	2826.135000	1417.594727	190.245087
11994.688830	2826.135000	1416.518555	156.374985
11994.688830	2826.135000	1415.442383	204.285660
11994.688830	2826.135000	1414.365234	-7.057978
11994.688830	2826.135000	1413.289063	43.137394
11994.688830	2826.135000	1412.211914	-89.452423
11994.688830	2826.135000	1411.134766	25.993086
11994.688830	2826.135000	1410.057617	-22.239815
11994.688830	2826.135000	1408.979492	115.256393
11994.688830	2826.135000	1407.902344	-53.414955
11994.688830	2826.135000	1406.824219	82.021057
11994.688830	2826.135000	1405.746094	-75.944908
11994.688830	2826.135000	1404.666992	119.152954
11994.688830	2826.135000	1403.588867	49.341858
11994.688830	2826.135000	1402.509766	195.761871
11994.688830	2826.135000	1401.430664	199.137314
11994.688830	2826.135000	1400.351563	181.128418
11994.688830	2826.135000	1399.271484	148.993713
11994.688830	2826.135000	1398.192383	82.824806
11994.688830	2826.135000	1397.112305	86.170952
11994.688830	2826.135000	1396.031250	-66.072113
11994.688830	2826.135000	1394.951172	162.317749
11994.688830	2826.135000	1393.871094	61.163578
11994.688830	2826.135000	1392.790039	41.377541
11994.688830	2826.135000	1391.708984	54.598461
11994.688830	2826.135000	1390.626953	58.958309
11994.688830	2826.135000	1389.545898	-72.393616
11994.688830	2826.135000	1388.463867	99.722649
11994.688830	2826.135000	1387.381836	-43.576756
11994.688830	2826.135000	1386.299805	86.938644
11994.688830	2826.135000	1385.217773	70.800125
11994.688830	2826.135000	1384.134766	-3.116911
11994.688830	2826.135000	1383.051758	-80.188736
11994.688830	2826.135000	1381.968750	171.056320
11994.688830	2826.135000	1380.885742	81.757912
11994.688830	2826.135000	1379.802734	93.102531
11994.688830	2826.135000	1378.718750	182.590851
11994.688830	2826.135000	1377.634766	212.460541
11994.688830	2826.135000	1376.550781	405.652985
11994.688830	2826.135000	1375.465820	523.254944
11994.688830	2826.135000	1374.381836	521.003052
11994.688830	2826.135000	1373.296875	580.068848
11994.688830	2826.135000	1372.211914	458.281555
11994.688830	2826.135000	1371.126953	617.287659
11994.688830	2826.135000	1370.041016	650.559814
11994.688830	2826.135000	1368.955078	528.429016
11994.688830	2826.135000	1367.869141	568.485046
11994.688830	2826.135000	1366.783203	488.871429
11994.688830	2826.135000	1365.697266	535.343872
11994.688830	2826.135000	1364.610352	461.543335
11994.688830	2826.135000	1363.523438	559.320007
11994.688830	2826.135000	1362.436523	274.437561
11994.688830	2826.135000	1361.349609	515.348938
11994.688830	2826.135000	1360.261719	440.725555
11994.688830	2826.135000	1359.174805	501.931396
11994.688830	2826.135000	1358.086914	295.051605
11994.688830	2826.135000	1356.998047	476.525665
11994.688830	2826.135000	1355.910156	506.683990
11994.688830	2826.135000	1354.821289	636.931396
11994.688830	2826.135000	1353.732422	558.478882
11994.688830	2826.135000	1352.643555	475.928894
11994.688830	2826.135000	1351.554688	564.958008
11994.688830	2826.135000	1350.464844	812.572998
11994.688830	2826.135000	1349.375000	740.709290
11994.688830	2826.135000	1348.285156	925.401855
11994.688830	2826.135000	1347.195313	881.007080
11994.688830	2826.135000	1346.105469	941.259094
11994.688830	2826.135000	1345.014648	975.947144
11994.688830	2826.135000	1343.923828	912.171448
11994.688830	2826.135000	1342.833008	685.836060
11994.688830	2826.135000	1341.741211	869.409119
11994.688830	2826.135000	1340.650391	746.022278
11994.688830	2826.135000	1339.558594	743.631531
11994.688830	2826.135000	1338.466797	599.854248
11994.688830	2826.135000	1337.374023	644.279907
11994.688830	2826.135000	1336.282227	561.661804
11994.688830	2826.135000	1335.189453	383.925903
11994.688830	2826.135000	1334.096680	387.136841
11994.688830	2826.135000	1333.003906	574.700623
11994.688830	2826.135000	1331.910156	587.918701
11994.688830	2826.135000	1330.817383	338.507782
11994.688830	2826.135000	1329.723633	513.981323
11994.688830	2826.135000	1328.629883	551.750244
11994.688830	2826.135000	1327.535156	654.991211
11994.688830	2826.135000	1326.441406	539.074829
11994.688830	2826.135000	1325.346680	507.801025
11994.688830	2826.135000	1324.251953	440.671326
11994.688830	2826.135000	1323.156250	430.928040
11994.688830	2826.135000	1322.061523	321.330933
11994.688830	2826.135000	1320.965820	242.843475
11994.688830	2826.135000	1319.870117	402.608521
11994.688830	2826.135000	1318.774414	309.157104
11994.688830	2826.135000	1317.678711	286.173523
11994.688830	2826.135000	1316.582031	233.146378
11994.688830	2826.135000	1315.485352	286.422546
11994.688830	2826.135000	1314.388672	163.706772
11994.688830	2826.135000	1313.291016	11.846243
11994.688830	2826.135000	1312.194336	138.100891
11994.688830	2826.135000	1311.096680	128.279633
11994.688830	2826.135000	1309.999023	15.221215
11994.688830	2826.135000	1308.901367	-5.014102
11994.688830	2826.135000	1307.802734	60.570457
11994.688830	2826.135000	1306.705078	48.163071
11994.688830	2826.135000	1305.606445	82.107246
11994.688830	2826.135000	1304.506836	252.436005
11994.688830	2826.135000	1303.408203	6.627287
11994.688830	2826.135000	1302.308594	80.897896
11994.688830	2826.135000	1301.208984	122.817673
11994.688830	2826.135000	1300.109375	267.244690
11994.688830	2826.135000	1299.009766	183.932510
11994.688830	2826.135000	1297.909180	229.820633
11994.688830	2826.135000	1296.808594	251.078354
11994.688830	2826.135000	1295.708008	332.441620
11994.688830	2826.135000	1294.607422	330.062469
11994.688830	2826.135000	1293.506836	319.907318
11994.688830	2826.135000	1292.405273	335.362152
11994.688830	2826.135000	1291.303711	246.712234
11994.688830	2826.135000	1290.202148	443.162262
11994.688830	2826.135000	1289.099609	379.518311
11994.688830	2826.135000	1287.998047	326.943573
11994.688830	2826.135000	1286.895508	562.057373
11994.688830	2826.135000	1285.792969	405.425995
11994.688830	2826.135000	1284.689453	366.947388
11994.688830	2826.135000	1283.586914	264.720062
11994.688830	2826.135000	1282.483398	233.557907
11994.688830	2826.135000	1281.379883	248.596375
11994.688830	2826.135000	1280.276367	181.814590
11994.688830	2826.135000	1279.171875	312.674133
11994.688830	2826.135000	1278.067383	182.144379
11994.688830	2826.135000	1276.962891	261.721954
11994.688830	2826.135000	1275.858398	220.402557
11994.688830	2826.135000	1274.753906	212.861603
11994.688830	2826.135000	1273.648438	160.927048
11994.688830	2826.135000	1272.542969	262.041656
11994.688830	2826.135000	1271.437500	189.600525
11994.688830	2826.135000	1270.331055	146.884872
11994.688830	2826.135000	1269.225586	230.819382
11994.688830	2826.135000	1268.119141	180.272537
11994.688830	2826.135000	1267.012695	289.414459
11994.688830	2826.135000	1265.906250	356.892212
11994.688830	2826.135000	1264.798828	279.365051
11994.688830	2826.135000	1263.691406	212.952255
11994.688830	2826.135000	1262.583984	364.280304
11994.688830	2826.135000	1261.476563	408.780457
11994.688830	2826.135000	1260.368164	638.409912
11994.688830	2826.135000	1259.260742	703.105469
11994.688830	2826.135000	1258.152344	704.480347
11994.688830	2826.135000	1257.043945	773.443604
11994.688830	2826.135000	1255.934570	867.805176
11994.688830	2826.135000	1254.825195	819.779663
11994.688830	2826.135000	1253.716797	803.394226
11994.688830	2826.135000	1252.606445	753.871460
11994.688830	2826.135000	1251.497070	694.263245
11994.688830	2826.135000	1250.387695	609.336548
11994.688830	2826.135000	1249.277344	794.388733
11994.688830	2826.135000	1248.166992	735.156677
11994.688830	2826.135000	1247.055664	553.759216
11994.688830	2826.135000	1245.945313	583.998535
11994.688830	2826.135000	1244.833984	561.177979
11994.688830	2826.135000	1243.722656	490.030487
11994.688830	2826.135000	1242.611328	448.649384
11994.688830	2826.135000	1241.499023	622.552795
11994.688830	2826.135000	1240.387695	453.581024
11994.688830	2826.135000	1239.275391	442.037445
11994.688830	2826.135000	1238.162109	636.920776
11994.688830	2826.135000	1237.049805	672.718445
11994.688830	2826.135000	1235.936523	616.287842
11994.688830	2826.135000	1234.823242	671.210327
11994.688830	2826.135000	1233.709961	605.475708
11994.688830	2826.135000	1232.596680	618.268066
11994.688830	2826.135000	1231.482422	589.094116
11994.688830	2826.135000	1230.369141	612.690063
11994.688830	2826.135000	1229.253906	571.670715
11994.688830	2826.135000	1228.139648	562.577576
11994.688830	2826.135000	1227.025391	575.052124
11994.688830	2826.135000	1225.910156	537.599182
11994.688830	2826.135000	1224.794922	442.378082
11994.688830	2826.135000	1223.679688	287.425476
11994.688830	2826.135000	1222.563477	468.080200
11994.688830	2826.135000	1221.447266	353.648010
11994.688830	2826.135000	1220.331055	328.088409
11994.688830	2826.135000	1219.214844	277.193909
11994.688830	2826.135000	1218.098633	185.314636
11994.688830	2826.135000	1216.981445	334.183044
11994.688830	2826.135000	1215.864258	239.278671
11994.688830	2826.135000	1214.747070	253.091278
11994.688830	2826.135000	1213.629883	84.303024
11994.688830	2826.135000	1212.511719	144.153275
11994.688830	2826.135000	1211.393555	159.859268
11994.688830	2826.135000	1210.275391	35.850239
11994.688830	2826.135000	1209.157227	-26.607180
11994.688830	2826.135000	1208.038086	62.334816
11994.688830	2826.135000	1206.918945	156.906616
11994.688830	2826.135000	1205.799805	113.507179
11994.688830	2826.135000	1204.680664	264.937317
11994.688830	2826.135000	1203.560547	202.712341
11994.688830	2826.135000	1202.441406	240.023376
11994.688830	2826.135000	1201.321289	177.500687
11994.688830	2826.135000	1200.200195	178.994888
11994.688830	2826.135000	1199.080078	281.905579
11994.688830	2826.135000	1197.958984	156.877670
11994.688830	2826.135000	1196.837891	344.441315
11994.688830	2826.135000	1195.716797	158.229828
11994.688830	2826.135000	1194.594727	125.323051
11994.688830	2826.135000	1193.473633	55.970108
11994.688830	2826.135000	1192.351563	-34.291409
11994.688830	2826.135000	1191.229492	54.011459
11994.688830	2826.135000	1190.106445	20.381935
11994.688830	2826.135000	1188.984375	-125.041771
11994.688830	2826.135000	1187.861328	5.094416
11994.688830	2826.135000	1186.738281	49.501701
11994.688830	2826.135000	1185.614258	-49.495865
11994.688830	2826.135000	1184.491211	14.481115
11994.688830	2826.135000	1183.367188	104.141724
11994.688830	2826.135000	1182.243164	272.486725
11994.688830	2826.135000	1181.119141	145.584503
11994.688830	2826.135000	1179.994141	236.943222
11994.688830	2826.135000	1178.869141	284.571472
11994.688830	2826.135000	1177.744141	203.614761
11994.688830	2826.135000	1176.619141	260.318817
11994.688830	2826.135000	1175.493164	244.846024
11994.688830	2826.135000	1174.368164	322.619781
11994.688830	2826.135000	1173.242188	92.010765
11994.688830	2826.135000	1172.115234	209.607941
11994.688830	2826.135000	1170.989258	166.767761
11994.688830	2826.135000	1169.862305	297.519623
11994.688830	2826.135000	1168.735352	74.589439
11994.688830	2826.135000	1167.608398	75.573441
11994.688830	2826.135000	1166.481445	-22.445761
11994.688830	2826.135000	1165.353516	6.865663
11994.688830	2826.135000	1164.225586	46.026569
11994.688830	2826.135000	1163.097656	-51.034729
11994.688830	2826.135000	1161.968750	-13.380896
11994.688830	2826.135000	1160.840820	-45.520638
11994.688830	2826.135000	1159.711914	114.797112
11994.688830	2826.135000	1158.583008	141.672791
11994.688830	2826.135000	1157.453125	-45.476791
11994.688830	2826.135000	1156.324219	-10.352664
11994.688830	2826.135000	1155.194336	-145.137878
11994.688830	2826.135000	1154.064453	8.091761
11994.688830	2826.135000	1152.933594	-74.921257
11994.688830	2826.135000	1151.803711	23.127951
11994.688830	2826.135000	1150.672852	-49.830917
11994.688830	2826.135000	1149.541992	-167.082611
11994.688830	2826.135000	1148.411133	-129.987869
11994.688830	2826.135000	1147.279297	-84.275383
11994.688830	2826.135000	1146.147461	-68.159584
11994.688830	2826.135000	1145.015625	-6.661347
11994.688830	2826.135000	1143.883789	12.750717
11994.688830	2826.135000	1142.750977	45.295124
11994.688830	2826.135000	1141.619141	44.637276
11994.688830	2826.135000	1140.486328	121.478233
11994.688830	2826.135000	1139.352539	8.881099
11994.688830	2826.135000	1138.219727	-141.210831
11994.688830	2826.135000	1137.085938	8.612453
11994.688830	2826.135000	1135.952148	-22.633383
11994.688830	2826.135000	1134.818359	-45.292904
11994.688830	2826.135000	1133.683594	-155.938675
11994.688830	2826.135000	1132.549805	42.626163
11994.688830	2826.135000	1131.415039	-57.633324
11994.688830	2826.135000	1130.279297	-30.254120
11994.688830	2826.135000	1129.144531	-17.269745
11994.688830	2826.135000	1128.008789	-91.865593
11994.688830	2826.135000	1126.873047	195.380386
11994.688830	2826.135000	1125.737305	61.307247
11994.688830	2826.135000	1124.601563	-79.233261
11994.688830	2826.135000	1123.464844	-18.340647
11994.688830	2826.135000	1122.328125	127.434555
11994.688830	2826.135000	1121.191406	59.713642
11994.688830	2826.135000	1120.054688	10.290757
11994.688830	2826.135000	1118.916992	-11.141176
11994.688830	2826.135000	1117.779297	-27.372358
11994.688830	2826.135000	1116.641602	21.307873
11994.688830	2826.135000	1115.503906	-11.089527
11994.688830	2826.135000	1114.365234	-243.665146
11994.688830	2826.135000	1113.226563	67.643944
11994.688830	2826.135000	1112.087891	182.325729
11994.688830	2826.135000	1110.949219	44.865822
11994.688830	2826.135000	1109.809570	180.863770
11994.688830	2826.135000	1108.669922	-27.095963
11994.688830	2826.135000	1107.530273	31.196838
11994.688830	2826.135000	1106.390625	61.190170
11994.688830	2826.135000	1105.250000	4.417619
11994.688830	2826.135000	1104.109375	-47.825317
11994.688830	2826.135000	1102.968750	57.063179
11994.688830	2826.135000	1101.828125	178.387085
11994.688830	2826.135000	1100.686523	-33.929451
11994.688830	2826.135000	1099.544922	132.550278
11994.688830	2826.135000	1098.403320	-34.095345
11994.688830	2826.135000	1097.261719	-101.576469
11994.688830	2826.135000	1096.120117	-0.298099
11994.688830	2826.135000	1094.977539	118.093048
11994.688830	2826.135000	1093.834961	312.272552
11994.688830	2826.135000	1092.691406	135.894928
11994.688830	2826.135000	1091.548828	23.334642
11994.688830	2826.135000	1090.405273	5.612322
11994.688830	2826.135000	1089.261719	1.580898
11994.688830	2826.135000	1088.118164	-4.684121
11994.688830	2826.135000	1086.973633	-29.374502
11994.688830	2826.135000	1085.829102	-65.681671
11994.688830	2826.135000	1084.684570	74.519699
11994.688830	2826.135000	1083.540039	-118.773476
11994.688830	2826.135000	1082.395508	-41.503742
11994.688830	2826.135000	1081.250000	107.984711
11994.688830	2826.135000	1080.104492	-130.905167
11994.688830	2826.135000	1078.958984	-1.948445
11994.688830	2826.135000	1077.812500	-22.589447
11994.688830	2826.135000	1076.666016	48.116341
11994.688830	2826.135000	1075.519531	87.128265
11994.688830	2826.135000	1074.373047	191.877853
11994.688830	2826.135000	1073.226563	33.655979
11994.688830	2826.135000	1072.079102	42.343418
11994.688830	2826.135000	1070.931641	-11.755801
11994.688830	2826.135000	1069.784180	14.239073
11994.688830	2826.135000	1068.635742	52.105713
11994.688830	2826.135000	1067.487305	54.784954
11994.688830	2826.135000	1066.338867	32.504242
11994.688830	2826.135000	1065.190430	112.414856
11994.688830	2826.135000	1064.041992	106.067490
11994.688830	2826.135000	1062.892578	96.340805
11994.688830	2826.135000	1061.743164	51.096664
11994.688830	2826.135000	1060.593750	110.049843
11994.688830	2826.135000	1059.443359	-19.744310
11994.688830	2826.135000	1058.292969	-2.736826
11994.688830	2826.135000	1057.142578	49.643528
11994.688830	2826.135000	1055.992188	65.718956
11994.688830	2826.135000	1054.841797	-15.483719
11994.688830	2826.135000	1053.690430	4.012619
11994.688830	2826.135000	1052.539063	8.774657
11994.688830	2826.135000	1051.387695	159.418579
11994.688830	2826.135000	1050.235352	119.910202
11994.688830	2826.135000	1049.083984	-122.291122
11994.688830	2826.135000	1047.931641	125.068542
11994.688830	2826.135000	1046.778320	-29.452776
11994.688830	2826.135000	1045.625977	-104.873634
11994.688830	2826.135000	1044.472656	91.327385
11994.688830	2826.135000	1043.319336	-11.696393
11994.688830	2826.135000	1042.166016	202.895859
11994.688830	2826.135000	1041.012695	246.727188
11994.688830	2826.135000	1039.858398	-31.756769
11994.688830	2826.135000	1038.704102	65.501740
11994.688830	2826.135000	1037.549805	11.792286
11994.688830	2826.135000	1036.394531	62.455952
11994.688830	2826.135000	1035.239258	3.427525
11994.688830	2826.135000	1034.083984	71.645020
11994.688830	2826.135000	1032.928711	-47.911545
11994.688830	2826.135000	1031.773438	-79.426712
11994.688830	2826.135000	1030.617188	-14.481356
11994.688830	2826.135000	1029.460938	81.237862
11994.688830	2826.135000	1028.304688	119.044464
11994.688830	2826.135000	1027.147461	148.287689
11994.688830	2826.135000	1025.991211	84.620758
11994.688830	2826.135000	1024.833984	-32.207130
11994.688830	2826.135000	1023.675781	281.828430
11994.688830	2826.135000	1022.518555	-82.580139
11994.688830	2826.135000	1021.360352	104.501793
11994.688830	2826.135000	1020.202148	89.072342
11994.688830	2826.135000	1019.043945	-79.575432
11994.688830	2826.135000	1017.884766	120.532539
11994.688830	2826.135000	1016.726563	-47.433983
11994.688830	2826.135000	1015.567383	-8.716891
11994.688830	2826.135000	1014.407227	58.352295
11994.688830	2826.135000	1013.248047	220.926392
11994.688830	2826.135000	1012.087891	-6.304476
11994.688830	2826.135000	1010.927734	95.050117
11994.688830	2826.135000	1009.767578	-7.336854
11994.688830	2826.135000	1008.606445	-117.981224
11994.688830	2826.135000	1007.446289	-23.965275
11994.688830	2826.135000	1006.285156	113.727066
11994.688830	2826.135000	1005.123047	78.438133
11994.688830	2826.135000	1003.961914	156.513046
11994.688830	2826.135000	1002.799805	160.833954
11994.688830	2826.135000	1001.637695	48.175781
11994.688830	2826.135000	1000.475586	78.361427
11994.688830	2826.135000	999.312500	97.819748
11994.688830	2826.135000	998.149414	88.512253
11994.688830	2826.135000	996.986328	26.363428
11994.688830	2826.135000	995.823242	140.404175
11994.688830	2826.135000	994.659180	-13.690155
11994.688830	2826.135000	993.496094	184.624710
11994.688830	2826.135000	992.332031	-1.516514
11994.688830	2826.135000	991.166992	18.104048
11994.688830	2826.135000	990.002930	127.799835
11994.688830	2826.135000	988.837891	186.110733
11994.688830	2826.135000	987.672852	213.444778
11994.688830	2826.135000	986.506836	197.545563
11994.688830	2826.135000	985.341797	100.737442
11994.688830	2826.135000	984.175781	306.621185
11994.688830	2826.135000	983.009766	54.451599
11994.688830	2826.135000	981.843750	70.587761
11994.688830	2826.135000	980.676758	-66.733665
11994.688830	2826.135000	979.509766	88.695328
11994.688830	2826.135000	978.342773	313.480896
11994.688830	2826.135000	977.175781	1.517762
11994.688830	2826.135000	976.007813	201.131882
11994.688830	2826.135000	974.839844	86.631943
11994.688830	2826.135000	973.671875	255.522537
11994.688830	2826.135000	972.503906	204.252594
11994.688830	2826.135000	971.334961	11.845775
11994.688830	2826.135000	970.166016	43.469231
11994.688830	2826.135000	968.997070	-58.708359
11994.688830	2826.135000	967.828125	88.226295
11994.688830	2826.135000	966.658203	-38.373138
11994.688830	2826.135000	965.488281	190.582947
11994.688830	2826.135000	964.318359	-70.116653
11994.688830	2826.135000	963.148438	-44.365280
11994.688830	2826.135000	961.977539	167.419189
11994.688830	2826.135000	960.806641	63.698509
11994.688830	2826.135000	959.635742	201.675064
11994.688830	2826.135000	958.463867	28.878166
11994.688830	2826.135000	957.292969	145.976410
11994.688830	2826.135000	956.121094	101.033569
11994.688830	2826.135000	954.948242	137.163116
11994.688830	2826.135000	953.776367	-144.443329
11994.688830	2826.135000	952.603516	25.921989
11994.688830	2826.135000	951.430664	276.113068
11994.688830	2826.135000	950.257813	59.809307
11994.688830	2826.135000	949.084961	233.253662
11994.688830	2826.135000	947.911133	157.433334
11994.688830	2826.135000	946.737305	167.292709
11994.688830	2826.135000	945.563477	177.044449
11994.688830	2826.135000	944.388672	88.407646
11994.688830	2826.135000	943.213867	68.793541
11994.688830	2826.135000	942.039063	140.300049
11994.688830	2826.135000	940.864258	126.853172
11994.688830	2826.135000	939.688477	165.806747
11994.688830	2826.135000	938.513672	155.701904
11994.688830	2826.135000	937.337891	53.833439
11994.688830	2826.135000	936.161133	171.499893
11994.688830	2826.135000	934.985352	43.544231
11994.688830	2826.135000	933.808594	72.809517
11994.688830	2826.135000	932.631836	177.125565
11994.688830	2826.135000	931.454102	39.387615
11994.688830	2826.135000	930.277344	-19.829321
11994.688830	2826.135000	929.099609	2.817703
11994.688830	2826.135000	927.921875	129.958862
11994.688830	2826.135000	926.743164	289.728577
11994.688830	2826.135000	925.565430	142.282074
11994.688830	2826.135000	924.386719	40.617462
11994.688830	2826.135000	923.208008	50.033894
11994.688830	2826.135000	922.028320	30.043713
11994.688830	2826.135000	920.849609	68.822205
11994.688830	2826.135000	919.669922	69.841530
11994.688830	2826.135000	919.474609	225.265015
11994.688830	2826.135000	918.309570	234.577637
11994.688830	2826.135000	917.143555	106.821808
11994.688830	2826.135000	915.977539	-125.294060
11994.688830	2826.135000	914.810547	-86.590721
11994.688830	2826.135000	913.644531	131.450974
11994.688830	2826.135000	912.477539	91.811844
11994.688830	2826.135000	911.310547	143.455704
11994.688830	2826.135000	910.143555	84.255325
11994.688830	2826.135000	908.975586	168.445602
11994.688830	2826.135000	907.807617	14.767695
11994.688830	2826.135000	906.639648	115.205231
11994.688830	2826.135000	905.471680	-2.595557
11994.688830	2826.135000	904.303711	-6.401531
11994.688830	2826.135000	903.134766	-3.703435
11994.688830	2826.135000	901.965820	106.386406
11994.688830	2826.135000	900.796875	50.473690
11994.688830	2826.135000	899.626953	-37.955299
11994.688830	2826.135000	898.457031	6.999331
11994.688830	2826.135000	897.287109	-45.628986
11994.688830	2826.135000	896.117188	100.082825
11994.688830	2826.135000	894.947266	-131.339630
11994.688830	2826.135000	893.776367	4.567433
11994.688830	2826.135000	892.605469	78.676598
11994.688830	2826.135000	891.434570	-149.370804
11994.688830	2826.135000	890.262695	337.215149
11994.688830	2826.135000	889.091797	44.250736
11994.688830	2826.135000	887.919922	134.500671
11994.688830	2826.135000	886.748047	218.215958
11994.688830	2826.135000	885.575195	298.646973
11994.688830	2826.135000	884.403320	38.354614
11994.688830	2826.135000	883.230469	212.854553
11994.688830	2826.135000	882.057617	-89.486000
11994.688830	2826.135000	880.883789	-77.172058
11994.688830	2826.135000	879.710938	-0.028432
11994.688830	2826.135000	878.537109	-221.120071
11994.688830	2826.135000	877.362305	40.730923
11994.688830	2826.135000	876.188477	78.911697
11994.688830	2826.135000	875.013672	-132.353683
11994.688830	2826.135000	873.839844	-61.773273
11994.688830	2826.135000	872.664063	-111.030151
11994.688830	2826.135000	871.489258	1.596218
11994.688830	2826.135000	870.313477	-15.292200
11994.688830	2826.135000	869.138672	71.374359
11994.688830	2826.135000	867.962891	-3.763076
11994.688830	2826.135000	866.786133	-62.698494
11994.688830	2826.135000	865.610352	162.980652
11994.688830	2826.135000	864.433594	-12.369799
11994.688830	2826.135000	863.256836	-38.946571
11994.688830	2826.135000	862.079102	89.623642
11994.688830	2826.135000	860.902344	143.817337
11994.688830	2826.135000	859.724609	97.836052
11994.688830	2826.135000	858.546875	77.713020
11994.688830	2826.135000	857.368164	-65.119385
11994.688830	2826.135000	856.190430	-40.001553
11994.688830	2826.135000	855.011719	-5.210011
11994.688830	2826.135000	853.833008	249.028717
11994.688830	2826.135000	852.654297	-3.433696
11994.688830	2826.135000	851.474609	253.925934
11994.688830	2826.135000	850.294922	56.397675
11994.688830	2826.135000	849.115234	52.434273
11994.688830	2826.135000	847.935547	-12.784961
11994.688830	2826.135000	846.754883	212.129837
11994.688830	2826.135000	845.575195	134.013519
11994.688830	2826.135000	844.393555	-5.289253
11994.688830	2826.135000	843.212891	-112.321167
11994.688830	2826.135000	842.032227	99.547356
11994.688830	2826.135000	840.850586	-36.441780
11994.688830	2826.135000	839.668945	-30.719257
11994.688830	2826.135000	838.486328	45.815693
11994.688830	2826.135000	837.304688	38.647816
11994.688830	2826.135000	836.122070	21.832075
11994.688830	2826.135000	834.939453	79.010040
11994.688830	2826.135000	833.756836	-8.560399
11994.688830	2826.135000	832.573242	-70.369804
11994.688830	2826.135000	831.389648	73.594955
11994.688830	2826.135000	830.206055	-39.629913
11994.688830	2826.135000	829.022461	-24.268005
11994.688830	2826.135000	827.838867	23.216864
11994.688830	2826.135000	826.654297	-83.499863
11994.688830	2826.135000	825.469727	41.056843
11994.688830	2826.135000	824.284180	5.021897
11994.688830	2826.135000	823.099609	-175.455002
11994.688830	2826.135000	821.914063	67.799759
11994.688830	2826.135000	820.728516	137.677673
11994.688830	2826.135000	819.542969	-81.208458
11994.688830	2826.135000	818.356445	155.465729
11994.688830	2826.135000	817.169922	-34.468815
11994.688830	2826.135000	815.983398	128.358017
11994.688830	2826.135000	814.796875	12.237746
11994.688830	2826.135000	813.609375	216.654846
11994.688830	2826.135000	812.422852	58.911812
11994.688830	2826.135000	811.235352	122.281326
11994.688830	2826.135000	810.046875	63.916218
11994.688830	2826.135000	808.859375	50.407509
11994.688830	2826.135000	807.670898	-148.784607
11994.688830	2826.135000	806.482422	-130.231567
11994.688830	2826.135000	805.293945	-41.279621
11994.688830	2826.135000	804.104492	95.630905
11994.688830	2826.135000	802.915039	78.937828
11994.688830	2826.135000	801.725586	-129.642593
11994.688830	2826.135000	800.536133	-184.650955
11994.688830	2826.135000	799.345703	-31.834238
11994.688830	2826.135000	798.155273	31.424057
11994.688830	2826.135000	796.964844	17.962732
11994.688830	2826.135000	795.774414	154.670380
11994.688830	2826.135000	794.583008	45.362503
11994.688830	2826.135000	793.392578	137.298004
11994.688830	2826.135000	792.200195	-128.414368
11994.688830	2826.135000	791.008789	-106.709694
11994.688830	2826.135000	789.816406	36.269135
11994.688830	2826.135000	788.625000	96.223396
11994.688830	2826.135000	787.432617	34.920860
11994.688830	2826.135000	786.239258	104.420494
11994.688830	2826.135000	785.046875	-141.819595
11994.688830	2826.135000	783.853516	141.306213
11994.688830	2826.135000	782.660156	201.176575
11994.688830	2826.135000	781.465820	18.810059
11994.688830	2826.135000	780.272461	-90.196098
11994.688830	2826.135000	779.078125	14.284242
11994.688830	2826.135000	777.883789	134.645325
11994.688830	2826.135000	776.688477	-22.084053
11994.688830	2826.135000	775.494141	-25.931654
11994.688830	2826.135000	774.298828	-87.073616
11994.688830	2826.135000	773.103516	-1.801747
11994.688830	2826.135000	771.907227	45.252590
11994.688830	2826.135000	770.711914	-104.939857
11994.688830	2826.135000	769.515625	-61.067455
11994.688830	2826.135000	768.318359	-99.887703
11994.688830	2826.135000	767.122070	13.900704
11994.688830	2826.135000	765.924805	-40.815907
11994.688830	2826.135000	764.727539	15.708723
11994.688830	2826.135000	763.530273	-13.573931
11994.688830	2826.135000	762.333008	77.856445
11994.688830	2826.135000	761.134766	86.676056
11994.688830	2826.135000	759.936523	-6.114455
11994.688830	2826.135000	758.738281	63.026703
11994.688830	2826.135000	757.540039	-134.462677
11994.688830	2826.135000	756.340820	166.306931
11994.688830	2826.135000	755.141602	321.013947
11994.688830	2826.135000	753.942383	63.317768
11994.688830	2826.135000	752.742188	211.630920
11994.688830	2826.135000	751.541992	-20.580641
11994.688830	2826.135000	750.341797	-14.964107
11994.688830	2826.135000	749.141602	-145.629089
11994.688830	2826.135000	747.941406	5.751345
11994.688830	2826.135000	746.740234	-23.503157
11994.688830	2826.135000	745.539063	-40.083344
11994.688830	2826.135000	744.337891	202.991501
11994.688830	2826.135000	743.135742	414.300781
11994.688830	2826.135000	741.933594	138.074158
11994.688830	2826.135000	740.731445	162.586777
11994.688830	2826.135000	739.529297	158.606934
11994.688830	2826.135000	738.326172	119.826309
11994.688830	2826.135000	737.124023	115.841240
11994.688830	2826.135000	735.919922	235.164749
11994.688830	2826.135000	734.716797	205.851639
11994.688830	2826.135000	733.513672	94.367027
11994.688830	2826.135000	732.309570	396.868835
11994.688830	2826.135000	731.105469	177.958862
11994.688830	2826.135000	729.900391	278.148499
11994.688830	2826.135000	728.696289	169.862808
11994.688830	2826.135000	727.491211	90.028221
11994.688830	2826.135000	726.286133	269.058563
11994.688830	2826.135000	725.080078	110.316750
11994.688830	2826.135000	723.874023	270.315277
11994.688830	2826.135000	722.668945	114.771637
11994.688830	2826.135000	721.461914	202.138046
11994.688830	2826.135000	720.255859	134.943680
11994.688830	2826.135000	719.048828	291.603638
11994.688830	2826.135000	717.841797	107.771011
11994.688830	2826.135000	716.634766	144.595428
11994.688830	2826.135000	715.427734	127.830002
11994.688830	2826.135000	714.219727	255.959183
11994.688830	2826.135000	713.011719	9.248426
11994.688830	2826.135000	711.803711	80.644691
11994.688830	2826.135000	710.594727	186.625061
11994.688830	2826.135000	709.385742	100.557564
11994.688830	2826.135000	708.176758	23.950686
11994.688830	2826.135000	706.967773	22.866632
11994.688830	2826.135000	705.758789	-28.559143
11994.688830	2826.135000	704.548828	-26.518074
11994.688830	2826.135000	703.338867	-121.960449
11994.688830	2826.135000	702.127930	-57.064548
11994.688830	2826.135000	700.917969	51.785549
11994.688830	2826.135000	699.707031	44.315605
11994.688830	2826.135000	698.496094	49.397156
11994.688830	2826.135000	697.285156	255.468399
11994.688830	2826.135000	696.073242	65.781639
11994.688830	2826.135000	694.861328	155.567368
11994.688830	2826.135000	693.649414	0.471275
11994.688830	2826.135000	692.436523	243.963928
11994.688830	2826.135000	691.224609	204.963211
11994.688830	2826.135000	690.011719	153.411957
11994.688830	2826.135000	688.798828	98.726280
11994.688830	2826.135000	687.584961	122.431343
11994.688830	2826.135000	686.372070	48.926132
11994.688830	2826.135000	685.158203	81.993217
11994.688830	2826.135000	683.943359	46.088318
11994.688830	2826.135000	682.729492	198.148621
11994.688830	2826.135000	681.514648	378.313538
11994.688830	2826.135000	680.299805	88.650146
11994.688830	2826.135000	679.084961	215.493164
11994.688830	2826.135000	677.869141	126.275352
11994.688830	2826.135000	676.653320	284.308014
11994.688830	2826.135000	675.437500	132.490341
11994.688830	2826.135000	674.221680	290.408966
11994.688830	2826.135000	673.004883	345.027863
11994.688830	2826.135000	671.789063	143.191803
11994.688830	2826.135000	670.571289	166.508438
11994.688830	2826.135000	669.354492	246.051758
11994.688830	2826.135000	668.136719	231.788437
11994.688830	2826.135000	666.919922	111.281166
11994.688830	2826.135000	665.701172	65.766319
11994.688830	2826.135000	664.483398	151.410889
11994.688830	2826.135000	663.264648	193.281036
11994.688830	2826.135000	662.045898	41.565765
11994.688830	2826.135000	660.827148	242.560776
11994.688830	2826.135000	659.608398	249.984116
11994.688830	2826.135000	658.388672	251.138474
11994.688830	2826.135000	657.168945	339.598663
11994.688830	2826.135000	655.949219	312.615021
11994.688830	2826.135000	654.728516	229.497467
11994.688830	2826.135000	653.507813	320.942047
11994.688830	2826.135000	652.287109	321.945618
11994.688830	2826.135000	651.066406	369.657501
11994.688830	2826.135000	649.844727	545.038391
11994.688830	2826.135000	648.623047	399.533966
11994.688830	2826.135000	647.401367	428.432648
11994.688830	2826.135000	646.179688	310.976013
11994.688830	2826.135000	644.957031	255.788834
11994.688830	2826.135000	643.734375	116.578537
11994.688830	2826.135000	642.511719	145.398758
11994.688830	2826.135000	641.289063	118.190308
11994.688830	2826.135000	640.065430	227.795151
11994.688830	2826.135000	638.841797	200.522461
11994.688830	2826.135000	637.618164	176.340897
11994.688830	2826.135000	636.393555	-31.222059
11994.688830	2826.135000	635.168945	50.240498
11994.688830	2826.135000	633.944336	85.041496
11994.688830	2826.135000	632.719727	216.080307
11994.688830	2826.135000	631.494141	76.880913
11994.688830	2826.135000	630.269531	117.775566
11994.688830	2826.135000	629.042969	28.258659
11994.688830	2826.135000	627.817383	270.795227
11994.688830	2826.135000	626.590820	199.840439
11994.688830	2826.135000	625.365234	97.867386
11994.688830	2826.135000	624.137695	-106.434448
11994.688830	2826.135000	622.911133	98.598984
11994.688830	2826.135000	621.683594	61.720600
11994.688830	2826.135000	620.456055	-9.263891
11994.688830	2826.135000	619.228516	40.598202
11994.688830	2826.135000	618.000977	31.548630
11994.688830	2826.135000	616.772461	90.612701
11994.688830	2826.135000	615.543945	-51.659103
11994.688830	2826.135000	614.314453	270.496765
11994.688830	2826.135000	613.085938	13.660883
11994.688830	2826.135000	611.856445	-32.658298
11994.688830	2826.135000	610.626953	-26.388681
11994.688830	2826.135000	609.397461	180.917618
11994.688830	2826.135000	608.166992	72.650085
11994.688830	2826.135000	606.936523	211.763229
11994.688830	2826.135000	605.706055	242.590210
11994.688830	2826.135000	604.474609	-165.508820
11994.688830	2826.135000	603.244141	19.832287
11994.688830	2826.135000	602.012695	201.975250
11994.688830	2826.135000	600.780273	59.692184
11994.688830	2826.135000	599.548828	-175.199936
11994.688830	2826.135000	598.316406	204.380280
11994.688830	2826.135000	597.083984	74.452011
11994.688830	2826.135000	595.851563	71.082924
11994.688830	2826.135000	594.618164	-55.731670
11994.688830	2826.135000	593.384766	21.078331
11994.688830	2826.135000	592.151367	-102.640602
11994.688830	2826.135000	590.917969	-139.994629
11994.688830	2826.135000	589.683594	-38.632488
11994.688830	2826.135000	588.449219	-63.709064
11994.688830	2826.135000	587.214844	59.113865
11994.688830	2826.135000	585.979492	80.188499
11994.688830	2826.135000	584.745117	-139.025482
11994.688830	2826.135000	583.509766	100.682838
11994.688830	2826.135000	582.273438	4.662394
11994.688830	2826.135000	581.038086	-168.295441
11994.688830	2826.135000	579.801758	55.805824
11994.688830	2826.135000	578.565430	122.864273
11994.688830	2826.135000	577.329102	-77.764198
11994.688830	2826.135000	576.091797	-69.188377
11994.688830	2826.135000	574.854492	-88.312820
11994.688830	2826.135000	573.617188	9.373679
11994.688830	2826.135000	572.378906	57.817490
11994.688830	2826.135000	571.141602	-213.369843
11994.688830	2826.135000	569.903320	117.716675
11994.688830	2826.135000	568.664063	132.256699
11994.688830	2826.135000	567.425781	116.063057
11994.688830	2826.135000	566.186523	-93.577461
11994.688830	2826.135000	564.947266	74.429329
11994.688830	2826.135000	563.708008	-21.592291
11994.688830	2826.135000	562.467773	75.717598
11994.688830	2826.135000	561.227539	148.428360
11994.688830	2826.135000	559.987305	73.871117
11994.688830	2826.135000	558.747070	79.058167
11994.688830	2826.135000	557.505859	234.450516
11994.688830	2826.135000	556.264648	-54.682213
11994.688830	2826.135000	555.023438	20.968216
11994.688830	2826.135000	553.781250	65.933113
11994.688830	2826.135000	552.539063	71.045647
11994.688830	2826.135000	551.296875	-116.793648
11994.688830	2826.135000	550.054688	-99.419586
11994.688830	2826.135000	548.811523	46.505299
11994.688830	2826.135000	547.569336	161.754776
11994.688830	2826.135000	546.325195	316.720337
11994.688830	2826.135000	545.082031	58.616291
11994.688830	2826.135000	543.837891	115.647224
11994.688830	2826.135000	542.593750	111.487747
11994.688830	2826.135000	541.349609	64.522316
11994.688830	2826.135000	540.105469	213.194504
11994.688830	2826.135000	538.860352	300.676758
11994.688830	2826.135000	537.615234	48.978195
11994.688830	2826.135000	536.369141	173.104279
11994.688830	2826.135000	535.124023	184.178055
11994.688830	2826.135000	533.877930	15.095953
11994.688830	2826.135000	532.631836	81.141556
11994.688830	2826.135000	531.384766	138.000519
11994.688830	2826.135000	530.138672	57.524876
11994.688830	2826.135000	528.891602	74.705353
11994.688830	2826.135000	527.643555	107.128632
11994.688830	2826.135000	526.396484	75.504646
11994.688830	2826.135000	525.148438	220.723068
11994.688830	2826.135000	523.900391	210.429291
11994.688830	2826.135000	522.652344	197.096680
11994.688830	2826.135000	521.403320	165.492477
11994.688830	2826.135000	520.154297	301.445648
11994.688830	2826.135000	518.905273	221.117584
11994.688830	2826.135000	517.656250	274.803436
11994.688830	2826.135000	516.406250	334.561432
11994.688830	2826.135000	515.156250	257.343140
11994.688830	2826.135000	513.906250	253.197052
11994.688830	2826.135000	512.655273	319.031586
11994.688830	2826.135000	511.404297	500.429047
11994.688830	2826.135000	510.153320	61.413094
11994.688830	2826.135000	508.902344	248.892105
11994.688830	2826.135000	507.650391	217.450287
11994.688830	2826.135000	506.398438	-20.613342
11994.688830	2826.135000	505.146484	200.222885
11994.688830	2826.135000	503.893555	253.907410
11994.688830	2826.135000	502.641602	201.290909
11994.688830	2826.135000	501.388672	121.385353
11994.688830	2826.135000	500.134766	77.957008
11994.688830	2826.135000	498.881836	-29.168476
11994.688830	2826.135000	497.627930	-87.681725
11994.688830	2826.135000	496.374023	-64.239975
11994.688830	2826.135000	495.119141	122.995865
11994.688830	2826.135000	493.865234	-53.718582
11994.688830	2826.135000	492.610352	51.617035
11994.688830	2826.135000	491.355469	-9.783559
11994.688830	2826.135000	490.099609	-92.350815
11994.688830	2826.135000	488.843750	49.345230
11994.688830	2826.135000	487.587891	151.623856
11994.688830	2826.135000	486.332031	20.686628
11994.688830	2826.135000	485.075195	238.030334
11994.688830	2826.135000	483.818359	-80.510452
11994.688830	2826.135000	482.561523	18.774065
11994.688830	2826.135000	481.304688	-2.996194
11994.688830	2826.135000	480.046875	-206.248306
11994.688830	2826.135000	478.789063	41.276398
11994.688830	2826.135000	477.531250	-37.866199
11994.688830	2826.135000	476.272461	-80.671104
11994.688830	2826.135000	475.013672	27.699306
11994.688830	2826.135000	473.754883	-21.094229
11994.688830	2826.135000	472.496094	20.798929
11994.688830	2826.135000	471.236328	2.284590
11994.688830	2826.135000	469.976563	50.244564
11994.688830	2826.135000	468.716797	40.841377
11994.688830	2826.135000	467.456055	-47.020695
11994.688830	2826.135000	466.196289	-56.347858
11994.688830	2826.135000	464.935547	42.980007
11994.688830	2826.135000	463.673828	-47.767773
11994.688830	2826.135000	462.413086	-47.966820
11994.688830	2826.135000	461.151367	117.707542
11994.688830	2826.135000	459.889648	189.875320
11994.688830	2826.135000	458.626953	105.297516
11994.688830	2826.135000	457.364258	14.752160
11994.688830	2826.135000	456.101563	20.680063
11994.688830	2826.135000	454.838867	-63.739277
11994.688830	2826.135000	453.575195	53.671928
11994.688830	2826.135000	452.312500	-0.567711
11994.688830	2826.135000	451.047852	-51.756927
11994.688830	2826.135000	449.784180	-72.808777
11994.688830	2826.135000	448.519531	-151.004852
11994.688830	2826.135000	447.254883	228.111420
11994.688830	2826.135000	445.990234	210.068619
11994.688830	2826.135000	444.725586	180.018829
11994.688830	2826.135000	443.459961	98.885910
11994.688830	2826.135000	442.194336	-12.257759
11994.688830	2826.135000	440.927734	-39.203789
11994.688830	2826.135000	439.662109	60.056084
11994.688830	2826.135000	438.395508	84.184593
11994.688830	2826.135000	437.127930	225.427017
11994.688830	2826.135000	435.861328	147.432419
11994.688830	2826.135000	434.593750	21.442833
11994.688830	2826.135000	433.326172	-62.478378
11994.688830	2826.135000	432.058594	-32.347107
11994.688830	2826.135000	430.790039	72.760040
11994.688830	2826.135000	429.521484	45.847988
11994.688830	2826.135000	428.252930	15.937602
11994.688830	2826.135000	426.984375	-67.935226
11994.688830	2826.135000	425.714844	-121.817329
11994.688830	2826.135000	424.445313	-31.858559
11994.688830	2826.135000	423.174805	276.742096
11994.688830	2826.135000	421.905273	225.747818
11994.688830	2826.135000	420.634766	96.883965
11994.688830	2826.135000	419.364258	186.605713
11994.688830	2826.135000	418.092773	108.622597
11994.688830	2826.135000	416.822266	222.168091
11994.688830	2826.135000	415.550781	266.801788
11994.688830	2826.135000	414.278320	134.873032
11994.688830	2826.135000	413.006836	110.617943
11994.688830	2826.135000	411.734375	65.384018
11994.688830	2826.135000	410.461914	70.929230
11994.688830	2826.135000	409.188477	-64.070000
11994.688830	2826.135000	407.916016	-49.671795
11994.688830	2826.135000	406.642578	-38.345173
11994.688830	2826.135000	405.368164	-0.225442
11994.688830	2826.135000	404.094727	82.586113
11994.688830	2826.135000	402.820313	-13.867281
11994.688830	2826.135000	401.545898	268.708099
11994.688830	2826.135000	400.270508	73.569389
11994.688830	2826.135000	398.996094	87.260139
11994.688830	2826.135000	397.720703	41.165932
11994.688830	2826.135000	396.444336	6.894597
11994.688830	2826.135000	395.168945	-33.454769
11994.688830	2826.135000	393.892578	262.930420
11994.688830	2826.135000	392.616211	64.296059
11994.688830	2826.135000	391.339844	136.750870
11994.688830	2826.135000	390.062500	36.222282
11994.688830	2826.135000	388.785156	263.197540
11994.688830	2826.135000	387.507813	40.248444
11994.688830	2826.135000	386.229492	55.378471
11994.688830	2826.135000	384.951172	109.000725
11994.688830	2826.135000	383.672852	-57.818119
11994.688830	2826.135000	382.394531	289.932678
11994.688830	2826.135000	381.115234	119.730461
11994.688830	2826.135000	379.835938	118.881882
11994.688830	2826.135000	378.556641	180.227921
11994.688830	2826.135000	377.277344	193.730850
11994.688830	2826.135000	375.997070	180.209808
11994.688830	2826.135000	374.716797	136.704437
11994.688830	2826.135000	373.435547	75.100212
11994.688830	2826.135000	372.155273	19.167892
11994.688830	2826.135000	370.874023	164.860764
11994.688830	2826.135000	369.591797	31.097013
11994.688830	2826.135000	368.310547	87.017929
11994.688830	2826.135000	367.028320	3.087026
11994.688830	2826.135000	365.746094	245.176208
11994.688830	2826.135000	364.463867	166.436386
11994.688830	2826.135000	363.180664	182.227264
11994.688830	2826.135000	361.897461	-181.899857
11994.688830	2826.135000	360.614258	123.623306
11994.688830	2826.135000	359.330078	52.192440
11994.688830	2826.135000	358.045898	48.486050
11994.688830	2826.135000	356.761719	177.613724
11994.688830	2826.135000	355.477539	24.841875
11994.688830	2826.135000	354.192383	-78.039886
11994.688830	2826.135000	352.907227	-21.539825
11994.688830	2826.135000	351.622070	10.718050
11994.688830	2826.135000	350.336914	113.421341
11994.688830	2826.135000	349.050781	-3.430862
11994.688830	2826.135000	347.764648	251.850266
11994.688830	2826.135000	346.477539	116.050560
11994.688830	2826.135000	345.191406	18.120487
11994.688830	2826.135000	343.904297	126.470886
11994.688830	2826.135000	342.616211	319.782135
11994.688830	2826.135000	341.329102	140.049179
11994.688830	2826.135000	340.041016	33.504967
11994.688830	2826.135000	338.752930	132.988632
11994.688830	2826.135000	337.463867	-39.996105
11994.688830	2826.135000	336.175781	-57.229275
11994.688830	2826.135000	334.886719	-51.677917
11994.688830	2826.135000	333.596680	256.929565
11994.688830	2826.135000	332.307617	1.094917
11994.688830	2826.135000	331.017578	15.802202
11994.688830	2826.135000	329.727539	50.222340
11994.688830	2826.135000	328.436523	-37.214405
11994.688830	2826.135000	327.146484	30.645292
11994.688830	2826.135000	325.855469	179.959152
11994.688830	2826.135000	324.563477	-34.229881
11994.688830	2826.135000	323.272461	-110.928932
11994.688830	2826.135000	321.980469	93.995117
11994.688830	2826.135000	320.688477	41.552296
11994.688830	2826.135000	319.395508	-6.165806
11994.688830	2826.135000	318.103516	-69.744301
11994.688830	2826.135000	316.810547	30.221201
11994.688830	2826.135000	315.516602	-127.070847
11994.688830	2826.135000	314.223633	67.362282
11994.688830	2826.135000	312.929688	-57.210712
11994.688830	2826.135000	311.635742	-30.231672
11994.688830	2826.135000	310.340820	-37.031441
11994.688830	2826.135000	309.045898	-89.348274
11994.688830	2826.135000	307.750977	18.456013
11994.688830	2826.135000	306.456055	21.889957
11994.688830	2826.135000	305.160156	73.646339
11994.688830	2826.135000	303.865234	23.993704
11994.688830	2826.135000	302.568359	-83.128571
11994.688830	2826.135000	301.272461	-53.926800
11994.688830	2826.135000	299.975586	123.121613
11994.688830	2826.135000	298.678711	224.981186
