#X		#Y		#Wave		#Intensity
11678.656915	1368.948333	1999.980469	-36.655876
11678.656915	1368.948333	1999.016602	-10.802478
11678.656915	1368.948333	1998.052734	61.100018
11678.656915	1368.948333	1997.087891	-92.626396
11678.656915	1368.948333	1996.123047	-28.351084
11678.656915	1368.948333	1995.158203	58.107357
11678.656915	1368.948333	1994.193359	-85.889053
11678.656915	1368.948333	1993.228516	27.619318
11678.656915	1368.948333	1992.262695	27.117842
11678.656915	1368.948333	1991.297852	130.504105
11678.656915	1368.948333	1990.332031	-18.664495
11678.656915	1368.948333	1989.366211	94.441666
11678.656915	1368.948333	1988.399414	51.573593
11678.656915	1368.948333	1987.433594	70.491104
11678.656915	1368.948333	1986.466797	-4.641271
11678.656915	1368.948333	1985.500977	-50.138729
11678.656915	1368.948333	1984.534180	-21.516285
11678.656915	1368.948333	1983.567383	-17.681467
11678.656915	1368.948333	1982.599609	23.162472
11678.656915	1368.948333	1981.632813	4.637163
11678.656915	1368.948333	1980.665039	141.694717
11678.656915	1368.948333	1979.697266	125.517540
11678.656915	1368.948333	1978.729492	37.683693
11678.656915	1368.948333	1977.761719	38.716053
11678.656915	1368.948333	1976.792969	126.098312
11678.656915	1368.948333	1975.825195	97.406578
11678.656915	1368.948333	1974.856445	19.330393
11678.656915	1368.948333	1973.887695	-98.231964
11678.656915	1368.948333	1972.918945	102.408676
11678.656915	1368.948333	1971.949219	34.119884
11678.656915	1368.948333	1970.980469	-16.918983
11678.656915	1368.948333	1970.010742	50.358971
11678.656915	1368.948333	1969.041016	6.661596
11678.656915	1368.948333	1968.071289	231.564117
11678.656915	1368.948333	1967.101563	7.921004
11678.656915	1368.948333	1966.130859	13.431952
11678.656915	1368.948333	1965.161133	-15.568245
11678.656915	1368.948333	1964.190430	71.154701
11678.656915	1368.948333	1963.219727	17.481466
11678.656915	1368.948333	1962.249023	86.885017
11678.656915	1368.948333	1961.277344	-3.736509
11678.656915	1368.948333	1960.306641	-27.905668
11678.656915	1368.948333	1959.334961	-69.308975
11678.656915	1368.948333	1958.363281	-39.381706
11678.656915	1368.948333	1957.391602	71.673645
11678.656915	1368.948333	1956.419922	138.411407
11678.656915	1368.948333	1955.447266	155.938385
11678.656915	1368.948333	1954.474609	126.743095
11678.656915	1368.948333	1953.501953	63.139534
11678.656915	1368.948333	1952.529297	95.371346
11678.656915	1368.948333	1951.556641	12.119663
11678.656915	1368.948333	1950.583984	5.027487
11678.656915	1368.948333	1949.610352	-46.275158
11678.656915	1368.948333	1948.636719	22.737253
11678.656915	1368.948333	1947.663086	-43.296253
11678.656915	1368.948333	1946.689453	37.944958
11678.656915	1368.948333	1945.715820	121.603271
11678.656915	1368.948333	1944.741211	-15.582560
11678.656915	1368.948333	1943.767578	-20.262579
11678.656915	1368.948333	1942.792969	100.129242
11678.656915	1368.948333	1941.818359	53.734512
11678.656915	1368.948333	1940.842773	61.286987
11678.656915	1368.948333	1939.868164	179.135101
11678.656915	1368.948333	1938.892578	-95.168922
11678.656915	1368.948333	1937.916992	-58.196907
11678.656915	1368.948333	1936.941406	-18.790094
11678.656915	1368.948333	1935.965820	37.746410
11678.656915	1368.948333	1934.990234	-3.691354
11678.656915	1368.948333	1934.013672	6.302078
11678.656915	1368.948333	1933.037109	-5.738798
11678.656915	1368.948333	1932.060547	-71.617714
11678.656915	1368.948333	1931.083984	-49.378162
11678.656915	1368.948333	1930.107422	7.107718
11678.656915	1368.948333	1929.129883	66.019730
11678.656915	1368.948333	1928.153320	-46.279816
11678.656915	1368.948333	1927.175781	15.072145
11678.656915	1368.948333	1926.198242	-33.607330
11678.656915	1368.948333	1925.219727	37.504074
11678.656915	1368.948333	1924.242188	67.049332
11678.656915	1368.948333	1923.263672	30.617058
11678.656915	1368.948333	1922.285156	45.504196
11678.656915	1368.948333	1921.306641	-56.845631
11678.656915	1368.948333	1920.328125	-17.516640
11678.656915	1368.948333	1919.349609	80.400574
11678.656915	1368.948333	1918.370117	65.996819
11678.656915	1368.948333	1917.391602	66.249329
11678.656915	1368.948333	1916.412109	27.464472
11678.656915	1368.948333	1915.431641	-111.328262
11678.656915	1368.948333	1914.452148	86.556282
11678.656915	1368.948333	1913.472656	-10.720837
11678.656915	1368.948333	1912.492188	116.372055
11678.656915	1368.948333	1911.511719	123.968094
11678.656915	1368.948333	1910.531250	41.383789
11678.656915	1368.948333	1909.550781	122.115318
11678.656915	1368.948333	1908.569336	-91.996590
11678.656915	1368.948333	1907.588867	-13.690792
11678.656915	1368.948333	1906.607422	30.493385
11678.656915	1368.948333	1905.625977	-64.135269
11678.656915	1368.948333	1904.644531	57.968193
11678.656915	1368.948333	1903.662109	-34.181679
11678.656915	1368.948333	1902.680664	56.246899
11678.656915	1368.948333	1901.698242	-74.785858
11678.656915	1368.948333	1900.715820	59.422794
11678.656915	1368.948333	1899.733398	16.021746
11678.656915	1368.948333	1898.750000	-85.724464
11678.656915	1368.948333	1897.767578	11.961604
11678.656915	1368.948333	1896.784180	-104.316231
11678.656915	1368.948333	1895.800781	3.073376
11678.656915	1368.948333	1894.817383	-23.228535
11678.656915	1368.948333	1893.833984	-119.974983
11678.656915	1368.948333	1892.850586	-80.639206
11678.656915	1368.948333	1891.866211	-29.168104
11678.656915	1368.948333	1890.881836	116.995865
11678.656915	1368.948333	1889.897461	15.467804
11678.656915	1368.948333	1888.913086	11.082556
11678.656915	1368.948333	1887.927734	106.210114
11678.656915	1368.948333	1886.943359	203.736542
11678.656915	1368.948333	1885.958008	-14.157128
11678.656915	1368.948333	1884.972656	22.726696
11678.656915	1368.948333	1883.987305	-22.852879
11678.656915	1368.948333	1883.001953	-7.791039
11678.656915	1368.948333	1882.015625	-80.003441
11678.656915	1368.948333	1881.029297	34.449150
11678.656915	1368.948333	1880.042969	-13.499381
11678.656915	1368.948333	1879.056641	-8.121196
11678.656915	1368.948333	1878.070313	6.949712
11678.656915	1368.948333	1877.083984	-55.483639
11678.656915	1368.948333	1876.096680	95.205093
11678.656915	1368.948333	1875.109375	110.261215
11678.656915	1368.948333	1874.122070	13.967220
11678.656915	1368.948333	1873.134766	-2.420763
11678.656915	1368.948333	1872.146484	2.977507
11678.656915	1368.948333	1871.159180	151.115204
11678.656915	1368.948333	1870.170898	183.096298
11678.656915	1368.948333	1869.182617	14.345269
11678.656915	1368.948333	1868.194336	41.510288
11678.656915	1368.948333	1867.205078	206.461349
11678.656915	1368.948333	1866.216797	-3.280073
11678.656915	1368.948333	1865.227539	127.790413
11678.656915	1368.948333	1864.238281	-23.868595
11678.656915	1368.948333	1863.249023	83.003387
11678.656915	1368.948333	1862.259766	52.171711
11678.656915	1368.948333	1861.269531	50.328144
11678.656915	1368.948333	1860.279297	79.871696
11678.656915	1368.948333	1859.290039	32.163280
11678.656915	1368.948333	1858.298828	27.912027
11678.656915	1368.948333	1857.308594	96.050346
11678.656915	1368.948333	1856.318359	29.065403
11678.656915	1368.948333	1855.327148	126.120140
11678.656915	1368.948333	1854.335938	6.097929
11678.656915	1368.948333	1853.344727	18.729927
11678.656915	1368.948333	1852.353516	-14.446552
11678.656915	1368.948333	1851.362305	53.615570
11678.656915	1368.948333	1850.370117	-30.163939
11678.656915	1368.948333	1849.377930	18.596333
11678.656915	1368.948333	1848.385742	84.197365
11678.656915	1368.948333	1847.393555	48.618851
11678.656915	1368.948333	1846.401367	-59.187359
11678.656915	1368.948333	1845.408203	85.827408
11678.656915	1368.948333	1844.415039	33.408329
11678.656915	1368.948333	1843.421875	96.519958
11678.656915	1368.948333	1842.428711	63.358788
11678.656915	1368.948333	1841.435547	-111.729286
11678.656915	1368.948333	1840.441406	-70.287910
11678.656915	1368.948333	1839.448242	-4.818562
11678.656915	1368.948333	1838.454102	-119.703651
11678.656915	1368.948333	1837.459961	-54.261925
11678.656915	1368.948333	1836.464844	-70.568298
11678.656915	1368.948333	1835.470703	45.288868
11678.656915	1368.948333	1834.475586	4.932018
11678.656915	1368.948333	1833.480469	87.087830
11678.656915	1368.948333	1832.485352	63.535309
11678.656915	1368.948333	1831.490234	-12.841054
11678.656915	1368.948333	1830.495117	2.029742
11678.656915	1368.948333	1829.499023	9.684563
11678.656915	1368.948333	1828.502930	118.119659
11678.656915	1368.948333	1827.506836	195.313263
11678.656915	1368.948333	1826.510742	109.345192
11678.656915	1368.948333	1825.513672	145.719055
11678.656915	1368.948333	1824.517578	-12.165998
11678.656915	1368.948333	1823.520508	81.738083
11678.656915	1368.948333	1822.523438	10.198610
11678.656915	1368.948333	1821.526367	151.974594
11678.656915	1368.948333	1820.529297	54.070156
11678.656915	1368.948333	1819.531250	95.141724
11678.656915	1368.948333	1818.533203	16.423443
11678.656915	1368.948333	1817.535156	136.492203
11678.656915	1368.948333	1816.537109	134.392181
11678.656915	1368.948333	1815.539063	65.251053
11678.656915	1368.948333	1814.540039	142.123627
11678.656915	1368.948333	1813.541992	125.628532
11678.656915	1368.948333	1812.542969	1.461081
11678.656915	1368.948333	1811.543945	109.360886
11678.656915	1368.948333	1810.543945	47.398830
11678.656915	1368.948333	1809.544922	69.139442
11678.656915	1368.948333	1808.544922	-4.773307
11678.656915	1368.948333	1807.544922	62.355324
11678.656915	1368.948333	1806.544922	24.291222
11678.656915	1368.948333	1805.544922	182.157211
11678.656915	1368.948333	1804.544922	-35.114811
11678.656915	1368.948333	1803.543945	10.412685
11678.656915	1368.948333	1802.542969	-75.434128
11678.656915	1368.948333	1801.541992	-37.109562
11678.656915	1368.948333	1800.541016	13.120056
11678.656915	1368.948333	1799.539063	75.247375
11678.656915	1368.948333	1798.538086	127.791359
11678.656915	1368.948333	1797.536133	-77.366020
11678.656915	1368.948333	1796.534180	87.262657
11678.656915	1368.948333	1795.532227	80.102005
11678.656915	1368.948333	1794.529297	70.541100
11678.656915	1368.948333	1793.527344	139.638611
11678.656915	1368.948333	1792.524414	8.476090
11678.656915	1368.948333	1791.521484	20.330120
11678.656915	1368.948333	1790.518555	125.083336
11678.656915	1368.948333	1789.514648	17.765369
11678.656915	1368.948333	1788.511719	122.443382
11678.656915	1368.948333	1787.507813	115.143120
11678.656915	1368.948333	1786.503906	103.065575
11678.656915	1368.948333	1785.500000	48.127575
11678.656915	1368.948333	1784.496094	100.287476
11678.656915	1368.948333	1783.491211	130.991821
11678.656915	1368.948333	1782.486328	78.400192
11678.656915	1368.948333	1781.481445	-14.625747
11678.656915	1368.948333	1780.476563	13.647278
11678.656915	1368.948333	1779.471680	94.198135
11678.656915	1368.948333	1778.465820	53.460617
11678.656915	1368.948333	1777.460938	-3.917622
11678.656915	1368.948333	1776.455078	-89.810593
11678.656915	1368.948333	1775.449219	237.706085
11678.656915	1368.948333	1774.442383	-14.520300
11678.656915	1368.948333	1773.436523	-41.049431
11678.656915	1368.948333	1772.429688	-22.475180
11678.656915	1368.948333	1771.422852	31.682091
11678.656915	1368.948333	1770.416016	-21.013746
11678.656915	1368.948333	1769.409180	16.468960
11678.656915	1368.948333	1768.402344	-45.736084
11678.656915	1368.948333	1767.394531	-43.889599
11678.656915	1368.948333	1766.386719	171.395905
11678.656915	1368.948333	1765.378906	-2.321078
11678.656915	1368.948333	1764.371094	134.593201
11678.656915	1368.948333	1763.362305	39.129417
11678.656915	1368.948333	1762.354492	17.151695
11678.656915	1368.948333	1761.345703	-104.360977
11678.656915	1368.948333	1760.336914	53.702656
11678.656915	1368.948333	1759.328125	0.876720
11678.656915	1368.948333	1758.318359	38.037575
11678.656915	1368.948333	1757.308594	-74.004242
11678.656915	1368.948333	1756.299805	-39.251587
11678.656915	1368.948333	1755.290039	-37.671478
11678.656915	1368.948333	1754.279297	72.737465
11678.656915	1368.948333	1753.269531	-74.801361
11678.656915	1368.948333	1752.258789	-89.841499
11678.656915	1368.948333	1751.249023	100.862015
11678.656915	1368.948333	1750.238281	-13.561823
11678.656915	1368.948333	1749.226563	-0.303505
11678.656915	1368.948333	1748.215820	-65.071053
11678.656915	1368.948333	1747.204102	26.134542
11678.656915	1368.948333	1746.193359	-45.745239
11678.656915	1368.948333	1745.181641	61.914509
11678.656915	1368.948333	1744.168945	-73.764671
11678.656915	1368.948333	1743.157227	-145.652679
11678.656915	1368.948333	1742.144531	-42.825417
11678.656915	1368.948333	1741.132813	19.814114
11678.656915	1368.948333	1740.120117	-7.277823
11678.656915	1368.948333	1739.106445	97.755692
11678.656915	1368.948333	1738.093750	-113.399376
11678.656915	1368.948333	1737.080078	43.462177
11678.656915	1368.948333	1736.067383	-160.570755
11678.656915	1368.948333	1735.053711	-34.455177
11678.656915	1368.948333	1734.040039	-16.848240
11678.656915	1368.948333	1733.025391	-29.912558
11678.656915	1368.948333	1732.011719	-90.120094
11678.656915	1368.948333	1730.997070	21.660881
11678.656915	1368.948333	1729.982422	-106.890762
11678.656915	1368.948333	1728.967773	-89.397499
11678.656915	1368.948333	1727.952148	-27.195356
11678.656915	1368.948333	1726.937500	112.653091
11678.656915	1368.948333	1725.921875	14.693477
11678.656915	1368.948333	1724.906250	-0.883506
11678.656915	1368.948333	1723.890625	-56.474239
11678.656915	1368.948333	1722.875000	130.234375
11678.656915	1368.948333	1721.858398	46.371552
11678.656915	1368.948333	1720.841797	-49.237644
11678.656915	1368.948333	1719.825195	62.063648
11678.656915	1368.948333	1718.808594	81.627106
11678.656915	1368.948333	1717.791992	65.910385
11678.656915	1368.948333	1716.774414	43.127090
11678.656915	1368.948333	1715.756836	83.763054
11678.656915	1368.948333	1714.739258	4.573287
11678.656915	1368.948333	1713.721680	52.205887
11678.656915	1368.948333	1712.704102	90.409042
11678.656915	1368.948333	1711.685547	107.447075
11678.656915	1368.948333	1710.667969	185.485123
11678.656915	1368.948333	1709.649414	136.755768
11678.656915	1368.948333	1708.630859	38.757221
11678.656915	1368.948333	1707.611328	4.107253
11678.656915	1368.948333	1706.592773	93.751419
11678.656915	1368.948333	1705.573242	94.238129
11678.656915	1368.948333	1704.553711	-62.364056
11678.656915	1368.948333	1703.534180	29.526100
11678.656915	1368.948333	1702.513672	126.046349
11678.656915	1368.948333	1701.494141	-16.468431
11678.656915	1368.948333	1700.473633	7.369380
11678.656915	1368.948333	1699.453125	-88.266075
11678.656915	1368.948333	1698.432617	33.889061
11678.656915	1368.948333	1697.412109	-47.702122
11678.656915	1368.948333	1696.390625	137.559479
11678.656915	1368.948333	1695.369141	81.684982
11678.656915	1368.948333	1694.347656	124.087685
11678.656915	1368.948333	1693.326172	-147.019318
11678.656915	1368.948333	1692.304688	-53.165592
11678.656915	1368.948333	1691.282227	73.370453
11678.656915	1368.948333	1690.260742	78.268311
11678.656915	1368.948333	1689.238281	71.456810
11678.656915	1368.948333	1688.214844	118.382896
11678.656915	1368.948333	1687.192383	95.178322
11678.656915	1368.948333	1686.168945	111.680023
11678.656915	1368.948333	1685.146484	109.477318
11678.656915	1368.948333	1684.123047	37.197639
11678.656915	1368.948333	1683.099609	18.633083
11678.656915	1368.948333	1682.075195	-18.616913
11678.656915	1368.948333	1681.051758	142.524384
11678.656915	1368.948333	1680.027344	42.231182
11678.656915	1368.948333	1679.002930	74.948486
11678.656915	1368.948333	1677.978516	28.329849
11678.656915	1368.948333	1676.953125	161.291077
11678.656915	1368.948333	1675.928711	68.013039
11678.656915	1368.948333	1674.903320	114.632248
11678.656915	1368.948333	1673.877930	23.701664
11678.656915	1368.948333	1672.852539	161.171265
11678.656915	1368.948333	1671.826172	100.528099
11678.656915	1368.948333	1670.800781	128.420914
11678.656915	1368.948333	1669.774414	149.300095
11678.656915	1368.948333	1668.748047	209.746521
11678.656915	1368.948333	1667.721680	11.735553
11678.656915	1368.948333	1666.694336	-20.947941
11678.656915	1368.948333	1665.667969	83.681793
11678.656915	1368.948333	1664.640625	57.957417
11678.656915	1368.948333	1663.613281	90.391472
11678.656915	1368.948333	1662.585938	113.499863
11678.656915	1368.948333	1661.557617	187.746155
11678.656915	1368.948333	1660.530273	-96.090858
11678.656915	1368.948333	1659.501953	112.972794
11678.656915	1368.948333	1658.473633	36.083485
11678.656915	1368.948333	1657.444336	17.303394
11678.656915	1368.948333	1656.416016	58.929451
11678.656915	1368.948333	1655.386719	177.178482
11678.656915	1368.948333	1654.358398	30.636497
11678.656915	1368.948333	1653.328125	44.344376
11678.656915	1368.948333	1652.298828	23.222282
11678.656915	1368.948333	1651.269531	34.595566
11678.656915	1368.948333	1650.239258	120.210945
11678.656915	1368.948333	1649.208984	133.865265
11678.656915	1368.948333	1648.178711	138.230682
11678.656915	1368.948333	1647.148438	124.035553
11678.656915	1368.948333	1646.117188	49.550991
11678.656915	1368.948333	1645.086914	202.283508
11678.656915	1368.948333	1644.055664	51.316071
11678.656915	1368.948333	1643.024414	-113.501236
11678.656915	1368.948333	1641.992188	18.302414
11678.656915	1368.948333	1640.960938	71.295578
11678.656915	1368.948333	1639.928711	133.525055
11678.656915	1368.948333	1638.896484	100.789703
11678.656915	1368.948333	1637.864258	95.846169
11678.656915	1368.948333	1636.832031	127.936462
11678.656915	1368.948333	1635.798828	194.722336
11678.656915	1368.948333	1634.766602	210.581421
11678.656915	1368.948333	1633.733398	101.510262
11678.656915	1368.948333	1632.699219	223.763550
11678.656915	1368.948333	1631.666016	54.607121
11678.656915	1368.948333	1630.632813	153.705170
11678.656915	1368.948333	1629.598633	208.842010
11678.656915	1368.948333	1628.564453	215.425354
11678.656915	1368.948333	1627.530273	226.627914
11678.656915	1368.948333	1626.495117	122.314552
11678.656915	1368.948333	1625.460938	110.435669
11678.656915	1368.948333	1624.425781	-30.760244
11678.656915	1368.948333	1623.390625	245.998795
11678.656915	1368.948333	1622.355469	123.302475
11678.656915	1368.948333	1621.319336	277.604553
11678.656915	1368.948333	1620.284180	166.493088
11678.656915	1368.948333	1619.248047	281.513000
11678.656915	1368.948333	1618.211914	128.928452
11678.656915	1368.948333	1617.174805	269.282593
11678.656915	1368.948333	1616.138672	236.662903
11678.656915	1368.948333	1615.101563	259.382965
11678.656915	1368.948333	1614.065430	286.711884
11678.656915	1368.948333	1613.027344	364.723816
11678.656915	1368.948333	1611.990234	385.117249
11678.656915	1368.948333	1610.953125	373.260010
11678.656915	1368.948333	1609.915039	253.168945
11678.656915	1368.948333	1608.876953	370.293701
11678.656915	1368.948333	1607.838867	468.962738
11678.656915	1368.948333	1606.800781	438.707581
11678.656915	1368.948333	1605.761719	189.854233
11678.656915	1368.948333	1604.723633	306.928955
11678.656915	1368.948333	1603.684570	518.274780
11678.656915	1368.948333	1602.644531	481.159119
11678.656915	1368.948333	1601.605469	602.728821
11678.656915	1368.948333	1600.566406	471.374329
11678.656915	1368.948333	1599.526367	482.585205
11678.656915	1368.948333	1598.486328	443.243652
11678.656915	1368.948333	1597.446289	422.308411
11678.656915	1368.948333	1596.405273	518.543091
11678.656915	1368.948333	1595.365234	431.017700
11678.656915	1368.948333	1594.324219	428.495361
11678.656915	1368.948333	1593.283203	444.351807
11678.656915	1368.948333	1592.242188	506.121094
11678.656915	1368.948333	1591.200195	652.786987
11678.656915	1368.948333	1590.159180	198.259293
11678.656915	1368.948333	1589.117188	377.068787
11678.656915	1368.948333	1588.075195	376.922241
11678.656915	1368.948333	1587.032227	312.578369
11678.656915	1368.948333	1585.990234	326.227173
11678.656915	1368.948333	1584.947266	468.246216
11678.656915	1368.948333	1583.904297	312.292358
11678.656915	1368.948333	1582.861328	211.405487
11678.656915	1368.948333	1581.818359	330.497986
11678.656915	1368.948333	1580.775391	234.258133
11678.656915	1368.948333	1579.731445	302.946747
11678.656915	1368.948333	1578.687500	389.940369
11678.656915	1368.948333	1577.643555	408.243195
11678.656915	1368.948333	1576.598633	273.213226
11678.656915	1368.948333	1575.554688	325.887299
11678.656915	1368.948333	1574.509766	236.714539
11678.656915	1368.948333	1573.464844	207.063599
11678.656915	1368.948333	1572.419922	161.433289
11678.656915	1368.948333	1571.374023	191.287186
11678.656915	1368.948333	1570.329102	193.719025
11678.656915	1368.948333	1569.283203	273.872498
11678.656915	1368.948333	1568.237305	324.307037
11678.656915	1368.948333	1567.191406	237.664520
11678.656915	1368.948333	1566.144531	235.585876
11678.656915	1368.948333	1565.098633	66.819893
11678.656915	1368.948333	1564.051758	252.042679
11678.656915	1368.948333	1563.004883	254.587479
11678.656915	1368.948333	1561.957031	154.442459
11678.656915	1368.948333	1560.910156	95.434883
11678.656915	1368.948333	1559.862305	-25.131578
11678.656915	1368.948333	1558.814453	116.688568
11678.656915	1368.948333	1557.766602	221.984940
11678.656915	1368.948333	1556.718750	272.538544
11678.656915	1368.948333	1555.669922	145.277115
11678.656915	1368.948333	1554.621094	239.172897
11678.656915	1368.948333	1553.573242	171.263962
11678.656915	1368.948333	1552.523438	126.182198
11678.656915	1368.948333	1551.474609	236.039871
11678.656915	1368.948333	1550.424805	227.448669
11678.656915	1368.948333	1549.375000	175.621902
11678.656915	1368.948333	1548.325195	271.814240
11678.656915	1368.948333	1547.275391	340.679688
11678.656915	1368.948333	1546.225586	261.625732
11678.656915	1368.948333	1545.174805	212.202393
11678.656915	1368.948333	1544.124023	256.088165
11678.656915	1368.948333	1543.073242	288.610474
11678.656915	1368.948333	1542.022461	175.618637
11678.656915	1368.948333	1540.970703	24.047029
11678.656915	1368.948333	1539.919922	122.588158
11678.656915	1368.948333	1538.868164	348.374237
11678.656915	1368.948333	1537.815430	281.000275
11678.656915	1368.948333	1536.763672	106.915939
11678.656915	1368.948333	1535.710938	144.143250
11678.656915	1368.948333	1534.659180	42.871002
11678.656915	1368.948333	1533.606445	166.420624
11678.656915	1368.948333	1532.552734	108.361259
11678.656915	1368.948333	1531.500000	175.170105
11678.656915	1368.948333	1530.446289	298.700989
11678.656915	1368.948333	1529.393555	120.506683
11678.656915	1368.948333	1528.338867	151.065506
11678.656915	1368.948333	1527.285156	-101.804085
11678.656915	1368.948333	1526.231445	17.263697
11678.656915	1368.948333	1525.176758	-113.022987
11678.656915	1368.948333	1524.122070	-34.735645
11678.656915	1368.948333	1523.067383	9.563398
11678.656915	1368.948333	1522.012695	144.488098
11678.656915	1368.948333	1520.957031	-44.491566
11678.656915	1368.948333	1519.901367	-20.509232
11678.656915	1368.948333	1518.845703	44.245815
11678.656915	1368.948333	1517.790039	118.059868
11678.656915	1368.948333	1516.734375	105.877922
11678.656915	1368.948333	1515.677734	118.618828
11678.656915	1368.948333	1514.621094	77.092628
11678.656915	1368.948333	1513.564453	6.211583
11678.656915	1368.948333	1512.507813	-44.258526
11678.656915	1368.948333	1511.450195	61.320499
11678.656915	1368.948333	1510.393555	96.818237
11678.656915	1368.948333	1509.335938	-25.865000
11678.656915	1368.948333	1508.278320	75.224174
11678.656915	1368.948333	1507.219727	99.495567
11678.656915	1368.948333	1506.162109	-88.518913
11678.656915	1368.948333	1505.103516	-82.224876
11678.656915	1368.948333	1504.044922	-21.715450
11678.656915	1368.948333	1502.986328	147.152069
11678.656915	1368.948333	1501.926758	13.569375
11678.656915	1368.948333	1500.868164	162.121750
11678.656915	1368.948333	1499.808594	19.631914
11678.656915	1368.948333	1498.749023	44.137428
11678.656915	1368.948333	1497.688477	-39.575676
11678.656915	1368.948333	1496.628906	-73.620117
11678.656915	1368.948333	1495.568359	-24.214931
11678.656915	1368.948333	1494.507813	133.381409
11678.656915	1368.948333	1493.447266	16.053757
11678.656915	1368.948333	1492.386719	-47.126003
11678.656915	1368.948333	1491.325195	18.136139
11678.656915	1368.948333	1490.263672	63.140167
11678.656915	1368.948333	1489.202148	54.125908
11678.656915	1368.948333	1488.140625	54.153507
11678.656915	1368.948333	1487.079102	-2.047954
11678.656915	1368.948333	1486.016602	-19.941145
11678.656915	1368.948333	1484.954102	92.688286
11678.656915	1368.948333	1483.891602	-3.869071
11678.656915	1368.948333	1482.829102	52.563618
11678.656915	1368.948333	1481.765625	-1.157840
11678.656915	1368.948333	1480.702148	205.923920
11678.656915	1368.948333	1479.638672	42.150761
11678.656915	1368.948333	1478.575195	199.762482
11678.656915	1368.948333	1477.511719	132.717621
11678.656915	1368.948333	1476.447266	-156.545334
11678.656915	1368.948333	1475.382813	32.549446
11678.656915	1368.948333	1474.318359	91.431709
11678.656915	1368.948333	1473.253906	103.191322
11678.656915	1368.948333	1472.189453	87.979698
11678.656915	1368.948333	1471.124023	106.568474
11678.656915	1368.948333	1470.058594	156.517670
11678.656915	1368.948333	1468.993164	49.416687
11678.656915	1368.948333	1467.927734	94.972076
11678.656915	1368.948333	1466.861328	129.296921
11678.656915	1368.948333	1465.794922	188.358795
11678.656915	1368.948333	1464.728516	-37.044399
11678.656915	1368.948333	1463.662109	51.134682
11678.656915	1368.948333	1462.594727	56.369591
11678.656915	1368.948333	1461.528320	21.775795
11678.656915	1368.948333	1460.460938	-66.652237
11678.656915	1368.948333	1459.393555	99.456680
11678.656915	1368.948333	1458.326172	-11.314934
11678.656915	1368.948333	1457.257813	-175.488998
11678.656915	1368.948333	1456.189453	-13.309163
11678.656915	1368.948333	1455.121094	-157.300858
11678.656915	1368.948333	1454.052734	-24.746794
11678.656915	1368.948333	1452.984375	-148.319366
11678.656915	1368.948333	1451.915039	-60.308895
11678.656915	1368.948333	1450.845703	33.013924
11678.656915	1368.948333	1449.776367	-19.918814
11678.656915	1368.948333	1448.707031	6.817173
11678.656915	1368.948333	1447.636719	-219.027771
11678.656915	1368.948333	1446.567383	-100.058907
11678.656915	1368.948333	1445.497070	15.115137
11678.656915	1368.948333	1444.425781	-89.662804
11678.656915	1368.948333	1443.355469	-90.500153
11678.656915	1368.948333	1442.285156	-75.519569
11678.656915	1368.948333	1441.213867	13.513858
11678.656915	1368.948333	1440.142578	-36.652889
11678.656915	1368.948333	1439.070313	13.108700
11678.656915	1368.948333	1437.999023	-58.223690
11678.656915	1368.948333	1436.926758	-93.628288
11678.656915	1368.948333	1435.854492	39.386852
11678.656915	1368.948333	1434.782227	5.703990
11678.656915	1368.948333	1433.709961	-64.924507
11678.656915	1368.948333	1432.636719	80.769211
11678.656915	1368.948333	1431.563477	26.421488
11678.656915	1368.948333	1430.490234	-91.869125
11678.656915	1368.948333	1429.416992	68.313789
11678.656915	1368.948333	1428.343750	117.268486
11678.656915	1368.948333	1427.269531	140.069107
11678.656915	1368.948333	1426.195313	19.550554
11678.656915	1368.948333	1425.121094	90.014488
11678.656915	1368.948333	1424.046875	183.015503
11678.656915	1368.948333	1422.971680	108.923752
11678.656915	1368.948333	1421.896484	208.915802
11678.656915	1368.948333	1420.821289	210.869949
11678.656915	1368.948333	1419.746094	48.536587
11678.656915	1368.948333	1418.669922	89.868507
11678.656915	1368.948333	1417.594727	122.357727
11678.656915	1368.948333	1416.518555	109.145348
11678.656915	1368.948333	1415.442383	10.244645
11678.656915	1368.948333	1414.365234	117.587532
11678.656915	1368.948333	1413.289063	178.664795
11678.656915	1368.948333	1412.211914	45.604580
11678.656915	1368.948333	1411.134766	170.725204
11678.656915	1368.948333	1410.057617	53.174953
11678.656915	1368.948333	1408.979492	-113.250816
11678.656915	1368.948333	1407.902344	257.616089
11678.656915	1368.948333	1406.824219	81.656540
11678.656915	1368.948333	1405.746094	12.291243
11678.656915	1368.948333	1404.666992	43.817104
11678.656915	1368.948333	1403.588867	32.688679
11678.656915	1368.948333	1402.509766	99.876457
11678.656915	1368.948333	1401.430664	32.169140
11678.656915	1368.948333	1400.351563	-13.356288
11678.656915	1368.948333	1399.271484	14.955640
11678.656915	1368.948333	1398.192383	74.517166
11678.656915	1368.948333	1397.112305	48.213615
11678.656915	1368.948333	1396.031250	-56.569832
11678.656915	1368.948333	1394.951172	-18.759504
11678.656915	1368.948333	1393.871094	60.976868
11678.656915	1368.948333	1392.790039	43.170887
11678.656915	1368.948333	1391.708984	17.682247
11678.656915	1368.948333	1390.626953	-48.467163
11678.656915	1368.948333	1389.545898	109.364395
11678.656915	1368.948333	1388.463867	6.413775
11678.656915	1368.948333	1387.381836	111.057640
11678.656915	1368.948333	1386.299805	-65.517197
11678.656915	1368.948333	1385.217773	17.523062
11678.656915	1368.948333	1384.134766	30.965588
11678.656915	1368.948333	1383.051758	64.218178
11678.656915	1368.948333	1381.968750	97.889030
11678.656915	1368.948333	1380.885742	15.853913
11678.656915	1368.948333	1379.802734	205.615555
11678.656915	1368.948333	1378.718750	298.360657
11678.656915	1368.948333	1377.634766	45.773270
11678.656915	1368.948333	1376.550781	73.554810
11678.656915	1368.948333	1375.465820	-4.364283
11678.656915	1368.948333	1374.381836	33.847866
11678.656915	1368.948333	1373.296875	43.507931
11678.656915	1368.948333	1372.211914	181.188461
11678.656915	1368.948333	1371.126953	-5.357349
11678.656915	1368.948333	1370.041016	122.799591
11678.656915	1368.948333	1368.955078	-10.811225
11678.656915	1368.948333	1367.869141	45.264568
11678.656915	1368.948333	1366.783203	168.879761
11678.656915	1368.948333	1365.697266	-2.211957
11678.656915	1368.948333	1364.610352	90.787254
11678.656915	1368.948333	1363.523438	48.018101
11678.656915	1368.948333	1362.436523	198.863632
11678.656915	1368.948333	1361.349609	83.445686
11678.656915	1368.948333	1360.261719	5.665729
11678.656915	1368.948333	1359.174805	109.710861
11678.656915	1368.948333	1358.086914	74.426247
11678.656915	1368.948333	1356.998047	-12.507125
11678.656915	1368.948333	1355.910156	-2.269484
11678.656915	1368.948333	1354.821289	79.797462
11678.656915	1368.948333	1353.732422	117.452820
11678.656915	1368.948333	1352.643555	75.597237
11678.656915	1368.948333	1351.554688	-11.909205
11678.656915	1368.948333	1350.464844	188.844421
11678.656915	1368.948333	1349.375000	71.509232
11678.656915	1368.948333	1348.285156	-40.121082
11678.656915	1368.948333	1347.195313	55.521572
11678.656915	1368.948333	1346.105469	117.567314
11678.656915	1368.948333	1345.014648	195.666412
11678.656915	1368.948333	1343.923828	77.022133
11678.656915	1368.948333	1342.833008	163.187408
11678.656915	1368.948333	1341.741211	101.780365
11678.656915	1368.948333	1340.650391	146.114792
11678.656915	1368.948333	1339.558594	132.415955
11678.656915	1368.948333	1338.466797	63.873798
11678.656915	1368.948333	1337.374023	65.151428
11678.656915	1368.948333	1336.282227	140.643555
11678.656915	1368.948333	1335.189453	185.859741
11678.656915	1368.948333	1334.096680	176.519653
11678.656915	1368.948333	1333.003906	154.191391
11678.656915	1368.948333	1331.910156	176.800339
11678.656915	1368.948333	1330.817383	126.047165
11678.656915	1368.948333	1329.723633	148.702347
11678.656915	1368.948333	1328.629883	235.382462
11678.656915	1368.948333	1327.535156	142.407455
11678.656915	1368.948333	1326.441406	149.636093
11678.656915	1368.948333	1325.346680	251.585571
11678.656915	1368.948333	1324.251953	111.058380
11678.656915	1368.948333	1323.156250	220.169998
11678.656915	1368.948333	1322.061523	171.646194
11678.656915	1368.948333	1320.965820	119.046310
11678.656915	1368.948333	1319.870117	105.949638
11678.656915	1368.948333	1318.774414	197.731873
11678.656915	1368.948333	1317.678711	115.267227
11678.656915	1368.948333	1316.582031	95.128281
11678.656915	1368.948333	1315.485352	212.389877
11678.656915	1368.948333	1314.388672	116.470192
11678.656915	1368.948333	1313.291016	30.843678
11678.656915	1368.948333	1312.194336	221.517120
11678.656915	1368.948333	1311.096680	68.645294
11678.656915	1368.948333	1309.999023	91.625732
11678.656915	1368.948333	1308.901367	125.418114
11678.656915	1368.948333	1307.802734	134.815308
11678.656915	1368.948333	1306.705078	49.813725
11678.656915	1368.948333	1305.606445	90.153709
11678.656915	1368.948333	1304.506836	89.642624
11678.656915	1368.948333	1303.408203	112.237251
11678.656915	1368.948333	1302.308594	36.088661
11678.656915	1368.948333	1301.208984	72.188026
11678.656915	1368.948333	1300.109375	143.560944
11678.656915	1368.948333	1299.009766	13.328205
11678.656915	1368.948333	1297.909180	3.540117
11678.656915	1368.948333	1296.808594	182.465164
11678.656915	1368.948333	1295.708008	123.349144
11678.656915	1368.948333	1294.607422	192.531616
11678.656915	1368.948333	1293.506836	353.179779
11678.656915	1368.948333	1292.405273	158.645218
11678.656915	1368.948333	1291.303711	197.973251
11678.656915	1368.948333	1290.202148	133.984375
11678.656915	1368.948333	1289.099609	38.346634
11678.656915	1368.948333	1287.998047	227.664993
11678.656915	1368.948333	1286.895508	97.402779
11678.656915	1368.948333	1285.792969	80.634048
11678.656915	1368.948333	1284.689453	-16.085443
11678.656915	1368.948333	1283.586914	21.971785
11678.656915	1368.948333	1282.483398	38.941952
11678.656915	1368.948333	1281.379883	95.894707
11678.656915	1368.948333	1280.276367	126.732597
11678.656915	1368.948333	1279.171875	63.048519
11678.656915	1368.948333	1278.067383	88.735344
11678.656915	1368.948333	1276.962891	39.875301
11678.656915	1368.948333	1275.858398	-63.581692
11678.656915	1368.948333	1274.753906	45.840160
11678.656915	1368.948333	1273.648438	-54.784298
11678.656915	1368.948333	1272.542969	23.710257
11678.656915	1368.948333	1271.437500	-26.638380
11678.656915	1368.948333	1270.331055	110.020538
11678.656915	1368.948333	1269.225586	-43.050465
11678.656915	1368.948333	1268.119141	98.581337
11678.656915	1368.948333	1267.012695	32.497250
11678.656915	1368.948333	1265.906250	75.484604
11678.656915	1368.948333	1264.798828	94.422478
11678.656915	1368.948333	1263.691406	93.023041
11678.656915	1368.948333	1262.583984	102.059937
11678.656915	1368.948333	1261.476563	69.242363
11678.656915	1368.948333	1260.368164	111.160843
11678.656915	1368.948333	1259.260742	136.065170
11678.656915	1368.948333	1258.152344	68.444740
11678.656915	1368.948333	1257.043945	67.184586
11678.656915	1368.948333	1255.934570	86.280495
11678.656915	1368.948333	1254.825195	40.576466
11678.656915	1368.948333	1253.716797	104.579582
11678.656915	1368.948333	1252.606445	75.157166
11678.656915	1368.948333	1251.497070	128.900360
11678.656915	1368.948333	1250.387695	19.601820
11678.656915	1368.948333	1249.277344	55.190948
11678.656915	1368.948333	1248.166992	25.374548
11678.656915	1368.948333	1247.055664	18.704073
11678.656915	1368.948333	1245.945313	9.312639
11678.656915	1368.948333	1244.833984	-18.806437
11678.656915	1368.948333	1243.722656	78.642036
11678.656915	1368.948333	1242.611328	-107.527252
11678.656915	1368.948333	1241.499023	44.980797
11678.656915	1368.948333	1240.387695	-64.414047
11678.656915	1368.948333	1239.275391	74.705833
11678.656915	1368.948333	1238.162109	19.779133
11678.656915	1368.948333	1237.049805	-13.485287
11678.656915	1368.948333	1235.936523	34.943939
11678.656915	1368.948333	1234.823242	19.462128
11678.656915	1368.948333	1233.709961	-49.801079
11678.656915	1368.948333	1232.596680	-105.864967
11678.656915	1368.948333	1231.482422	-31.037481
11678.656915	1368.948333	1230.369141	-17.850430
11678.656915	1368.948333	1229.253906	-9.114878
11678.656915	1368.948333	1228.139648	0.640409
11678.656915	1368.948333	1227.025391	41.456120
11678.656915	1368.948333	1225.910156	-66.410774
11678.656915	1368.948333	1224.794922	-86.254829
11678.656915	1368.948333	1223.679688	-56.451767
11678.656915	1368.948333	1222.563477	4.828617
11678.656915	1368.948333	1221.447266	-30.011927
11678.656915	1368.948333	1220.331055	-24.932119
11678.656915	1368.948333	1219.214844	-63.674370
11678.656915	1368.948333	1218.098633	-137.363419
11678.656915	1368.948333	1216.981445	-30.865854
11678.656915	1368.948333	1215.864258	-42.719345
11678.656915	1368.948333	1214.747070	23.386440
11678.656915	1368.948333	1213.629883	-31.669806
11678.656915	1368.948333	1212.511719	-103.175606
11678.656915	1368.948333	1211.393555	-52.641235
11678.656915	1368.948333	1210.275391	-37.687023
11678.656915	1368.948333	1209.157227	-4.382514
11678.656915	1368.948333	1208.038086	-69.992310
11678.656915	1368.948333	1206.918945	-27.935329
11678.656915	1368.948333	1205.799805	-53.148796
11678.656915	1368.948333	1204.680664	11.302155
11678.656915	1368.948333	1203.560547	-68.396423
11678.656915	1368.948333	1202.441406	-4.527882
11678.656915	1368.948333	1201.321289	96.957321
11678.656915	1368.948333	1200.200195	5.361220
11678.656915	1368.948333	1199.080078	-36.201523
11678.656915	1368.948333	1197.958984	-79.888947
11678.656915	1368.948333	1196.837891	53.775646
11678.656915	1368.948333	1195.716797	-58.411552
11678.656915	1368.948333	1194.594727	45.159763
11678.656915	1368.948333	1193.473633	11.530654
11678.656915	1368.948333	1192.351563	-11.689928
11678.656915	1368.948333	1191.229492	26.428869
11678.656915	1368.948333	1190.106445	-16.859623
11678.656915	1368.948333	1188.984375	-18.343840
11678.656915	1368.948333	1187.861328	-3.186388
11678.656915	1368.948333	1186.738281	-23.705389
11678.656915	1368.948333	1185.614258	22.774811
11678.656915	1368.948333	1184.491211	55.822819
11678.656915	1368.948333	1183.367188	34.763729
11678.656915	1368.948333	1182.243164	-15.085263
11678.656915	1368.948333	1181.119141	-53.431835
11678.656915	1368.948333	1179.994141	13.855672
11678.656915	1368.948333	1178.869141	34.085705
11678.656915	1368.948333	1177.744141	47.553532
11678.656915	1368.948333	1176.619141	5.906463
11678.656915	1368.948333	1175.493164	-48.575935
11678.656915	1368.948333	1174.368164	-72.795998
11678.656915	1368.948333	1173.242188	-86.991341
11678.656915	1368.948333	1172.115234	8.435031
11678.656915	1368.948333	1170.989258	-139.365906
11678.656915	1368.948333	1169.862305	-11.500998
11678.656915	1368.948333	1168.735352	-78.468773
11678.656915	1368.948333	1167.608398	-58.644840
11678.656915	1368.948333	1166.481445	-49.531773
11678.656915	1368.948333	1165.353516	-12.882334
11678.656915	1368.948333	1164.225586	-86.624687
11678.656915	1368.948333	1163.097656	-49.004066
11678.656915	1368.948333	1161.968750	-74.383629
11678.656915	1368.948333	1160.840820	-50.853813
11678.656915	1368.948333	1159.711914	-12.463591
11678.656915	1368.948333	1158.583008	-78.702065
11678.656915	1368.948333	1157.453125	-7.774251
11678.656915	1368.948333	1156.324219	52.199272
11678.656915	1368.948333	1155.194336	-95.147461
11678.656915	1368.948333	1154.064453	-41.172646
11678.656915	1368.948333	1152.933594	-38.305943
11678.656915	1368.948333	1151.803711	-53.852367
11678.656915	1368.948333	1150.672852	-7.349891
11678.656915	1368.948333	1149.541992	28.130003
11678.656915	1368.948333	1148.411133	-77.641769
11678.656915	1368.948333	1147.279297	-92.936256
11678.656915	1368.948333	1146.147461	-53.923523
11678.656915	1368.948333	1145.015625	11.540400
11678.656915	1368.948333	1143.883789	-76.211067
11678.656915	1368.948333	1142.750977	16.454308
11678.656915	1368.948333	1141.619141	-34.948864
11678.656915	1368.948333	1140.486328	153.856140
11678.656915	1368.948333	1139.352539	56.302807
11678.656915	1368.948333	1138.219727	-83.961823
11678.656915	1368.948333	1137.085938	-0.994129
11678.656915	1368.948333	1135.952148	-20.591938
11678.656915	1368.948333	1134.818359	51.519112
11678.656915	1368.948333	1133.683594	5.893981
11678.656915	1368.948333	1132.549805	-20.759062
11678.656915	1368.948333	1131.415039	62.098171
11678.656915	1368.948333	1130.279297	69.122818
11678.656915	1368.948333	1129.144531	123.391403
11678.656915	1368.948333	1128.008789	76.006981
11678.656915	1368.948333	1126.873047	180.537109
11678.656915	1368.948333	1125.737305	162.966599
11678.656915	1368.948333	1124.601563	124.616234
11678.656915	1368.948333	1123.464844	80.641930
11678.656915	1368.948333	1122.328125	61.692364
11678.656915	1368.948333	1121.191406	206.295349
11678.656915	1368.948333	1120.054688	95.462105
11678.656915	1368.948333	1118.916992	107.011070
11678.656915	1368.948333	1117.779297	105.187202
11678.656915	1368.948333	1116.641602	114.792252
11678.656915	1368.948333	1115.503906	145.613800
11678.656915	1368.948333	1114.365234	138.809601
11678.656915	1368.948333	1113.226563	-2.727854
11678.656915	1368.948333	1112.087891	107.432098
11678.656915	1368.948333	1110.949219	123.409081
11678.656915	1368.948333	1109.809570	109.052200
11678.656915	1368.948333	1108.669922	103.082138
11678.656915	1368.948333	1107.530273	88.569717
11678.656915	1368.948333	1106.390625	144.398239
11678.656915	1368.948333	1105.250000	137.499252
11678.656915	1368.948333	1104.109375	127.134575
11678.656915	1368.948333	1102.968750	152.121094
11678.656915	1368.948333	1101.828125	193.611160
11678.656915	1368.948333	1100.686523	309.571960
11678.656915	1368.948333	1099.544922	272.791687
11678.656915	1368.948333	1098.403320	165.091660
11678.656915	1368.948333	1097.261719	183.748291
11678.656915	1368.948333	1096.120117	233.657120
11678.656915	1368.948333	1094.977539	179.584030
11678.656915	1368.948333	1093.834961	93.353485
11678.656915	1368.948333	1092.691406	113.786530
11678.656915	1368.948333	1091.548828	125.730927
11678.656915	1368.948333	1090.405273	164.810150
11678.656915	1368.948333	1089.261719	153.584106
11678.656915	1368.948333	1088.118164	162.992279
11678.656915	1368.948333	1086.973633	118.369308
11678.656915	1368.948333	1085.829102	24.288347
11678.656915	1368.948333	1084.684570	104.135666
11678.656915	1368.948333	1083.540039	296.085632
11678.656915	1368.948333	1082.395508	145.816528
11678.656915	1368.948333	1081.250000	135.094070
11678.656915	1368.948333	1080.104492	70.258591
11678.656915	1368.948333	1078.958984	101.554276
11678.656915	1368.948333	1077.812500	235.310791
11678.656915	1368.948333	1076.666016	241.100418
11678.656915	1368.948333	1075.519531	157.454971
11678.656915	1368.948333	1074.373047	151.018570
11678.656915	1368.948333	1073.226563	24.823029
11678.656915	1368.948333	1072.079102	81.777008
11678.656915	1368.948333	1070.931641	319.800568
11678.656915	1368.948333	1069.784180	260.320557
11678.656915	1368.948333	1068.635742	156.182129
11678.656915	1368.948333	1067.487305	264.718445
11678.656915	1368.948333	1066.338867	180.209427
11678.656915	1368.948333	1065.190430	200.502289
11678.656915	1368.948333	1064.041992	293.965302
11678.656915	1368.948333	1062.892578	150.810226
11678.656915	1368.948333	1061.743164	287.427002
11678.656915	1368.948333	1060.593750	148.704407
11678.656915	1368.948333	1059.443359	250.686218
11678.656915	1368.948333	1058.292969	89.519218
11678.656915	1368.948333	1057.142578	98.714272
11678.656915	1368.948333	1055.992188	178.569321
11678.656915	1368.948333	1054.841797	283.167969
11678.656915	1368.948333	1053.690430	140.442093
11678.656915	1368.948333	1052.539063	217.394562
11678.656915	1368.948333	1051.387695	45.425869
11678.656915	1368.948333	1050.235352	39.037205
11678.656915	1368.948333	1049.083984	164.963318
11678.656915	1368.948333	1047.931641	216.108307
11678.656915	1368.948333	1046.778320	137.345795
11678.656915	1368.948333	1045.625977	20.936499
11678.656915	1368.948333	1044.472656	77.873306
11678.656915	1368.948333	1043.319336	187.164581
11678.656915	1368.948333	1042.166016	102.921761
11678.656915	1368.948333	1041.012695	72.564407
11678.656915	1368.948333	1039.858398	100.387054
11678.656915	1368.948333	1038.704102	194.397125
11678.656915	1368.948333	1037.549805	180.474655
11678.656915	1368.948333	1036.394531	148.995163
11678.656915	1368.948333	1035.239258	27.980801
11678.656915	1368.948333	1034.083984	215.817917
11678.656915	1368.948333	1032.928711	78.907532
11678.656915	1368.948333	1031.773438	173.374756
11678.656915	1368.948333	1030.617188	44.706909
11678.656915	1368.948333	1029.460938	69.499435
11678.656915	1368.948333	1028.304688	114.126495
11678.656915	1368.948333	1027.147461	127.150063
11678.656915	1368.948333	1025.991211	141.793747
11678.656915	1368.948333	1024.833984	83.722359
11678.656915	1368.948333	1023.675781	43.335915
11678.656915	1368.948333	1022.518555	62.578304
11678.656915	1368.948333	1021.360352	20.188993
11678.656915	1368.948333	1020.202148	92.688828
11678.656915	1368.948333	1019.043945	43.053055
11678.656915	1368.948333	1017.884766	119.969536
11678.656915	1368.948333	1016.726563	-17.117720
11678.656915	1368.948333	1015.567383	76.399796
11678.656915	1368.948333	1014.407227	-78.712196
11678.656915	1368.948333	1013.248047	4.193518
11678.656915	1368.948333	1012.087891	76.979279
11678.656915	1368.948333	1010.927734	17.957533
11678.656915	1368.948333	1009.767578	55.266125
11678.656915	1368.948333	1008.606445	-40.895927
11678.656915	1368.948333	1007.446289	-19.701618
11678.656915	1368.948333	1006.285156	-36.483051
11678.656915	1368.948333	1005.123047	-59.571648
11678.656915	1368.948333	1003.961914	105.112587
11678.656915	1368.948333	1002.799805	101.198921
11678.656915	1368.948333	1001.637695	59.191784
11678.656915	1368.948333	1000.475586	138.479523
11678.656915	1368.948333	999.312500	137.637039
11678.656915	1368.948333	998.149414	-43.220837
11678.656915	1368.948333	996.986328	108.867958
11678.656915	1368.948333	995.823242	73.656990
11678.656915	1368.948333	994.659180	-66.342331
11678.656915	1368.948333	993.496094	-31.590351
11678.656915	1368.948333	992.332031	77.712914
11678.656915	1368.948333	991.166992	72.033905
11678.656915	1368.948333	990.002930	93.732140
11678.656915	1368.948333	988.837891	72.684723
11678.656915	1368.948333	987.672852	58.342003
11678.656915	1368.948333	986.506836	-9.377944
11678.656915	1368.948333	985.341797	-20.560825
11678.656915	1368.948333	984.175781	111.663055
11678.656915	1368.948333	983.009766	107.637146
11678.656915	1368.948333	981.843750	17.340616
11678.656915	1368.948333	980.676758	44.788666
11678.656915	1368.948333	979.509766	99.095284
11678.656915	1368.948333	978.342773	63.959362
11678.656915	1368.948333	977.175781	-83.424622
11678.656915	1368.948333	976.007813	8.872092
11678.656915	1368.948333	974.839844	58.805805
11678.656915	1368.948333	973.671875	-140.414825
11678.656915	1368.948333	972.503906	111.851936
11678.656915	1368.948333	971.334961	44.169102
11678.656915	1368.948333	970.166016	-15.175450
11678.656915	1368.948333	968.997070	-24.135189
11678.656915	1368.948333	967.828125	-115.761719
11678.656915	1368.948333	966.658203	-55.369995
11678.656915	1368.948333	965.488281	-2.817631
11678.656915	1368.948333	964.318359	-10.060528
11678.656915	1368.948333	963.148438	19.508884
11678.656915	1368.948333	961.977539	-6.579162
11678.656915	1368.948333	960.806641	97.927612
11678.656915	1368.948333	959.635742	-3.441842
11678.656915	1368.948333	958.463867	72.794846
11678.656915	1368.948333	957.292969	66.051788
11678.656915	1368.948333	956.121094	134.341904
11678.656915	1368.948333	954.948242	-26.580765
11678.656915	1368.948333	953.776367	70.987473
11678.656915	1368.948333	952.603516	77.203064
11678.656915	1368.948333	951.430664	76.237259
11678.656915	1368.948333	950.257813	107.564812
11678.656915	1368.948333	949.084961	78.160965
11678.656915	1368.948333	947.911133	44.172081
11678.656915	1368.948333	946.737305	-21.717369
11678.656915	1368.948333	945.563477	-78.596123
11678.656915	1368.948333	944.388672	16.506891
11678.656915	1368.948333	943.213867	20.887466
11678.656915	1368.948333	942.039063	31.936363
11678.656915	1368.948333	940.864258	-17.918554
11678.656915	1368.948333	939.688477	56.586246
11678.656915	1368.948333	938.513672	-52.251202
11678.656915	1368.948333	937.337891	-100.040199
11678.656915	1368.948333	936.161133	-16.445185
11678.656915	1368.948333	934.985352	117.157578
11678.656915	1368.948333	933.808594	37.678288
11678.656915	1368.948333	932.631836	55.707199
11678.656915	1368.948333	931.454102	-137.107910
11678.656915	1368.948333	930.277344	46.223900
11678.656915	1368.948333	929.099609	175.119156
11678.656915	1368.948333	927.921875	57.156380
11678.656915	1368.948333	926.743164	-69.816460
11678.656915	1368.948333	925.565430	79.413765
11678.656915	1368.948333	924.386719	-31.694471
11678.656915	1368.948333	923.208008	38.276741
11678.656915	1368.948333	922.028320	72.021530
11678.656915	1368.948333	920.849609	40.149025
11678.656915	1368.948333	919.669922	40.948750
11678.656915	1368.948333	919.474609	49.130341
11678.656915	1368.948333	918.309570	80.576363
11678.656915	1368.948333	917.143555	-55.290962
11678.656915	1368.948333	915.977539	57.532207
11678.656915	1368.948333	914.810547	-1.442636
11678.656915	1368.948333	913.644531	0.608972
11678.656915	1368.948333	912.477539	-40.261757
11678.656915	1368.948333	911.310547	-20.138399
11678.656915	1368.948333	910.143555	74.490860
11678.656915	1368.948333	908.975586	-74.737503
11678.656915	1368.948333	907.807617	-29.794262
11678.656915	1368.948333	906.639648	-20.977186
11678.656915	1368.948333	905.471680	-66.314026
11678.656915	1368.948333	904.303711	10.177237
11678.656915	1368.948333	903.134766	93.402107
11678.656915	1368.948333	901.965820	-57.908527
11678.656915	1368.948333	900.796875	25.294716
11678.656915	1368.948333	899.626953	34.085312
11678.656915	1368.948333	898.457031	47.378704
11678.656915	1368.948333	897.287109	42.642250
11678.656915	1368.948333	896.117188	91.967323
11678.656915	1368.948333	894.947266	-72.673836
11678.656915	1368.948333	893.776367	59.963615
11678.656915	1368.948333	892.605469	32.716015
11678.656915	1368.948333	891.434570	61.746014
11678.656915	1368.948333	890.262695	-17.246464
11678.656915	1368.948333	889.091797	-33.213814
11678.656915	1368.948333	887.919922	-28.930582
11678.656915	1368.948333	886.748047	11.332624
11678.656915	1368.948333	885.575195	-4.630045
11678.656915	1368.948333	884.403320	17.628418
11678.656915	1368.948333	883.230469	46.620571
11678.656915	1368.948333	882.057617	-68.207405
11678.656915	1368.948333	880.883789	-10.003260
11678.656915	1368.948333	879.710938	97.590645
11678.656915	1368.948333	878.537109	3.034617
11678.656915	1368.948333	877.362305	83.641190
11678.656915	1368.948333	876.188477	67.692322
11678.656915	1368.948333	875.013672	-49.240849
11678.656915	1368.948333	873.839844	2.158288
11678.656915	1368.948333	872.664063	-13.762117
11678.656915	1368.948333	871.489258	3.967224
11678.656915	1368.948333	870.313477	21.690392
11678.656915	1368.948333	869.138672	-25.610970
11678.656915	1368.948333	867.962891	-77.375008
11678.656915	1368.948333	866.786133	-26.028461
11678.656915	1368.948333	865.610352	-1.590187
11678.656915	1368.948333	864.433594	159.487015
11678.656915	1368.948333	863.256836	15.904168
11678.656915	1368.948333	862.079102	-136.575378
11678.656915	1368.948333	860.902344	-24.820587
11678.656915	1368.948333	859.724609	-45.169521
11678.656915	1368.948333	858.546875	-155.022232
11678.656915	1368.948333	857.368164	37.216145
11678.656915	1368.948333	856.190430	-18.921986
11678.656915	1368.948333	855.011719	34.550503
11678.656915	1368.948333	853.833008	85.765770
11678.656915	1368.948333	852.654297	-57.531090
11678.656915	1368.948333	851.474609	45.090256
11678.656915	1368.948333	850.294922	0.185290
11678.656915	1368.948333	849.115234	37.962978
11678.656915	1368.948333	847.935547	-29.258343
11678.656915	1368.948333	846.754883	109.007309
11678.656915	1368.948333	845.575195	90.921204
11678.656915	1368.948333	844.393555	50.520912
11678.656915	1368.948333	843.212891	14.600829
11678.656915	1368.948333	842.032227	-54.775433
11678.656915	1368.948333	840.850586	-206.666824
11678.656915	1368.948333	839.668945	-59.611145
11678.656915	1368.948333	838.486328	-19.655636
11678.656915	1368.948333	837.304688	-22.079477
11678.656915	1368.948333	836.122070	-60.167049
11678.656915	1368.948333	834.939453	-91.552849
11678.656915	1368.948333	833.756836	15.222074
11678.656915	1368.948333	832.573242	-103.047256
11678.656915	1368.948333	831.389648	-152.222382
11678.656915	1368.948333	830.206055	-49.954239
11678.656915	1368.948333	829.022461	47.819122
11678.656915	1368.948333	827.838867	76.549309
11678.656915	1368.948333	826.654297	-6.004308
11678.656915	1368.948333	825.469727	-57.374664
11678.656915	1368.948333	824.284180	-17.518211
11678.656915	1368.948333	823.099609	11.200395
11678.656915	1368.948333	821.914063	79.931801
11678.656915	1368.948333	820.728516	-6.985356
11678.656915	1368.948333	819.542969	10.598252
11678.656915	1368.948333	818.356445	23.730078
11678.656915	1368.948333	817.169922	-92.006630
11678.656915	1368.948333	815.983398	-16.664194
11678.656915	1368.948333	814.796875	-72.384308
11678.656915	1368.948333	813.609375	-45.927143
11678.656915	1368.948333	812.422852	102.613617
11678.656915	1368.948333	811.235352	73.534111
11678.656915	1368.948333	810.046875	55.560802
11678.656915	1368.948333	808.859375	30.937418
11678.656915	1368.948333	807.670898	95.046989
11678.656915	1368.948333	806.482422	26.069921
11678.656915	1368.948333	805.293945	34.720959
11678.656915	1368.948333	804.104492	52.233551
11678.656915	1368.948333	802.915039	-58.806141
11678.656915	1368.948333	801.725586	89.447487
11678.656915	1368.948333	800.536133	-21.558416
11678.656915	1368.948333	799.345703	-32.850178
11678.656915	1368.948333	798.155273	-95.071617
11678.656915	1368.948333	796.964844	-6.719917
11678.656915	1368.948333	795.774414	-44.577419
11678.656915	1368.948333	794.583008	-20.456118
11678.656915	1368.948333	793.392578	154.108444
11678.656915	1368.948333	792.200195	111.808907
11678.656915	1368.948333	791.008789	164.625244
11678.656915	1368.948333	789.816406	170.981400
11678.656915	1368.948333	788.625000	13.734421
11678.656915	1368.948333	787.432617	66.528473
11678.656915	1368.948333	786.239258	-15.503285
11678.656915	1368.948333	785.046875	94.712029
11678.656915	1368.948333	783.853516	143.027527
11678.656915	1368.948333	782.660156	-33.945213
11678.656915	1368.948333	781.465820	93.857735
11678.656915	1368.948333	780.272461	27.337879
11678.656915	1368.948333	779.078125	-45.780102
11678.656915	1368.948333	777.883789	92.965462
11678.656915	1368.948333	776.688477	22.061815
11678.656915	1368.948333	775.494141	-4.703757
11678.656915	1368.948333	774.298828	-0.589045
11678.656915	1368.948333	773.103516	23.362265
11678.656915	1368.948333	771.907227	-1.197075
11678.656915	1368.948333	770.711914	-1.509541
11678.656915	1368.948333	769.515625	-59.116650
11678.656915	1368.948333	768.318359	-88.066422
11678.656915	1368.948333	767.122070	6.330827
11678.656915	1368.948333	765.924805	-33.643219
11678.656915	1368.948333	764.727539	109.126472
11678.656915	1368.948333	763.530273	108.755951
11678.656915	1368.948333	762.333008	77.568802
11678.656915	1368.948333	761.134766	-74.624069
11678.656915	1368.948333	759.936523	-8.983512
11678.656915	1368.948333	758.738281	72.018158
11678.656915	1368.948333	757.540039	-176.849686
11678.656915	1368.948333	756.340820	75.613487
11678.656915	1368.948333	755.141602	-1.726780
11678.656915	1368.948333	753.942383	30.831017
11678.656915	1368.948333	752.742188	-46.482834
11678.656915	1368.948333	751.541992	-79.841820
11678.656915	1368.948333	750.341797	3.198709
11678.656915	1368.948333	749.141602	-109.216866
11678.656915	1368.948333	747.941406	-133.786469
11678.656915	1368.948333	746.740234	10.640578
11678.656915	1368.948333	745.539063	82.587090
11678.656915	1368.948333	744.337891	51.384441
11678.656915	1368.948333	743.135742	129.854675
11678.656915	1368.948333	741.933594	46.007442
11678.656915	1368.948333	740.731445	30.151178
11678.656915	1368.948333	739.529297	141.427322
11678.656915	1368.948333	738.326172	164.985992
11678.656915	1368.948333	737.124023	59.250572
11678.656915	1368.948333	735.919922	159.468109
11678.656915	1368.948333	734.716797	264.012817
11678.656915	1368.948333	733.513672	121.067039
11678.656915	1368.948333	732.309570	173.013260
11678.656915	1368.948333	731.105469	119.864655
11678.656915	1368.948333	729.900391	254.924088
11678.656915	1368.948333	728.696289	173.315781
11678.656915	1368.948333	727.491211	82.980614
11678.656915	1368.948333	726.286133	134.823868
11678.656915	1368.948333	725.080078	131.971176
11678.656915	1368.948333	723.874023	72.270676
11678.656915	1368.948333	722.668945	200.542282
11678.656915	1368.948333	721.461914	92.755386
11678.656915	1368.948333	720.255859	37.432453
11678.656915	1368.948333	719.048828	-72.484749
11678.656915	1368.948333	717.841797	-9.852599
11678.656915	1368.948333	716.634766	61.473289
11678.656915	1368.948333	715.427734	71.636803
11678.656915	1368.948333	714.219727	-136.455276
11678.656915	1368.948333	713.011719	-117.553810
11678.656915	1368.948333	711.803711	-63.770260
11678.656915	1368.948333	710.594727	-121.254524
11678.656915	1368.948333	709.385742	54.590717
11678.656915	1368.948333	708.176758	-20.363087
11678.656915	1368.948333	706.967773	111.765266
11678.656915	1368.948333	705.758789	30.264688
11678.656915	1368.948333	704.548828	3.251359
11678.656915	1368.948333	703.338867	30.691811
11678.656915	1368.948333	702.127930	3.660201
11678.656915	1368.948333	700.917969	96.378883
11678.656915	1368.948333	699.707031	19.246305
11678.656915	1368.948333	698.496094	-25.223093
11678.656915	1368.948333	697.285156	67.397316
11678.656915	1368.948333	696.073242	194.771973
11678.656915	1368.948333	694.861328	-15.058285
11678.656915	1368.948333	693.649414	81.803406
11678.656915	1368.948333	692.436523	-36.632362
11678.656915	1368.948333	691.224609	29.729536
11678.656915	1368.948333	690.011719	-10.442125
11678.656915	1368.948333	688.798828	108.000511
11678.656915	1368.948333	687.584961	-16.924191
11678.656915	1368.948333	686.372070	170.936142
11678.656915	1368.948333	685.158203	95.959648
11678.656915	1368.948333	683.943359	-20.250282
11678.656915	1368.948333	682.729492	-43.097363
11678.656915	1368.948333	681.514648	46.890244
11678.656915	1368.948333	680.299805	76.074364
11678.656915	1368.948333	679.084961	109.567207
11678.656915	1368.948333	677.869141	140.859238
11678.656915	1368.948333	676.653320	29.018856
11678.656915	1368.948333	675.437500	251.042084
11678.656915	1368.948333	674.221680	65.501114
11678.656915	1368.948333	673.004883	75.036736
11678.656915	1368.948333	671.789063	88.883209
11678.656915	1368.948333	670.571289	9.569992
11678.656915	1368.948333	669.354492	64.531845
11678.656915	1368.948333	668.136719	175.742294
11678.656915	1368.948333	666.919922	1.165684
11678.656915	1368.948333	665.701172	12.757115
11678.656915	1368.948333	664.483398	199.580429
11678.656915	1368.948333	663.264648	161.334625
11678.656915	1368.948333	662.045898	62.529263
11678.656915	1368.948333	660.827148	169.163788
11678.656915	1368.948333	659.608398	247.630753
11678.656915	1368.948333	658.388672	146.651871
11678.656915	1368.948333	657.168945	17.605427
11678.656915	1368.948333	655.949219	52.788742
11678.656915	1368.948333	654.728516	-63.262039
11678.656915	1368.948333	653.507813	62.585808
11678.656915	1368.948333	652.287109	0.521234
11678.656915	1368.948333	651.066406	83.091583
11678.656915	1368.948333	649.844727	90.071724
11678.656915	1368.948333	648.623047	204.915741
11678.656915	1368.948333	647.401367	151.425888
11678.656915	1368.948333	646.179688	115.193962
11678.656915	1368.948333	644.957031	27.205231
11678.656915	1368.948333	643.734375	59.964153
11678.656915	1368.948333	642.511719	4.317914
11678.656915	1368.948333	641.289063	65.044365
11678.656915	1368.948333	640.065430	65.399246
11678.656915	1368.948333	638.841797	14.036991
11678.656915	1368.948333	637.618164	68.204216
11678.656915	1368.948333	636.393555	193.383194
11678.656915	1368.948333	635.168945	113.983795
11678.656915	1368.948333	633.944336	122.840530
11678.656915	1368.948333	632.719727	144.585281
11678.656915	1368.948333	631.494141	82.399521
11678.656915	1368.948333	630.269531	80.446350
11678.656915	1368.948333	629.042969	78.473618
11678.656915	1368.948333	627.817383	123.782936
11678.656915	1368.948333	626.590820	50.830849
11678.656915	1368.948333	625.365234	-35.003067
11678.656915	1368.948333	624.137695	81.147514
11678.656915	1368.948333	622.911133	16.787531
11678.656915	1368.948333	621.683594	44.786030
11678.656915	1368.948333	620.456055	141.465210
11678.656915	1368.948333	619.228516	87.811028
11678.656915	1368.948333	618.000977	89.966156
11678.656915	1368.948333	616.772461	113.559700
11678.656915	1368.948333	615.543945	36.290874
11678.656915	1368.948333	614.314453	94.168159
11678.656915	1368.948333	613.085938	-13.122392
11678.656915	1368.948333	611.856445	46.849609
11678.656915	1368.948333	610.626953	-32.554424
11678.656915	1368.948333	609.397461	-47.648804
11678.656915	1368.948333	608.166992	12.238964
11678.656915	1368.948333	606.936523	110.644173
11678.656915	1368.948333	605.706055	-9.469145
11678.656915	1368.948333	604.474609	22.483091
11678.656915	1368.948333	603.244141	-7.678545
11678.656915	1368.948333	602.012695	24.226664
11678.656915	1368.948333	600.780273	-10.237184
11678.656915	1368.948333	599.548828	-12.609287
11678.656915	1368.948333	598.316406	62.007317
11678.656915	1368.948333	597.083984	196.457138
11678.656915	1368.948333	595.851563	-11.265963
11678.656915	1368.948333	594.618164	26.914223
11678.656915	1368.948333	593.384766	-63.169453
11678.656915	1368.948333	592.151367	-39.982113
11678.656915	1368.948333	590.917969	-108.680290
11678.656915	1368.948333	589.683594	83.208214
11678.656915	1368.948333	588.449219	119.116890
11678.656915	1368.948333	587.214844	11.954658
11678.656915	1368.948333	585.979492	143.885590
11678.656915	1368.948333	584.745117	100.757027
11678.656915	1368.948333	583.509766	2.159084
11678.656915	1368.948333	582.273438	-2.554506
11678.656915	1368.948333	581.038086	80.161919
11678.656915	1368.948333	579.801758	-63.186047
11678.656915	1368.948333	578.565430	-33.813229
11678.656915	1368.948333	577.329102	65.868034
11678.656915	1368.948333	576.091797	-13.498252
11678.656915	1368.948333	574.854492	58.415607
11678.656915	1368.948333	573.617188	68.518570
11678.656915	1368.948333	572.378906	10.460984
11678.656915	1368.948333	571.141602	78.031357
11678.656915	1368.948333	569.903320	-7.696959
11678.656915	1368.948333	568.664063	-89.144112
11678.656915	1368.948333	567.425781	-10.990278
11678.656915	1368.948333	566.186523	39.464809
11678.656915	1368.948333	564.947266	62.240349
11678.656915	1368.948333	563.708008	80.744835
11678.656915	1368.948333	562.467773	-11.313810
11678.656915	1368.948333	561.227539	-45.955910
11678.656915	1368.948333	559.987305	97.902824
11678.656915	1368.948333	558.747070	-13.246586
11678.656915	1368.948333	557.505859	115.658264
11678.656915	1368.948333	556.264648	-71.913170
11678.656915	1368.948333	555.023438	-17.375614
11678.656915	1368.948333	553.781250	-28.672541
11678.656915	1368.948333	552.539063	74.627930
11678.656915	1368.948333	551.296875	-27.932384
11678.656915	1368.948333	550.054688	58.340679
11678.656915	1368.948333	548.811523	-27.219004
11678.656915	1368.948333	547.569336	25.079683
11678.656915	1368.948333	546.325195	7.389560
11678.656915	1368.948333	545.082031	-33.610985
11678.656915	1368.948333	543.837891	5.923676
11678.656915	1368.948333	542.593750	-16.001299
11678.656915	1368.948333	541.349609	-48.512058
11678.656915	1368.948333	540.105469	-199.602417
11678.656915	1368.948333	538.860352	24.116152
11678.656915	1368.948333	537.615234	-23.210554
11678.656915	1368.948333	536.369141	52.224941
11678.656915	1368.948333	535.124023	-3.556116
11678.656915	1368.948333	533.877930	-6.431765
11678.656915	1368.948333	532.631836	47.796028
11678.656915	1368.948333	531.384766	-67.162430
11678.656915	1368.948333	530.138672	-31.973890
11678.656915	1368.948333	528.891602	43.356159
11678.656915	1368.948333	527.643555	-18.702740
11678.656915	1368.948333	526.396484	-27.916462
11678.656915	1368.948333	525.148438	32.576195
11678.656915	1368.948333	523.900391	-61.116600
11678.656915	1368.948333	522.652344	-70.315361
11678.656915	1368.948333	521.403320	-33.071510
11678.656915	1368.948333	520.154297	-40.161182
11678.656915	1368.948333	518.905273	-194.944443
11678.656915	1368.948333	517.656250	-26.902969
11678.656915	1368.948333	516.406250	33.504581
11678.656915	1368.948333	515.156250	5.327244
11678.656915	1368.948333	513.906250	-29.160311
11678.656915	1368.948333	512.655273	-76.277603
11678.656915	1368.948333	511.404297	-142.336945
11678.656915	1368.948333	510.153320	-6.111555
11678.656915	1368.948333	508.902344	-74.257446
11678.656915	1368.948333	507.650391	-117.100014
11678.656915	1368.948333	506.398438	-82.019493
11678.656915	1368.948333	505.146484	30.935001
11678.656915	1368.948333	503.893555	-66.609795
11678.656915	1368.948333	502.641602	-16.820864
11678.656915	1368.948333	501.388672	-11.226179
11678.656915	1368.948333	500.134766	-98.170296
11678.656915	1368.948333	498.881836	37.817924
11678.656915	1368.948333	497.627930	-28.065863
11678.656915	1368.948333	496.374023	32.192524
11678.656915	1368.948333	495.119141	-29.450142
11678.656915	1368.948333	493.865234	7.683734
11678.656915	1368.948333	492.610352	-56.016361
11678.656915	1368.948333	491.355469	-81.882996
11678.656915	1368.948333	490.099609	-36.349083
11678.656915	1368.948333	488.843750	-102.081711
11678.656915	1368.948333	487.587891	-10.381140
11678.656915	1368.948333	486.332031	22.536322
11678.656915	1368.948333	485.075195	26.075121
11678.656915	1368.948333	483.818359	23.326880
11678.656915	1368.948333	482.561523	31.069380
11678.656915	1368.948333	481.304688	101.706367
11678.656915	1368.948333	480.046875	-93.867531
11678.656915	1368.948333	478.789063	-77.707275
11678.656915	1368.948333	477.531250	124.910156
11678.656915	1368.948333	476.272461	-22.351620
11678.656915	1368.948333	475.013672	-37.614536
11678.656915	1368.948333	473.754883	68.567513
11678.656915	1368.948333	472.496094	-89.038612
11678.656915	1368.948333	471.236328	-45.666317
11678.656915	1368.948333	469.976563	-35.786293
11678.656915	1368.948333	468.716797	170.730576
11678.656915	1368.948333	467.456055	-80.861916
11678.656915	1368.948333	466.196289	56.580002
11678.656915	1368.948333	464.935547	12.088631
11678.656915	1368.948333	463.673828	128.553238
11678.656915	1368.948333	462.413086	100.787369
11678.656915	1368.948333	461.151367	37.517616
11678.656915	1368.948333	459.889648	66.180267
11678.656915	1368.948333	458.626953	73.947411
11678.656915	1368.948333	457.364258	-28.942978
11678.656915	1368.948333	456.101563	101.995338
11678.656915	1368.948333	454.838867	-0.858384
11678.656915	1368.948333	453.575195	146.704926
11678.656915	1368.948333	452.312500	33.452160
11678.656915	1368.948333	451.047852	41.205090
11678.656915	1368.948333	449.784180	73.972977
11678.656915	1368.948333	448.519531	60.858513
11678.656915	1368.948333	447.254883	45.659943
11678.656915	1368.948333	445.990234	105.476471
11678.656915	1368.948333	444.725586	144.426819
11678.656915	1368.948333	443.459961	131.279251
11678.656915	1368.948333	442.194336	86.891945
11678.656915	1368.948333	440.927734	34.184422
11678.656915	1368.948333	439.662109	27.282635
11678.656915	1368.948333	438.395508	143.151642
11678.656915	1368.948333	437.127930	111.232597
11678.656915	1368.948333	435.861328	147.958969
11678.656915	1368.948333	434.593750	101.463097
11678.656915	1368.948333	433.326172	148.535934
11678.656915	1368.948333	432.058594	176.859695
11678.656915	1368.948333	430.790039	63.821674
11678.656915	1368.948333	429.521484	-7.631988
11678.656915	1368.948333	428.252930	82.962959
11678.656915	1368.948333	426.984375	57.181061
11678.656915	1368.948333	425.714844	10.616381
11678.656915	1368.948333	424.445313	49.162617
11678.656915	1368.948333	423.174805	73.130943
11678.656915	1368.948333	421.905273	130.260727
11678.656915	1368.948333	420.634766	189.404465
11678.656915	1368.948333	419.364258	82.541634
11678.656915	1368.948333	418.092773	83.525520
11678.656915	1368.948333	416.822266	101.056870
11678.656915	1368.948333	415.550781	8.669329
11678.656915	1368.948333	414.278320	138.032410
11678.656915	1368.948333	413.006836	29.007496
11678.656915	1368.948333	411.734375	98.136101
11678.656915	1368.948333	410.461914	57.410606
11678.656915	1368.948333	409.188477	26.998964
11678.656915	1368.948333	407.916016	158.024261
11678.656915	1368.948333	406.642578	73.670479
11678.656915	1368.948333	405.368164	41.021587
11678.656915	1368.948333	404.094727	111.767593
11678.656915	1368.948333	402.820313	178.274567
11678.656915	1368.948333	401.545898	135.075104
11678.656915	1368.948333	400.270508	52.533043
11678.656915	1368.948333	398.996094	81.573799
11678.656915	1368.948333	397.720703	106.383438
11678.656915	1368.948333	396.444336	13.320178
11678.656915	1368.948333	395.168945	108.194313
11678.656915	1368.948333	393.892578	120.319168
11678.656915	1368.948333	392.616211	105.498116
11678.656915	1368.948333	391.339844	146.322098
11678.656915	1368.948333	390.062500	61.118412
11678.656915	1368.948333	388.785156	79.018982
11678.656915	1368.948333	387.507813	-0.166353
11678.656915	1368.948333	386.229492	46.382324
11678.656915	1368.948333	384.951172	49.483353
11678.656915	1368.948333	383.672852	81.320282
11678.656915	1368.948333	382.394531	-58.073841
11678.656915	1368.948333	381.115234	4.414969
11678.656915	1368.948333	379.835938	21.407213
11678.656915	1368.948333	378.556641	48.545937
11678.656915	1368.948333	377.277344	50.807560
11678.656915	1368.948333	375.997070	1.432580
11678.656915	1368.948333	374.716797	131.014572
11678.656915	1368.948333	373.435547	-21.596615
11678.656915	1368.948333	372.155273	4.709033
11678.656915	1368.948333	370.874023	-98.786148
11678.656915	1368.948333	369.591797	67.015137
11678.656915	1368.948333	368.310547	-69.725899
11678.656915	1368.948333	367.028320	-70.919586
11678.656915	1368.948333	365.746094	11.957778
11678.656915	1368.948333	364.463867	-49.261780
11678.656915	1368.948333	363.180664	-59.312256
11678.656915	1368.948333	361.897461	37.231438
11678.656915	1368.948333	360.614258	36.980648
11678.656915	1368.948333	359.330078	-179.101349
11678.656915	1368.948333	358.045898	56.274807
11678.656915	1368.948333	356.761719	-176.633514
11678.656915	1368.948333	355.477539	43.763893
11678.656915	1368.948333	354.192383	-91.106270
11678.656915	1368.948333	352.907227	15.821815
11678.656915	1368.948333	351.622070	-60.078453
11678.656915	1368.948333	350.336914	-70.635017
11678.656915	1368.948333	349.050781	20.986437
11678.656915	1368.948333	347.764648	56.929989
11678.656915	1368.948333	346.477539	41.312309
11678.656915	1368.948333	345.191406	97.071907
11678.656915	1368.948333	343.904297	80.787071
11678.656915	1368.948333	342.616211	6.826239
11678.656915	1368.948333	341.329102	-46.980038
11678.656915	1368.948333	340.041016	-58.162045
11678.656915	1368.948333	338.752930	-129.051422
11678.656915	1368.948333	337.463867	-57.112865
11678.656915	1368.948333	336.175781	6.226323
11678.656915	1368.948333	334.886719	20.045557
11678.656915	1368.948333	333.596680	51.827896
11678.656915	1368.948333	332.307617	77.045181
11678.656915	1368.948333	331.017578	-18.761835
11678.656915	1368.948333	329.727539	-110.894447
11678.656915	1368.948333	328.436523	-31.894375
11678.656915	1368.948333	327.146484	-49.371010
11678.656915	1368.948333	325.855469	-2.010397
11678.656915	1368.948333	324.563477	-36.833183
11678.656915	1368.948333	323.272461	-27.246592
11678.656915	1368.948333	321.980469	26.679014
11678.656915	1368.948333	320.688477	-19.912506
11678.656915	1368.948333	319.395508	-3.832900
11678.656915	1368.948333	318.103516	129.942490
11678.656915	1368.948333	316.810547	-42.712234
11678.656915	1368.948333	315.516602	-34.520374
11678.656915	1368.948333	314.223633	24.011351
11678.656915	1368.948333	312.929688	-97.396828
11678.656915	1368.948333	311.635742	-3.504729
11678.656915	1368.948333	310.340820	4.146681
11678.656915	1368.948333	309.045898	-49.954990
11678.656915	1368.948333	307.750977	-33.486507
11678.656915	1368.948333	306.456055	47.384850
11678.656915	1368.948333	305.160156	68.476204
11678.656915	1368.948333	303.865234	23.748426
11678.656915	1368.948333	302.568359	59.583366
11678.656915	1368.948333	301.272461	53.983715
11678.656915	1368.948333	299.975586	167.499146
11678.656915	1368.948333	298.678711	137.893021
