#X		#Y		#Wave		#Intensity
11914.847340	1417.915000	1999.980469	60.560749
11914.847340	1417.915000	1999.016602	33.601185
11914.847340	1417.915000	1998.052734	-91.897598
11914.847340	1417.915000	1997.087891	-6.786985
11914.847340	1417.915000	1996.123047	115.381966
11914.847340	1417.915000	1995.158203	133.388489
11914.847340	1417.915000	1994.193359	77.016655
11914.847340	1417.915000	1993.228516	25.550461
11914.847340	1417.915000	1992.262695	105.257988
11914.847340	1417.915000	1991.297852	-216.137009
11914.847340	1417.915000	1990.332031	63.930981
11914.847340	1417.915000	1989.366211	-10.008897
11914.847340	1417.915000	1988.399414	5.087353
11914.847340	1417.915000	1987.433594	-247.016235
11914.847340	1417.915000	1986.466797	-155.319260
11914.847340	1417.915000	1985.500977	52.509815
11914.847340	1417.915000	1984.534180	218.188858
11914.847340	1417.915000	1983.567383	35.252857
11914.847340	1417.915000	1982.599609	89.582153
11914.847340	1417.915000	1981.632813	-103.224991
11914.847340	1417.915000	1980.665039	-78.611389
11914.847340	1417.915000	1979.697266	66.982346
11914.847340	1417.915000	1978.729492	-88.778740
11914.847340	1417.915000	1977.761719	113.483238
11914.847340	1417.915000	1976.792969	-5.263986
11914.847340	1417.915000	1975.825195	-17.868324
11914.847340	1417.915000	1974.856445	152.105652
11914.847340	1417.915000	1973.887695	50.609821
11914.847340	1417.915000	1972.918945	106.994492
11914.847340	1417.915000	1971.949219	35.093273
11914.847340	1417.915000	1970.980469	-34.333344
11914.847340	1417.915000	1970.010742	-56.911888
11914.847340	1417.915000	1969.041016	11.699058
11914.847340	1417.915000	1968.071289	50.697254
11914.847340	1417.915000	1967.101563	-33.528187
11914.847340	1417.915000	1966.130859	-11.807087
11914.847340	1417.915000	1965.161133	-27.048939
11914.847340	1417.915000	1964.190430	29.117357
11914.847340	1417.915000	1963.219727	55.710800
11914.847340	1417.915000	1962.249023	89.671089
11914.847340	1417.915000	1961.277344	241.748245
11914.847340	1417.915000	1960.306641	351.932098
11914.847340	1417.915000	1959.334961	70.892265
11914.847340	1417.915000	1958.363281	60.530453
11914.847340	1417.915000	1957.391602	-33.447239
11914.847340	1417.915000	1956.419922	172.593994
11914.847340	1417.915000	1955.447266	83.546509
11914.847340	1417.915000	1954.474609	-91.494804
11914.847340	1417.915000	1953.501953	143.933853
11914.847340	1417.915000	1952.529297	160.601898
11914.847340	1417.915000	1951.556641	64.264084
11914.847340	1417.915000	1950.583984	-122.909866
11914.847340	1417.915000	1949.610352	-57.075592
11914.847340	1417.915000	1948.636719	-64.915764
11914.847340	1417.915000	1947.663086	145.727554
11914.847340	1417.915000	1946.689453	182.044479
11914.847340	1417.915000	1945.715820	98.118668
11914.847340	1417.915000	1944.741211	46.124451
11914.847340	1417.915000	1943.767578	65.296059
11914.847340	1417.915000	1942.792969	8.443398
11914.847340	1417.915000	1941.818359	69.318085
11914.847340	1417.915000	1940.842773	-58.589211
11914.847340	1417.915000	1939.868164	-34.467308
11914.847340	1417.915000	1938.892578	-61.808079
11914.847340	1417.915000	1937.916992	33.384083
11914.847340	1417.915000	1936.941406	-118.869911
11914.847340	1417.915000	1935.965820	233.499634
11914.847340	1417.915000	1934.990234	86.189369
11914.847340	1417.915000	1934.013672	105.436935
11914.847340	1417.915000	1933.037109	53.701611
11914.847340	1417.915000	1932.060547	-152.189178
11914.847340	1417.915000	1931.083984	-17.856268
11914.847340	1417.915000	1930.107422	-91.513306
11914.847340	1417.915000	1929.129883	-69.731285
11914.847340	1417.915000	1928.153320	113.470268
11914.847340	1417.915000	1927.175781	118.121025
11914.847340	1417.915000	1926.198242	-48.345379
11914.847340	1417.915000	1925.219727	-36.303665
11914.847340	1417.915000	1924.242188	-60.905426
11914.847340	1417.915000	1923.263672	-78.153152
11914.847340	1417.915000	1922.285156	12.109284
11914.847340	1417.915000	1921.306641	29.081144
11914.847340	1417.915000	1920.328125	-83.362556
11914.847340	1417.915000	1919.349609	-288.526489
11914.847340	1417.915000	1918.370117	9.263401
11914.847340	1417.915000	1917.391602	-24.964148
11914.847340	1417.915000	1916.412109	-3.040638
11914.847340	1417.915000	1915.431641	133.556366
11914.847340	1417.915000	1914.452148	38.390572
11914.847340	1417.915000	1913.472656	50.583290
11914.847340	1417.915000	1912.492188	109.115257
11914.847340	1417.915000	1911.511719	104.255508
11914.847340	1417.915000	1910.531250	172.537094
11914.847340	1417.915000	1909.550781	206.690323
11914.847340	1417.915000	1908.569336	172.622681
11914.847340	1417.915000	1907.588867	-58.738194
11914.847340	1417.915000	1906.607422	97.264648
11914.847340	1417.915000	1905.625977	-68.217117
11914.847340	1417.915000	1904.644531	-43.715965
11914.847340	1417.915000	1903.662109	36.778160
11914.847340	1417.915000	1902.680664	88.050079
11914.847340	1417.915000	1901.698242	-60.216801
11914.847340	1417.915000	1900.715820	-123.264496
11914.847340	1417.915000	1899.733398	78.859810
11914.847340	1417.915000	1898.750000	132.570480
11914.847340	1417.915000	1897.767578	3.908955
11914.847340	1417.915000	1896.784180	64.931793
11914.847340	1417.915000	1895.800781	84.622421
11914.847340	1417.915000	1894.817383	-51.211899
11914.847340	1417.915000	1893.833984	-24.195553
11914.847340	1417.915000	1892.850586	-121.069145
11914.847340	1417.915000	1891.866211	-120.745476
11914.847340	1417.915000	1890.881836	20.432625
11914.847340	1417.915000	1889.897461	81.447166
11914.847340	1417.915000	1888.913086	-107.577263
11914.847340	1417.915000	1887.927734	-95.083717
11914.847340	1417.915000	1886.943359	-48.615063
11914.847340	1417.915000	1885.958008	12.400997
11914.847340	1417.915000	1884.972656	-13.920485
11914.847340	1417.915000	1883.987305	-42.650269
11914.847340	1417.915000	1883.001953	83.817635
11914.847340	1417.915000	1882.015625	33.274540
11914.847340	1417.915000	1881.029297	103.946777
11914.847340	1417.915000	1880.042969	111.589722
11914.847340	1417.915000	1879.056641	-130.323471
11914.847340	1417.915000	1878.070313	32.405926
11914.847340	1417.915000	1877.083984	103.043060
11914.847340	1417.915000	1876.096680	-12.801433
11914.847340	1417.915000	1875.109375	74.770584
11914.847340	1417.915000	1874.122070	215.566208
11914.847340	1417.915000	1873.134766	-23.655285
11914.847340	1417.915000	1872.146484	42.096611
11914.847340	1417.915000	1871.159180	-39.748581
11914.847340	1417.915000	1870.170898	-56.256184
11914.847340	1417.915000	1869.182617	4.630092
11914.847340	1417.915000	1868.194336	-60.238724
11914.847340	1417.915000	1867.205078	191.601517
11914.847340	1417.915000	1866.216797	206.479706
11914.847340	1417.915000	1865.227539	182.685013
11914.847340	1417.915000	1864.238281	42.924095
11914.847340	1417.915000	1863.249023	103.709106
11914.847340	1417.915000	1862.259766	-38.406784
11914.847340	1417.915000	1861.269531	53.753418
11914.847340	1417.915000	1860.279297	-126.938591
11914.847340	1417.915000	1859.290039	-61.358147
11914.847340	1417.915000	1858.298828	33.150814
11914.847340	1417.915000	1857.308594	117.966278
11914.847340	1417.915000	1856.318359	16.982988
11914.847340	1417.915000	1855.327148	130.698227
11914.847340	1417.915000	1854.335938	285.357727
11914.847340	1417.915000	1853.344727	-76.024406
11914.847340	1417.915000	1852.353516	35.205570
11914.847340	1417.915000	1851.362305	-27.150167
11914.847340	1417.915000	1850.370117	84.008141
11914.847340	1417.915000	1849.377930	158.974136
11914.847340	1417.915000	1848.385742	62.872265
11914.847340	1417.915000	1847.393555	111.297684
11914.847340	1417.915000	1846.401367	145.243973
11914.847340	1417.915000	1845.408203	-15.842487
11914.847340	1417.915000	1844.415039	-27.646502
11914.847340	1417.915000	1843.421875	54.395828
11914.847340	1417.915000	1842.428711	-97.002174
11914.847340	1417.915000	1841.435547	-70.339104
11914.847340	1417.915000	1840.441406	83.772758
11914.847340	1417.915000	1839.448242	-122.903633
11914.847340	1417.915000	1838.454102	271.557129
11914.847340	1417.915000	1837.459961	86.522057
11914.847340	1417.915000	1836.464844	67.372009
11914.847340	1417.915000	1835.470703	105.881798
11914.847340	1417.915000	1834.475586	19.426872
11914.847340	1417.915000	1833.480469	199.610687
11914.847340	1417.915000	1832.485352	110.728638
11914.847340	1417.915000	1831.490234	-30.967861
11914.847340	1417.915000	1830.495117	182.670090
11914.847340	1417.915000	1829.499023	79.373787
11914.847340	1417.915000	1828.502930	-14.307884
11914.847340	1417.915000	1827.506836	203.935120
11914.847340	1417.915000	1826.510742	182.185287
11914.847340	1417.915000	1825.513672	210.784210
11914.847340	1417.915000	1824.517578	18.734724
11914.847340	1417.915000	1823.520508	-98.945572
11914.847340	1417.915000	1822.523438	3.923223
11914.847340	1417.915000	1821.526367	-41.863468
11914.847340	1417.915000	1820.529297	53.714378
11914.847340	1417.915000	1819.531250	108.500160
11914.847340	1417.915000	1818.533203	108.146561
11914.847340	1417.915000	1817.535156	-79.031471
11914.847340	1417.915000	1816.537109	42.704872
11914.847340	1417.915000	1815.539063	128.457672
11914.847340	1417.915000	1814.540039	56.178596
11914.847340	1417.915000	1813.541992	-30.459929
11914.847340	1417.915000	1812.542969	-203.229889
11914.847340	1417.915000	1811.543945	71.357536
11914.847340	1417.915000	1810.543945	-20.114222
11914.847340	1417.915000	1809.544922	-42.238125
11914.847340	1417.915000	1808.544922	107.745850
11914.847340	1417.915000	1807.544922	197.883316
11914.847340	1417.915000	1806.544922	-115.929642
11914.847340	1417.915000	1805.544922	-152.489334
11914.847340	1417.915000	1804.544922	126.270248
11914.847340	1417.915000	1803.543945	58.558331
11914.847340	1417.915000	1802.542969	-13.939648
11914.847340	1417.915000	1801.541992	152.312073
11914.847340	1417.915000	1800.541016	187.173462
11914.847340	1417.915000	1799.539063	16.728634
11914.847340	1417.915000	1798.538086	142.205704
11914.847340	1417.915000	1797.536133	57.648235
11914.847340	1417.915000	1796.534180	66.112999
11914.847340	1417.915000	1795.532227	74.537155
11914.847340	1417.915000	1794.529297	-19.612520
11914.847340	1417.915000	1793.527344	14.970601
11914.847340	1417.915000	1792.524414	-83.976891
11914.847340	1417.915000	1791.521484	43.465271
11914.847340	1417.915000	1790.518555	4.036045
11914.847340	1417.915000	1789.514648	36.045792
11914.847340	1417.915000	1788.511719	132.310349
11914.847340	1417.915000	1787.507813	-95.355934
11914.847340	1417.915000	1786.503906	88.903976
11914.847340	1417.915000	1785.500000	15.973593
11914.847340	1417.915000	1784.496094	-66.490128
11914.847340	1417.915000	1783.491211	103.255608
11914.847340	1417.915000	1782.486328	-24.479858
11914.847340	1417.915000	1781.481445	73.752449
11914.847340	1417.915000	1780.476563	24.462063
11914.847340	1417.915000	1779.471680	170.115540
11914.847340	1417.915000	1778.465820	-67.061104
11914.847340	1417.915000	1777.460938	145.016495
11914.847340	1417.915000	1776.455078	81.317184
11914.847340	1417.915000	1775.449219	167.276611
11914.847340	1417.915000	1774.442383	-10.513113
11914.847340	1417.915000	1773.436523	61.092281
11914.847340	1417.915000	1772.429688	-90.578308
11914.847340	1417.915000	1771.422852	256.312347
11914.847340	1417.915000	1770.416016	80.836319
11914.847340	1417.915000	1769.409180	-40.036797
11914.847340	1417.915000	1768.402344	-144.300323
11914.847340	1417.915000	1767.394531	147.592651
11914.847340	1417.915000	1766.386719	-13.684444
11914.847340	1417.915000	1765.378906	-18.436441
11914.847340	1417.915000	1764.371094	111.906853
11914.847340	1417.915000	1763.362305	-182.156601
11914.847340	1417.915000	1762.354492	-177.533264
11914.847340	1417.915000	1761.345703	37.928143
11914.847340	1417.915000	1760.336914	21.089811
11914.847340	1417.915000	1759.328125	87.113754
11914.847340	1417.915000	1758.318359	77.279991
11914.847340	1417.915000	1757.308594	76.874680
11914.847340	1417.915000	1756.299805	130.872635
11914.847340	1417.915000	1755.290039	14.388534
11914.847340	1417.915000	1754.279297	-50.042645
11914.847340	1417.915000	1753.269531	-22.221041
11914.847340	1417.915000	1752.258789	52.848637
11914.847340	1417.915000	1751.249023	-11.691182
11914.847340	1417.915000	1750.238281	-45.518215
11914.847340	1417.915000	1749.226563	-178.675568
11914.847340	1417.915000	1748.215820	-4.549831
11914.847340	1417.915000	1747.204102	37.118542
11914.847340	1417.915000	1746.193359	-178.815628
11914.847340	1417.915000	1745.181641	23.412907
11914.847340	1417.915000	1744.168945	-24.846361
11914.847340	1417.915000	1743.157227	80.362267
11914.847340	1417.915000	1742.144531	-55.340744
11914.847340	1417.915000	1741.132813	-162.709473
11914.847340	1417.915000	1740.120117	-78.922432
11914.847340	1417.915000	1739.106445	30.736126
11914.847340	1417.915000	1738.093750	-36.628220
11914.847340	1417.915000	1737.080078	-85.148331
11914.847340	1417.915000	1736.067383	62.043289
11914.847340	1417.915000	1735.053711	-104.463737
11914.847340	1417.915000	1734.040039	11.930442
11914.847340	1417.915000	1733.025391	17.453161
11914.847340	1417.915000	1732.011719	147.823853
11914.847340	1417.915000	1730.997070	106.103516
11914.847340	1417.915000	1729.982422	167.997650
11914.847340	1417.915000	1728.967773	10.794501
11914.847340	1417.915000	1727.952148	-129.916489
11914.847340	1417.915000	1726.937500	235.540649
11914.847340	1417.915000	1725.921875	99.455032
11914.847340	1417.915000	1724.906250	-135.465637
11914.847340	1417.915000	1723.890625	60.232925
11914.847340	1417.915000	1722.875000	-0.603403
11914.847340	1417.915000	1721.858398	20.851942
11914.847340	1417.915000	1720.841797	-162.328873
11914.847340	1417.915000	1719.825195	-190.315552
11914.847340	1417.915000	1718.808594	30.829584
11914.847340	1417.915000	1717.791992	-103.030930
11914.847340	1417.915000	1716.774414	-293.284576
11914.847340	1417.915000	1715.756836	141.396942
11914.847340	1417.915000	1714.739258	110.799950
11914.847340	1417.915000	1713.721680	77.822174
11914.847340	1417.915000	1712.704102	-56.148449
11914.847340	1417.915000	1711.685547	21.155714
11914.847340	1417.915000	1710.667969	-28.347723
11914.847340	1417.915000	1709.649414	79.339111
11914.847340	1417.915000	1708.630859	-24.209095
11914.847340	1417.915000	1707.611328	-125.420151
11914.847340	1417.915000	1706.592773	-46.048943
11914.847340	1417.915000	1705.573242	73.105225
11914.847340	1417.915000	1704.553711	-2.407181
11914.847340	1417.915000	1703.534180	27.541100
11914.847340	1417.915000	1702.513672	52.744751
11914.847340	1417.915000	1701.494141	-57.991146
11914.847340	1417.915000	1700.473633	-2.411532
11914.847340	1417.915000	1699.453125	102.289154
11914.847340	1417.915000	1698.432617	-43.644615
11914.847340	1417.915000	1697.412109	46.895901
11914.847340	1417.915000	1696.390625	-85.012566
11914.847340	1417.915000	1695.369141	143.491379
11914.847340	1417.915000	1694.347656	25.575102
11914.847340	1417.915000	1693.326172	73.759460
11914.847340	1417.915000	1692.304688	-112.004982
11914.847340	1417.915000	1691.282227	69.398407
11914.847340	1417.915000	1690.260742	164.192551
11914.847340	1417.915000	1689.238281	170.079056
11914.847340	1417.915000	1688.214844	89.445908
11914.847340	1417.915000	1687.192383	1.803359
11914.847340	1417.915000	1686.168945	58.997360
11914.847340	1417.915000	1685.146484	120.811745
11914.847340	1417.915000	1684.123047	107.829651
11914.847340	1417.915000	1683.099609	69.132668
11914.847340	1417.915000	1682.075195	46.751263
11914.847340	1417.915000	1681.051758	64.028114
11914.847340	1417.915000	1680.027344	218.935791
11914.847340	1417.915000	1679.002930	77.447639
11914.847340	1417.915000	1677.978516	36.284794
11914.847340	1417.915000	1676.953125	79.057678
11914.847340	1417.915000	1675.928711	-1.795012
11914.847340	1417.915000	1674.903320	183.112122
11914.847340	1417.915000	1673.877930	48.592430
11914.847340	1417.915000	1672.852539	140.139542
11914.847340	1417.915000	1671.826172	70.849113
11914.847340	1417.915000	1670.800781	178.602524
11914.847340	1417.915000	1669.774414	181.472412
11914.847340	1417.915000	1668.748047	263.482269
11914.847340	1417.915000	1667.721680	103.306396
11914.847340	1417.915000	1666.694336	243.428040
11914.847340	1417.915000	1665.667969	315.985687
11914.847340	1417.915000	1664.640625	311.696320
11914.847340	1417.915000	1663.613281	444.635254
11914.847340	1417.915000	1662.585938	533.304993
11914.847340	1417.915000	1661.557617	521.914307
11914.847340	1417.915000	1660.530273	629.083313
11914.847340	1417.915000	1659.501953	519.995544
11914.847340	1417.915000	1658.473633	624.743225
11914.847340	1417.915000	1657.444336	615.561279
11914.847340	1417.915000	1656.416016	801.514404
11914.847340	1417.915000	1655.386719	532.107361
11914.847340	1417.915000	1654.358398	687.769165
11914.847340	1417.915000	1653.328125	659.908752
11914.847340	1417.915000	1652.298828	834.006958
11914.847340	1417.915000	1651.269531	773.600525
11914.847340	1417.915000	1650.239258	771.202698
11914.847340	1417.915000	1649.208984	919.590332
11914.847340	1417.915000	1648.178711	597.020874
11914.847340	1417.915000	1647.148438	722.154053
11914.847340	1417.915000	1646.117188	666.355652
11914.847340	1417.915000	1645.086914	747.344971
11914.847340	1417.915000	1644.055664	784.240662
11914.847340	1417.915000	1643.024414	848.913574
11914.847340	1417.915000	1641.992188	705.016418
11914.847340	1417.915000	1640.960938	839.142700
11914.847340	1417.915000	1639.928711	896.765564
11914.847340	1417.915000	1638.896484	1023.820129
11914.847340	1417.915000	1637.864258	1076.727051
11914.847340	1417.915000	1636.832031	928.225098
11914.847340	1417.915000	1635.798828	957.955322
11914.847340	1417.915000	1634.766602	862.726257
11914.847340	1417.915000	1633.733398	864.674927
11914.847340	1417.915000	1632.699219	857.353638
11914.847340	1417.915000	1631.666016	981.839539
11914.847340	1417.915000	1630.632813	949.053833
11914.847340	1417.915000	1629.598633	890.837891
11914.847340	1417.915000	1628.564453	777.170959
11914.847340	1417.915000	1627.530273	913.087830
11914.847340	1417.915000	1626.495117	813.298828
11914.847340	1417.915000	1625.460938	875.230774
11914.847340	1417.915000	1624.425781	1041.043091
11914.847340	1417.915000	1623.390625	872.004028
11914.847340	1417.915000	1622.355469	945.407288
11914.847340	1417.915000	1621.319336	970.304077
11914.847340	1417.915000	1620.284180	923.662170
11914.847340	1417.915000	1619.248047	973.924133
11914.847340	1417.915000	1618.211914	830.411133
11914.847340	1417.915000	1617.174805	795.332520
11914.847340	1417.915000	1616.138672	1073.848633
11914.847340	1417.915000	1615.101563	918.862793
11914.847340	1417.915000	1614.065430	946.023621
11914.847340	1417.915000	1613.027344	867.160217
11914.847340	1417.915000	1611.990234	1060.195679
11914.847340	1417.915000	1610.953125	1029.724243
11914.847340	1417.915000	1609.915039	1061.440552
11914.847340	1417.915000	1608.876953	1113.870850
11914.847340	1417.915000	1607.838867	1147.867432
11914.847340	1417.915000	1606.800781	958.595825
11914.847340	1417.915000	1605.761719	1045.539917
11914.847340	1417.915000	1604.723633	1238.297363
11914.847340	1417.915000	1603.684570	1118.137085
11914.847340	1417.915000	1602.644531	1076.219849
11914.847340	1417.915000	1601.605469	1112.513184
11914.847340	1417.915000	1600.566406	997.068604
11914.847340	1417.915000	1599.526367	1242.537964
11914.847340	1417.915000	1598.486328	996.135681
11914.847340	1417.915000	1597.446289	1126.647705
11914.847340	1417.915000	1596.405273	896.458313
11914.847340	1417.915000	1595.365234	930.499939
11914.847340	1417.915000	1594.324219	877.274048
11914.847340	1417.915000	1593.283203	1117.947388
11914.847340	1417.915000	1592.242188	1202.453979
11914.847340	1417.915000	1591.200195	1197.433472
11914.847340	1417.915000	1590.159180	1045.590210
11914.847340	1417.915000	1589.117188	1061.277710
11914.847340	1417.915000	1588.075195	1035.690674
11914.847340	1417.915000	1587.032227	943.622864
11914.847340	1417.915000	1585.990234	1090.053223
11914.847340	1417.915000	1584.947266	894.895691
11914.847340	1417.915000	1583.904297	1084.850952
11914.847340	1417.915000	1582.861328	1079.988037
11914.847340	1417.915000	1581.818359	1150.745972
11914.847340	1417.915000	1580.775391	1111.554932
11914.847340	1417.915000	1579.731445	948.735352
11914.847340	1417.915000	1578.687500	907.345093
11914.847340	1417.915000	1577.643555	1172.731445
11914.847340	1417.915000	1576.598633	1042.095581
11914.847340	1417.915000	1575.554688	1078.578003
11914.847340	1417.915000	1574.509766	977.799316
11914.847340	1417.915000	1573.464844	1220.179565
11914.847340	1417.915000	1572.419922	1393.884277
11914.847340	1417.915000	1571.374023	1192.570068
11914.847340	1417.915000	1570.329102	998.225647
11914.847340	1417.915000	1569.283203	1121.663208
11914.847340	1417.915000	1568.237305	1142.251953
11914.847340	1417.915000	1567.191406	1085.184937
11914.847340	1417.915000	1566.144531	1188.053101
11914.847340	1417.915000	1565.098633	1363.995605
11914.847340	1417.915000	1564.051758	1311.566772
11914.847340	1417.915000	1563.004883	1229.511963
11914.847340	1417.915000	1561.957031	1257.067749
11914.847340	1417.915000	1560.910156	949.209656
11914.847340	1417.915000	1559.862305	1056.726074
11914.847340	1417.915000	1558.814453	1057.024048
11914.847340	1417.915000	1557.766602	1219.276855
11914.847340	1417.915000	1556.718750	943.716675
11914.847340	1417.915000	1555.669922	777.716980
11914.847340	1417.915000	1554.621094	775.922974
11914.847340	1417.915000	1553.573242	869.880005
11914.847340	1417.915000	1552.523438	982.051819
11914.847340	1417.915000	1551.474609	640.923035
11914.847340	1417.915000	1550.424805	714.454407
11914.847340	1417.915000	1549.375000	537.525330
11914.847340	1417.915000	1548.325195	800.076782
11914.847340	1417.915000	1547.275391	509.474457
11914.847340	1417.915000	1546.225586	578.578308
11914.847340	1417.915000	1545.174805	659.065002
11914.847340	1417.915000	1544.124023	744.111511
11914.847340	1417.915000	1543.073242	440.260345
11914.847340	1417.915000	1542.022461	482.196594
11914.847340	1417.915000	1540.970703	424.123474
11914.847340	1417.915000	1539.919922	650.240662
11914.847340	1417.915000	1538.868164	369.539001
11914.847340	1417.915000	1537.815430	470.691986
11914.847340	1417.915000	1536.763672	453.732025
11914.847340	1417.915000	1535.710938	684.375854
11914.847340	1417.915000	1534.659180	331.405670
11914.847340	1417.915000	1533.606445	378.182922
11914.847340	1417.915000	1532.552734	479.459167
11914.847340	1417.915000	1531.500000	483.164795
11914.847340	1417.915000	1530.446289	359.851929
11914.847340	1417.915000	1529.393555	624.550354
11914.847340	1417.915000	1528.338867	428.775360
11914.847340	1417.915000	1527.285156	659.435425
11914.847340	1417.915000	1526.231445	710.950989
11914.847340	1417.915000	1525.176758	723.958496
11914.847340	1417.915000	1524.122070	646.362610
11914.847340	1417.915000	1523.067383	568.848206
11914.847340	1417.915000	1522.012695	466.497864
11914.847340	1417.915000	1520.957031	538.632751
11914.847340	1417.915000	1519.901367	742.128906
11914.847340	1417.915000	1518.845703	680.710449
11914.847340	1417.915000	1517.790039	524.301575
11914.847340	1417.915000	1516.734375	585.266907
11914.847340	1417.915000	1515.677734	521.811829
11914.847340	1417.915000	1514.621094	585.120544
11914.847340	1417.915000	1513.564453	528.586182
11914.847340	1417.915000	1512.507813	497.004913
11914.847340	1417.915000	1511.450195	635.052917
11914.847340	1417.915000	1510.393555	709.815735
11914.847340	1417.915000	1509.335938	355.209656
11914.847340	1417.915000	1508.278320	468.521301
11914.847340	1417.915000	1507.219727	369.490448
11914.847340	1417.915000	1506.162109	532.560547
11914.847340	1417.915000	1505.103516	745.300720
11914.847340	1417.915000	1504.044922	648.708191
11914.847340	1417.915000	1502.986328	525.126099
11914.847340	1417.915000	1501.926758	679.239929
11914.847340	1417.915000	1500.868164	702.486511
11914.847340	1417.915000	1499.808594	795.715881
11914.847340	1417.915000	1498.749023	676.953308
11914.847340	1417.915000	1497.688477	650.752563
11914.847340	1417.915000	1496.628906	642.665283
11914.847340	1417.915000	1495.568359	614.352539
11914.847340	1417.915000	1494.507813	554.562866
11914.847340	1417.915000	1493.447266	663.852356
11914.847340	1417.915000	1492.386719	815.966309
11914.847340	1417.915000	1491.325195	882.491089
11914.847340	1417.915000	1490.263672	446.879211
11914.847340	1417.915000	1489.202148	461.796936
11914.847340	1417.915000	1488.140625	368.724091
11914.847340	1417.915000	1487.079102	530.067139
11914.847340	1417.915000	1486.016602	290.889282
11914.847340	1417.915000	1484.954102	315.084076
11914.847340	1417.915000	1483.891602	368.573639
11914.847340	1417.915000	1482.829102	363.641449
11914.847340	1417.915000	1481.765625	309.311829
11914.847340	1417.915000	1480.702148	239.345276
11914.847340	1417.915000	1479.638672	230.148224
11914.847340	1417.915000	1478.575195	256.971924
11914.847340	1417.915000	1477.511719	173.784363
11914.847340	1417.915000	1476.447266	313.041809
11914.847340	1417.915000	1475.382813	351.224121
11914.847340	1417.915000	1474.318359	185.302216
11914.847340	1417.915000	1473.253906	324.594635
11914.847340	1417.915000	1472.189453	208.199265
11914.847340	1417.915000	1471.124023	24.663483
11914.847340	1417.915000	1470.058594	341.263641
11914.847340	1417.915000	1468.993164	209.394485
11914.847340	1417.915000	1467.927734	207.910660
11914.847340	1417.915000	1466.861328	295.799255
11914.847340	1417.915000	1465.794922	493.577576
11914.847340	1417.915000	1464.728516	321.984070
11914.847340	1417.915000	1463.662109	-64.290703
11914.847340	1417.915000	1462.594727	149.069702
11914.847340	1417.915000	1461.528320	248.467102
11914.847340	1417.915000	1460.460938	269.895630
11914.847340	1417.915000	1459.393555	221.667007
11914.847340	1417.915000	1458.326172	149.627106
11914.847340	1417.915000	1457.257813	65.623901
11914.847340	1417.915000	1456.189453	91.496307
11914.847340	1417.915000	1455.121094	55.533485
11914.847340	1417.915000	1454.052734	197.331253
11914.847340	1417.915000	1452.984375	209.810593
11914.847340	1417.915000	1451.915039	354.566895
11914.847340	1417.915000	1450.845703	-88.915825
11914.847340	1417.915000	1449.776367	264.853760
11914.847340	1417.915000	1448.707031	107.966507
11914.847340	1417.915000	1447.636719	192.800293
11914.847340	1417.915000	1446.567383	52.293045
11914.847340	1417.915000	1445.497070	297.082275
11914.847340	1417.915000	1444.425781	258.550079
11914.847340	1417.915000	1443.355469	292.681793
11914.847340	1417.915000	1442.285156	423.445282
11914.847340	1417.915000	1441.213867	235.117126
11914.847340	1417.915000	1440.142578	310.704102
11914.847340	1417.915000	1439.070313	381.989838
11914.847340	1417.915000	1437.999023	185.955078
11914.847340	1417.915000	1436.926758	246.433685
11914.847340	1417.915000	1435.854492	226.085434
11914.847340	1417.915000	1434.782227	316.052887
11914.847340	1417.915000	1433.709961	159.436646
11914.847340	1417.915000	1432.636719	470.034363
11914.847340	1417.915000	1431.563477	270.019165
11914.847340	1417.915000	1430.490234	259.283661
11914.847340	1417.915000	1429.416992	179.768204
11914.847340	1417.915000	1428.343750	-14.125873
11914.847340	1417.915000	1427.269531	-69.515610
11914.847340	1417.915000	1426.195313	65.149689
11914.847340	1417.915000	1425.121094	-252.588028
11914.847340	1417.915000	1424.046875	-128.756195
11914.847340	1417.915000	1422.971680	-214.188370
11914.847340	1417.915000	1421.896484	-6.265827
11914.847340	1417.915000	1420.821289	-97.133156
11914.847340	1417.915000	1419.746094	-87.085358
11914.847340	1417.915000	1418.669922	84.384048
11914.847340	1417.915000	1417.594727	-16.422676
11914.847340	1417.915000	1416.518555	-172.739487
11914.847340	1417.915000	1415.442383	-51.539848
11914.847340	1417.915000	1414.365234	15.383164
11914.847340	1417.915000	1413.289063	40.792175
11914.847340	1417.915000	1412.211914	0.917627
11914.847340	1417.915000	1411.134766	145.307236
11914.847340	1417.915000	1410.057617	-12.559645
11914.847340	1417.915000	1408.979492	-111.225761
11914.847340	1417.915000	1407.902344	-20.321777
11914.847340	1417.915000	1406.824219	20.029882
11914.847340	1417.915000	1405.746094	-54.339256
11914.847340	1417.915000	1404.666992	135.675766
11914.847340	1417.915000	1403.588867	178.711288
11914.847340	1417.915000	1402.509766	279.891510
11914.847340	1417.915000	1401.430664	212.230301
11914.847340	1417.915000	1400.351563	43.516521
11914.847340	1417.915000	1399.271484	220.720657
11914.847340	1417.915000	1398.192383	308.880737
11914.847340	1417.915000	1397.112305	151.406738
11914.847340	1417.915000	1396.031250	266.113098
11914.847340	1417.915000	1394.951172	314.782532
11914.847340	1417.915000	1393.871094	551.178589
11914.847340	1417.915000	1392.790039	299.792694
11914.847340	1417.915000	1391.708984	275.535461
11914.847340	1417.915000	1390.626953	369.540009
11914.847340	1417.915000	1389.545898	287.080536
11914.847340	1417.915000	1388.463867	148.857101
11914.847340	1417.915000	1387.381836	207.304489
11914.847340	1417.915000	1386.299805	231.569946
11914.847340	1417.915000	1385.217773	342.471558
11914.847340	1417.915000	1384.134766	181.965988
11914.847340	1417.915000	1383.051758	269.508301
11914.847340	1417.915000	1381.968750	157.262299
11914.847340	1417.915000	1380.885742	320.466949
11914.847340	1417.915000	1379.802734	278.199097
11914.847340	1417.915000	1378.718750	238.686264
11914.847340	1417.915000	1377.634766	203.044250
11914.847340	1417.915000	1376.550781	238.668289
11914.847340	1417.915000	1375.465820	223.027237
11914.847340	1417.915000	1374.381836	34.225502
11914.847340	1417.915000	1373.296875	233.178696
11914.847340	1417.915000	1372.211914	-64.118782
11914.847340	1417.915000	1371.126953	-34.104752
11914.847340	1417.915000	1370.041016	352.575684
11914.847340	1417.915000	1368.955078	202.605179
11914.847340	1417.915000	1367.869141	186.271515
11914.847340	1417.915000	1366.783203	193.782349
11914.847340	1417.915000	1365.697266	87.316063
11914.847340	1417.915000	1364.610352	155.083282
11914.847340	1417.915000	1363.523438	236.402100
11914.847340	1417.915000	1362.436523	249.879608
11914.847340	1417.915000	1361.349609	170.360138
11914.847340	1417.915000	1360.261719	122.908089
11914.847340	1417.915000	1359.174805	254.454239
11914.847340	1417.915000	1358.086914	104.691208
11914.847340	1417.915000	1356.998047	179.124634
11914.847340	1417.915000	1355.910156	209.584396
11914.847340	1417.915000	1354.821289	55.611073
11914.847340	1417.915000	1353.732422	117.878647
11914.847340	1417.915000	1352.643555	219.752945
11914.847340	1417.915000	1351.554688	155.980652
11914.847340	1417.915000	1350.464844	38.352165
11914.847340	1417.915000	1349.375000	171.182831
11914.847340	1417.915000	1348.285156	320.963470
11914.847340	1417.915000	1347.195313	90.430000
11914.847340	1417.915000	1346.105469	369.333954
11914.847340	1417.915000	1345.014648	435.100739
11914.847340	1417.915000	1343.923828	324.677307
11914.847340	1417.915000	1342.833008	283.698914
11914.847340	1417.915000	1341.741211	402.245453
11914.847340	1417.915000	1340.650391	457.779022
11914.847340	1417.915000	1339.558594	431.801605
11914.847340	1417.915000	1338.466797	382.445343
11914.847340	1417.915000	1337.374023	687.616516
11914.847340	1417.915000	1336.282227	544.085327
11914.847340	1417.915000	1335.189453	699.162781
11914.847340	1417.915000	1334.096680	365.426117
11914.847340	1417.915000	1333.003906	363.891510
11914.847340	1417.915000	1331.910156	419.894135
11914.847340	1417.915000	1330.817383	320.859955
11914.847340	1417.915000	1329.723633	115.443245
11914.847340	1417.915000	1328.629883	372.660400
11914.847340	1417.915000	1327.535156	429.555786
11914.847340	1417.915000	1326.441406	532.854797
11914.847340	1417.915000	1325.346680	419.830231
11914.847340	1417.915000	1324.251953	341.205292
11914.847340	1417.915000	1323.156250	228.950317
11914.847340	1417.915000	1322.061523	389.492462
11914.847340	1417.915000	1320.965820	280.096069
11914.847340	1417.915000	1319.870117	292.945160
11914.847340	1417.915000	1318.774414	590.611511
11914.847340	1417.915000	1317.678711	360.301605
11914.847340	1417.915000	1316.582031	198.520203
11914.847340	1417.915000	1315.485352	371.669891
11914.847340	1417.915000	1314.388672	297.610504
11914.847340	1417.915000	1313.291016	491.582214
11914.847340	1417.915000	1312.194336	302.605164
11914.847340	1417.915000	1311.096680	396.102600
11914.847340	1417.915000	1309.999023	486.813843
11914.847340	1417.915000	1308.901367	371.531311
11914.847340	1417.915000	1307.802734	651.854736
11914.847340	1417.915000	1306.705078	775.230652
11914.847340	1417.915000	1305.606445	629.640320
11914.847340	1417.915000	1304.506836	722.718994
11914.847340	1417.915000	1303.408203	702.294861
11914.847340	1417.915000	1302.308594	659.738953
11914.847340	1417.915000	1301.208984	855.674072
11914.847340	1417.915000	1300.109375	730.323364
11914.847340	1417.915000	1299.009766	567.427429
11914.847340	1417.915000	1297.909180	715.586365
11914.847340	1417.915000	1296.808594	599.599487
11914.847340	1417.915000	1295.708008	741.554138
11914.847340	1417.915000	1294.607422	844.645142
11914.847340	1417.915000	1293.506836	788.177612
11914.847340	1417.915000	1292.405273	754.139465
11914.847340	1417.915000	1291.303711	779.040710
11914.847340	1417.915000	1290.202148	917.215881
11914.847340	1417.915000	1289.099609	810.775024
11914.847340	1417.915000	1287.998047	650.934814
11914.847340	1417.915000	1286.895508	773.450134
11914.847340	1417.915000	1285.792969	814.737305
11914.847340	1417.915000	1284.689453	598.230530
11914.847340	1417.915000	1283.586914	756.826172
11914.847340	1417.915000	1282.483398	738.568298
11914.847340	1417.915000	1281.379883	682.643494
11914.847340	1417.915000	1280.276367	537.703613
11914.847340	1417.915000	1279.171875	724.534668
11914.847340	1417.915000	1278.067383	669.300720
11914.847340	1417.915000	1276.962891	590.173096
11914.847340	1417.915000	1275.858398	634.198120
11914.847340	1417.915000	1274.753906	500.782440
11914.847340	1417.915000	1273.648438	517.226929
11914.847340	1417.915000	1272.542969	471.212097
11914.847340	1417.915000	1271.437500	742.492249
11914.847340	1417.915000	1270.331055	782.829224
11914.847340	1417.915000	1269.225586	602.059937
11914.847340	1417.915000	1268.119141	674.064270
11914.847340	1417.915000	1267.012695	664.901428
11914.847340	1417.915000	1265.906250	581.409729
11914.847340	1417.915000	1264.798828	536.142090
11914.847340	1417.915000	1263.691406	568.860046
11914.847340	1417.915000	1262.583984	399.822632
11914.847340	1417.915000	1261.476563	330.829163
11914.847340	1417.915000	1260.368164	219.331146
11914.847340	1417.915000	1259.260742	199.564545
11914.847340	1417.915000	1258.152344	158.312790
11914.847340	1417.915000	1257.043945	176.713150
11914.847340	1417.915000	1255.934570	46.303089
11914.847340	1417.915000	1254.825195	24.897552
11914.847340	1417.915000	1253.716797	231.695190
11914.847340	1417.915000	1252.606445	233.784332
11914.847340	1417.915000	1251.497070	228.180023
11914.847340	1417.915000	1250.387695	327.393433
11914.847340	1417.915000	1249.277344	152.650635
11914.847340	1417.915000	1248.166992	108.645363
11914.847340	1417.915000	1247.055664	91.384972
11914.847340	1417.915000	1245.945313	67.869713
11914.847340	1417.915000	1244.833984	-82.860733
11914.847340	1417.915000	1243.722656	27.447865
11914.847340	1417.915000	1242.611328	26.511759
11914.847340	1417.915000	1241.499023	-84.035675
11914.847340	1417.915000	1240.387695	-14.953071
11914.847340	1417.915000	1239.275391	24.931189
11914.847340	1417.915000	1238.162109	-87.949821
11914.847340	1417.915000	1237.049805	-17.847963
11914.847340	1417.915000	1235.936523	75.864502
11914.847340	1417.915000	1234.823242	91.664391
11914.847340	1417.915000	1233.709961	-76.039658
11914.847340	1417.915000	1232.596680	72.673691
11914.847340	1417.915000	1231.482422	106.314850
11914.847340	1417.915000	1230.369141	158.031296
11914.847340	1417.915000	1229.253906	137.544815
11914.847340	1417.915000	1228.139648	117.747787
11914.847340	1417.915000	1227.025391	72.254150
11914.847340	1417.915000	1225.910156	38.884884
11914.847340	1417.915000	1224.794922	62.464432
11914.847340	1417.915000	1223.679688	163.717850
11914.847340	1417.915000	1222.563477	-7.207700
11914.847340	1417.915000	1221.447266	86.995628
11914.847340	1417.915000	1220.331055	139.210114
11914.847340	1417.915000	1219.214844	118.812180
11914.847340	1417.915000	1218.098633	161.728073
11914.847340	1417.915000	1216.981445	298.817871
11914.847340	1417.915000	1215.864258	292.847382
11914.847340	1417.915000	1214.747070	247.309311
11914.847340	1417.915000	1213.629883	235.993134
11914.847340	1417.915000	1212.511719	287.625153
11914.847340	1417.915000	1211.393555	340.531799
11914.847340	1417.915000	1210.275391	342.466431
11914.847340	1417.915000	1209.157227	444.813293
11914.847340	1417.915000	1208.038086	505.908112
11914.847340	1417.915000	1206.918945	525.581177
11914.847340	1417.915000	1205.799805	681.912048
11914.847340	1417.915000	1204.680664	586.761536
11914.847340	1417.915000	1203.560547	505.742706
11914.847340	1417.915000	1202.441406	554.545044
11914.847340	1417.915000	1201.321289	677.729004
11914.847340	1417.915000	1200.200195	629.232544
11914.847340	1417.915000	1199.080078	714.259949
11914.847340	1417.915000	1197.958984	585.078613
11914.847340	1417.915000	1196.837891	547.409607
11914.847340	1417.915000	1195.716797	520.988708
11914.847340	1417.915000	1194.594727	472.678955
11914.847340	1417.915000	1193.473633	368.158264
11914.847340	1417.915000	1192.351563	481.584595
11914.847340	1417.915000	1191.229492	403.248444
11914.847340	1417.915000	1190.106445	472.199188
11914.847340	1417.915000	1188.984375	245.278946
11914.847340	1417.915000	1187.861328	213.255066
11914.847340	1417.915000	1186.738281	359.897461
11914.847340	1417.915000	1185.614258	193.893265
11914.847340	1417.915000	1184.491211	177.937210
11914.847340	1417.915000	1183.367188	240.361969
11914.847340	1417.915000	1182.243164	138.398483
11914.847340	1417.915000	1181.119141	60.238708
11914.847340	1417.915000	1179.994141	135.334335
11914.847340	1417.915000	1178.869141	63.562866
11914.847340	1417.915000	1177.744141	3.555696
11914.847340	1417.915000	1176.619141	63.037994
11914.847340	1417.915000	1175.493164	36.683098
11914.847340	1417.915000	1174.368164	141.479980
11914.847340	1417.915000	1173.242188	-43.586594
11914.847340	1417.915000	1172.115234	203.409683
11914.847340	1417.915000	1170.989258	83.830956
11914.847340	1417.915000	1169.862305	3.490013
11914.847340	1417.915000	1168.735352	-40.056774
11914.847340	1417.915000	1167.608398	87.756615
11914.847340	1417.915000	1166.481445	-12.310463
11914.847340	1417.915000	1165.353516	-63.112125
11914.847340	1417.915000	1164.225586	-114.603645
11914.847340	1417.915000	1163.097656	-90.738533
11914.847340	1417.915000	1161.968750	-103.090691
11914.847340	1417.915000	1160.840820	-29.650166
11914.847340	1417.915000	1159.711914	-11.682578
11914.847340	1417.915000	1158.583008	24.814926
11914.847340	1417.915000	1157.453125	-177.900574
11914.847340	1417.915000	1156.324219	-135.504486
11914.847340	1417.915000	1155.194336	-13.107311
11914.847340	1417.915000	1154.064453	-116.703171
11914.847340	1417.915000	1152.933594	-186.383682
11914.847340	1417.915000	1151.803711	-130.436386
11914.847340	1417.915000	1150.672852	-98.300049
11914.847340	1417.915000	1149.541992	-43.530216
11914.847340	1417.915000	1148.411133	-229.022736
11914.847340	1417.915000	1147.279297	-170.256027
11914.847340	1417.915000	1146.147461	-158.854889
11914.847340	1417.915000	1145.015625	-104.851875
11914.847340	1417.915000	1143.883789	-63.588120
11914.847340	1417.915000	1142.750977	-62.421043
11914.847340	1417.915000	1141.619141	-183.340851
11914.847340	1417.915000	1140.486328	-17.363838
11914.847340	1417.915000	1139.352539	-179.256027
11914.847340	1417.915000	1138.219727	-81.541618
11914.847340	1417.915000	1137.085938	-22.815205
11914.847340	1417.915000	1135.952148	-8.851707
11914.847340	1417.915000	1134.818359	56.768513
11914.847340	1417.915000	1133.683594	78.950554
11914.847340	1417.915000	1132.549805	225.284744
11914.847340	1417.915000	1131.415039	119.118637
11914.847340	1417.915000	1130.279297	336.367889
11914.847340	1417.915000	1129.144531	328.757813
11914.847340	1417.915000	1128.008789	167.508820
11914.847340	1417.915000	1126.873047	254.487839
11914.847340	1417.915000	1125.737305	320.520813
11914.847340	1417.915000	1124.601563	219.012741
11914.847340	1417.915000	1123.464844	289.418335
11914.847340	1417.915000	1122.328125	286.443512
11914.847340	1417.915000	1121.191406	313.152496
11914.847340	1417.915000	1120.054688	315.352692
11914.847340	1417.915000	1118.916992	463.369751
11914.847340	1417.915000	1117.779297	343.705658
11914.847340	1417.915000	1116.641602	466.666809
11914.847340	1417.915000	1115.503906	234.812607
11914.847340	1417.915000	1114.365234	266.664886
11914.847340	1417.915000	1113.226563	409.041168
11914.847340	1417.915000	1112.087891	241.392426
11914.847340	1417.915000	1110.949219	171.327881
11914.847340	1417.915000	1109.809570	198.695435
11914.847340	1417.915000	1108.669922	225.200439
11914.847340	1417.915000	1107.530273	206.103485
11914.847340	1417.915000	1106.390625	216.558670
11914.847340	1417.915000	1105.250000	270.484161
11914.847340	1417.915000	1104.109375	356.282684
11914.847340	1417.915000	1102.968750	122.642601
11914.847340	1417.915000	1101.828125	205.777588
11914.847340	1417.915000	1100.686523	314.186737
11914.847340	1417.915000	1099.544922	334.229004
11914.847340	1417.915000	1098.403320	248.910141
11914.847340	1417.915000	1097.261719	339.840332
11914.847340	1417.915000	1096.120117	137.543854
11914.847340	1417.915000	1094.977539	163.777481
11914.847340	1417.915000	1093.834961	60.887661
11914.847340	1417.915000	1092.691406	183.329330
11914.847340	1417.915000	1091.548828	67.286942
11914.847340	1417.915000	1090.405273	93.901924
11914.847340	1417.915000	1089.261719	74.873413
11914.847340	1417.915000	1088.118164	96.829247
11914.847340	1417.915000	1086.973633	78.688072
11914.847340	1417.915000	1085.829102	14.265351
11914.847340	1417.915000	1084.684570	71.119598
11914.847340	1417.915000	1083.540039	140.408936
11914.847340	1417.915000	1082.395508	-126.314972
11914.847340	1417.915000	1081.250000	-0.443163
11914.847340	1417.915000	1080.104492	28.413246
11914.847340	1417.915000	1078.958984	55.238567
11914.847340	1417.915000	1077.812500	165.206100
11914.847340	1417.915000	1076.666016	191.670700
11914.847340	1417.915000	1075.519531	280.099060
11914.847340	1417.915000	1074.373047	353.467743
11914.847340	1417.915000	1073.226563	386.837250
11914.847340	1417.915000	1072.079102	286.149261
11914.847340	1417.915000	1070.931641	235.998077
11914.847340	1417.915000	1069.784180	22.115114
11914.847340	1417.915000	1068.635742	341.466400
11914.847340	1417.915000	1067.487305	308.553558
11914.847340	1417.915000	1066.338867	243.450760
11914.847340	1417.915000	1065.190430	361.711761
11914.847340	1417.915000	1064.041992	262.023010
11914.847340	1417.915000	1062.892578	275.181488
11914.847340	1417.915000	1061.743164	303.799377
11914.847340	1417.915000	1060.593750	235.233063
11914.847340	1417.915000	1059.443359	252.125137
11914.847340	1417.915000	1058.292969	310.845703
11914.847340	1417.915000	1057.142578	11.063670
11914.847340	1417.915000	1055.992188	90.081841
11914.847340	1417.915000	1054.841797	133.350403
11914.847340	1417.915000	1053.690430	-67.774361
11914.847340	1417.915000	1052.539063	91.713570
11914.847340	1417.915000	1051.387695	52.539814
11914.847340	1417.915000	1050.235352	21.711914
11914.847340	1417.915000	1049.083984	-64.793922
11914.847340	1417.915000	1047.931641	-17.813261
11914.847340	1417.915000	1046.778320	47.362827
11914.847340	1417.915000	1045.625977	-54.975746
11914.847340	1417.915000	1044.472656	-48.318073
11914.847340	1417.915000	1043.319336	8.514055
11914.847340	1417.915000	1042.166016	45.197464
11914.847340	1417.915000	1041.012695	12.591595
11914.847340	1417.915000	1039.858398	-41.950584
11914.847340	1417.915000	1038.704102	50.034443
11914.847340	1417.915000	1037.549805	-10.845825
11914.847340	1417.915000	1036.394531	72.088638
11914.847340	1417.915000	1035.239258	38.918652
11914.847340	1417.915000	1034.083984	20.934338
11914.847340	1417.915000	1032.928711	-17.081984
11914.847340	1417.915000	1031.773438	-69.182945
11914.847340	1417.915000	1030.617188	116.121864
11914.847340	1417.915000	1029.460938	119.946655
11914.847340	1417.915000	1028.304688	90.028839
11914.847340	1417.915000	1027.147461	131.713242
11914.847340	1417.915000	1025.991211	-76.297890
11914.847340	1417.915000	1024.833984	-27.171494
11914.847340	1417.915000	1023.675781	127.907890
11914.847340	1417.915000	1022.518555	-44.021358
11914.847340	1417.915000	1021.360352	-36.597050
11914.847340	1417.915000	1020.202148	-55.968365
11914.847340	1417.915000	1019.043945	46.017170
11914.847340	1417.915000	1017.884766	-45.183552
11914.847340	1417.915000	1016.726563	57.474060
11914.847340	1417.915000	1015.567383	67.352852
11914.847340	1417.915000	1014.407227	76.157951
11914.847340	1417.915000	1013.248047	14.309145
11914.847340	1417.915000	1012.087891	71.826324
11914.847340	1417.915000	1010.927734	-57.636665
11914.847340	1417.915000	1009.767578	-6.001557
11914.847340	1417.915000	1008.606445	-250.495285
11914.847340	1417.915000	1007.446289	4.849171
11914.847340	1417.915000	1006.285156	66.483994
11914.847340	1417.915000	1005.123047	17.272532
11914.847340	1417.915000	1003.961914	-172.586563
11914.847340	1417.915000	1002.799805	114.323570
11914.847340	1417.915000	1001.637695	110.271301
11914.847340	1417.915000	1000.475586	-12.074246
11914.847340	1417.915000	999.312500	110.981628
11914.847340	1417.915000	998.149414	60.105846
11914.847340	1417.915000	996.986328	122.344482
11914.847340	1417.915000	995.823242	-89.880417
11914.847340	1417.915000	994.659180	72.473419
11914.847340	1417.915000	993.496094	104.543671
11914.847340	1417.915000	992.332031	-13.681051
11914.847340	1417.915000	991.166992	-81.041473
11914.847340	1417.915000	990.002930	47.141296
11914.847340	1417.915000	988.837891	-67.937279
11914.847340	1417.915000	987.672852	-4.861957
11914.847340	1417.915000	986.506836	81.892723
11914.847340	1417.915000	985.341797	36.043987
11914.847340	1417.915000	984.175781	98.699173
11914.847340	1417.915000	983.009766	106.936729
11914.847340	1417.915000	981.843750	-11.395476
11914.847340	1417.915000	980.676758	-71.361954
11914.847340	1417.915000	979.509766	204.421494
11914.847340	1417.915000	978.342773	42.873051
11914.847340	1417.915000	977.175781	-96.614494
11914.847340	1417.915000	976.007813	-27.994431
11914.847340	1417.915000	974.839844	83.015999
11914.847340	1417.915000	973.671875	-126.412086
11914.847340	1417.915000	972.503906	-99.839996
11914.847340	1417.915000	971.334961	11.481021
11914.847340	1417.915000	970.166016	126.188339
11914.847340	1417.915000	968.997070	275.536072
11914.847340	1417.915000	967.828125	-17.327103
11914.847340	1417.915000	966.658203	-53.093948
11914.847340	1417.915000	965.488281	69.924774
11914.847340	1417.915000	964.318359	102.258575
11914.847340	1417.915000	963.148438	10.044408
11914.847340	1417.915000	961.977539	109.611885
11914.847340	1417.915000	960.806641	90.942329
11914.847340	1417.915000	959.635742	39.058441
11914.847340	1417.915000	958.463867	157.254593
11914.847340	1417.915000	957.292969	22.700500
11914.847340	1417.915000	956.121094	7.839159
11914.847340	1417.915000	954.948242	173.746902
11914.847340	1417.915000	953.776367	76.504707
11914.847340	1417.915000	952.603516	-70.705299
11914.847340	1417.915000	951.430664	43.979282
11914.847340	1417.915000	950.257813	101.527420
11914.847340	1417.915000	949.084961	-105.712013
11914.847340	1417.915000	947.911133	42.478977
11914.847340	1417.915000	946.737305	-37.750977
11914.847340	1417.915000	945.563477	46.221390
11914.847340	1417.915000	944.388672	-36.132069
11914.847340	1417.915000	943.213867	-23.731030
11914.847340	1417.915000	942.039063	-125.497139
11914.847340	1417.915000	940.864258	-106.510239
11914.847340	1417.915000	939.688477	71.867439
11914.847340	1417.915000	938.513672	-40.712219
11914.847340	1417.915000	937.337891	-62.915340
11914.847340	1417.915000	936.161133	-18.265184
11914.847340	1417.915000	934.985352	114.918571
11914.847340	1417.915000	933.808594	4.200155
11914.847340	1417.915000	932.631836	201.841736
11914.847340	1417.915000	931.454102	97.786583
11914.847340	1417.915000	930.277344	107.723015
11914.847340	1417.915000	929.099609	195.353760
11914.847340	1417.915000	927.921875	164.410797
11914.847340	1417.915000	926.743164	226.112717
11914.847340	1417.915000	925.565430	233.891129
11914.847340	1417.915000	924.386719	-68.519150
11914.847340	1417.915000	923.208008	23.260403
11914.847340	1417.915000	922.028320	188.211975
11914.847340	1417.915000	920.849609	25.849379
11914.847340	1417.915000	919.669922	28.803732
11914.847340	1417.915000	919.474609	111.542992
11914.847340	1417.915000	918.309570	73.995766
11914.847340	1417.915000	917.143555	-41.008968
11914.847340	1417.915000	915.977539	22.549030
11914.847340	1417.915000	914.810547	-2.110875
11914.847340	1417.915000	913.644531	46.321228
11914.847340	1417.915000	912.477539	2.277993
11914.847340	1417.915000	911.310547	-106.247139
11914.847340	1417.915000	910.143555	126.922302
11914.847340	1417.915000	908.975586	-89.042267
11914.847340	1417.915000	907.807617	-62.215210
11914.847340	1417.915000	906.639648	-162.124176
11914.847340	1417.915000	905.471680	68.644623
11914.847340	1417.915000	904.303711	-82.808540
11914.847340	1417.915000	903.134766	19.040699
11914.847340	1417.915000	901.965820	82.204468
11914.847340	1417.915000	900.796875	-24.159328
11914.847340	1417.915000	899.626953	-113.336441
11914.847340	1417.915000	898.457031	-11.635508
11914.847340	1417.915000	897.287109	109.303032
11914.847340	1417.915000	896.117188	95.125847
11914.847340	1417.915000	894.947266	123.801857
11914.847340	1417.915000	893.776367	21.741535
11914.847340	1417.915000	892.605469	52.529854
11914.847340	1417.915000	891.434570	-10.953127
11914.847340	1417.915000	890.262695	11.231322
11914.847340	1417.915000	889.091797	31.247261
11914.847340	1417.915000	887.919922	72.645782
11914.847340	1417.915000	886.748047	36.967014
11914.847340	1417.915000	885.575195	121.111526
11914.847340	1417.915000	884.403320	-179.862946
11914.847340	1417.915000	883.230469	30.449041
11914.847340	1417.915000	882.057617	-60.852264
11914.847340	1417.915000	880.883789	-15.301414
11914.847340	1417.915000	879.710938	-53.149670
11914.847340	1417.915000	878.537109	77.833023
11914.847340	1417.915000	877.362305	-105.336617
11914.847340	1417.915000	876.188477	44.797722
11914.847340	1417.915000	875.013672	-129.777145
11914.847340	1417.915000	873.839844	-167.636581
11914.847340	1417.915000	872.664063	-124.366707
11914.847340	1417.915000	871.489258	-149.432404
11914.847340	1417.915000	870.313477	-99.810844
11914.847340	1417.915000	869.138672	-127.034325
11914.847340	1417.915000	867.962891	24.924313
11914.847340	1417.915000	866.786133	46.714092
11914.847340	1417.915000	865.610352	-4.018036
11914.847340	1417.915000	864.433594	11.344865
11914.847340	1417.915000	863.256836	5.373892
11914.847340	1417.915000	862.079102	37.750084
11914.847340	1417.915000	860.902344	36.010620
11914.847340	1417.915000	859.724609	12.957872
11914.847340	1417.915000	858.546875	21.846571
11914.847340	1417.915000	857.368164	-326.986542
11914.847340	1417.915000	856.190430	-60.477840
11914.847340	1417.915000	855.011719	171.856583
11914.847340	1417.915000	853.833008	-55.541481
11914.847340	1417.915000	852.654297	55.405678
11914.847340	1417.915000	851.474609	117.374588
11914.847340	1417.915000	850.294922	-124.795982
11914.847340	1417.915000	849.115234	-109.616692
11914.847340	1417.915000	847.935547	-73.198799
11914.847340	1417.915000	846.754883	5.698631
11914.847340	1417.915000	845.575195	-191.679474
11914.847340	1417.915000	844.393555	-112.813660
11914.847340	1417.915000	843.212891	-50.986423
11914.847340	1417.915000	842.032227	-148.461258
11914.847340	1417.915000	840.850586	-1.751222
11914.847340	1417.915000	839.668945	-41.907612
11914.847340	1417.915000	838.486328	68.619484
11914.847340	1417.915000	837.304688	-69.161209
11914.847340	1417.915000	836.122070	28.573208
11914.847340	1417.915000	834.939453	15.968725
11914.847340	1417.915000	833.756836	-79.341797
11914.847340	1417.915000	832.573242	39.500069
11914.847340	1417.915000	831.389648	236.705780
11914.847340	1417.915000	830.206055	52.370079
11914.847340	1417.915000	829.022461	48.189301
11914.847340	1417.915000	827.838867	77.891014
11914.847340	1417.915000	826.654297	156.280350
11914.847340	1417.915000	825.469727	52.527802
11914.847340	1417.915000	824.284180	215.546860
11914.847340	1417.915000	823.099609	69.470016
11914.847340	1417.915000	821.914063	48.293217
11914.847340	1417.915000	820.728516	33.460392
11914.847340	1417.915000	819.542969	-15.222298
11914.847340	1417.915000	818.356445	12.237214
11914.847340	1417.915000	817.169922	77.732094
11914.847340	1417.915000	815.983398	3.669086
11914.847340	1417.915000	814.796875	-133.779953
11914.847340	1417.915000	813.609375	197.913147
11914.847340	1417.915000	812.422852	49.894169
11914.847340	1417.915000	811.235352	-38.933899
11914.847340	1417.915000	810.046875	148.901550
11914.847340	1417.915000	808.859375	-85.614273
11914.847340	1417.915000	807.670898	129.569977
11914.847340	1417.915000	806.482422	42.862186
11914.847340	1417.915000	805.293945	-67.032120
11914.847340	1417.915000	804.104492	-33.442314
11914.847340	1417.915000	802.915039	14.885210
11914.847340	1417.915000	801.725586	-25.384062
11914.847340	1417.915000	800.536133	111.443680
11914.847340	1417.915000	799.345703	-48.998104
11914.847340	1417.915000	798.155273	-78.728729
11914.847340	1417.915000	796.964844	-62.106640
11914.847340	1417.915000	795.774414	-3.374082
11914.847340	1417.915000	794.583008	27.943666
11914.847340	1417.915000	793.392578	-153.434555
11914.847340	1417.915000	792.200195	-120.018112
11914.847340	1417.915000	791.008789	96.484474
11914.847340	1417.915000	789.816406	75.097321
11914.847340	1417.915000	788.625000	-57.801460
11914.847340	1417.915000	787.432617	-32.898235
11914.847340	1417.915000	786.239258	124.472412
11914.847340	1417.915000	785.046875	107.249184
11914.847340	1417.915000	783.853516	-10.881791
11914.847340	1417.915000	782.660156	89.599823
11914.847340	1417.915000	781.465820	93.369278
11914.847340	1417.915000	780.272461	231.575317
11914.847340	1417.915000	779.078125	117.663727
11914.847340	1417.915000	777.883789	62.584572
11914.847340	1417.915000	776.688477	129.287460
11914.847340	1417.915000	775.494141	44.813320
11914.847340	1417.915000	774.298828	-33.343346
11914.847340	1417.915000	773.103516	98.340317
11914.847340	1417.915000	771.907227	116.675201
11914.847340	1417.915000	770.711914	-9.729346
11914.847340	1417.915000	769.515625	-96.254387
11914.847340	1417.915000	768.318359	26.890455
11914.847340	1417.915000	767.122070	145.776031
11914.847340	1417.915000	765.924805	46.655476
11914.847340	1417.915000	764.727539	31.367615
11914.847340	1417.915000	763.530273	41.207752
11914.847340	1417.915000	762.333008	61.499504
11914.847340	1417.915000	761.134766	65.017494
11914.847340	1417.915000	759.936523	78.985374
11914.847340	1417.915000	758.738281	90.839050
11914.847340	1417.915000	757.540039	85.930946
11914.847340	1417.915000	756.340820	-84.267097
11914.847340	1417.915000	755.141602	136.733246
11914.847340	1417.915000	753.942383	-4.159928
11914.847340	1417.915000	752.742188	-7.016833
11914.847340	1417.915000	751.541992	119.714386
11914.847340	1417.915000	750.341797	-35.766205
11914.847340	1417.915000	749.141602	-36.574947
11914.847340	1417.915000	747.941406	50.339783
11914.847340	1417.915000	746.740234	51.567875
11914.847340	1417.915000	745.539063	40.249134
11914.847340	1417.915000	744.337891	-54.592655
11914.847340	1417.915000	743.135742	-57.569798
11914.847340	1417.915000	741.933594	79.257843
11914.847340	1417.915000	740.731445	-44.795906
11914.847340	1417.915000	739.529297	146.172623
11914.847340	1417.915000	738.326172	193.138962
11914.847340	1417.915000	737.124023	154.574982
11914.847340	1417.915000	735.919922	245.262451
11914.847340	1417.915000	734.716797	521.392456
11914.847340	1417.915000	733.513672	393.124115
11914.847340	1417.915000	732.309570	623.236084
11914.847340	1417.915000	731.105469	424.140808
11914.847340	1417.915000	729.900391	612.460632
11914.847340	1417.915000	728.696289	392.592010
11914.847340	1417.915000	727.491211	516.269104
11914.847340	1417.915000	726.286133	485.864288
11914.847340	1417.915000	725.080078	678.097595
11914.847340	1417.915000	723.874023	535.292664
11914.847340	1417.915000	722.668945	446.605316
11914.847340	1417.915000	721.461914	534.691711
11914.847340	1417.915000	720.255859	252.648254
11914.847340	1417.915000	719.048828	205.586868
11914.847340	1417.915000	717.841797	29.676983
11914.847340	1417.915000	716.634766	65.750008
11914.847340	1417.915000	715.427734	172.414688
11914.847340	1417.915000	714.219727	171.016861
11914.847340	1417.915000	713.011719	132.221619
11914.847340	1417.915000	711.803711	-62.278767
11914.847340	1417.915000	710.594727	62.918114
11914.847340	1417.915000	709.385742	-44.374134
11914.847340	1417.915000	708.176758	-16.787960
11914.847340	1417.915000	706.967773	-36.943604
11914.847340	1417.915000	705.758789	13.397095
11914.847340	1417.915000	704.548828	59.547112
11914.847340	1417.915000	703.338867	2.008137
11914.847340	1417.915000	702.127930	-169.518707
11914.847340	1417.915000	700.917969	-46.759754
11914.847340	1417.915000	699.707031	-212.035324
11914.847340	1417.915000	698.496094	-50.011597
11914.847340	1417.915000	697.285156	-6.113990
11914.847340	1417.915000	696.073242	2.546050
11914.847340	1417.915000	694.861328	79.485489
11914.847340	1417.915000	693.649414	-91.967644
11914.847340	1417.915000	692.436523	92.502388
11914.847340	1417.915000	691.224609	20.364365
11914.847340	1417.915000	690.011719	51.640495
11914.847340	1417.915000	688.798828	43.592964
11914.847340	1417.915000	687.584961	-26.494774
11914.847340	1417.915000	686.372070	-22.169889
11914.847340	1417.915000	685.158203	46.188309
11914.847340	1417.915000	683.943359	-23.929104
11914.847340	1417.915000	682.729492	-67.189293
11914.847340	1417.915000	681.514648	85.731453
11914.847340	1417.915000	680.299805	-48.429420
11914.847340	1417.915000	679.084961	-29.803331
11914.847340	1417.915000	677.869141	-60.742702
11914.847340	1417.915000	676.653320	-19.474865
11914.847340	1417.915000	675.437500	1.120727
11914.847340	1417.915000	674.221680	58.808182
11914.847340	1417.915000	673.004883	5.092923
11914.847340	1417.915000	671.789063	-32.131771
11914.847340	1417.915000	670.571289	-28.142050
11914.847340	1417.915000	669.354492	78.859634
11914.847340	1417.915000	668.136719	-22.304365
11914.847340	1417.915000	666.919922	288.531372
11914.847340	1417.915000	665.701172	30.793579
11914.847340	1417.915000	664.483398	121.117973
11914.847340	1417.915000	663.264648	-196.226959
11914.847340	1417.915000	662.045898	-25.675783
11914.847340	1417.915000	660.827148	-75.400887
11914.847340	1417.915000	659.608398	-79.870049
11914.847340	1417.915000	658.388672	-67.908585
11914.847340	1417.915000	657.168945	-60.090637
11914.847340	1417.915000	655.949219	-42.022144
11914.847340	1417.915000	654.728516	366.571136
11914.847340	1417.915000	653.507813	308.450073
11914.847340	1417.915000	652.287109	38.692379
11914.847340	1417.915000	651.066406	40.186714
11914.847340	1417.915000	649.844727	216.230209
11914.847340	1417.915000	648.623047	153.978409
11914.847340	1417.915000	647.401367	26.032425
11914.847340	1417.915000	646.179688	97.210655
11914.847340	1417.915000	644.957031	254.520126
11914.847340	1417.915000	643.734375	177.847916
11914.847340	1417.915000	642.511719	129.899170
11914.847340	1417.915000	641.289063	26.573849
11914.847340	1417.915000	640.065430	177.511246
11914.847340	1417.915000	638.841797	43.418350
11914.847340	1417.915000	637.618164	38.474945
11914.847340	1417.915000	636.393555	316.278290
11914.847340	1417.915000	635.168945	87.927025
11914.847340	1417.915000	633.944336	76.756248
11914.847340	1417.915000	632.719727	294.913483
11914.847340	1417.915000	631.494141	154.670288
11914.847340	1417.915000	630.269531	198.683594
11914.847340	1417.915000	629.042969	168.977676
11914.847340	1417.915000	627.817383	149.491394
11914.847340	1417.915000	626.590820	277.269562
11914.847340	1417.915000	625.365234	51.158268
11914.847340	1417.915000	624.137695	-17.440493
11914.847340	1417.915000	622.911133	38.668736
11914.847340	1417.915000	621.683594	-44.254040
11914.847340	1417.915000	620.456055	201.825211
11914.847340	1417.915000	619.228516	114.769417
11914.847340	1417.915000	618.000977	-141.806015
11914.847340	1417.915000	616.772461	40.758934
11914.847340	1417.915000	615.543945	159.930511
11914.847340	1417.915000	614.314453	54.488819
11914.847340	1417.915000	613.085938	-22.358768
11914.847340	1417.915000	611.856445	96.679237
11914.847340	1417.915000	610.626953	66.726891
11914.847340	1417.915000	609.397461	-50.934868
11914.847340	1417.915000	608.166992	72.041893
11914.847340	1417.915000	606.936523	135.822784
11914.847340	1417.915000	605.706055	5.923636
11914.847340	1417.915000	604.474609	-70.961479
11914.847340	1417.915000	603.244141	57.938099
11914.847340	1417.915000	602.012695	66.582077
11914.847340	1417.915000	600.780273	42.615166
11914.847340	1417.915000	599.548828	79.720222
11914.847340	1417.915000	598.316406	19.077589
11914.847340	1417.915000	597.083984	-8.997541
11914.847340	1417.915000	595.851563	38.205017
11914.847340	1417.915000	594.618164	-42.797020
11914.847340	1417.915000	593.384766	-213.276291
11914.847340	1417.915000	592.151367	-109.185699
11914.847340	1417.915000	590.917969	-43.787201
11914.847340	1417.915000	589.683594	-206.087540
11914.847340	1417.915000	588.449219	-100.093193
11914.847340	1417.915000	587.214844	7.868949
11914.847340	1417.915000	585.979492	-52.832901
11914.847340	1417.915000	584.745117	34.726704
11914.847340	1417.915000	583.509766	-90.965591
11914.847340	1417.915000	582.273438	26.975199
11914.847340	1417.915000	581.038086	187.470688
11914.847340	1417.915000	579.801758	181.489410
11914.847340	1417.915000	578.565430	-29.405670
11914.847340	1417.915000	577.329102	61.983967
11914.847340	1417.915000	576.091797	175.622620
11914.847340	1417.915000	574.854492	116.866791
11914.847340	1417.915000	573.617188	248.653748
11914.847340	1417.915000	572.378906	70.308098
11914.847340	1417.915000	571.141602	-2.619424
11914.847340	1417.915000	569.903320	167.547501
11914.847340	1417.915000	568.664063	62.191917
11914.847340	1417.915000	567.425781	72.282555
11914.847340	1417.915000	566.186523	21.620197
11914.847340	1417.915000	564.947266	9.419313
11914.847340	1417.915000	563.708008	146.949188
11914.847340	1417.915000	562.467773	61.865898
11914.847340	1417.915000	561.227539	168.955704
11914.847340	1417.915000	559.987305	195.097763
11914.847340	1417.915000	558.747070	87.777641
11914.847340	1417.915000	557.505859	97.725075
11914.847340	1417.915000	556.264648	77.342575
11914.847340	1417.915000	555.023438	250.921371
11914.847340	1417.915000	553.781250	159.784927
11914.847340	1417.915000	552.539063	181.773224
11914.847340	1417.915000	551.296875	84.607185
11914.847340	1417.915000	550.054688	-6.472300
11914.847340	1417.915000	548.811523	271.825439
11914.847340	1417.915000	547.569336	160.541168
11914.847340	1417.915000	546.325195	142.092377
11914.847340	1417.915000	545.082031	186.168793
11914.847340	1417.915000	543.837891	234.246033
11914.847340	1417.915000	542.593750	64.545959
11914.847340	1417.915000	541.349609	126.716141
11914.847340	1417.915000	540.105469	57.854328
11914.847340	1417.915000	538.860352	-59.348553
11914.847340	1417.915000	537.615234	-1.256122
11914.847340	1417.915000	536.369141	121.246323
11914.847340	1417.915000	535.124023	-40.226219
11914.847340	1417.915000	533.877930	9.737199
11914.847340	1417.915000	532.631836	-14.802752
11914.847340	1417.915000	531.384766	27.061022
11914.847340	1417.915000	530.138672	227.832672
11914.847340	1417.915000	528.891602	18.176928
11914.847340	1417.915000	527.643555	-8.402379
11914.847340	1417.915000	526.396484	3.220965
11914.847340	1417.915000	525.148438	-57.538414
11914.847340	1417.915000	523.900391	-118.283501
11914.847340	1417.915000	522.652344	-136.819107
11914.847340	1417.915000	521.403320	-89.069427
11914.847340	1417.915000	520.154297	-79.511986
11914.847340	1417.915000	518.905273	-45.875019
11914.847340	1417.915000	517.656250	-88.550842
11914.847340	1417.915000	516.406250	-177.386627
11914.847340	1417.915000	515.156250	4.702534
11914.847340	1417.915000	513.906250	-206.521469
11914.847340	1417.915000	512.655273	-106.770660
11914.847340	1417.915000	511.404297	29.020271
11914.847340	1417.915000	510.153320	52.461273
11914.847340	1417.915000	508.902344	-26.352863
11914.847340	1417.915000	507.650391	-119.178757
11914.847340	1417.915000	506.398438	4.413054
11914.847340	1417.915000	505.146484	-24.308424
11914.847340	1417.915000	503.893555	-2.967132
11914.847340	1417.915000	502.641602	-9.684120
11914.847340	1417.915000	501.388672	-84.483162
11914.847340	1417.915000	500.134766	150.960220
11914.847340	1417.915000	498.881836	52.106960
11914.847340	1417.915000	497.627930	69.311020
11914.847340	1417.915000	496.374023	26.479191
11914.847340	1417.915000	495.119141	57.633629
11914.847340	1417.915000	493.865234	108.747917
11914.847340	1417.915000	492.610352	-28.085041
11914.847340	1417.915000	491.355469	16.978930
11914.847340	1417.915000	490.099609	219.840622
11914.847340	1417.915000	488.843750	192.861740
11914.847340	1417.915000	487.587891	315.655365
11914.847340	1417.915000	486.332031	-48.844128
11914.847340	1417.915000	485.075195	99.837982
11914.847340	1417.915000	483.818359	348.219482
11914.847340	1417.915000	482.561523	183.397644
11914.847340	1417.915000	481.304688	134.324158
11914.847340	1417.915000	480.046875	182.968536
11914.847340	1417.915000	478.789063	113.897255
11914.847340	1417.915000	477.531250	286.059875
11914.847340	1417.915000	476.272461	254.785950
11914.847340	1417.915000	475.013672	193.588135
11914.847340	1417.915000	473.754883	241.957794
11914.847340	1417.915000	472.496094	302.211365
11914.847340	1417.915000	471.236328	292.680969
11914.847340	1417.915000	469.976563	273.147614
11914.847340	1417.915000	468.716797	341.162933
11914.847340	1417.915000	467.456055	267.777374
11914.847340	1417.915000	466.196289	329.681152
11914.847340	1417.915000	464.935547	449.189117
11914.847340	1417.915000	463.673828	415.425690
11914.847340	1417.915000	462.413086	300.081024
11914.847340	1417.915000	461.151367	463.059326
11914.847340	1417.915000	459.889648	749.136414
11914.847340	1417.915000	458.626953	462.667419
11914.847340	1417.915000	457.364258	458.383240
11914.847340	1417.915000	456.101563	465.940033
11914.847340	1417.915000	454.838867	497.242920
11914.847340	1417.915000	453.575195	514.543884
11914.847340	1417.915000	452.312500	545.647583
11914.847340	1417.915000	451.047852	415.874634
11914.847340	1417.915000	449.784180	411.076172
11914.847340	1417.915000	448.519531	376.417877
11914.847340	1417.915000	447.254883	438.858704
11914.847340	1417.915000	445.990234	366.320618
11914.847340	1417.915000	444.725586	466.187347
11914.847340	1417.915000	443.459961	419.211304
11914.847340	1417.915000	442.194336	544.545715
11914.847340	1417.915000	440.927734	499.303894
11914.847340	1417.915000	439.662109	358.875824
11914.847340	1417.915000	438.395508	539.202087
11914.847340	1417.915000	437.127930	499.524841
11914.847340	1417.915000	435.861328	392.419708
11914.847340	1417.915000	434.593750	576.143677
11914.847340	1417.915000	433.326172	435.121155
11914.847340	1417.915000	432.058594	507.658356
11914.847340	1417.915000	430.790039	591.859802
11914.847340	1417.915000	429.521484	345.621368
11914.847340	1417.915000	428.252930	666.715759
11914.847340	1417.915000	426.984375	528.920166
11914.847340	1417.915000	425.714844	549.082153
11914.847340	1417.915000	424.445313	499.890442
11914.847340	1417.915000	423.174805	511.745636
11914.847340	1417.915000	421.905273	481.919922
11914.847340	1417.915000	420.634766	522.966309
11914.847340	1417.915000	419.364258	648.654663
11914.847340	1417.915000	418.092773	699.055908
11914.847340	1417.915000	416.822266	662.385315
11914.847340	1417.915000	415.550781	558.404724
11914.847340	1417.915000	414.278320	702.720215
11914.847340	1417.915000	413.006836	612.066040
11914.847340	1417.915000	411.734375	726.205383
11914.847340	1417.915000	410.461914	664.595337
11914.847340	1417.915000	409.188477	521.924255
11914.847340	1417.915000	407.916016	599.686035
11914.847340	1417.915000	406.642578	840.589600
11914.847340	1417.915000	405.368164	921.550842
11914.847340	1417.915000	404.094727	569.007751
11914.847340	1417.915000	402.820313	686.737366
11914.847340	1417.915000	401.545898	644.661682
11914.847340	1417.915000	400.270508	482.216797
11914.847340	1417.915000	398.996094	624.400391
11914.847340	1417.915000	397.720703	659.932739
11914.847340	1417.915000	396.444336	525.948669
11914.847340	1417.915000	395.168945	421.124664
11914.847340	1417.915000	393.892578	376.856110
11914.847340	1417.915000	392.616211	662.312256
11914.847340	1417.915000	391.339844	589.651306
11914.847340	1417.915000	390.062500	414.426849
11914.847340	1417.915000	388.785156	606.043640
11914.847340	1417.915000	387.507813	508.495819
11914.847340	1417.915000	386.229492	653.892761
11914.847340	1417.915000	384.951172	341.470428
11914.847340	1417.915000	383.672852	589.818787
11914.847340	1417.915000	382.394531	543.288330
11914.847340	1417.915000	381.115234	551.136963
11914.847340	1417.915000	379.835938	413.329468
11914.847340	1417.915000	378.556641	333.820801
11914.847340	1417.915000	377.277344	369.395752
11914.847340	1417.915000	375.997070	492.514282
11914.847340	1417.915000	374.716797	274.081909
11914.847340	1417.915000	373.435547	405.689789
11914.847340	1417.915000	372.155273	376.031464
11914.847340	1417.915000	370.874023	120.553123
11914.847340	1417.915000	369.591797	244.208801
11914.847340	1417.915000	368.310547	294.717407
11914.847340	1417.915000	367.028320	309.243591
11914.847340	1417.915000	365.746094	411.044342
11914.847340	1417.915000	364.463867	154.154785
11914.847340	1417.915000	363.180664	166.396118
11914.847340	1417.915000	361.897461	213.017014
11914.847340	1417.915000	360.614258	88.764305
11914.847340	1417.915000	359.330078	112.200264
11914.847340	1417.915000	358.045898	154.297729
11914.847340	1417.915000	356.761719	168.147034
11914.847340	1417.915000	355.477539	104.927910
11914.847340	1417.915000	354.192383	300.429657
11914.847340	1417.915000	352.907227	94.767609
11914.847340	1417.915000	351.622070	79.455139
11914.847340	1417.915000	350.336914	228.981750
11914.847340	1417.915000	349.050781	295.464966
11914.847340	1417.915000	347.764648	-81.809952
11914.847340	1417.915000	346.477539	-64.237778
11914.847340	1417.915000	345.191406	30.225060
11914.847340	1417.915000	343.904297	102.050011
11914.847340	1417.915000	342.616211	-129.353104
11914.847340	1417.915000	341.329102	27.795263
11914.847340	1417.915000	340.041016	-26.709084
11914.847340	1417.915000	338.752930	-59.064987
11914.847340	1417.915000	337.463867	68.863930
11914.847340	1417.915000	336.175781	80.643692
11914.847340	1417.915000	334.886719	91.050713
11914.847340	1417.915000	333.596680	28.069719
11914.847340	1417.915000	332.307617	-100.421371
11914.847340	1417.915000	331.017578	28.308941
11914.847340	1417.915000	329.727539	-266.361176
11914.847340	1417.915000	328.436523	94.550819
11914.847340	1417.915000	327.146484	-12.573903
11914.847340	1417.915000	325.855469	-45.482742
11914.847340	1417.915000	324.563477	7.390321
11914.847340	1417.915000	323.272461	-90.880905
11914.847340	1417.915000	321.980469	-29.670036
11914.847340	1417.915000	320.688477	-20.662762
11914.847340	1417.915000	319.395508	75.821373
11914.847340	1417.915000	318.103516	-153.505539
11914.847340	1417.915000	316.810547	-89.736046
11914.847340	1417.915000	315.516602	10.876229
11914.847340	1417.915000	314.223633	80.513290
11914.847340	1417.915000	312.929688	-243.492264
11914.847340	1417.915000	311.635742	-77.028793
11914.847340	1417.915000	310.340820	-178.211960
11914.847340	1417.915000	309.045898	22.746044
11914.847340	1417.915000	307.750977	-14.812940
11914.847340	1417.915000	306.456055	-0.295870
11914.847340	1417.915000	305.160156	-50.018257
11914.847340	1417.915000	303.865234	-1.249412
11914.847340	1417.915000	302.568359	221.159958
11914.847340	1417.915000	301.272461	207.073181
11914.847340	1417.915000	299.975586	434.253143
11914.847340	1417.915000	298.678711	502.224701
