#X		#Y		#Wave		#Intensity
11404.212766	3012.208333	1999.980469	-76.092377
11404.212766	3012.208333	1999.016602	1.555902
11404.212766	3012.208333	1998.052734	-93.513191
11404.212766	3012.208333	1997.087891	-15.330098
11404.212766	3012.208333	1996.123047	32.841072
11404.212766	3012.208333	1995.158203	-25.768492
11404.212766	3012.208333	1994.193359	-74.685081
11404.212766	3012.208333	1993.228516	-104.002022
11404.212766	3012.208333	1992.262695	17.500267
11404.212766	3012.208333	1991.297852	215.474854
11404.212766	3012.208333	1990.332031	71.633583
11404.212766	3012.208333	1989.366211	98.381508
11404.212766	3012.208333	1988.399414	-80.414711
11404.212766	3012.208333	1987.433594	94.379074
11404.212766	3012.208333	1986.466797	11.727955
11404.212766	3012.208333	1985.500977	102.011200
11404.212766	3012.208333	1984.534180	90.733894
11404.212766	3012.208333	1983.567383	81.767303
11404.212766	3012.208333	1982.599609	131.956238
11404.212766	3012.208333	1981.632813	149.850266
11404.212766	3012.208333	1980.665039	-49.797344
11404.212766	3012.208333	1979.697266	-27.226959
11404.212766	3012.208333	1978.729492	-66.537796
11404.212766	3012.208333	1977.761719	-44.243729
11404.212766	3012.208333	1976.792969	-96.139709
11404.212766	3012.208333	1975.825195	-34.611691
11404.212766	3012.208333	1974.856445	83.530701
11404.212766	3012.208333	1973.887695	85.560425
11404.212766	3012.208333	1972.918945	-65.452995
11404.212766	3012.208333	1971.949219	94.226616
11404.212766	3012.208333	1970.980469	95.937531
11404.212766	3012.208333	1970.010742	28.524235
11404.212766	3012.208333	1969.041016	64.565872
11404.212766	3012.208333	1968.071289	-79.392967
11404.212766	3012.208333	1967.101563	121.564278
11404.212766	3012.208333	1966.130859	-10.199942
11404.212766	3012.208333	1965.161133	-4.064631
11404.212766	3012.208333	1964.190430	179.297409
11404.212766	3012.208333	1963.219727	74.458443
11404.212766	3012.208333	1962.249023	-25.485292
11404.212766	3012.208333	1961.277344	32.059284
11404.212766	3012.208333	1960.306641	148.580093
11404.212766	3012.208333	1959.334961	-10.547936
11404.212766	3012.208333	1958.363281	46.791740
11404.212766	3012.208333	1957.391602	180.298447
11404.212766	3012.208333	1956.419922	-168.232376
11404.212766	3012.208333	1955.447266	24.173357
11404.212766	3012.208333	1954.474609	-39.162361
11404.212766	3012.208333	1953.501953	-31.247076
11404.212766	3012.208333	1952.529297	89.652794
11404.212766	3012.208333	1951.556641	77.817627
11404.212766	3012.208333	1950.583984	53.673698
11404.212766	3012.208333	1949.610352	144.925385
11404.212766	3012.208333	1948.636719	81.436920
11404.212766	3012.208333	1947.663086	-104.790916
11404.212766	3012.208333	1946.689453	155.710846
11404.212766	3012.208333	1945.715820	30.840775
11404.212766	3012.208333	1944.741211	229.845245
11404.212766	3012.208333	1943.767578	198.183304
11404.212766	3012.208333	1942.792969	58.608189
11404.212766	3012.208333	1941.818359	277.066864
11404.212766	3012.208333	1940.842773	174.277008
11404.212766	3012.208333	1939.868164	39.651665
11404.212766	3012.208333	1938.892578	37.402691
11404.212766	3012.208333	1937.916992	-75.111076
11404.212766	3012.208333	1936.941406	-55.301697
11404.212766	3012.208333	1935.965820	45.322495
11404.212766	3012.208333	1934.990234	1.426455
11404.212766	3012.208333	1934.013672	77.514565
11404.212766	3012.208333	1933.037109	-54.497963
11404.212766	3012.208333	1932.060547	192.895935
11404.212766	3012.208333	1931.083984	95.172997
11404.212766	3012.208333	1930.107422	39.081898
11404.212766	3012.208333	1929.129883	-26.769245
11404.212766	3012.208333	1928.153320	-36.339676
11404.212766	3012.208333	1927.175781	20.119410
11404.212766	3012.208333	1926.198242	-28.558229
11404.212766	3012.208333	1925.219727	-42.990219
11404.212766	3012.208333	1924.242188	-45.187824
11404.212766	3012.208333	1923.263672	-27.828632
11404.212766	3012.208333	1922.285156	28.621574
11404.212766	3012.208333	1921.306641	-129.873169
11404.212766	3012.208333	1920.328125	31.603792
11404.212766	3012.208333	1919.349609	178.384064
11404.212766	3012.208333	1918.370117	-119.154594
11404.212766	3012.208333	1917.391602	17.863285
11404.212766	3012.208333	1916.412109	-47.690708
11404.212766	3012.208333	1915.431641	133.204880
11404.212766	3012.208333	1914.452148	162.814468
11404.212766	3012.208333	1913.472656	163.162598
11404.212766	3012.208333	1912.492188	-31.542051
11404.212766	3012.208333	1911.511719	161.466553
11404.212766	3012.208333	1910.531250	-62.382645
11404.212766	3012.208333	1909.550781	-74.114372
11404.212766	3012.208333	1908.569336	-56.587898
11404.212766	3012.208333	1907.588867	-63.411362
11404.212766	3012.208333	1906.607422	-148.155594
11404.212766	3012.208333	1905.625977	-38.038712
11404.212766	3012.208333	1904.644531	30.663895
11404.212766	3012.208333	1903.662109	94.488388
11404.212766	3012.208333	1902.680664	136.401993
11404.212766	3012.208333	1901.698242	100.449631
11404.212766	3012.208333	1900.715820	127.782066
11404.212766	3012.208333	1899.733398	40.797134
11404.212766	3012.208333	1898.750000	77.890793
11404.212766	3012.208333	1897.767578	-154.911453
11404.212766	3012.208333	1896.784180	-112.900085
11404.212766	3012.208333	1895.800781	-44.152092
11404.212766	3012.208333	1894.817383	7.574957
11404.212766	3012.208333	1893.833984	156.486359
11404.212766	3012.208333	1892.850586	33.280563
11404.212766	3012.208333	1891.866211	21.860302
11404.212766	3012.208333	1890.881836	12.887171
11404.212766	3012.208333	1889.897461	91.335426
11404.212766	3012.208333	1888.913086	14.412207
11404.212766	3012.208333	1887.927734	107.419655
11404.212766	3012.208333	1886.943359	-66.512329
11404.212766	3012.208333	1885.958008	28.926947
11404.212766	3012.208333	1884.972656	63.702087
11404.212766	3012.208333	1883.987305	45.122692
11404.212766	3012.208333	1883.001953	101.727341
11404.212766	3012.208333	1882.015625	158.321060
11404.212766	3012.208333	1881.029297	42.814159
11404.212766	3012.208333	1880.042969	-232.580521
11404.212766	3012.208333	1879.056641	-54.781971
11404.212766	3012.208333	1878.070313	-15.120827
11404.212766	3012.208333	1877.083984	-31.171867
11404.212766	3012.208333	1876.096680	134.405548
11404.212766	3012.208333	1875.109375	-2.706936
11404.212766	3012.208333	1874.122070	-64.722816
11404.212766	3012.208333	1873.134766	83.845581
11404.212766	3012.208333	1872.146484	-48.324211
11404.212766	3012.208333	1871.159180	-3.833771
11404.212766	3012.208333	1870.170898	93.858131
11404.212766	3012.208333	1869.182617	-200.257385
11404.212766	3012.208333	1868.194336	1.409331
11404.212766	3012.208333	1867.205078	-41.159512
11404.212766	3012.208333	1866.216797	174.907089
11404.212766	3012.208333	1865.227539	154.071732
11404.212766	3012.208333	1864.238281	140.492462
11404.212766	3012.208333	1863.249023	117.255005
11404.212766	3012.208333	1862.259766	-7.412814
11404.212766	3012.208333	1861.269531	307.443817
11404.212766	3012.208333	1860.279297	134.495575
11404.212766	3012.208333	1859.290039	116.093414
11404.212766	3012.208333	1858.298828	150.787689
11404.212766	3012.208333	1857.308594	163.747742
11404.212766	3012.208333	1856.318359	-28.362619
11404.212766	3012.208333	1855.327148	192.045609
11404.212766	3012.208333	1854.335938	33.750080
11404.212766	3012.208333	1853.344727	126.259827
11404.212766	3012.208333	1852.353516	16.231821
11404.212766	3012.208333	1851.362305	144.844513
11404.212766	3012.208333	1850.370117	-1.312127
11404.212766	3012.208333	1849.377930	6.769544
11404.212766	3012.208333	1848.385742	-9.252034
11404.212766	3012.208333	1847.393555	27.703934
11404.212766	3012.208333	1846.401367	33.329571
11404.212766	3012.208333	1845.408203	14.863701
11404.212766	3012.208333	1844.415039	128.776428
11404.212766	3012.208333	1843.421875	-70.223991
11404.212766	3012.208333	1842.428711	175.966171
11404.212766	3012.208333	1841.435547	53.979481
11404.212766	3012.208333	1840.441406	107.601074
11404.212766	3012.208333	1839.448242	144.350739
11404.212766	3012.208333	1838.454102	149.811188
11404.212766	3012.208333	1837.459961	123.998528
11404.212766	3012.208333	1836.464844	100.577728
11404.212766	3012.208333	1835.470703	161.247925
11404.212766	3012.208333	1834.475586	-95.257431
11404.212766	3012.208333	1833.480469	92.689209
11404.212766	3012.208333	1832.485352	254.123734
11404.212766	3012.208333	1831.490234	64.905807
11404.212766	3012.208333	1830.495117	135.008331
11404.212766	3012.208333	1829.499023	65.844177
11404.212766	3012.208333	1828.502930	-20.119617
11404.212766	3012.208333	1827.506836	100.264198
11404.212766	3012.208333	1826.510742	-4.920092
11404.212766	3012.208333	1825.513672	-9.360315
11404.212766	3012.208333	1824.517578	84.488487
11404.212766	3012.208333	1823.520508	195.054077
11404.212766	3012.208333	1822.523438	75.428192
11404.212766	3012.208333	1821.526367	82.836258
11404.212766	3012.208333	1820.529297	157.302032
11404.212766	3012.208333	1819.531250	-177.961563
11404.212766	3012.208333	1818.533203	-53.241547
11404.212766	3012.208333	1817.535156	-117.793434
11404.212766	3012.208333	1816.537109	35.530579
11404.212766	3012.208333	1815.539063	277.335846
11404.212766	3012.208333	1814.540039	215.043640
11404.212766	3012.208333	1813.541992	-38.701183
11404.212766	3012.208333	1812.542969	1.895197
11404.212766	3012.208333	1811.543945	23.300932
11404.212766	3012.208333	1810.543945	63.792171
11404.212766	3012.208333	1809.544922	118.577065
11404.212766	3012.208333	1808.544922	137.438934
11404.212766	3012.208333	1807.544922	106.057045
11404.212766	3012.208333	1806.544922	153.510437
11404.212766	3012.208333	1805.544922	26.478771
11404.212766	3012.208333	1804.544922	124.012772
11404.212766	3012.208333	1803.543945	121.149605
11404.212766	3012.208333	1802.542969	134.960373
11404.212766	3012.208333	1801.541992	-106.749252
11404.212766	3012.208333	1800.541016	181.531464
11404.212766	3012.208333	1799.539063	235.761902
11404.212766	3012.208333	1798.538086	63.236172
11404.212766	3012.208333	1797.536133	217.579575
11404.212766	3012.208333	1796.534180	190.533920
11404.212766	3012.208333	1795.532227	125.293106
11404.212766	3012.208333	1794.529297	71.950157
11404.212766	3012.208333	1793.527344	178.307465
11404.212766	3012.208333	1792.524414	117.728210
11404.212766	3012.208333	1791.521484	114.316803
11404.212766	3012.208333	1790.518555	-48.777748
11404.212766	3012.208333	1789.514648	31.118942
11404.212766	3012.208333	1788.511719	39.486050
11404.212766	3012.208333	1787.507813	197.816711
11404.212766	3012.208333	1786.503906	-53.462105
11404.212766	3012.208333	1785.500000	147.571121
11404.212766	3012.208333	1784.496094	79.546921
11404.212766	3012.208333	1783.491211	-64.648148
11404.212766	3012.208333	1782.486328	-18.520014
11404.212766	3012.208333	1781.481445	117.923225
11404.212766	3012.208333	1780.476563	-12.085816
11404.212766	3012.208333	1779.471680	-123.077675
11404.212766	3012.208333	1778.465820	17.900398
11404.212766	3012.208333	1777.460938	28.052420
11404.212766	3012.208333	1776.455078	23.886187
11404.212766	3012.208333	1775.449219	155.090530
11404.212766	3012.208333	1774.442383	36.771385
11404.212766	3012.208333	1773.436523	-10.306737
11404.212766	3012.208333	1772.429688	146.782043
11404.212766	3012.208333	1771.422852	-73.717499
11404.212766	3012.208333	1770.416016	-71.070694
11404.212766	3012.208333	1769.409180	16.952765
11404.212766	3012.208333	1768.402344	126.240913
11404.212766	3012.208333	1767.394531	159.516571
11404.212766	3012.208333	1766.386719	59.903217
11404.212766	3012.208333	1765.378906	327.828949
11404.212766	3012.208333	1764.371094	66.888412
11404.212766	3012.208333	1763.362305	-6.748510
11404.212766	3012.208333	1762.354492	28.608309
11404.212766	3012.208333	1761.345703	130.238693
11404.212766	3012.208333	1760.336914	-2.766186
11404.212766	3012.208333	1759.328125	-26.820457
11404.212766	3012.208333	1758.318359	105.374001
11404.212766	3012.208333	1757.308594	133.280609
11404.212766	3012.208333	1756.299805	78.267799
11404.212766	3012.208333	1755.290039	103.687088
11404.212766	3012.208333	1754.279297	-10.580827
11404.212766	3012.208333	1753.269531	-56.246616
11404.212766	3012.208333	1752.258789	39.971611
11404.212766	3012.208333	1751.249023	79.339493
11404.212766	3012.208333	1750.238281	213.213913
11404.212766	3012.208333	1749.226563	172.030334
11404.212766	3012.208333	1748.215820	137.900421
11404.212766	3012.208333	1747.204102	80.088997
11404.212766	3012.208333	1746.193359	112.032211
11404.212766	3012.208333	1745.181641	96.655312
11404.212766	3012.208333	1744.168945	22.175547
11404.212766	3012.208333	1743.157227	11.430283
11404.212766	3012.208333	1742.144531	92.705338
11404.212766	3012.208333	1741.132813	-7.863837
11404.212766	3012.208333	1740.120117	42.588955
11404.212766	3012.208333	1739.106445	95.320557
11404.212766	3012.208333	1738.093750	-52.549355
11404.212766	3012.208333	1737.080078	30.730394
11404.212766	3012.208333	1736.067383	-244.530334
11404.212766	3012.208333	1735.053711	-12.815446
11404.212766	3012.208333	1734.040039	-9.910040
11404.212766	3012.208333	1733.025391	58.927269
11404.212766	3012.208333	1732.011719	-53.760773
11404.212766	3012.208333	1730.997070	-51.020943
11404.212766	3012.208333	1729.982422	31.751553
11404.212766	3012.208333	1728.967773	86.176598
11404.212766	3012.208333	1727.952148	159.357681
11404.212766	3012.208333	1726.937500	-179.527130
11404.212766	3012.208333	1725.921875	-54.649586
11404.212766	3012.208333	1724.906250	-0.472945
11404.212766	3012.208333	1723.890625	8.924479
11404.212766	3012.208333	1722.875000	65.313515
11404.212766	3012.208333	1721.858398	53.414589
11404.212766	3012.208333	1720.841797	8.545924
11404.212766	3012.208333	1719.825195	60.035980
11404.212766	3012.208333	1718.808594	-154.166153
11404.212766	3012.208333	1717.791992	-76.917061
11404.212766	3012.208333	1716.774414	-39.700584
11404.212766	3012.208333	1715.756836	-171.696777
11404.212766	3012.208333	1714.739258	58.024452
11404.212766	3012.208333	1713.721680	-170.325089
11404.212766	3012.208333	1712.704102	-72.276253
11404.212766	3012.208333	1711.685547	-44.745197
11404.212766	3012.208333	1710.667969	13.243215
11404.212766	3012.208333	1709.649414	-36.787842
11404.212766	3012.208333	1708.630859	126.648476
11404.212766	3012.208333	1707.611328	-14.969609
11404.212766	3012.208333	1706.592773	-36.968822
11404.212766	3012.208333	1705.573242	16.019396
11404.212766	3012.208333	1704.553711	61.906906
11404.212766	3012.208333	1703.534180	-70.403969
11404.212766	3012.208333	1702.513672	-48.050404
11404.212766	3012.208333	1701.494141	9.399629
11404.212766	3012.208333	1700.473633	-158.106094
11404.212766	3012.208333	1699.453125	9.324019
11404.212766	3012.208333	1698.432617	106.397026
11404.212766	3012.208333	1697.412109	-72.869957
11404.212766	3012.208333	1696.390625	96.650337
11404.212766	3012.208333	1695.369141	-42.853916
11404.212766	3012.208333	1694.347656	-48.976425
11404.212766	3012.208333	1693.326172	-129.998871
11404.212766	3012.208333	1692.304688	100.045616
11404.212766	3012.208333	1691.282227	79.737755
11404.212766	3012.208333	1690.260742	148.249283
11404.212766	3012.208333	1689.238281	-42.783833
11404.212766	3012.208333	1688.214844	-21.110624
11404.212766	3012.208333	1687.192383	-32.190483
11404.212766	3012.208333	1686.168945	-8.267988
11404.212766	3012.208333	1685.146484	6.271828
11404.212766	3012.208333	1684.123047	74.474304
11404.212766	3012.208333	1683.099609	-79.198448
11404.212766	3012.208333	1682.075195	-127.806091
11404.212766	3012.208333	1681.051758	14.963418
11404.212766	3012.208333	1680.027344	87.630272
11404.212766	3012.208333	1679.002930	104.241699
11404.212766	3012.208333	1677.978516	-168.433609
11404.212766	3012.208333	1676.953125	-121.534027
11404.212766	3012.208333	1675.928711	-11.721344
11404.212766	3012.208333	1674.903320	-51.191429
11404.212766	3012.208333	1673.877930	119.098221
11404.212766	3012.208333	1672.852539	247.345047
11404.212766	3012.208333	1671.826172	-39.223736
11404.212766	3012.208333	1670.800781	98.263596
11404.212766	3012.208333	1669.774414	0.428804
11404.212766	3012.208333	1668.748047	58.619717
11404.212766	3012.208333	1667.721680	67.870209
11404.212766	3012.208333	1666.694336	60.789753
11404.212766	3012.208333	1665.667969	-25.432312
11404.212766	3012.208333	1664.640625	46.568737
11404.212766	3012.208333	1663.613281	190.633041
11404.212766	3012.208333	1662.585938	34.578697
11404.212766	3012.208333	1661.557617	208.767029
11404.212766	3012.208333	1660.530273	227.099503
11404.212766	3012.208333	1659.501953	250.043228
11404.212766	3012.208333	1658.473633	145.132767
11404.212766	3012.208333	1657.444336	-55.034225
11404.212766	3012.208333	1656.416016	-8.877447
11404.212766	3012.208333	1655.386719	158.018326
11404.212766	3012.208333	1654.358398	85.642647
11404.212766	3012.208333	1653.328125	48.089577
11404.212766	3012.208333	1652.298828	131.254791
11404.212766	3012.208333	1651.269531	202.767120
11404.212766	3012.208333	1650.239258	190.690918
11404.212766	3012.208333	1649.208984	220.365616
11404.212766	3012.208333	1648.178711	266.252899
11404.212766	3012.208333	1647.148438	159.043900
11404.212766	3012.208333	1646.117188	197.935760
11404.212766	3012.208333	1645.086914	83.803024
11404.212766	3012.208333	1644.055664	85.587059
11404.212766	3012.208333	1643.024414	175.419373
11404.212766	3012.208333	1641.992188	228.128891
11404.212766	3012.208333	1640.960938	338.728912
11404.212766	3012.208333	1639.928711	280.201752
11404.212766	3012.208333	1638.896484	224.005112
11404.212766	3012.208333	1637.864258	503.515717
11404.212766	3012.208333	1636.832031	338.496063
11404.212766	3012.208333	1635.798828	590.086548
11404.212766	3012.208333	1634.766602	376.515381
11404.212766	3012.208333	1633.733398	496.134003
11404.212766	3012.208333	1632.699219	550.935364
11404.212766	3012.208333	1631.666016	395.291138
11404.212766	3012.208333	1630.632813	452.407257
11404.212766	3012.208333	1629.598633	511.804047
11404.212766	3012.208333	1628.564453	420.957764
11404.212766	3012.208333	1627.530273	595.870178
11404.212766	3012.208333	1626.495117	417.252075
11404.212766	3012.208333	1625.460938	592.101074
11404.212766	3012.208333	1624.425781	404.321442
11404.212766	3012.208333	1623.390625	740.723389
11404.212766	3012.208333	1622.355469	315.232544
11404.212766	3012.208333	1621.319336	683.834045
11404.212766	3012.208333	1620.284180	565.426880
11404.212766	3012.208333	1619.248047	504.741547
11404.212766	3012.208333	1618.211914	476.379242
11404.212766	3012.208333	1617.174805	632.519592
11404.212766	3012.208333	1616.138672	744.807556
11404.212766	3012.208333	1615.101563	635.752014
11404.212766	3012.208333	1614.065430	653.520325
11404.212766	3012.208333	1613.027344	648.233948
11404.212766	3012.208333	1611.990234	523.167419
11404.212766	3012.208333	1610.953125	547.886169
11404.212766	3012.208333	1609.915039	597.935120
11404.212766	3012.208333	1608.876953	539.758118
11404.212766	3012.208333	1607.838867	580.609802
11404.212766	3012.208333	1606.800781	609.953796
11404.212766	3012.208333	1605.761719	756.655396
11404.212766	3012.208333	1604.723633	470.783997
11404.212766	3012.208333	1603.684570	585.287292
11404.212766	3012.208333	1602.644531	584.764771
11404.212766	3012.208333	1601.605469	756.725098
11404.212766	3012.208333	1600.566406	924.039490
11404.212766	3012.208333	1599.526367	813.183716
11404.212766	3012.208333	1598.486328	757.545776
11404.212766	3012.208333	1597.446289	780.071655
11404.212766	3012.208333	1596.405273	708.419922
11404.212766	3012.208333	1595.365234	742.476807
11404.212766	3012.208333	1594.324219	590.539063
11404.212766	3012.208333	1593.283203	541.998474
11404.212766	3012.208333	1592.242188	821.740540
11404.212766	3012.208333	1591.200195	835.182556
11404.212766	3012.208333	1590.159180	704.101257
11404.212766	3012.208333	1589.117188	891.962524
11404.212766	3012.208333	1588.075195	841.246887
11404.212766	3012.208333	1587.032227	806.624756
11404.212766	3012.208333	1585.990234	707.858887
11404.212766	3012.208333	1584.947266	748.981873
11404.212766	3012.208333	1583.904297	606.777649
11404.212766	3012.208333	1582.861328	964.170837
11404.212766	3012.208333	1581.818359	897.644409
11404.212766	3012.208333	1580.775391	883.858276
11404.212766	3012.208333	1579.731445	689.194946
11404.212766	3012.208333	1578.687500	831.204834
11404.212766	3012.208333	1577.643555	922.834900
11404.212766	3012.208333	1576.598633	922.913086
11404.212766	3012.208333	1575.554688	870.406555
11404.212766	3012.208333	1574.509766	827.102356
11404.212766	3012.208333	1573.464844	754.119141
11404.212766	3012.208333	1572.419922	916.747559
11404.212766	3012.208333	1571.374023	736.386108
11404.212766	3012.208333	1570.329102	693.298279
11404.212766	3012.208333	1569.283203	730.255005
11404.212766	3012.208333	1568.237305	682.691101
11404.212766	3012.208333	1567.191406	434.142334
11404.212766	3012.208333	1566.144531	685.958435
11404.212766	3012.208333	1565.098633	583.750244
11404.212766	3012.208333	1564.051758	563.817383
11404.212766	3012.208333	1563.004883	646.662781
11404.212766	3012.208333	1561.957031	530.949829
11404.212766	3012.208333	1560.910156	593.323181
11404.212766	3012.208333	1559.862305	692.215576
11404.212766	3012.208333	1558.814453	857.265442
11404.212766	3012.208333	1557.766602	691.614990
11404.212766	3012.208333	1556.718750	448.552856
11404.212766	3012.208333	1555.669922	570.377441
11404.212766	3012.208333	1554.621094	405.020935
11404.212766	3012.208333	1553.573242	472.220062
11404.212766	3012.208333	1552.523438	587.277588
11404.212766	3012.208333	1551.474609	444.944458
11404.212766	3012.208333	1550.424805	421.139648
11404.212766	3012.208333	1549.375000	338.194519
11404.212766	3012.208333	1548.325195	428.351746
11404.212766	3012.208333	1547.275391	509.422363
11404.212766	3012.208333	1546.225586	285.577728
11404.212766	3012.208333	1545.174805	389.498596
11404.212766	3012.208333	1544.124023	354.673248
11404.212766	3012.208333	1543.073242	340.385315
11404.212766	3012.208333	1542.022461	342.074768
11404.212766	3012.208333	1540.970703	434.751587
11404.212766	3012.208333	1539.919922	406.985992
11404.212766	3012.208333	1538.868164	311.109192
11404.212766	3012.208333	1537.815430	510.689148
11404.212766	3012.208333	1536.763672	453.562286
11404.212766	3012.208333	1535.710938	407.866791
11404.212766	3012.208333	1534.659180	534.827515
11404.212766	3012.208333	1533.606445	561.900208
11404.212766	3012.208333	1532.552734	323.449677
11404.212766	3012.208333	1531.500000	441.448517
11404.212766	3012.208333	1530.446289	545.843994
11404.212766	3012.208333	1529.393555	600.356506
11404.212766	3012.208333	1528.338867	518.818787
11404.212766	3012.208333	1527.285156	385.225983
11404.212766	3012.208333	1526.231445	526.070068
11404.212766	3012.208333	1525.176758	460.649017
11404.212766	3012.208333	1524.122070	404.382507
11404.212766	3012.208333	1523.067383	402.580414
11404.212766	3012.208333	1522.012695	464.272430
11404.212766	3012.208333	1520.957031	294.981293
11404.212766	3012.208333	1519.901367	259.424255
11404.212766	3012.208333	1518.845703	180.929794
11404.212766	3012.208333	1517.790039	238.344864
11404.212766	3012.208333	1516.734375	146.438339
11404.212766	3012.208333	1515.677734	219.804535
11404.212766	3012.208333	1514.621094	223.079330
11404.212766	3012.208333	1513.564453	34.171219
11404.212766	3012.208333	1512.507813	-116.152931
11404.212766	3012.208333	1511.450195	179.035416
11404.212766	3012.208333	1510.393555	178.063644
11404.212766	3012.208333	1509.335938	211.057159
11404.212766	3012.208333	1508.278320	81.419975
11404.212766	3012.208333	1507.219727	152.957809
11404.212766	3012.208333	1506.162109	197.435013
11404.212766	3012.208333	1505.103516	217.121017
11404.212766	3012.208333	1504.044922	221.065079
11404.212766	3012.208333	1502.986328	243.135559
11404.212766	3012.208333	1501.926758	296.860168
11404.212766	3012.208333	1500.868164	246.842377
11404.212766	3012.208333	1499.808594	176.609116
11404.212766	3012.208333	1498.749023	120.007088
11404.212766	3012.208333	1497.688477	4.866001
11404.212766	3012.208333	1496.628906	228.031937
11404.212766	3012.208333	1495.568359	189.698349
11404.212766	3012.208333	1494.507813	36.512424
11404.212766	3012.208333	1493.447266	79.492882
11404.212766	3012.208333	1492.386719	160.825409
11404.212766	3012.208333	1491.325195	107.053917
11404.212766	3012.208333	1490.263672	33.110489
11404.212766	3012.208333	1489.202148	26.811640
11404.212766	3012.208333	1488.140625	-105.467514
11404.212766	3012.208333	1487.079102	169.729187
11404.212766	3012.208333	1486.016602	-70.387009
11404.212766	3012.208333	1484.954102	-35.875656
11404.212766	3012.208333	1483.891602	70.670570
11404.212766	3012.208333	1482.829102	-9.398636
11404.212766	3012.208333	1481.765625	151.203384
11404.212766	3012.208333	1480.702148	-108.518723
11404.212766	3012.208333	1479.638672	-118.615700
11404.212766	3012.208333	1478.575195	10.683014
11404.212766	3012.208333	1477.511719	81.586456
11404.212766	3012.208333	1476.447266	253.615982
11404.212766	3012.208333	1475.382813	279.681122
11404.212766	3012.208333	1474.318359	227.230118
11404.212766	3012.208333	1473.253906	394.807922
11404.212766	3012.208333	1472.189453	275.252441
11404.212766	3012.208333	1471.124023	223.149811
11404.212766	3012.208333	1470.058594	159.804642
11404.212766	3012.208333	1468.993164	255.826324
11404.212766	3012.208333	1467.927734	340.575195
11404.212766	3012.208333	1466.861328	291.000916
11404.212766	3012.208333	1465.794922	212.580627
11404.212766	3012.208333	1464.728516	375.780182
11404.212766	3012.208333	1463.662109	315.177612
11404.212766	3012.208333	1462.594727	234.800995
11404.212766	3012.208333	1461.528320	125.326569
11404.212766	3012.208333	1460.460938	280.066376
11404.212766	3012.208333	1459.393555	139.236404
11404.212766	3012.208333	1458.326172	199.650055
11404.212766	3012.208333	1457.257813	274.021210
11404.212766	3012.208333	1456.189453	266.247314
11404.212766	3012.208333	1455.121094	302.128052
11404.212766	3012.208333	1454.052734	331.591034
11404.212766	3012.208333	1452.984375	292.566833
11404.212766	3012.208333	1451.915039	288.779449
11404.212766	3012.208333	1450.845703	322.573120
11404.212766	3012.208333	1449.776367	181.002457
11404.212766	3012.208333	1448.707031	411.834869
11404.212766	3012.208333	1447.636719	512.072937
11404.212766	3012.208333	1446.567383	189.297119
11404.212766	3012.208333	1445.497070	324.558624
11404.212766	3012.208333	1444.425781	332.195343
11404.212766	3012.208333	1443.355469	221.700485
11404.212766	3012.208333	1442.285156	333.951691
11404.212766	3012.208333	1441.213867	327.306335
11404.212766	3012.208333	1440.142578	237.369690
11404.212766	3012.208333	1439.070313	275.305939
11404.212766	3012.208333	1437.999023	226.981552
11404.212766	3012.208333	1436.926758	25.049311
11404.212766	3012.208333	1435.854492	-120.220757
11404.212766	3012.208333	1434.782227	223.505112
11404.212766	3012.208333	1433.709961	160.005020
11404.212766	3012.208333	1432.636719	12.789197
11404.212766	3012.208333	1431.563477	99.677177
11404.212766	3012.208333	1430.490234	60.676533
11404.212766	3012.208333	1429.416992	-34.733482
11404.212766	3012.208333	1428.343750	27.156845
11404.212766	3012.208333	1427.269531	35.535782
11404.212766	3012.208333	1426.195313	183.895340
11404.212766	3012.208333	1425.121094	83.712814
11404.212766	3012.208333	1424.046875	-25.682007
11404.212766	3012.208333	1422.971680	160.543930
11404.212766	3012.208333	1421.896484	290.119629
11404.212766	3012.208333	1420.821289	115.659126
11404.212766	3012.208333	1419.746094	201.456024
11404.212766	3012.208333	1418.669922	-102.915176
11404.212766	3012.208333	1417.594727	14.281473
11404.212766	3012.208333	1416.518555	116.829071
11404.212766	3012.208333	1415.442383	-34.617970
11404.212766	3012.208333	1414.365234	-13.607997
11404.212766	3012.208333	1413.289063	180.950882
11404.212766	3012.208333	1412.211914	125.318787
11404.212766	3012.208333	1411.134766	26.521938
11404.212766	3012.208333	1410.057617	262.541443
11404.212766	3012.208333	1408.979492	312.458160
11404.212766	3012.208333	1407.902344	177.327164
11404.212766	3012.208333	1406.824219	297.105499
11404.212766	3012.208333	1405.746094	381.696991
11404.212766	3012.208333	1404.666992	319.471710
11404.212766	3012.208333	1403.588867	272.989227
11404.212766	3012.208333	1402.509766	312.625885
11404.212766	3012.208333	1401.430664	326.068481
11404.212766	3012.208333	1400.351563	270.560760
11404.212766	3012.208333	1399.271484	251.203613
11404.212766	3012.208333	1398.192383	360.450439
11404.212766	3012.208333	1397.112305	317.902832
11404.212766	3012.208333	1396.031250	349.245148
11404.212766	3012.208333	1394.951172	366.656982
11404.212766	3012.208333	1393.871094	527.658264
11404.212766	3012.208333	1392.790039	476.635345
11404.212766	3012.208333	1391.708984	408.791016
11404.212766	3012.208333	1390.626953	309.502930
11404.212766	3012.208333	1389.545898	433.121979
11404.212766	3012.208333	1388.463867	205.852219
11404.212766	3012.208333	1387.381836	350.824890
11404.212766	3012.208333	1386.299805	350.369659
11404.212766	3012.208333	1385.217773	405.862061
11404.212766	3012.208333	1384.134766	480.147797
11404.212766	3012.208333	1383.051758	400.206604
11404.212766	3012.208333	1381.968750	388.191315
11404.212766	3012.208333	1380.885742	431.122955
11404.212766	3012.208333	1379.802734	457.231567
11404.212766	3012.208333	1378.718750	519.945129
11404.212766	3012.208333	1377.634766	554.980347
11404.212766	3012.208333	1376.550781	516.350464
11404.212766	3012.208333	1375.465820	581.338074
11404.212766	3012.208333	1374.381836	411.877594
11404.212766	3012.208333	1373.296875	478.062073
11404.212766	3012.208333	1372.211914	561.771057
11404.212766	3012.208333	1371.126953	496.419067
11404.212766	3012.208333	1370.041016	694.875000
11404.212766	3012.208333	1368.955078	532.408752
11404.212766	3012.208333	1367.869141	763.604797
11404.212766	3012.208333	1366.783203	645.264465
11404.212766	3012.208333	1365.697266	628.842346
11404.212766	3012.208333	1364.610352	506.892914
11404.212766	3012.208333	1363.523438	579.589294
11404.212766	3012.208333	1362.436523	555.263062
11404.212766	3012.208333	1361.349609	738.282776
11404.212766	3012.208333	1360.261719	534.334961
11404.212766	3012.208333	1359.174805	609.923096
11404.212766	3012.208333	1358.086914	389.977417
11404.212766	3012.208333	1356.998047	572.504395
11404.212766	3012.208333	1355.910156	690.178894
11404.212766	3012.208333	1354.821289	626.684509
11404.212766	3012.208333	1353.732422	761.333496
11404.212766	3012.208333	1352.643555	592.410461
11404.212766	3012.208333	1351.554688	469.325104
11404.212766	3012.208333	1350.464844	513.817017
11404.212766	3012.208333	1349.375000	536.065491
11404.212766	3012.208333	1348.285156	458.274200
11404.212766	3012.208333	1347.195313	447.436676
11404.212766	3012.208333	1346.105469	665.705750
11404.212766	3012.208333	1345.014648	541.236267
11404.212766	3012.208333	1343.923828	532.747375
11404.212766	3012.208333	1342.833008	667.047119
11404.212766	3012.208333	1341.741211	650.938965
11404.212766	3012.208333	1340.650391	581.143616
11404.212766	3012.208333	1339.558594	638.797729
11404.212766	3012.208333	1338.466797	707.333130
11404.212766	3012.208333	1337.374023	542.419617
11404.212766	3012.208333	1336.282227	561.773682
11404.212766	3012.208333	1335.189453	627.296021
11404.212766	3012.208333	1334.096680	652.444641
11404.212766	3012.208333	1333.003906	581.094971
11404.212766	3012.208333	1331.910156	597.433533
11404.212766	3012.208333	1330.817383	488.930481
11404.212766	3012.208333	1329.723633	563.341187
11404.212766	3012.208333	1328.629883	463.136292
11404.212766	3012.208333	1327.535156	431.907684
11404.212766	3012.208333	1326.441406	675.259033
11404.212766	3012.208333	1325.346680	490.130493
11404.212766	3012.208333	1324.251953	591.618652
11404.212766	3012.208333	1323.156250	663.883789
11404.212766	3012.208333	1322.061523	468.820343
11404.212766	3012.208333	1320.965820	466.528015
11404.212766	3012.208333	1319.870117	452.312103
11404.212766	3012.208333	1318.774414	574.874207
11404.212766	3012.208333	1317.678711	594.689331
11404.212766	3012.208333	1316.582031	417.785217
11404.212766	3012.208333	1315.485352	411.490570
11404.212766	3012.208333	1314.388672	621.413147
11404.212766	3012.208333	1313.291016	503.778107
11404.212766	3012.208333	1312.194336	403.463715
11404.212766	3012.208333	1311.096680	461.849396
11404.212766	3012.208333	1309.999023	383.557648
11404.212766	3012.208333	1308.901367	359.864258
11404.212766	3012.208333	1307.802734	177.138962
11404.212766	3012.208333	1306.705078	357.408295
11404.212766	3012.208333	1305.606445	462.929810
11404.212766	3012.208333	1304.506836	448.966675
11404.212766	3012.208333	1303.408203	478.250458
11404.212766	3012.208333	1302.308594	433.271210
11404.212766	3012.208333	1301.208984	644.029175
11404.212766	3012.208333	1300.109375	573.009155
11404.212766	3012.208333	1299.009766	540.513428
11404.212766	3012.208333	1297.909180	525.141235
11404.212766	3012.208333	1296.808594	458.528564
11404.212766	3012.208333	1295.708008	697.576233
11404.212766	3012.208333	1294.607422	326.871613
11404.212766	3012.208333	1293.506836	367.599670
11404.212766	3012.208333	1292.405273	617.845276
11404.212766	3012.208333	1291.303711	360.956085
11404.212766	3012.208333	1290.202148	249.871124
11404.212766	3012.208333	1289.099609	261.373413
11404.212766	3012.208333	1287.998047	225.571991
11404.212766	3012.208333	1286.895508	270.979828
11404.212766	3012.208333	1285.792969	343.387054
11404.212766	3012.208333	1284.689453	288.353149
11404.212766	3012.208333	1283.586914	179.074921
11404.212766	3012.208333	1282.483398	203.714890
11404.212766	3012.208333	1281.379883	230.850204
11404.212766	3012.208333	1280.276367	190.340698
11404.212766	3012.208333	1279.171875	289.718567
11404.212766	3012.208333	1278.067383	230.345154
11404.212766	3012.208333	1276.962891	102.810738
11404.212766	3012.208333	1275.858398	48.252522
11404.212766	3012.208333	1274.753906	178.785217
11404.212766	3012.208333	1273.648438	222.910828
11404.212766	3012.208333	1272.542969	141.915405
11404.212766	3012.208333	1271.437500	113.991837
11404.212766	3012.208333	1270.331055	-13.841289
11404.212766	3012.208333	1269.225586	85.014053
11404.212766	3012.208333	1268.119141	119.590698
11404.212766	3012.208333	1267.012695	59.400295
11404.212766	3012.208333	1265.906250	61.508762
11404.212766	3012.208333	1264.798828	130.412262
11404.212766	3012.208333	1263.691406	136.845123
11404.212766	3012.208333	1262.583984	91.206261
11404.212766	3012.208333	1261.476563	117.557686
11404.212766	3012.208333	1260.368164	59.028416
11404.212766	3012.208333	1259.260742	-18.155636
11404.212766	3012.208333	1258.152344	-108.639305
11404.212766	3012.208333	1257.043945	42.065620
11404.212766	3012.208333	1255.934570	71.806908
11404.212766	3012.208333	1254.825195	11.223164
11404.212766	3012.208333	1253.716797	-22.102661
11404.212766	3012.208333	1252.606445	-26.444702
11404.212766	3012.208333	1251.497070	-67.189896
11404.212766	3012.208333	1250.387695	-12.817615
11404.212766	3012.208333	1249.277344	85.118538
11404.212766	3012.208333	1248.166992	-51.399048
11404.212766	3012.208333	1247.055664	11.768406
11404.212766	3012.208333	1245.945313	-50.337685
11404.212766	3012.208333	1244.833984	49.389786
11404.212766	3012.208333	1243.722656	-7.591178
11404.212766	3012.208333	1242.611328	93.840080
11404.212766	3012.208333	1241.499023	159.209045
11404.212766	3012.208333	1240.387695	-30.349043
11404.212766	3012.208333	1239.275391	48.415466
11404.212766	3012.208333	1238.162109	-7.962714
11404.212766	3012.208333	1237.049805	15.849936
11404.212766	3012.208333	1235.936523	286.708496
11404.212766	3012.208333	1234.823242	144.671661
11404.212766	3012.208333	1233.709961	-65.195595
11404.212766	3012.208333	1232.596680	-53.780373
11404.212766	3012.208333	1231.482422	126.862701
11404.212766	3012.208333	1230.369141	-11.392701
11404.212766	3012.208333	1229.253906	145.532516
11404.212766	3012.208333	1228.139648	144.299683
11404.212766	3012.208333	1227.025391	72.359062
11404.212766	3012.208333	1225.910156	191.684326
11404.212766	3012.208333	1224.794922	133.454361
11404.212766	3012.208333	1223.679688	61.583805
11404.212766	3012.208333	1222.563477	48.123466
11404.212766	3012.208333	1221.447266	138.720032
11404.212766	3012.208333	1220.331055	72.731049
11404.212766	3012.208333	1219.214844	105.990631
11404.212766	3012.208333	1218.098633	17.867558
11404.212766	3012.208333	1216.981445	49.853016
11404.212766	3012.208333	1215.864258	-63.371078
11404.212766	3012.208333	1214.747070	169.885361
11404.212766	3012.208333	1213.629883	30.577087
11404.212766	3012.208333	1212.511719	46.735744
11404.212766	3012.208333	1211.393555	51.343628
11404.212766	3012.208333	1210.275391	-59.295391
11404.212766	3012.208333	1209.157227	-28.648438
11404.212766	3012.208333	1208.038086	-32.708305
11404.212766	3012.208333	1206.918945	127.197792
11404.212766	3012.208333	1205.799805	30.192112
11404.212766	3012.208333	1204.680664	-56.322834
11404.212766	3012.208333	1203.560547	61.171829
11404.212766	3012.208333	1202.441406	62.032936
11404.212766	3012.208333	1201.321289	11.478220
11404.212766	3012.208333	1200.200195	135.060074
11404.212766	3012.208333	1199.080078	64.063652
11404.212766	3012.208333	1197.958984	37.439030
11404.212766	3012.208333	1196.837891	68.260056
11404.212766	3012.208333	1195.716797	-63.473061
11404.212766	3012.208333	1194.594727	4.292631
11404.212766	3012.208333	1193.473633	-17.784948
11404.212766	3012.208333	1192.351563	58.746544
11404.212766	3012.208333	1191.229492	-30.981308
11404.212766	3012.208333	1190.106445	-6.902925
11404.212766	3012.208333	1188.984375	-117.570175
11404.212766	3012.208333	1187.861328	7.627349
11404.212766	3012.208333	1186.738281	-96.138634
11404.212766	3012.208333	1185.614258	116.418571
11404.212766	3012.208333	1184.491211	18.764380
11404.212766	3012.208333	1183.367188	56.631603
11404.212766	3012.208333	1182.243164	40.317059
11404.212766	3012.208333	1181.119141	-74.830849
11404.212766	3012.208333	1179.994141	-14.000110
11404.212766	3012.208333	1178.869141	-74.760040
11404.212766	3012.208333	1177.744141	-112.113792
11404.212766	3012.208333	1176.619141	-44.951698
11404.212766	3012.208333	1175.493164	-48.067291
11404.212766	3012.208333	1174.368164	-91.627556
11404.212766	3012.208333	1173.242188	-187.551392
11404.212766	3012.208333	1172.115234	-118.275101
11404.212766	3012.208333	1170.989258	-124.149101
11404.212766	3012.208333	1169.862305	-79.957657
11404.212766	3012.208333	1168.735352	-103.605309
11404.212766	3012.208333	1167.608398	-161.113220
11404.212766	3012.208333	1166.481445	34.170296
11404.212766	3012.208333	1165.353516	-186.572876
11404.212766	3012.208333	1164.225586	-80.357521
11404.212766	3012.208333	1163.097656	-109.399612
11404.212766	3012.208333	1161.968750	-203.018280
11404.212766	3012.208333	1160.840820	-125.634338
11404.212766	3012.208333	1159.711914	-79.295090
11404.212766	3012.208333	1158.583008	-33.412167
11404.212766	3012.208333	1157.453125	-149.935654
11404.212766	3012.208333	1156.324219	-192.573212
11404.212766	3012.208333	1155.194336	-96.709297
11404.212766	3012.208333	1154.064453	100.827133
11404.212766	3012.208333	1152.933594	21.829546
11404.212766	3012.208333	1151.803711	-32.905613
11404.212766	3012.208333	1150.672852	-136.573975
11404.212766	3012.208333	1149.541992	-9.292518
11404.212766	3012.208333	1148.411133	-61.704391
11404.212766	3012.208333	1147.279297	0.076059
11404.212766	3012.208333	1146.147461	38.029625
11404.212766	3012.208333	1145.015625	33.334930
11404.212766	3012.208333	1143.883789	-34.226383
11404.212766	3012.208333	1142.750977	-59.998711
11404.212766	3012.208333	1141.619141	28.346611
11404.212766	3012.208333	1140.486328	-65.339600
11404.212766	3012.208333	1139.352539	9.311152
11404.212766	3012.208333	1138.219727	31.522238
11404.212766	3012.208333	1137.085938	29.963173
11404.212766	3012.208333	1135.952148	51.416283
11404.212766	3012.208333	1134.818359	215.109039
11404.212766	3012.208333	1133.683594	120.783798
11404.212766	3012.208333	1132.549805	177.622696
11404.212766	3012.208333	1131.415039	247.243225
11404.212766	3012.208333	1130.279297	285.809357
11404.212766	3012.208333	1129.144531	216.271942
11404.212766	3012.208333	1128.008789	424.969055
11404.212766	3012.208333	1126.873047	364.777985
11404.212766	3012.208333	1125.737305	401.229950
11404.212766	3012.208333	1124.601563	169.669678
11404.212766	3012.208333	1123.464844	207.765549
11404.212766	3012.208333	1122.328125	202.127884
11404.212766	3012.208333	1121.191406	158.703445
11404.212766	3012.208333	1120.054688	244.018127
11404.212766	3012.208333	1118.916992	172.576141
11404.212766	3012.208333	1117.779297	101.618805
11404.212766	3012.208333	1116.641602	164.174927
11404.212766	3012.208333	1115.503906	22.144419
11404.212766	3012.208333	1114.365234	143.816589
11404.212766	3012.208333	1113.226563	137.487045
11404.212766	3012.208333	1112.087891	141.313538
11404.212766	3012.208333	1110.949219	4.796061
11404.212766	3012.208333	1109.809570	90.895721
11404.212766	3012.208333	1108.669922	66.584045
11404.212766	3012.208333	1107.530273	91.963593
11404.212766	3012.208333	1106.390625	102.954796
11404.212766	3012.208333	1105.250000	-26.575569
11404.212766	3012.208333	1104.109375	214.628311
11404.212766	3012.208333	1102.968750	142.102112
11404.212766	3012.208333	1101.828125	85.236526
11404.212766	3012.208333	1100.686523	61.615967
11404.212766	3012.208333	1099.544922	142.521286
11404.212766	3012.208333	1098.403320	50.939854
11404.212766	3012.208333	1097.261719	199.861938
11404.212766	3012.208333	1096.120117	238.837418
11404.212766	3012.208333	1094.977539	336.701111
11404.212766	3012.208333	1093.834961	213.275482
11404.212766	3012.208333	1092.691406	49.997852
11404.212766	3012.208333	1091.548828	100.031876
11404.212766	3012.208333	1090.405273	90.682747
11404.212766	3012.208333	1089.261719	166.752548
11404.212766	3012.208333	1088.118164	79.826813
11404.212766	3012.208333	1086.973633	123.050743
11404.212766	3012.208333	1085.829102	255.581985
11404.212766	3012.208333	1084.684570	166.640839
11404.212766	3012.208333	1083.540039	49.529648
11404.212766	3012.208333	1082.395508	93.733360
11404.212766	3012.208333	1081.250000	148.097733
11404.212766	3012.208333	1080.104492	169.823547
11404.212766	3012.208333	1078.958984	48.084229
11404.212766	3012.208333	1077.812500	70.367081
11404.212766	3012.208333	1076.666016	-33.493759
11404.212766	3012.208333	1075.519531	105.401718
11404.212766	3012.208333	1074.373047	57.960373
11404.212766	3012.208333	1073.226563	-1.491040
11404.212766	3012.208333	1072.079102	242.589844
11404.212766	3012.208333	1070.931641	-101.477821
11404.212766	3012.208333	1069.784180	-3.606532
11404.212766	3012.208333	1068.635742	129.325119
11404.212766	3012.208333	1067.487305	33.221310
11404.212766	3012.208333	1066.338867	143.292130
11404.212766	3012.208333	1065.190430	205.383392
11404.212766	3012.208333	1064.041992	203.339005
11404.212766	3012.208333	1062.892578	36.300232
11404.212766	3012.208333	1061.743164	119.464386
11404.212766	3012.208333	1060.593750	145.530319
11404.212766	3012.208333	1059.443359	171.462509
11404.212766	3012.208333	1058.292969	172.288895
11404.212766	3012.208333	1057.142578	80.384605
11404.212766	3012.208333	1055.992188	43.662376
11404.212766	3012.208333	1054.841797	105.144318
11404.212766	3012.208333	1053.690430	-5.772087
11404.212766	3012.208333	1052.539063	113.334274
11404.212766	3012.208333	1051.387695	82.389824
11404.212766	3012.208333	1050.235352	108.805641
11404.212766	3012.208333	1049.083984	-38.303509
11404.212766	3012.208333	1047.931641	87.472275
11404.212766	3012.208333	1046.778320	6.356701
11404.212766	3012.208333	1045.625977	62.540363
11404.212766	3012.208333	1044.472656	-12.532790
11404.212766	3012.208333	1043.319336	150.090286
11404.212766	3012.208333	1042.166016	109.922440
11404.212766	3012.208333	1041.012695	61.866653
11404.212766	3012.208333	1039.858398	-20.328764
11404.212766	3012.208333	1038.704102	119.520767
11404.212766	3012.208333	1037.549805	20.440311
11404.212766	3012.208333	1036.394531	-19.187134
11404.212766	3012.208333	1035.239258	-15.703278
11404.212766	3012.208333	1034.083984	81.051216
11404.212766	3012.208333	1032.928711	25.738132
11404.212766	3012.208333	1031.773438	62.837120
11404.212766	3012.208333	1030.617188	161.014786
11404.212766	3012.208333	1029.460938	73.796196
11404.212766	3012.208333	1028.304688	96.375877
11404.212766	3012.208333	1027.147461	185.036072
11404.212766	3012.208333	1025.991211	138.191742
11404.212766	3012.208333	1024.833984	117.198730
11404.212766	3012.208333	1023.675781	186.627930
11404.212766	3012.208333	1022.518555	174.329498
11404.212766	3012.208333	1021.360352	67.096626
11404.212766	3012.208333	1020.202148	139.097168
11404.212766	3012.208333	1019.043945	182.624741
11404.212766	3012.208333	1017.884766	166.399933
11404.212766	3012.208333	1016.726563	-101.294800
11404.212766	3012.208333	1015.567383	-37.066334
11404.212766	3012.208333	1014.407227	23.534166
11404.212766	3012.208333	1013.248047	120.352753
11404.212766	3012.208333	1012.087891	-11.390409
11404.212766	3012.208333	1010.927734	-59.568348
11404.212766	3012.208333	1009.767578	12.501717
11404.212766	3012.208333	1008.606445	151.695984
11404.212766	3012.208333	1007.446289	30.920734
11404.212766	3012.208333	1006.285156	50.606403
11404.212766	3012.208333	1005.123047	-11.754711
11404.212766	3012.208333	1003.961914	74.073372
11404.212766	3012.208333	1002.799805	124.968735
11404.212766	3012.208333	1001.637695	99.800179
11404.212766	3012.208333	1000.475586	42.903816
11404.212766	3012.208333	999.312500	165.048279
11404.212766	3012.208333	998.149414	-84.608528
11404.212766	3012.208333	996.986328	67.308578
11404.212766	3012.208333	995.823242	174.371048
11404.212766	3012.208333	994.659180	-5.998774
11404.212766	3012.208333	993.496094	91.284050
11404.212766	3012.208333	992.332031	159.837021
11404.212766	3012.208333	991.166992	96.467880
11404.212766	3012.208333	990.002930	-8.596284
11404.212766	3012.208333	988.837891	9.472394
11404.212766	3012.208333	987.672852	-20.149952
11404.212766	3012.208333	986.506836	51.839794
11404.212766	3012.208333	985.341797	-81.147560
11404.212766	3012.208333	984.175781	-16.406826
11404.212766	3012.208333	983.009766	8.501851
11404.212766	3012.208333	981.843750	-8.371085
11404.212766	3012.208333	980.676758	64.033257
11404.212766	3012.208333	979.509766	171.646973
11404.212766	3012.208333	978.342773	-21.323261
11404.212766	3012.208333	977.175781	170.759430
11404.212766	3012.208333	976.007813	-29.227777
11404.212766	3012.208333	974.839844	-4.485543
11404.212766	3012.208333	973.671875	19.847111
11404.212766	3012.208333	972.503906	117.957329
11404.212766	3012.208333	971.334961	-2.760180
11404.212766	3012.208333	970.166016	-37.870293
11404.212766	3012.208333	968.997070	-42.035469
11404.212766	3012.208333	967.828125	-27.147188
11404.212766	3012.208333	966.658203	3.819569
11404.212766	3012.208333	965.488281	-41.631660
11404.212766	3012.208333	964.318359	-56.314720
11404.212766	3012.208333	963.148438	-45.113762
11404.212766	3012.208333	961.977539	7.612867
11404.212766	3012.208333	960.806641	-72.316307
11404.212766	3012.208333	959.635742	-3.415815
11404.212766	3012.208333	958.463867	-0.140729
11404.212766	3012.208333	957.292969	64.843742
11404.212766	3012.208333	956.121094	138.142471
11404.212766	3012.208333	954.948242	85.557274
11404.212766	3012.208333	953.776367	-44.441723
11404.212766	3012.208333	952.603516	101.118423
11404.212766	3012.208333	951.430664	2.489431
11404.212766	3012.208333	950.257813	50.830093
11404.212766	3012.208333	949.084961	124.620003
11404.212766	3012.208333	947.911133	98.728172
11404.212766	3012.208333	946.737305	-20.143433
11404.212766	3012.208333	945.563477	-14.295508
11404.212766	3012.208333	944.388672	65.877251
11404.212766	3012.208333	943.213867	74.327324
11404.212766	3012.208333	942.039063	50.618267
11404.212766	3012.208333	940.864258	-138.297195
11404.212766	3012.208333	939.688477	-80.444191
11404.212766	3012.208333	938.513672	72.192131
11404.212766	3012.208333	937.337891	156.912491
11404.212766	3012.208333	936.161133	151.166626
11404.212766	3012.208333	934.985352	12.089086
11404.212766	3012.208333	933.808594	51.706585
11404.212766	3012.208333	932.631836	116.112312
11404.212766	3012.208333	931.454102	78.763458
11404.212766	3012.208333	930.277344	156.637421
11404.212766	3012.208333	929.099609	195.996170
11404.212766	3012.208333	927.921875	138.326477
11404.212766	3012.208333	926.743164	-36.749470
11404.212766	3012.208333	925.565430	190.021179
11404.212766	3012.208333	924.386719	44.319752
11404.212766	3012.208333	923.208008	-2.070089
11404.212766	3012.208333	922.028320	102.711105
11404.212766	3012.208333	920.849609	250.296143
11404.212766	3012.208333	919.669922	252.658234
11404.212766	3012.208333	919.474609	12.572960
11404.212766	3012.208333	918.309570	31.547621
11404.212766	3012.208333	917.143555	-21.631460
11404.212766	3012.208333	915.977539	35.633900
11404.212766	3012.208333	914.810547	-112.186104
11404.212766	3012.208333	913.644531	-34.673874
11404.212766	3012.208333	912.477539	-204.967682
11404.212766	3012.208333	911.310547	-77.948311
11404.212766	3012.208333	910.143555	80.528297
11404.212766	3012.208333	908.975586	-114.480812
11404.212766	3012.208333	907.807617	-30.352003
11404.212766	3012.208333	906.639648	-22.773745
11404.212766	3012.208333	905.471680	-39.956474
11404.212766	3012.208333	904.303711	-61.642864
11404.212766	3012.208333	903.134766	26.857372
11404.212766	3012.208333	901.965820	0.647395
11404.212766	3012.208333	900.796875	14.896635
11404.212766	3012.208333	899.626953	-116.948807
11404.212766	3012.208333	898.457031	-42.037201
11404.212766	3012.208333	897.287109	-7.604894
11404.212766	3012.208333	896.117188	123.378868
11404.212766	3012.208333	894.947266	81.391121
11404.212766	3012.208333	893.776367	41.655746
11404.212766	3012.208333	892.605469	71.506424
11404.212766	3012.208333	891.434570	105.821548
11404.212766	3012.208333	890.262695	-25.921619
11404.212766	3012.208333	889.091797	129.509338
11404.212766	3012.208333	887.919922	56.102638
11404.212766	3012.208333	886.748047	38.771099
11404.212766	3012.208333	885.575195	50.580296
11404.212766	3012.208333	884.403320	17.542524
11404.212766	3012.208333	883.230469	-33.420033
11404.212766	3012.208333	882.057617	-191.918442
11404.212766	3012.208333	880.883789	8.042039
11404.212766	3012.208333	879.710938	24.261843
11404.212766	3012.208333	878.537109	24.789530
11404.212766	3012.208333	877.362305	-57.524399
11404.212766	3012.208333	876.188477	36.998497
11404.212766	3012.208333	875.013672	28.535120
11404.212766	3012.208333	873.839844	-40.345921
11404.212766	3012.208333	872.664063	31.711491
11404.212766	3012.208333	871.489258	-178.058060
11404.212766	3012.208333	870.313477	66.136482
11404.212766	3012.208333	869.138672	-114.519974
11404.212766	3012.208333	867.962891	80.364662
11404.212766	3012.208333	866.786133	-160.576920
11404.212766	3012.208333	865.610352	-10.471255
11404.212766	3012.208333	864.433594	-25.727619
11404.212766	3012.208333	863.256836	32.703716
11404.212766	3012.208333	862.079102	17.418818
11404.212766	3012.208333	860.902344	-82.700485
11404.212766	3012.208333	859.724609	-115.837975
11404.212766	3012.208333	858.546875	-148.975632
11404.212766	3012.208333	857.368164	-137.494965
11404.212766	3012.208333	856.190430	-27.896885
11404.212766	3012.208333	855.011719	-9.784707
11404.212766	3012.208333	853.833008	-27.366932
11404.212766	3012.208333	852.654297	17.456932
11404.212766	3012.208333	851.474609	-6.837296
11404.212766	3012.208333	850.294922	13.425707
11404.212766	3012.208333	849.115234	-48.758072
11404.212766	3012.208333	847.935547	-57.478577
11404.212766	3012.208333	846.754883	13.954307
11404.212766	3012.208333	845.575195	-46.010895
11404.212766	3012.208333	844.393555	-94.835381
11404.212766	3012.208333	843.212891	-168.135330
11404.212766	3012.208333	842.032227	-127.950111
11404.212766	3012.208333	840.850586	-143.407578
11404.212766	3012.208333	839.668945	-45.450455
11404.212766	3012.208333	838.486328	-114.314522
11404.212766	3012.208333	837.304688	34.695511
11404.212766	3012.208333	836.122070	-100.869331
11404.212766	3012.208333	834.939453	-76.397057
11404.212766	3012.208333	833.756836	-114.160248
11404.212766	3012.208333	832.573242	5.786393
11404.212766	3012.208333	831.389648	-14.244418
11404.212766	3012.208333	830.206055	-36.504276
11404.212766	3012.208333	829.022461	105.499847
11404.212766	3012.208333	827.838867	87.628670
11404.212766	3012.208333	826.654297	129.660919
11404.212766	3012.208333	825.469727	7.487474
11404.212766	3012.208333	824.284180	56.138515
11404.212766	3012.208333	823.099609	102.532776
11404.212766	3012.208333	821.914063	-159.293213
11404.212766	3012.208333	820.728516	31.175997
11404.212766	3012.208333	819.542969	61.978844
11404.212766	3012.208333	818.356445	19.631248
11404.212766	3012.208333	817.169922	-95.823936
11404.212766	3012.208333	815.983398	-135.944489
11404.212766	3012.208333	814.796875	-94.134819
11404.212766	3012.208333	813.609375	-19.151560
11404.212766	3012.208333	812.422852	-39.399418
11404.212766	3012.208333	811.235352	-59.657593
11404.212766	3012.208333	810.046875	32.914543
11404.212766	3012.208333	808.859375	36.943611
11404.212766	3012.208333	807.670898	-1.070385
11404.212766	3012.208333	806.482422	-116.480461
11404.212766	3012.208333	805.293945	-10.789204
11404.212766	3012.208333	804.104492	-106.297302
11404.212766	3012.208333	802.915039	52.343941
11404.212766	3012.208333	801.725586	-45.388577
11404.212766	3012.208333	800.536133	73.371696
11404.212766	3012.208333	799.345703	30.845001
11404.212766	3012.208333	798.155273	-66.885529
11404.212766	3012.208333	796.964844	34.081821
11404.212766	3012.208333	795.774414	37.873844
11404.212766	3012.208333	794.583008	19.576435
11404.212766	3012.208333	793.392578	202.026138
11404.212766	3012.208333	792.200195	152.778717
11404.212766	3012.208333	791.008789	30.755146
11404.212766	3012.208333	789.816406	49.867519
11404.212766	3012.208333	788.625000	11.635618
11404.212766	3012.208333	787.432617	54.941174
11404.212766	3012.208333	786.239258	96.002739
11404.212766	3012.208333	785.046875	70.934441
11404.212766	3012.208333	783.853516	-31.235111
11404.212766	3012.208333	782.660156	0.940728
11404.212766	3012.208333	781.465820	46.288864
11404.212766	3012.208333	780.272461	87.192146
11404.212766	3012.208333	779.078125	-25.994322
11404.212766	3012.208333	777.883789	19.259693
11404.212766	3012.208333	776.688477	20.474863
11404.212766	3012.208333	775.494141	-37.717266
11404.212766	3012.208333	774.298828	71.204758
11404.212766	3012.208333	773.103516	59.143814
11404.212766	3012.208333	771.907227	93.220100
11404.212766	3012.208333	770.711914	-26.567966
11404.212766	3012.208333	769.515625	145.875122
11404.212766	3012.208333	768.318359	6.306018
11404.212766	3012.208333	767.122070	108.343361
11404.212766	3012.208333	765.924805	28.072306
11404.212766	3012.208333	764.727539	136.596558
11404.212766	3012.208333	763.530273	128.727493
11404.212766	3012.208333	762.333008	182.276047
11404.212766	3012.208333	761.134766	-27.485422
11404.212766	3012.208333	759.936523	96.209000
11404.212766	3012.208333	758.738281	-12.625669
11404.212766	3012.208333	757.540039	99.997749
11404.212766	3012.208333	756.340820	17.458494
11404.212766	3012.208333	755.141602	-30.009178
11404.212766	3012.208333	753.942383	69.320206
11404.212766	3012.208333	752.742188	124.767220
11404.212766	3012.208333	751.541992	48.752731
11404.212766	3012.208333	750.341797	51.572033
11404.212766	3012.208333	749.141602	163.827072
11404.212766	3012.208333	747.941406	118.411797
11404.212766	3012.208333	746.740234	276.505066
11404.212766	3012.208333	745.539063	91.002983
11404.212766	3012.208333	744.337891	82.733559
11404.212766	3012.208333	743.135742	74.439095
11404.212766	3012.208333	741.933594	210.430771
11404.212766	3012.208333	740.731445	92.751968
11404.212766	3012.208333	739.529297	198.027100
11404.212766	3012.208333	738.326172	322.895874
11404.212766	3012.208333	737.124023	336.263672
11404.212766	3012.208333	735.919922	338.674683
11404.212766	3012.208333	734.716797	327.952789
11404.212766	3012.208333	733.513672	284.456360
11404.212766	3012.208333	732.309570	540.004211
11404.212766	3012.208333	731.105469	468.050781
11404.212766	3012.208333	729.900391	308.818695
11404.212766	3012.208333	728.696289	160.531540
11404.212766	3012.208333	727.491211	247.830750
11404.212766	3012.208333	726.286133	164.976608
11404.212766	3012.208333	725.080078	-5.078959
11404.212766	3012.208333	723.874023	201.993713
11404.212766	3012.208333	722.668945	88.602470
11404.212766	3012.208333	721.461914	77.630013
11404.212766	3012.208333	720.255859	57.919666
11404.212766	3012.208333	719.048828	53.431870
11404.212766	3012.208333	717.841797	-186.245285
11404.212766	3012.208333	716.634766	-57.945812
11404.212766	3012.208333	715.427734	-71.202927
11404.212766	3012.208333	714.219727	4.732505
11404.212766	3012.208333	713.011719	-65.159233
11404.212766	3012.208333	711.803711	-48.046108
11404.212766	3012.208333	710.594727	-39.670258
11404.212766	3012.208333	709.385742	-85.683647
11404.212766	3012.208333	708.176758	96.536789
11404.212766	3012.208333	706.967773	11.333826
11404.212766	3012.208333	705.758789	41.297325
11404.212766	3012.208333	704.548828	-104.747559
11404.212766	3012.208333	703.338867	-98.725601
11404.212766	3012.208333	702.127930	4.979828
11404.212766	3012.208333	700.917969	58.678024
11404.212766	3012.208333	699.707031	40.693493
11404.212766	3012.208333	698.496094	46.557640
11404.212766	3012.208333	697.285156	184.738266
11404.212766	3012.208333	696.073242	-80.643196
11404.212766	3012.208333	694.861328	89.975471
11404.212766	3012.208333	693.649414	87.028915
11404.212766	3012.208333	692.436523	114.401169
11404.212766	3012.208333	691.224609	-18.653227
11404.212766	3012.208333	690.011719	182.024368
11404.212766	3012.208333	688.798828	96.613045
11404.212766	3012.208333	687.584961	0.375671
11404.212766	3012.208333	686.372070	-2.730373
11404.212766	3012.208333	685.158203	46.095966
11404.212766	3012.208333	683.943359	14.779032
11404.212766	3012.208333	682.729492	18.073229
11404.212766	3012.208333	681.514648	231.218445
11404.212766	3012.208333	680.299805	33.220146
11404.212766	3012.208333	679.084961	133.745911
11404.212766	3012.208333	677.869141	108.780640
11404.212766	3012.208333	676.653320	70.824989
11404.212766	3012.208333	675.437500	69.601250
11404.212766	3012.208333	674.221680	18.645693
11404.212766	3012.208333	673.004883	134.043732
11404.212766	3012.208333	671.789063	175.922775
11404.212766	3012.208333	670.571289	170.239441
11404.212766	3012.208333	669.354492	41.458313
11404.212766	3012.208333	668.136719	137.209473
11404.212766	3012.208333	666.919922	60.230881
11404.212766	3012.208333	665.701172	99.776260
11404.212766	3012.208333	664.483398	37.881779
11404.212766	3012.208333	663.264648	-58.526741
11404.212766	3012.208333	662.045898	82.288483
11404.212766	3012.208333	660.827148	35.444344
11404.212766	3012.208333	659.608398	44.636337
11404.212766	3012.208333	658.388672	122.758774
11404.212766	3012.208333	657.168945	125.408905
11404.212766	3012.208333	655.949219	100.026390
11404.212766	3012.208333	654.728516	74.626099
11404.212766	3012.208333	653.507813	-47.686821
11404.212766	3012.208333	652.287109	-32.194382
11404.212766	3012.208333	651.066406	211.415649
11404.212766	3012.208333	649.844727	76.159554
11404.212766	3012.208333	648.623047	95.839340
11404.212766	3012.208333	647.401367	1.482590
11404.212766	3012.208333	646.179688	89.936722
11404.212766	3012.208333	644.957031	141.774567
11404.212766	3012.208333	643.734375	187.117111
11404.212766	3012.208333	642.511719	165.790787
11404.212766	3012.208333	641.289063	180.977951
11404.212766	3012.208333	640.065430	69.384712
11404.212766	3012.208333	638.841797	127.491997
11404.212766	3012.208333	637.618164	95.362076
11404.212766	3012.208333	636.393555	86.836266
11404.212766	3012.208333	635.168945	56.826214
11404.212766	3012.208333	633.944336	116.938156
11404.212766	3012.208333	632.719727	104.053734
11404.212766	3012.208333	631.494141	101.875519
11404.212766	3012.208333	630.269531	116.836121
11404.212766	3012.208333	629.042969	136.051941
11404.212766	3012.208333	627.817383	-41.981983
11404.212766	3012.208333	626.590820	-31.356461
11404.212766	3012.208333	625.365234	-5.753975
11404.212766	3012.208333	624.137695	15.527645
11404.212766	3012.208333	622.911133	-12.481221
11404.212766	3012.208333	621.683594	85.844833
11404.212766	3012.208333	620.456055	25.675508
11404.212766	3012.208333	619.228516	-19.503527
11404.212766	3012.208333	618.000977	-105.344292
11404.212766	3012.208333	616.772461	42.050476
11404.212766	3012.208333	615.543945	-193.549362
11404.212766	3012.208333	614.314453	-71.901817
11404.212766	3012.208333	613.085938	4.774776
11404.212766	3012.208333	611.856445	-59.697105
11404.212766	3012.208333	610.626953	78.890450
11404.212766	3012.208333	609.397461	-92.449524
11404.212766	3012.208333	608.166992	-174.004410
11404.212766	3012.208333	606.936523	-95.340164
11404.212766	3012.208333	605.706055	-179.027740
11404.212766	3012.208333	604.474609	-74.808662
11404.212766	3012.208333	603.244141	-75.244293
11404.212766	3012.208333	602.012695	-225.090454
11404.212766	3012.208333	600.780273	-108.173019
11404.212766	3012.208333	599.548828	25.748957
11404.212766	3012.208333	598.316406	-40.887547
11404.212766	3012.208333	597.083984	-173.613251
11404.212766	3012.208333	595.851563	98.768967
11404.212766	3012.208333	594.618164	2.276806
11404.212766	3012.208333	593.384766	10.232105
11404.212766	3012.208333	592.151367	-28.699751
11404.212766	3012.208333	590.917969	0.535780
11404.212766	3012.208333	589.683594	121.320129
11404.212766	3012.208333	588.449219	-4.945234
11404.212766	3012.208333	587.214844	37.003204
11404.212766	3012.208333	585.979492	115.101547
11404.212766	3012.208333	584.745117	154.857986
11404.212766	3012.208333	583.509766	77.578964
11404.212766	3012.208333	582.273438	15.209106
11404.212766	3012.208333	581.038086	-85.417168
11404.212766	3012.208333	579.801758	-120.105804
11404.212766	3012.208333	578.565430	28.011023
11404.212766	3012.208333	577.329102	103.802269
11404.212766	3012.208333	576.091797	156.179565
11404.212766	3012.208333	574.854492	91.695274
11404.212766	3012.208333	573.617188	31.478130
11404.212766	3012.208333	572.378906	-7.489467
11404.212766	3012.208333	571.141602	8.749490
11404.212766	3012.208333	569.903320	116.235161
11404.212766	3012.208333	568.664063	-158.283646
11404.212766	3012.208333	567.425781	-52.941715
11404.212766	3012.208333	566.186523	-21.889345
11404.212766	3012.208333	564.947266	28.229544
11404.212766	3012.208333	563.708008	-25.564280
11404.212766	3012.208333	562.467773	-9.393469
11404.212766	3012.208333	561.227539	-44.095310
11404.212766	3012.208333	559.987305	-142.350235
11404.212766	3012.208333	558.747070	-227.857193
11404.212766	3012.208333	557.505859	-10.479156
11404.212766	3012.208333	556.264648	-45.170105
11404.212766	3012.208333	555.023438	-29.042627
11404.212766	3012.208333	553.781250	10.353307
11404.212766	3012.208333	552.539063	15.872747
11404.212766	3012.208333	551.296875	25.617928
11404.212766	3012.208333	550.054688	200.338043
11404.212766	3012.208333	548.811523	165.622742
11404.212766	3012.208333	547.569336	147.837158
11404.212766	3012.208333	546.325195	-81.328270
11404.212766	3012.208333	545.082031	72.119408
11404.212766	3012.208333	543.837891	60.691765
11404.212766	3012.208333	542.593750	-37.343147
11404.212766	3012.208333	541.349609	86.420532
11404.212766	3012.208333	540.105469	89.772430
11404.212766	3012.208333	538.860352	25.563803
11404.212766	3012.208333	537.615234	-61.835789
11404.212766	3012.208333	536.369141	89.247162
11404.212766	3012.208333	535.124023	189.633209
11404.212766	3012.208333	533.877930	38.969120
11404.212766	3012.208333	532.631836	-113.741356
11404.212766	3012.208333	531.384766	-13.386289
11404.212766	3012.208333	530.138672	-96.462074
11404.212766	3012.208333	528.891602	-10.909439
11404.212766	3012.208333	527.643555	112.527893
11404.212766	3012.208333	526.396484	176.929642
11404.212766	3012.208333	525.148438	72.810608
11404.212766	3012.208333	523.900391	52.960064
11404.212766	3012.208333	522.652344	24.695255
11404.212766	3012.208333	521.403320	-102.486313
11404.212766	3012.208333	520.154297	50.255852
11404.212766	3012.208333	518.905273	-24.285488
11404.212766	3012.208333	517.656250	6.371359
11404.212766	3012.208333	516.406250	-51.314270
11404.212766	3012.208333	515.156250	52.912590
11404.212766	3012.208333	513.906250	41.478874
11404.212766	3012.208333	512.655273	-49.817287
11404.212766	3012.208333	511.404297	18.607130
11404.212766	3012.208333	510.153320	105.903107
11404.212766	3012.208333	508.902344	98.645927
11404.212766	3012.208333	507.650391	-55.601257
11404.212766	3012.208333	506.398438	-67.034332
11404.212766	3012.208333	505.146484	-67.974586
11404.212766	3012.208333	503.893555	-64.728096
11404.212766	3012.208333	502.641602	39.214657
11404.212766	3012.208333	501.388672	120.029060
11404.212766	3012.208333	500.134766	-38.269871
11404.212766	3012.208333	498.881836	94.923019
11404.212766	3012.208333	497.627930	-50.745319
11404.212766	3012.208333	496.374023	117.995827
11404.212766	3012.208333	495.119141	26.836214
11404.212766	3012.208333	493.865234	-53.819759
11404.212766	3012.208333	492.610352	-103.041641
11404.212766	3012.208333	491.355469	40.383560
11404.212766	3012.208333	490.099609	-46.551846
11404.212766	3012.208333	488.843750	0.486659
11404.212766	3012.208333	487.587891	22.377533
11404.212766	3012.208333	486.332031	54.701344
11404.212766	3012.208333	485.075195	80.714371
11404.212766	3012.208333	483.818359	106.696335
11404.212766	3012.208333	482.561523	136.827301
11404.212766	3012.208333	481.304688	204.548523
11404.212766	3012.208333	480.046875	-12.006999
11404.212766	3012.208333	478.789063	66.113213
11404.212766	3012.208333	477.531250	169.240906
11404.212766	3012.208333	476.272461	276.470825
11404.212766	3012.208333	475.013672	325.160126
11404.212766	3012.208333	473.754883	317.432953
11404.212766	3012.208333	472.496094	249.150131
11404.212766	3012.208333	471.236328	247.635147
11404.212766	3012.208333	469.976563	185.584930
11404.212766	3012.208333	468.716797	238.244476
11404.212766	3012.208333	467.456055	48.938992
11404.212766	3012.208333	466.196289	201.603455
11404.212766	3012.208333	464.935547	222.836563
11404.212766	3012.208333	463.673828	146.065628
11404.212766	3012.208333	462.413086	138.044022
11404.212766	3012.208333	461.151367	273.709442
11404.212766	3012.208333	459.889648	115.613091
11404.212766	3012.208333	458.626953	394.793945
11404.212766	3012.208333	457.364258	380.273865
11404.212766	3012.208333	456.101563	126.354485
11404.212766	3012.208333	454.838867	167.969177
11404.212766	3012.208333	453.575195	188.698486
11404.212766	3012.208333	452.312500	346.637787
11404.212766	3012.208333	451.047852	180.033829
11404.212766	3012.208333	449.784180	136.103378
11404.212766	3012.208333	448.519531	146.162582
11404.212766	3012.208333	447.254883	185.240021
11404.212766	3012.208333	445.990234	263.702240
11404.212766	3012.208333	444.725586	265.195068
11404.212766	3012.208333	443.459961	249.988495
11404.212766	3012.208333	442.194336	454.800079
11404.212766	3012.208333	440.927734	360.502106
11404.212766	3012.208333	439.662109	166.538055
11404.212766	3012.208333	438.395508	277.588806
11404.212766	3012.208333	437.127930	253.645218
11404.212766	3012.208333	435.861328	273.174866
11404.212766	3012.208333	434.593750	344.431763
11404.212766	3012.208333	433.326172	388.601563
11404.212766	3012.208333	432.058594	312.422668
11404.212766	3012.208333	430.790039	290.041107
11404.212766	3012.208333	429.521484	255.122589
11404.212766	3012.208333	428.252930	319.528290
11404.212766	3012.208333	426.984375	234.673447
11404.212766	3012.208333	425.714844	191.134155
11404.212766	3012.208333	424.445313	240.636642
11404.212766	3012.208333	423.174805	426.573029
11404.212766	3012.208333	421.905273	219.151611
11404.212766	3012.208333	420.634766	280.606506
11404.212766	3012.208333	419.364258	290.180603
11404.212766	3012.208333	418.092773	198.269592
11404.212766	3012.208333	416.822266	319.188843
11404.212766	3012.208333	415.550781	351.010468
11404.212766	3012.208333	414.278320	306.187653
11404.212766	3012.208333	413.006836	98.002937
11404.212766	3012.208333	411.734375	321.436188
11404.212766	3012.208333	410.461914	222.430679
11404.212766	3012.208333	409.188477	263.675995
11404.212766	3012.208333	407.916016	376.968567
11404.212766	3012.208333	406.642578	316.651001
11404.212766	3012.208333	405.368164	315.989227
11404.212766	3012.208333	404.094727	352.261169
11404.212766	3012.208333	402.820313	309.925446
11404.212766	3012.208333	401.545898	265.329010
11404.212766	3012.208333	400.270508	269.998474
11404.212766	3012.208333	398.996094	245.589661
11404.212766	3012.208333	397.720703	223.009140
11404.212766	3012.208333	396.444336	309.380859
11404.212766	3012.208333	395.168945	259.531799
11404.212766	3012.208333	393.892578	314.467682
11404.212766	3012.208333	392.616211	352.648682
11404.212766	3012.208333	391.339844	77.666145
11404.212766	3012.208333	390.062500	275.856293
11404.212766	3012.208333	388.785156	230.891434
11404.212766	3012.208333	387.507813	128.060791
11404.212766	3012.208333	386.229492	255.314835
11404.212766	3012.208333	384.951172	262.953125
11404.212766	3012.208333	383.672852	148.991028
11404.212766	3012.208333	382.394531	176.578674
11404.212766	3012.208333	381.115234	277.794495
11404.212766	3012.208333	379.835938	226.609344
11404.212766	3012.208333	378.556641	320.939026
11404.212766	3012.208333	377.277344	258.814453
11404.212766	3012.208333	375.997070	202.509338
11404.212766	3012.208333	374.716797	147.918365
11404.212766	3012.208333	373.435547	35.506767
11404.212766	3012.208333	372.155273	121.794136
11404.212766	3012.208333	370.874023	154.309280
11404.212766	3012.208333	369.591797	92.061935
11404.212766	3012.208333	368.310547	250.889908
11404.212766	3012.208333	367.028320	255.475098
11404.212766	3012.208333	365.746094	99.773270
11404.212766	3012.208333	364.463867	33.863808
11404.212766	3012.208333	363.180664	149.850021
11404.212766	3012.208333	361.897461	76.903000
11404.212766	3012.208333	360.614258	138.673508
11404.212766	3012.208333	359.330078	27.958660
11404.212766	3012.208333	358.045898	80.554657
11404.212766	3012.208333	356.761719	46.686993
11404.212766	3012.208333	355.477539	30.744106
11404.212766	3012.208333	354.192383	38.822796
11404.212766	3012.208333	352.907227	-8.842895
11404.212766	3012.208333	351.622070	-38.622311
11404.212766	3012.208333	350.336914	-95.508469
11404.212766	3012.208333	349.050781	-26.238363
11404.212766	3012.208333	347.764648	-20.907570
11404.212766	3012.208333	346.477539	47.146614
11404.212766	3012.208333	345.191406	-30.408680
11404.212766	3012.208333	343.904297	65.006401
11404.212766	3012.208333	342.616211	-124.020485
11404.212766	3012.208333	341.329102	53.809879
11404.212766	3012.208333	340.041016	-177.214966
11404.212766	3012.208333	338.752930	-157.856140
11404.212766	3012.208333	337.463867	-16.816280
11404.212766	3012.208333	336.175781	5.230483
11404.212766	3012.208333	334.886719	-59.077446
11404.212766	3012.208333	333.596680	43.055199
11404.212766	3012.208333	332.307617	-32.849823
11404.212766	3012.208333	331.017578	-19.831593
11404.212766	3012.208333	329.727539	55.581497
11404.212766	3012.208333	328.436523	34.453346
11404.212766	3012.208333	327.146484	-85.147629
11404.212766	3012.208333	325.855469	-97.624107
11404.212766	3012.208333	324.563477	9.151706
11404.212766	3012.208333	323.272461	-2.929482
11404.212766	3012.208333	321.980469	79.745056
11404.212766	3012.208333	320.688477	37.465061
11404.212766	3012.208333	319.395508	-72.797073
11404.212766	3012.208333	318.103516	-189.959869
11404.212766	3012.208333	316.810547	72.089417
11404.212766	3012.208333	315.516602	-99.765160
11404.212766	3012.208333	314.223633	-154.602798
11404.212766	3012.208333	312.929688	-25.554621
11404.212766	3012.208333	311.635742	-51.864822
11404.212766	3012.208333	310.340820	64.974754
11404.212766	3012.208333	309.045898	111.748276
11404.212766	3012.208333	307.750977	7.307378
11404.212766	3012.208333	306.456055	19.563105
11404.212766	3012.208333	305.160156	203.153549
11404.212766	3012.208333	303.865234	55.050659
11404.212766	3012.208333	302.568359	465.487793
11404.212766	3012.208333	301.272461	294.890106
11404.212766	3012.208333	299.975586	459.651276
11404.212766	3012.208333	298.678711	311.139038
