#X		#Y		#Wave		#Intensity
-7442.040372	4225.433333	1999.946289	-34.974022
-7442.040372	4225.433333	1998.981445	152.738632
-7442.040372	4225.433333	1998.017578	-115.450623
-7442.040372	4225.433333	1997.052734	-167.802658
-7442.040372	4225.433333	1996.088867	12.906329
-7442.040372	4225.433333	1995.124023	37.617397
-7442.040372	4225.433333	1994.159180	59.973423
-7442.040372	4225.433333	1993.193359	-103.275467
-7442.040372	4225.433333	1992.228516	65.419960
-7442.040372	4225.433333	1991.262695	80.696487
-7442.040372	4225.433333	1990.296875	-158.833496
-7442.040372	4225.433333	1989.331055	104.146263
-7442.040372	4225.433333	1988.365234	92.523346
-7442.040372	4225.433333	1987.398438	81.005112
-7442.040372	4225.433333	1986.432617	74.537354
-7442.040372	4225.433333	1985.465820	-8.485478
-7442.040372	4225.433333	1984.499023	66.831024
-7442.040372	4225.433333	1983.532227	87.828957
-7442.040372	4225.433333	1982.565430	-44.311642
-7442.040372	4225.433333	1981.597656	-5.841426
-7442.040372	4225.433333	1980.629883	158.677887
-7442.040372	4225.433333	1979.662109	130.561310
-7442.040372	4225.433333	1978.694336	-55.513760
-7442.040372	4225.433333	1977.726563	49.881126
-7442.040372	4225.433333	1976.758789	-214.970062
-7442.040372	4225.433333	1975.790039	-0.866941
-7442.040372	4225.433333	1974.821289	119.449005
-7442.040372	4225.433333	1973.852539	197.834213
-7442.040372	4225.433333	1972.883789	34.513355
-7442.040372	4225.433333	1971.915039	31.604702
-7442.040372	4225.433333	1970.945313	50.935169
-7442.040372	4225.433333	1969.975586	65.372681
-7442.040372	4225.433333	1969.005859	-100.083443
-7442.040372	4225.433333	1968.036133	47.532967
-7442.040372	4225.433333	1967.066406	-1.978864
-7442.040372	4225.433333	1966.096680	76.660835
-7442.040372	4225.433333	1965.125977	-49.123772
-7442.040372	4225.433333	1964.155273	71.419106
-7442.040372	4225.433333	1963.184570	150.090881
-7442.040372	4225.433333	1962.213867	2.290656
-7442.040372	4225.433333	1961.242188	-27.295361
-7442.040372	4225.433333	1960.271484	-32.243362
-7442.040372	4225.433333	1959.299805	26.794998
-7442.040372	4225.433333	1958.328125	56.311886
-7442.040372	4225.433333	1957.356445	132.559204
-7442.040372	4225.433333	1956.384766	135.026199
-7442.040372	4225.433333	1955.412109	-5.084900
-7442.040372	4225.433333	1954.439453	-49.274021
-7442.040372	4225.433333	1953.467773	44.179646
-7442.040372	4225.433333	1952.495117	-262.892609
-7442.040372	4225.433333	1951.521484	9.905943
-7442.040372	4225.433333	1950.548828	174.535431
-7442.040372	4225.433333	1949.575195	95.994308
-7442.040372	4225.433333	1948.601563	88.682281
-7442.040372	4225.433333	1947.627930	199.198364
-7442.040372	4225.433333	1946.654297	22.516632
-7442.040372	4225.433333	1945.680664	159.986176
-7442.040372	4225.433333	1944.706055	25.072359
-7442.040372	4225.433333	1943.732422	-330.562195
-7442.040372	4225.433333	1942.757813	20.235434
-7442.040372	4225.433333	1941.783203	184.538147
-7442.040372	4225.433333	1940.807617	61.936386
-7442.040372	4225.433333	1939.833008	-36.122829
-7442.040372	4225.433333	1938.857422	228.533035
-7442.040372	4225.433333	1937.881836	-68.016136
-7442.040372	4225.433333	1936.906250	-112.151405
-7442.040372	4225.433333	1935.930664	162.116333
-7442.040372	4225.433333	1934.955078	39.554527
-7442.040372	4225.433333	1933.978516	174.094589
-7442.040372	4225.433333	1933.001953	53.981682
-7442.040372	4225.433333	1932.025391	83.183533
-7442.040372	4225.433333	1931.048828	173.526306
-7442.040372	4225.433333	1930.072266	251.578400
-7442.040372	4225.433333	1929.094727	133.888428
-7442.040372	4225.433333	1928.118164	-152.532272
-7442.040372	4225.433333	1927.140625	79.501373
-7442.040372	4225.433333	1926.163086	84.063034
-7442.040372	4225.433333	1925.184570	59.260887
-7442.040372	4225.433333	1924.207031	193.286255
-7442.040372	4225.433333	1923.228516	297.909119
-7442.040372	4225.433333	1922.250000	153.287262
-7442.040372	4225.433333	1921.271484	-35.276276
-7442.040372	4225.433333	1920.292969	-206.708969
-7442.040372	4225.433333	1919.314453	36.946545
-7442.040372	4225.433333	1918.334961	82.750534
-7442.040372	4225.433333	1917.355469	91.892365
-7442.040372	4225.433333	1916.375977	149.799149
-7442.040372	4225.433333	1915.396484	39.308231
-7442.040372	4225.433333	1914.416992	226.409256
-7442.040372	4225.433333	1913.436523	-30.457649
-7442.040372	4225.433333	1912.457031	173.579575
-7442.040372	4225.433333	1911.476563	197.097946
-7442.040372	4225.433333	1910.496094	169.382935
-7442.040372	4225.433333	1909.515625	53.907700
-7442.040372	4225.433333	1908.534180	-73.748100
-7442.040372	4225.433333	1907.552734	-60.104523
-7442.040372	4225.433333	1906.572266	141.034378
-7442.040372	4225.433333	1905.590820	247.085114
-7442.040372	4225.433333	1904.608398	73.063812
-7442.040372	4225.433333	1903.626953	-25.472040
-7442.040372	4225.433333	1902.644531	-7.193025
-7442.040372	4225.433333	1901.663086	-212.828552
-7442.040372	4225.433333	1900.680664	-58.366730
-7442.040372	4225.433333	1899.698242	120.317375
-7442.040372	4225.433333	1898.714844	174.859802
-7442.040372	4225.433333	1897.732422	10.504201
-7442.040372	4225.433333	1896.749023	184.079559
-7442.040372	4225.433333	1895.765625	-92.115128
-7442.040372	4225.433333	1894.782227	149.369125
-7442.040372	4225.433333	1893.798828	99.155151
-7442.040372	4225.433333	1892.814453	12.474514
-7442.040372	4225.433333	1891.831055	107.940605
-7442.040372	4225.433333	1890.846680	108.618294
-7442.040372	4225.433333	1889.862305	70.404556
-7442.040372	4225.433333	1888.877930	109.835373
-7442.040372	4225.433333	1887.892578	188.034729
-7442.040372	4225.433333	1886.908203	67.186813
-7442.040372	4225.433333	1885.922852	21.542641
-7442.040372	4225.433333	1884.937500	114.128365
-7442.040372	4225.433333	1883.952148	-26.182091
-7442.040372	4225.433333	1882.965820	66.280983
-7442.040372	4225.433333	1881.980469	-275.274292
-7442.040372	4225.433333	1880.994141	-197.436157
-7442.040372	4225.433333	1880.007813	149.314957
-7442.040372	4225.433333	1879.021484	159.108902
-7442.040372	4225.433333	1878.035156	190.652649
-7442.040372	4225.433333	1877.047852	144.632294
-7442.040372	4225.433333	1876.061523	25.937212
-7442.040372	4225.433333	1875.074219	-68.552589
-7442.040372	4225.433333	1874.086914	185.512894
-7442.040372	4225.433333	1873.098633	105.451408
-7442.040372	4225.433333	1872.111328	-214.176346
-7442.040372	4225.433333	1871.123047	-18.435053
-7442.040372	4225.433333	1870.135742	97.367035
-7442.040372	4225.433333	1869.147461	9.934599
-7442.040372	4225.433333	1868.158203	215.048782
-7442.040372	4225.433333	1867.169922	62.260002
-7442.040372	4225.433333	1866.180664	54.496334
-7442.040372	4225.433333	1865.192383	-20.971874
-7442.040372	4225.433333	1864.203125	149.976624
-7442.040372	4225.433333	1863.213867	93.744164
-7442.040372	4225.433333	1862.223633	54.388298
-7442.040372	4225.433333	1861.234375	-26.047764
-7442.040372	4225.433333	1860.244141	38.349850
-7442.040372	4225.433333	1859.253906	71.297134
-7442.040372	4225.433333	1858.263672	24.543200
-7442.040372	4225.433333	1857.273438	-68.086678
-7442.040372	4225.433333	1856.282227	-124.545921
-7442.040372	4225.433333	1855.291992	-193.087631
-7442.040372	4225.433333	1854.300781	-268.890259
-7442.040372	4225.433333	1853.309570	-26.447439
-7442.040372	4225.433333	1852.317383	145.943466
-7442.040372	4225.433333	1851.326172	-115.605995
-7442.040372	4225.433333	1850.333984	-46.975796
-7442.040372	4225.433333	1849.342773	7.129383
-7442.040372	4225.433333	1848.350586	188.831360
-7442.040372	4225.433333	1847.357422	172.926987
-7442.040372	4225.433333	1846.365234	22.142529
-7442.040372	4225.433333	1845.372070	285.448181
-7442.040372	4225.433333	1844.379883	40.731472
-7442.040372	4225.433333	1843.386719	-49.924248
-7442.040372	4225.433333	1842.393555	112.049385
-7442.040372	4225.433333	1841.399414	134.382919
-7442.040372	4225.433333	1840.406250	43.621483
-7442.040372	4225.433333	1839.412109	-27.918545
-7442.040372	4225.433333	1838.417969	107.291359
-7442.040372	4225.433333	1837.423828	-2.787717
-7442.040372	4225.433333	1836.429688	12.105104
-7442.040372	4225.433333	1835.434570	127.865150
-7442.040372	4225.433333	1834.440430	3.292010
-7442.040372	4225.433333	1833.445313	94.898804
-7442.040372	4225.433333	1832.450195	49.534649
-7442.040372	4225.433333	1831.454102	16.143532
-7442.040372	4225.433333	1830.458984	6.730460
-7442.040372	4225.433333	1829.462891	189.289673
-7442.040372	4225.433333	1828.466797	110.159714
-7442.040372	4225.433333	1827.470703	35.812424
-7442.040372	4225.433333	1826.474609	-28.955172
-7442.040372	4225.433333	1825.478516	40.567051
-7442.040372	4225.433333	1824.481445	-136.976028
-7442.040372	4225.433333	1823.484375	150.620560
-7442.040372	4225.433333	1822.487305	66.520050
-7442.040372	4225.433333	1821.490234	181.325165
-7442.040372	4225.433333	1820.493164	20.485273
-7442.040372	4225.433333	1819.495117	106.414597
-7442.040372	4225.433333	1818.498047	139.576157
-7442.040372	4225.433333	1817.500000	36.174187
-7442.040372	4225.433333	1816.500977	109.944054
-7442.040372	4225.433333	1815.502930	68.739685
-7442.040372	4225.433333	1814.504883	159.148056
-7442.040372	4225.433333	1813.505859	160.932770
-7442.040372	4225.433333	1812.506836	19.121496
-7442.040372	4225.433333	1811.507813	-31.779730
-7442.040372	4225.433333	1810.508789	345.397217
-7442.040372	4225.433333	1809.508789	-66.705299
-7442.040372	4225.433333	1808.508789	-151.165894
-7442.040372	4225.433333	1807.508789	41.636688
-7442.040372	4225.433333	1806.508789	205.645004
-7442.040372	4225.433333	1805.508789	32.648304
-7442.040372	4225.433333	1804.508789	29.288342
-7442.040372	4225.433333	1803.507813	-189.080856
-7442.040372	4225.433333	1802.506836	31.986765
-7442.040372	4225.433333	1801.505859	-59.841640
-7442.040372	4225.433333	1800.504883	-27.547338
-7442.040372	4225.433333	1799.502930	7.075102
-7442.040372	4225.433333	1798.501953	170.503952
-7442.040372	4225.433333	1797.500000	150.120605
-7442.040372	4225.433333	1796.498047	101.081261
-7442.040372	4225.433333	1795.496094	90.177132
-7442.040372	4225.433333	1794.493164	81.614441
-7442.040372	4225.433333	1793.491211	-179.677963
-7442.040372	4225.433333	1792.488281	59.617424
-7442.040372	4225.433333	1791.485352	-11.014833
-7442.040372	4225.433333	1790.482422	-22.095078
-7442.040372	4225.433333	1789.478516	202.615952
-7442.040372	4225.433333	1788.475586	117.587479
-7442.040372	4225.433333	1787.471680	203.995087
-7442.040372	4225.433333	1786.467773	264.141846
-7442.040372	4225.433333	1785.463867	169.504517
-7442.040372	4225.433333	1784.459961	58.204338
-7442.040372	4225.433333	1783.455078	215.778214
-7442.040372	4225.433333	1782.450195	118.701263
-7442.040372	4225.433333	1781.445313	85.842781
-7442.040372	4225.433333	1780.440430	-11.250183
-7442.040372	4225.433333	1779.435547	-134.498352
-7442.040372	4225.433333	1778.429688	13.254159
-7442.040372	4225.433333	1777.424805	-50.609577
-7442.040372	4225.433333	1776.418945	-24.195999
-7442.040372	4225.433333	1775.413086	49.687035
-7442.040372	4225.433333	1774.406250	132.999939
-7442.040372	4225.433333	1773.400391	-42.618050
-7442.040372	4225.433333	1772.393555	80.971458
-7442.040372	4225.433333	1771.386719	-6.811708
-7442.040372	4225.433333	1770.379883	9.839259
-7442.040372	4225.433333	1769.373047	-139.673111
-7442.040372	4225.433333	1768.365234	83.338928
-7442.040372	4225.433333	1767.358398	-30.620724
-7442.040372	4225.433333	1766.350586	54.649414
-7442.040372	4225.433333	1765.342773	-135.222641
-7442.040372	4225.433333	1764.334961	61.394169
-7442.040372	4225.433333	1763.326172	-100.041084
-7442.040372	4225.433333	1762.318359	-26.817167
-7442.040372	4225.433333	1761.309570	129.270035
-7442.040372	4225.433333	1760.300781	128.903381
-7442.040372	4225.433333	1759.291016	242.188339
-7442.040372	4225.433333	1758.282227	196.733841
-7442.040372	4225.433333	1757.272461	39.973236
-7442.040372	4225.433333	1756.262695	-97.825500
-7442.040372	4225.433333	1755.252930	-10.758881
-7442.040372	4225.433333	1754.243164	-193.525925
-7442.040372	4225.433333	1753.233398	-87.615723
-7442.040372	4225.433333	1752.222656	67.886559
-7442.040372	4225.433333	1751.211914	128.695313
-7442.040372	4225.433333	1750.201172	-54.103325
-7442.040372	4225.433333	1749.190430	37.371685
-7442.040372	4225.433333	1748.179688	57.867603
-7442.040372	4225.433333	1747.167969	151.574493
-7442.040372	4225.433333	1746.156250	6.574115
-7442.040372	4225.433333	1745.144531	71.841248
-7442.040372	4225.433333	1744.132813	103.983513
-7442.040372	4225.433333	1743.121094	-135.480331
-7442.040372	4225.433333	1742.108398	61.883774
-7442.040372	4225.433333	1741.095703	-9.957510
-7442.040372	4225.433333	1740.083008	90.480385
-7442.040372	4225.433333	1739.070313	-40.393154
-7442.040372	4225.433333	1738.057617	-93.397278
-7442.040372	4225.433333	1737.043945	-2.539436
-7442.040372	4225.433333	1736.030273	57.595402
-7442.040372	4225.433333	1735.016602	-30.866581
-7442.040372	4225.433333	1734.002930	-187.689835
-7442.040372	4225.433333	1732.989258	-134.718872
-7442.040372	4225.433333	1731.974609	92.570946
-7442.040372	4225.433333	1730.959961	98.278381
-7442.040372	4225.433333	1729.945313	-2.046543
-7442.040372	4225.433333	1728.930664	123.727242
-7442.040372	4225.433333	1727.916016	-68.456703
-7442.040372	4225.433333	1726.900391	367.968140
-7442.040372	4225.433333	1725.885742	72.186775
-7442.040372	4225.433333	1724.870117	87.116135
-7442.040372	4225.433333	1723.853516	160.824738
-7442.040372	4225.433333	1722.837891	74.520164
-7442.040372	4225.433333	1721.822266	-94.098289
-7442.040372	4225.433333	1720.805664	-119.247459
-7442.040372	4225.433333	1719.789063	161.221527
-7442.040372	4225.433333	1718.772461	-70.877625
-7442.040372	4225.433333	1717.754883	-147.812592
-7442.040372	4225.433333	1716.738281	-81.406731
-7442.040372	4225.433333	1715.720703	201.069000
-7442.040372	4225.433333	1714.703125	-54.466869
-7442.040372	4225.433333	1713.685547	317.078674
-7442.040372	4225.433333	1712.667969	49.824032
-7442.040372	4225.433333	1711.649414	61.984806
-7442.040372	4225.433333	1710.630859	43.602665
-7442.040372	4225.433333	1709.612305	231.697388
-7442.040372	4225.433333	1708.593750	20.857096
-7442.040372	4225.433333	1707.575195	215.869156
-7442.040372	4225.433333	1706.555664	145.764526
-7442.040372	4225.433333	1705.536133	-13.439459
-7442.040372	4225.433333	1704.516602	59.478180
-7442.040372	4225.433333	1703.497070	-31.726446
-7442.040372	4225.433333	1702.477539	-57.306011
-7442.040372	4225.433333	1701.457031	249.791824
-7442.040372	4225.433333	1700.437500	41.403572
-7442.040372	4225.433333	1699.416992	-26.413237
-7442.040372	4225.433333	1698.395508	46.260551
-7442.040372	4225.433333	1697.375000	18.220556
-7442.040372	4225.433333	1696.354492	324.890167
-7442.040372	4225.433333	1695.333008	224.204483
-7442.040372	4225.433333	1694.311523	261.584381
-7442.040372	4225.433333	1693.290039	114.117073
-7442.040372	4225.433333	1692.267578	223.956314
-7442.040372	4225.433333	1691.246094	282.293488
-7442.040372	4225.433333	1690.223633	104.439667
-7442.040372	4225.433333	1689.201172	230.514160
-7442.040372	4225.433333	1688.178711	361.194031
-7442.040372	4225.433333	1687.155273	414.684692
-7442.040372	4225.433333	1686.132813	173.779236
-7442.040372	4225.433333	1685.109375	115.126549
-7442.040372	4225.433333	1684.085938	156.895813
-7442.040372	4225.433333	1683.062500	299.027740
-7442.040372	4225.433333	1682.039063	322.031403
-7442.040372	4225.433333	1681.014648	330.993103
-7442.040372	4225.433333	1679.990234	398.270477
-7442.040372	4225.433333	1678.965820	486.501587
-7442.040372	4225.433333	1677.941406	535.025574
-7442.040372	4225.433333	1676.916992	613.831055
-7442.040372	4225.433333	1675.891602	296.187836
-7442.040372	4225.433333	1674.866211	351.651886
-7442.040372	4225.433333	1673.840820	229.935516
-7442.040372	4225.433333	1672.815430	469.456970
-7442.040372	4225.433333	1671.790039	475.876740
-7442.040372	4225.433333	1670.763672	505.564209
-7442.040372	4225.433333	1669.737305	358.218994
-7442.040372	4225.433333	1668.710938	401.858032
-7442.040372	4225.433333	1667.684570	540.918213
-7442.040372	4225.433333	1666.658203	705.514160
-7442.040372	4225.433333	1665.630859	495.339355
-7442.040372	4225.433333	1664.603516	487.660919
-7442.040372	4225.433333	1663.576172	586.984070
-7442.040372	4225.433333	1662.548828	388.541626
-7442.040372	4225.433333	1661.520508	506.412811
-7442.040372	4225.433333	1660.493164	680.033936
-7442.040372	4225.433333	1659.464844	507.211609
-7442.040372	4225.433333	1658.436523	564.527405
-7442.040372	4225.433333	1657.408203	847.202454
-7442.040372	4225.433333	1656.378906	686.019043
-7442.040372	4225.433333	1655.350586	740.911682
-7442.040372	4225.433333	1654.321289	521.732788
-7442.040372	4225.433333	1653.291992	664.834534
-7442.040372	4225.433333	1652.261719	752.149597
-7442.040372	4225.433333	1651.232422	888.169189
-7442.040372	4225.433333	1650.202148	817.595276
-7442.040372	4225.433333	1649.171875	763.280090
-7442.040372	4225.433333	1648.141602	755.368591
-7442.040372	4225.433333	1647.111328	1074.451904
-7442.040372	4225.433333	1646.080078	783.579041
-7442.040372	4225.433333	1645.049805	752.462830
-7442.040372	4225.433333	1644.018555	878.953796
-7442.040372	4225.433333	1642.987305	694.864990
-7442.040372	4225.433333	1641.955078	939.458313
-7442.040372	4225.433333	1640.923828	864.290466
-7442.040372	4225.433333	1639.891602	935.045776
-7442.040372	4225.433333	1638.859375	762.635132
-7442.040372	4225.433333	1637.827148	1048.678101
-7442.040372	4225.433333	1636.794922	890.192688
-7442.040372	4225.433333	1635.761719	882.178955
-7442.040372	4225.433333	1634.729492	989.862610
-7442.040372	4225.433333	1633.696289	986.453491
-7442.040372	4225.433333	1632.662109	955.281006
-7442.040372	4225.433333	1631.628906	1065.184082
-7442.040372	4225.433333	1630.594727	1080.243774
-7442.040372	4225.433333	1629.561523	1019.025452
-7442.040372	4225.433333	1628.527344	1223.594360
-7442.040372	4225.433333	1627.493164	1340.280518
-7442.040372	4225.433333	1626.458008	1419.949097
-7442.040372	4225.433333	1625.423828	1294.032837
-7442.040372	4225.433333	1624.388672	1498.382324
-7442.040372	4225.433333	1623.353516	1386.346802
-7442.040372	4225.433333	1622.318359	1569.827148
-7442.040372	4225.433333	1621.282227	1695.531616
-7442.040372	4225.433333	1620.247070	1735.825439
-7442.040372	4225.433333	1619.210938	1561.542480
-7442.040372	4225.433333	1618.174805	1638.748901
-7442.040372	4225.433333	1617.137695	1826.614014
-7442.040372	4225.433333	1616.101563	1770.019531
-7442.040372	4225.433333	1615.064453	1688.086548
-7442.040372	4225.433333	1614.027344	1776.742554
-7442.040372	4225.433333	1612.990234	1980.589600
-7442.040372	4225.433333	1611.953125	2006.964111
-7442.040372	4225.433333	1610.916016	1994.177002
-7442.040372	4225.433333	1609.877930	1610.614502
-7442.040372	4225.433333	1608.839844	1805.145386
-7442.040372	4225.433333	1607.801758	2011.119751
-7442.040372	4225.433333	1606.763672	1844.157227
-7442.040372	4225.433333	1605.724609	2040.850830
-7442.040372	4225.433333	1604.685547	1724.411377
-7442.040372	4225.433333	1603.646484	2167.202637
-7442.040372	4225.433333	1602.607422	2131.465088
-7442.040372	4225.433333	1601.568359	1833.623291
-7442.040372	4225.433333	1600.528320	1866.948242
-7442.040372	4225.433333	1599.489258	1603.776245
-7442.040372	4225.433333	1598.449219	1536.047363
-7442.040372	4225.433333	1597.408203	1619.990723
-7442.040372	4225.433333	1596.368164	1584.471924
-7442.040372	4225.433333	1595.327148	1753.380249
-7442.040372	4225.433333	1594.287109	1869.432861
-7442.040372	4225.433333	1593.246094	1611.230225
-7442.040372	4225.433333	1592.204102	1699.737549
-7442.040372	4225.433333	1591.163086	1526.615234
-7442.040372	4225.433333	1590.121094	1819.344849
-7442.040372	4225.433333	1589.079102	1405.423462
-7442.040372	4225.433333	1588.037109	1404.523804
-7442.040372	4225.433333	1586.995117	1550.401978
-7442.040372	4225.433333	1585.953125	1558.683716
-7442.040372	4225.433333	1584.910156	1608.234009
-7442.040372	4225.433333	1583.867188	1563.823730
-7442.040372	4225.433333	1582.824219	1512.578247
-7442.040372	4225.433333	1581.781250	1914.967041
-7442.040372	4225.433333	1580.737305	1627.794556
-7442.040372	4225.433333	1579.693359	1665.935059
-7442.040372	4225.433333	1578.649414	1571.291504
-7442.040372	4225.433333	1577.605469	1497.309692
-7442.040372	4225.433333	1576.561523	1485.175659
-7442.040372	4225.433333	1575.516602	1443.317261
-7442.040372	4225.433333	1574.472656	1543.349243
-7442.040372	4225.433333	1573.427734	1760.011597
-7442.040372	4225.433333	1572.381836	1400.324341
-7442.040372	4225.433333	1571.336914	1424.927490
-7442.040372	4225.433333	1570.291016	1616.414673
-7442.040372	4225.433333	1569.246094	1213.634644
-7442.040372	4225.433333	1568.200195	1667.925293
-7442.040372	4225.433333	1567.153320	1317.883057
-7442.040372	4225.433333	1566.107422	1372.311523
-7442.040372	4225.433333	1565.060547	1499.818359
-7442.040372	4225.433333	1564.013672	1367.015503
-7442.040372	4225.433333	1562.966797	1295.935059
-7442.040372	4225.433333	1561.919922	1256.866333
-7442.040372	4225.433333	1560.872070	1242.938843
-7442.040372	4225.433333	1559.825195	1409.293945
-7442.040372	4225.433333	1558.777344	1514.023804
-7442.040372	4225.433333	1557.729492	1440.863525
-7442.040372	4225.433333	1556.680664	1157.989502
-7442.040372	4225.433333	1555.632813	1144.271118
-7442.040372	4225.433333	1554.583984	1148.820557
-7442.040372	4225.433333	1553.535156	987.054443
-7442.040372	4225.433333	1552.486328	1153.469116
-7442.040372	4225.433333	1551.436523	1092.061890
-7442.040372	4225.433333	1550.387695	1023.892944
-7442.040372	4225.433333	1549.337891	1035.477295
-7442.040372	4225.433333	1548.288086	1149.541748
-7442.040372	4225.433333	1547.238281	769.691406
-7442.040372	4225.433333	1546.187500	836.049316
-7442.040372	4225.433333	1545.136719	702.207336
-7442.040372	4225.433333	1544.086914	1100.753296
-7442.040372	4225.433333	1543.035156	930.602844
-7442.040372	4225.433333	1541.984375	890.177307
-7442.040372	4225.433333	1540.933594	997.581482
-7442.040372	4225.433333	1539.881836	914.054993
-7442.040372	4225.433333	1538.830078	803.335876
-7442.040372	4225.433333	1537.778320	922.184448
-7442.040372	4225.433333	1536.725586	1070.555420
-7442.040372	4225.433333	1535.673828	801.031372
-7442.040372	4225.433333	1534.621094	742.828674
-7442.040372	4225.433333	1533.568359	698.320007
-7442.040372	4225.433333	1532.515625	808.222595
-7442.040372	4225.433333	1531.461914	745.655518
-7442.040372	4225.433333	1530.409180	923.672424
-7442.040372	4225.433333	1529.355469	922.456177
-7442.040372	4225.433333	1528.301758	1120.875122
-7442.040372	4225.433333	1527.247070	598.177307
-7442.040372	4225.433333	1526.193359	923.645691
-7442.040372	4225.433333	1525.138672	716.363708
-7442.040372	4225.433333	1524.083984	901.273865
-7442.040372	4225.433333	1523.029297	601.290771
-7442.040372	4225.433333	1521.974609	856.483215
-7442.040372	4225.433333	1520.918945	862.488281
-7442.040372	4225.433333	1519.863281	1076.875244
-7442.040372	4225.433333	1518.807617	983.330017
-7442.040372	4225.433333	1517.751953	975.894165
-7442.040372	4225.433333	1516.696289	633.582947
-7442.040372	4225.433333	1515.639648	780.186951
-7442.040372	4225.433333	1514.583008	1037.639282
-7442.040372	4225.433333	1513.526367	958.050781
-7442.040372	4225.433333	1512.469727	822.019714
-7442.040372	4225.433333	1511.412109	982.267578
-7442.040372	4225.433333	1510.355469	961.686768
-7442.040372	4225.433333	1509.297852	1076.766846
-7442.040372	4225.433333	1508.240234	871.013916
-7442.040372	4225.433333	1507.181641	812.237488
-7442.040372	4225.433333	1506.124023	778.398010
-7442.040372	4225.433333	1505.065430	950.122131
-7442.040372	4225.433333	1504.006836	519.032837
-7442.040372	4225.433333	1502.948242	661.523132
-7442.040372	4225.433333	1501.888672	734.057373
-7442.040372	4225.433333	1500.830078	659.968201
-7442.040372	4225.433333	1499.770508	561.156433
-7442.040372	4225.433333	1498.710938	439.894135
-7442.040372	4225.433333	1497.650391	616.404541
-7442.040372	4225.433333	1496.590820	641.862671
-7442.040372	4225.433333	1495.530273	624.545776
-7442.040372	4225.433333	1494.469727	381.934570
-7442.040372	4225.433333	1493.409180	184.554962
-7442.040372	4225.433333	1492.348633	70.675941
-7442.040372	4225.433333	1491.287109	335.301422
-7442.040372	4225.433333	1490.225586	172.033020
-7442.040372	4225.433333	1489.164063	31.415117
-7442.040372	4225.433333	1488.102539	314.111237
-7442.040372	4225.433333	1487.041016	180.416718
-7442.040372	4225.433333	1485.978516	314.605377
-7442.040372	4225.433333	1484.916016	52.888813
-7442.040372	4225.433333	1483.853516	-19.741367
-7442.040372	4225.433333	1482.791016	-308.128479
-7442.040372	4225.433333	1481.727539	-173.650803
-7442.040372	4225.433333	1480.664063	-12.182022
-7442.040372	4225.433333	1479.600586	63.905243
-7442.040372	4225.433333	1478.537109	160.246155
-7442.040372	4225.433333	1477.473633	43.295235
-7442.040372	4225.433333	1476.409180	148.668671
-7442.040372	4225.433333	1475.344727	-201.543732
-7442.040372	4225.433333	1474.280273	56.663334
-7442.040372	4225.433333	1473.215820	294.652527
-7442.040372	4225.433333	1472.151367	59.336365
-7442.040372	4225.433333	1471.085938	218.794281
-7442.040372	4225.433333	1470.020508	248.397919
-7442.040372	4225.433333	1468.955078	340.653503
-7442.040372	4225.433333	1467.888672	70.015739
-7442.040372	4225.433333	1466.823242	379.863556
-7442.040372	4225.433333	1465.756836	508.194824
-7442.040372	4225.433333	1464.690430	392.290955
-7442.040372	4225.433333	1463.624023	339.498993
-7442.040372	4225.433333	1462.556641	711.904846
-7442.040372	4225.433333	1461.490234	549.044800
-7442.040372	4225.433333	1460.422852	577.658813
-7442.040372	4225.433333	1459.355469	531.731934
-7442.040372	4225.433333	1458.287109	477.110077
-7442.040372	4225.433333	1457.219727	376.260620
-7442.040372	4225.433333	1456.151367	511.002167
-7442.040372	4225.433333	1455.083008	465.450348
-7442.040372	4225.433333	1454.014648	681.291016
-7442.040372	4225.433333	1452.945313	705.663391
-7442.040372	4225.433333	1451.876953	696.858337
-7442.040372	4225.433333	1450.807617	673.068176
-7442.040372	4225.433333	1449.738281	637.931580
-7442.040372	4225.433333	1448.668945	723.575806
-7442.040372	4225.433333	1447.598633	944.210815
-7442.040372	4225.433333	1446.528320	871.195618
-7442.040372	4225.433333	1445.458008	763.270813
-7442.040372	4225.433333	1444.387695	762.147583
-7442.040372	4225.433333	1443.317383	915.156189
-7442.040372	4225.433333	1442.246094	915.882019
-7442.040372	4225.433333	1441.174805	762.759949
-7442.040372	4225.433333	1440.103516	832.737427
-7442.040372	4225.433333	1439.032227	1031.345947
-7442.040372	4225.433333	1437.960938	1220.409912
-7442.040372	4225.433333	1436.888672	794.778870
-7442.040372	4225.433333	1435.816406	732.068665
-7442.040372	4225.433333	1434.744141	910.596008
-7442.040372	4225.433333	1433.670898	735.454712
-7442.040372	4225.433333	1432.598633	517.789795
-7442.040372	4225.433333	1431.525391	706.968506
-7442.040372	4225.433333	1430.452148	639.178711
-7442.040372	4225.433333	1429.378906	768.982971
-7442.040372	4225.433333	1428.304688	590.120056
-7442.040372	4225.433333	1427.231445	789.478333
-7442.040372	4225.433333	1426.157227	505.826233
-7442.040372	4225.433333	1425.083008	972.772949
-7442.040372	4225.433333	1424.007813	885.389587
-7442.040372	4225.433333	1422.933594	895.245361
-7442.040372	4225.433333	1421.858398	805.541077
-7442.040372	4225.433333	1420.783203	911.920715
-7442.040372	4225.433333	1419.708008	687.302368
-7442.040372	4225.433333	1418.631836	763.066040
-7442.040372	4225.433333	1417.555664	853.941589
-7442.040372	4225.433333	1416.479492	930.356689
-7442.040372	4225.433333	1415.403320	846.495117
-7442.040372	4225.433333	1414.327148	865.522949
-7442.040372	4225.433333	1413.250000	859.826538
-7442.040372	4225.433333	1412.173828	947.379578
-7442.040372	4225.433333	1411.096680	857.527039
-7442.040372	4225.433333	1410.018555	711.800537
-7442.040372	4225.433333	1408.941406	634.009155
-7442.040372	4225.433333	1407.863281	904.506165
-7442.040372	4225.433333	1406.785156	1159.278198
-7442.040372	4225.433333	1405.707031	798.651306
-7442.040372	4225.433333	1404.628906	633.451782
-7442.040372	4225.433333	1403.549805	641.336304
-7442.040372	4225.433333	1402.470703	884.591736
-7442.040372	4225.433333	1401.391602	799.343079
-7442.040372	4225.433333	1400.312500	764.984924
-7442.040372	4225.433333	1399.233398	616.372742
-7442.040372	4225.433333	1398.153320	748.860718
-7442.040372	4225.433333	1397.073242	706.587036
-7442.040372	4225.433333	1395.993164	836.758606
-7442.040372	4225.433333	1394.913086	694.965332
-7442.040372	4225.433333	1393.832031	604.258972
-7442.040372	4225.433333	1392.750977	749.773376
-7442.040372	4225.433333	1391.669922	721.311157
-7442.040372	4225.433333	1390.588867	767.565674
-7442.040372	4225.433333	1389.506836	654.091064
-7442.040372	4225.433333	1388.425781	549.089417
-7442.040372	4225.433333	1387.343750	713.346985
-7442.040372	4225.433333	1386.261719	788.330872
-7442.040372	4225.433333	1385.178711	659.234314
-7442.040372	4225.433333	1384.096680	753.006592
-7442.040372	4225.433333	1383.013672	824.241394
-7442.040372	4225.433333	1381.930664	457.945404
-7442.040372	4225.433333	1380.846680	645.524109
-7442.040372	4225.433333	1379.763672	693.684937
-7442.040372	4225.433333	1378.679688	785.454712
-7442.040372	4225.433333	1377.595703	783.047852
-7442.040372	4225.433333	1376.511719	656.522888
-7442.040372	4225.433333	1375.427734	467.296570
-7442.040372	4225.433333	1374.342773	781.973999
-7442.040372	4225.433333	1373.257813	824.448059
-7442.040372	4225.433333	1372.172852	565.057312
-7442.040372	4225.433333	1371.087891	495.478394
-7442.040372	4225.433333	1370.001953	664.004211
-7442.040372	4225.433333	1368.916992	466.092377
-7442.040372	4225.433333	1367.831055	637.515503
-7442.040372	4225.433333	1366.744141	281.890839
-7442.040372	4225.433333	1365.658203	448.603210
-7442.040372	4225.433333	1364.571289	417.044800
-7442.040372	4225.433333	1363.484375	559.878113
-7442.040372	4225.433333	1362.397461	245.039429
-7442.040372	4225.433333	1361.310547	276.277496
-7442.040372	4225.433333	1360.222656	309.953369
-7442.040372	4225.433333	1359.135742	228.921432
-7442.040372	4225.433333	1358.047852	195.971436
-7442.040372	4225.433333	1356.958984	152.395340
-7442.040372	4225.433333	1355.871094	-8.883579
-7442.040372	4225.433333	1354.782227	146.626999
-7442.040372	4225.433333	1353.693359	144.400238
-7442.040372	4225.433333	1352.604492	82.553009
-7442.040372	4225.433333	1351.515625	223.102600
-7442.040372	4225.433333	1350.425781	89.321800
-7442.040372	4225.433333	1349.335938	32.718571
-7442.040372	4225.433333	1348.246094	303.970306
-7442.040372	4225.433333	1347.156250	308.185089
-7442.040372	4225.433333	1346.066406	375.390869
-7442.040372	4225.433333	1344.975586	337.873535
-7442.040372	4225.433333	1343.884766	412.606415
-7442.040372	4225.433333	1342.793945	594.212219
-7442.040372	4225.433333	1341.702148	440.723053
-7442.040372	4225.433333	1340.611328	438.377258
-7442.040372	4225.433333	1339.519531	392.824615
-7442.040372	4225.433333	1338.427734	609.058533
-7442.040372	4225.433333	1337.334961	606.487427
-7442.040372	4225.433333	1336.243164	653.109741
-7442.040372	4225.433333	1335.150391	668.957581
-7442.040372	4225.433333	1334.057617	588.264343
-7442.040372	4225.433333	1332.964844	528.323486
-7442.040372	4225.433333	1331.871094	527.998901
-7442.040372	4225.433333	1330.778320	457.361389
-7442.040372	4225.433333	1329.684570	649.633362
-7442.040372	4225.433333	1328.590820	637.250854
-7442.040372	4225.433333	1327.496094	689.050659
-7442.040372	4225.433333	1326.402344	758.223999
-7442.040372	4225.433333	1325.307617	649.252686
-7442.040372	4225.433333	1324.212891	820.834106
-7442.040372	4225.433333	1323.117188	794.698975
-7442.040372	4225.433333	1322.022461	969.940125
-7442.040372	4225.433333	1320.926758	627.319275
-7442.040372	4225.433333	1319.831055	735.476868
-7442.040372	4225.433333	1318.735352	833.291321
-7442.040372	4225.433333	1317.638672	890.660522
-7442.040372	4225.433333	1316.542969	760.289001
-7442.040372	4225.433333	1315.446289	963.791687
-7442.040372	4225.433333	1314.349609	854.870117
-7442.040372	4225.433333	1313.251953	722.413757
-7442.040372	4225.433333	1312.155273	650.862793
-7442.040372	4225.433333	1311.057617	820.316040
-7442.040372	4225.433333	1309.959961	850.977722
-7442.040372	4225.433333	1308.862305	840.684204
-7442.040372	4225.433333	1307.763672	526.159180
-7442.040372	4225.433333	1306.665039	546.749207
-7442.040372	4225.433333	1305.566406	787.599182
-7442.040372	4225.433333	1304.467773	804.637207
-7442.040372	4225.433333	1303.369141	878.207458
-7442.040372	4225.433333	1302.269531	709.277100
-7442.040372	4225.433333	1301.169922	424.345642
-7442.040372	4225.433333	1300.070313	744.373352
-7442.040372	4225.433333	1298.970703	743.689758
-7442.040372	4225.433333	1297.870117	695.575745
-7442.040372	4225.433333	1296.769531	726.372314
-7442.040372	4225.433333	1295.668945	730.682312
-7442.040372	4225.433333	1294.568359	533.751221
-7442.040372	4225.433333	1293.466797	542.579895
-7442.040372	4225.433333	1292.366211	669.242859
-7442.040372	4225.433333	1291.264648	504.990570
-7442.040372	4225.433333	1290.162109	500.288330
-7442.040372	4225.433333	1289.060547	698.870483
-7442.040372	4225.433333	1287.958008	619.866699
-7442.040372	4225.433333	1286.855469	656.321533
-7442.040372	4225.433333	1285.752930	590.513550
-7442.040372	4225.433333	1284.650391	579.351257
-7442.040372	4225.433333	1283.546875	608.083008
-7442.040372	4225.433333	1282.444336	617.097778
-7442.040372	4225.433333	1281.339844	559.292603
-7442.040372	4225.433333	1280.236328	633.248413
-7442.040372	4225.433333	1279.132813	631.818237
-7442.040372	4225.433333	1278.028320	576.285828
-7442.040372	4225.433333	1276.923828	468.226349
-7442.040372	4225.433333	1275.819336	636.272949
-7442.040372	4225.433333	1274.713867	417.277802
-7442.040372	4225.433333	1273.608398	353.788727
-7442.040372	4225.433333	1272.503906	410.907898
-7442.040372	4225.433333	1271.397461	360.989777
-7442.040372	4225.433333	1270.291992	327.554382
-7442.040372	4225.433333	1269.185547	435.895203
-7442.040372	4225.433333	1268.080078	278.044281
-7442.040372	4225.433333	1266.972656	250.155472
-7442.040372	4225.433333	1265.866211	235.726730
-7442.040372	4225.433333	1264.759766	101.243393
-7442.040372	4225.433333	1263.652344	331.718292
-7442.040372	4225.433333	1262.544922	174.248489
-7442.040372	4225.433333	1261.436523	183.527527
-7442.040372	4225.433333	1260.329102	238.228424
-7442.040372	4225.433333	1259.220703	301.700134
-7442.040372	4225.433333	1258.112305	128.075607
-7442.040372	4225.433333	1257.003906	202.314026
-7442.040372	4225.433333	1255.895508	198.070816
-7442.040372	4225.433333	1254.786133	98.868904
-7442.040372	4225.433333	1253.676758	-38.576889
-7442.040372	4225.433333	1252.567383	-54.377731
-7442.040372	4225.433333	1251.458008	81.393311
-7442.040372	4225.433333	1250.347656	104.855942
-7442.040372	4225.433333	1249.237305	132.347885
-7442.040372	4225.433333	1248.126953	216.019669
-7442.040372	4225.433333	1247.016602	92.150764
-7442.040372	4225.433333	1245.905273	212.793625
-7442.040372	4225.433333	1244.793945	27.658834
-7442.040372	4225.433333	1243.682617	2.969215
-7442.040372	4225.433333	1242.571289	58.643848
-7442.040372	4225.433333	1241.459961	72.149681
-7442.040372	4225.433333	1240.347656	132.696518
-7442.040372	4225.433333	1239.235352	-33.913387
-7442.040372	4225.433333	1238.123047	135.734146
-7442.040372	4225.433333	1237.009766	77.541397
-7442.040372	4225.433333	1235.897461	-22.837748
-7442.040372	4225.433333	1234.784180	-32.843971
-7442.040372	4225.433333	1233.670898	104.916611
-7442.040372	4225.433333	1232.556641	10.945967
-7442.040372	4225.433333	1231.443359	103.600906
-7442.040372	4225.433333	1230.329102	85.815926
-7442.040372	4225.433333	1229.214844	66.434029
-7442.040372	4225.433333	1228.099609	-139.989990
-7442.040372	4225.433333	1226.985352	-45.820236
-7442.040372	4225.433333	1225.870117	20.130907
-7442.040372	4225.433333	1224.754883	-20.257524
-7442.040372	4225.433333	1223.639648	6.714776
-7442.040372	4225.433333	1222.523438	-83.384628
-7442.040372	4225.433333	1221.408203	15.512619
-7442.040372	4225.433333	1220.291992	-15.634240
-7442.040372	4225.433333	1219.174805	142.033356
-7442.040372	4225.433333	1218.058594	-106.132179
-7442.040372	4225.433333	1216.941406	-218.973251
-7442.040372	4225.433333	1215.824219	103.106812
-7442.040372	4225.433333	1214.707031	-139.233688
-7442.040372	4225.433333	1213.589844	-25.599138
-7442.040372	4225.433333	1212.471680	24.068377
-7442.040372	4225.433333	1211.353516	-15.257571
-7442.040372	4225.433333	1210.235352	51.959255
-7442.040372	4225.433333	1209.117188	-20.767365
-7442.040372	4225.433333	1207.998047	81.523827
-7442.040372	4225.433333	1206.878906	151.272186
-7442.040372	4225.433333	1205.759766	91.405540
-7442.040372	4225.433333	1204.640625	162.829300
-7442.040372	4225.433333	1203.520508	-7.281425
-7442.040372	4225.433333	1202.401367	7.986118
-7442.040372	4225.433333	1201.281250	85.082695
-7442.040372	4225.433333	1200.160156	5.370719
-7442.040372	4225.433333	1199.040039	53.004124
-7442.040372	4225.433333	1197.918945	-115.105370
-7442.040372	4225.433333	1196.797852	-50.807507
-7442.040372	4225.433333	1195.676758	144.750366
-7442.040372	4225.433333	1194.555664	-23.027344
-7442.040372	4225.433333	1193.433594	-43.415684
-7442.040372	4225.433333	1192.311523	58.679951
-7442.040372	4225.433333	1191.189453	-5.739348
-7442.040372	4225.433333	1190.066406	79.769135
-7442.040372	4225.433333	1188.944336	198.425781
-7442.040372	4225.433333	1187.821289	157.344406
-7442.040372	4225.433333	1186.698242	129.263229
-7442.040372	4225.433333	1185.574219	242.130753
-7442.040372	4225.433333	1184.451172	101.174301
-7442.040372	4225.433333	1183.327148	111.589653
-7442.040372	4225.433333	1182.203125	229.529099
-7442.040372	4225.433333	1181.078125	-16.440678
-7442.040372	4225.433333	1179.954102	28.327610
-7442.040372	4225.433333	1178.829102	68.810936
-7442.040372	4225.433333	1177.704102	-56.678207
-7442.040372	4225.433333	1176.579102	109.400352
-7442.040372	4225.433333	1175.453125	-36.265659
-7442.040372	4225.433333	1174.327148	-65.944771
-7442.040372	4225.433333	1173.201172	-3.954209
-7442.040372	4225.433333	1172.075195	-120.952034
-7442.040372	4225.433333	1170.949219	-41.842396
-7442.040372	4225.433333	1169.822266	2.622900
-7442.040372	4225.433333	1168.695313	85.274063
-7442.040372	4225.433333	1167.568359	-150.481522
-7442.040372	4225.433333	1166.440430	-94.108612
-7442.040372	4225.433333	1165.313477	31.887232
-7442.040372	4225.433333	1164.185547	19.217918
-7442.040372	4225.433333	1163.057617	3.998930
-7442.040372	4225.433333	1161.928711	-0.536326
-7442.040372	4225.433333	1160.800781	-9.447910
-7442.040372	4225.433333	1159.671875	-43.278965
-7442.040372	4225.433333	1158.541992	-8.414141
-7442.040372	4225.433333	1157.413086	-19.423111
-7442.040372	4225.433333	1156.283203	38.531700
-7442.040372	4225.433333	1155.154297	-55.137814
-7442.040372	4225.433333	1154.023438	-27.235151
-7442.040372	4225.433333	1152.893555	-75.627304
-7442.040372	4225.433333	1151.763672	-96.332947
-7442.040372	4225.433333	1150.632813	-26.608160
-7442.040372	4225.433333	1149.501953	-63.934765
-7442.040372	4225.433333	1148.370117	-80.596252
-7442.040372	4225.433333	1147.239258	9.348037
-7442.040372	4225.433333	1146.107422	45.535961
-7442.040372	4225.433333	1144.975586	-173.674316
-7442.040372	4225.433333	1143.843750	-53.697594
-7442.040372	4225.433333	1142.710938	-131.622192
-7442.040372	4225.433333	1141.578125	-52.528316
-7442.040372	4225.433333	1140.445313	-67.788757
-7442.040372	4225.433333	1139.312500	-7.997007
-7442.040372	4225.433333	1138.178711	-142.166321
-7442.040372	4225.433333	1137.045898	-54.157120
-7442.040372	4225.433333	1135.912109	0.704964
-7442.040372	4225.433333	1134.777344	-100.234200
-7442.040372	4225.433333	1133.643555	9.589020
-7442.040372	4225.433333	1132.508789	0.246253
-7442.040372	4225.433333	1131.374023	43.460407
-7442.040372	4225.433333	1130.239258	146.597992
-7442.040372	4225.433333	1129.104492	135.890762
-7442.040372	4225.433333	1127.968750	50.749943
-7442.040372	4225.433333	1126.833008	183.210175
-7442.040372	4225.433333	1125.697266	180.523712
-7442.040372	4225.433333	1124.560547	46.051880
-7442.040372	4225.433333	1123.424805	120.034912
-7442.040372	4225.433333	1122.288086	-75.229729
-7442.040372	4225.433333	1121.151367	-164.420059
-7442.040372	4225.433333	1120.013672	-52.503067
-7442.040372	4225.433333	1118.876953	32.682777
-7442.040372	4225.433333	1117.739258	-10.489230
-7442.040372	4225.433333	1116.601563	-34.042614
-7442.040372	4225.433333	1115.462891	-38.907402
-7442.040372	4225.433333	1114.324219	13.611745
-7442.040372	4225.433333	1113.186523	-83.373611
-7442.040372	4225.433333	1112.046875	-166.090134
-7442.040372	4225.433333	1110.908203	-21.890450
-7442.040372	4225.433333	1109.769531	140.532669
-7442.040372	4225.433333	1108.629883	-47.435654
-7442.040372	4225.433333	1107.490234	-89.209106
-7442.040372	4225.433333	1106.349609	-1.099909
-7442.040372	4225.433333	1105.209961	13.263713
-7442.040372	4225.433333	1104.069336	71.251968
-7442.040372	4225.433333	1102.928711	184.374237
-7442.040372	4225.433333	1101.787109	260.763428
-7442.040372	4225.433333	1100.646484	19.727352
-7442.040372	4225.433333	1099.504883	-14.307588
-7442.040372	4225.433333	1098.363281	92.297165
-7442.040372	4225.433333	1097.221680	161.672958
-7442.040372	4225.433333	1096.079102	184.720016
-7442.040372	4225.433333	1094.936523	278.763611
-7442.040372	4225.433333	1093.793945	222.737839
-7442.040372	4225.433333	1092.651367	127.690071
-7442.040372	4225.433333	1091.507813	140.991074
-7442.040372	4225.433333	1090.364258	121.403839
-7442.040372	4225.433333	1089.220703	48.066605
-7442.040372	4225.433333	1088.077148	120.126404
-7442.040372	4225.433333	1086.933594	53.370903
-7442.040372	4225.433333	1085.789063	220.434235
-7442.040372	4225.433333	1084.644531	95.058281
-7442.040372	4225.433333	1083.499023	49.792107
-7442.040372	4225.433333	1082.354492	284.262878
-7442.040372	4225.433333	1081.208984	71.783913
-7442.040372	4225.433333	1080.063477	258.562225
-7442.040372	4225.433333	1078.917969	27.915812
-7442.040372	4225.433333	1077.771484	73.870995
-7442.040372	4225.433333	1076.625977	155.763596
-7442.040372	4225.433333	1075.479492	191.433746
-7442.040372	4225.433333	1074.332031	143.940475
-7442.040372	4225.433333	1073.185547	168.729401
-7442.040372	4225.433333	1072.038086	288.096283
-7442.040372	4225.433333	1070.890625	247.471390
-7442.040372	4225.433333	1069.743164	138.970596
-7442.040372	4225.433333	1068.594727	122.106117
-7442.040372	4225.433333	1067.447266	45.939487
-7442.040372	4225.433333	1066.298828	224.359650
-7442.040372	4225.433333	1065.149414	339.475525
-7442.040372	4225.433333	1064.000977	305.949615
-7442.040372	4225.433333	1062.851563	302.754517
-7442.040372	4225.433333	1061.702148	307.287811
-7442.040372	4225.433333	1060.552734	331.268951
-7442.040372	4225.433333	1059.402344	209.019302
-7442.040372	4225.433333	1058.252930	30.770445
-7442.040372	4225.433333	1057.102539	-136.198059
-7442.040372	4225.433333	1055.951172	-166.630768
-7442.040372	4225.433333	1054.800781	-22.550537
-7442.040372	4225.433333	1053.649414	-50.855923
-7442.040372	4225.433333	1052.498047	52.457714
-7442.040372	4225.433333	1051.346680	139.663635
-7442.040372	4225.433333	1050.194336	64.516281
-7442.040372	4225.433333	1049.042969	-18.480106
-7442.040372	4225.433333	1047.890625	99.740112
-7442.040372	4225.433333	1046.738281	146.204422
-7442.040372	4225.433333	1045.584961	218.100616
-7442.040372	4225.433333	1044.431641	32.446571
-7442.040372	4225.433333	1043.278320	49.554668
-7442.040372	4225.433333	1042.125000	21.137695
-7442.040372	4225.433333	1040.971680	-76.821045
-7442.040372	4225.433333	1039.817383	265.156006
-7442.040372	4225.433333	1038.663086	201.658340
-7442.040372	4225.433333	1037.508789	284.157623
-7442.040372	4225.433333	1036.353516	37.532547
-7442.040372	4225.433333	1035.198242	40.264500
-7442.040372	4225.433333	1034.042969	198.154221
-7442.040372	4225.433333	1032.887695	163.889160
-7442.040372	4225.433333	1031.732422	271.196869
-7442.040372	4225.433333	1030.576172	157.081680
-7442.040372	4225.433333	1029.419922	219.098663
-7442.040372	4225.433333	1028.263672	196.842499
-7442.040372	4225.433333	1027.106445	244.777390
-7442.040372	4225.433333	1025.949219	156.579666
-7442.040372	4225.433333	1024.792969	173.511871
-7442.040372	4225.433333	1023.634766	111.143875
-7442.040372	4225.433333	1022.477539	111.638313
-7442.040372	4225.433333	1021.319336	267.421143
-7442.040372	4225.433333	1020.161133	-2.700092
-7442.040372	4225.433333	1019.002930	-5.931335
-7442.040372	4225.433333	1017.843750	41.013344
-7442.040372	4225.433333	1016.684570	111.242554
-7442.040372	4225.433333	1015.525391	73.146027
-7442.040372	4225.433333	1014.366211	-61.389412
-7442.040372	4225.433333	1013.207031	-92.831429
-7442.040372	4225.433333	1012.046875	-64.659035
-7442.040372	4225.433333	1010.886719	42.514107
-7442.040372	4225.433333	1009.726563	218.591461
-7442.040372	4225.433333	1008.565430	25.586004
-7442.040372	4225.433333	1007.404297	9.841352
-7442.040372	4225.433333	1006.243164	184.018784
-7442.040372	4225.433333	1005.082031	35.635086
-7442.040372	4225.433333	1003.920898	49.993149
-7442.040372	4225.433333	1002.758789	133.126175
-7442.040372	4225.433333	1001.596680	264.145721
-7442.040372	4225.433333	1000.433594	64.939400
-7442.040372	4225.433333	999.271484	-15.097530
-7442.040372	4225.433333	998.108398	44.398716
-7442.040372	4225.433333	996.945313	-58.198277
-7442.040372	4225.433333	995.782227	-20.129490
-7442.040372	4225.433333	994.618164	-57.617023
-7442.040372	4225.433333	993.454102	-18.199177
-7442.040372	4225.433333	992.290039	45.938759
-7442.040372	4225.433333	991.125977	-103.830894
-7442.040372	4225.433333	989.960938	-68.671867
-7442.040372	4225.433333	988.796875	-166.329178
-7442.040372	4225.433333	987.630859	44.480598
-7442.040372	4225.433333	986.465820	-3.140623
-7442.040372	4225.433333	985.300781	-51.374210
-7442.040372	4225.433333	984.134766	-115.321693
-7442.040372	4225.433333	982.968750	-78.555870
-7442.040372	4225.433333	981.801758	-101.135406
-7442.040372	4225.433333	980.635742	-126.982094
-7442.040372	4225.433333	979.468750	154.485565
-7442.040372	4225.433333	978.301758	97.654045
-7442.040372	4225.433333	977.133789	-40.795322
-7442.040372	4225.433333	975.966797	131.150803
-7442.040372	4225.433333	974.798828	138.785309
-7442.040372	4225.433333	973.630859	-90.747185
-7442.040372	4225.433333	972.461914	-5.076141
-7442.040372	4225.433333	971.293945	32.200974
-7442.040372	4225.433333	970.125000	12.626601
-7442.040372	4225.433333	968.956055	30.899317
-7442.040372	4225.433333	967.786133	-87.248245
-7442.040372	4225.433333	966.617188	49.138733
-7442.040372	4225.433333	965.447266	23.873711
-7442.040372	4225.433333	964.276367	94.426643
-7442.040372	4225.433333	963.106445	213.289856
-7442.040372	4225.433333	961.935547	202.093811
-7442.040372	4225.433333	960.764648	103.397949
-7442.040372	4225.433333	959.593750	87.487839
-7442.040372	4225.433333	958.422852	20.532883
-7442.040372	4225.433333	957.250977	146.221283
-7442.040372	4225.433333	956.079102	-91.211502
-7442.040372	4225.433333	954.907227	21.049427
-7442.040372	4225.433333	953.734375	62.168694
-7442.040372	4225.433333	952.562500	33.498108
-7442.040372	4225.433333	951.389648	-10.402162
-7442.040372	4225.433333	950.215820	117.514099
-7442.040372	4225.433333	949.042969	122.651794
-7442.040372	4225.433333	947.869141	-36.399940
-7442.040372	4225.433333	946.695313	86.562607
-7442.040372	4225.433333	945.521484	13.880769
-7442.040372	4225.433333	944.346680	180.332047
-7442.040372	4225.433333	943.172852	80.783813
-7442.040372	4225.433333	941.998047	-14.761238
-7442.040372	4225.433333	940.822266	3.802733
-7442.040372	4225.433333	939.647461	-37.541328
-7442.040372	4225.433333	938.471680	127.283188
-7442.040372	4225.433333	937.295898	-0.384779
-7442.040372	4225.433333	936.119141	-36.518059
-7442.040372	4225.433333	934.943359	-7.586400
-7442.040372	4225.433333	933.766602	233.858490
-7442.040372	4225.433333	932.589844	21.827633
-7442.040372	4225.433333	931.413086	106.738594
-7442.040372	4225.433333	930.235352	3.456208
-7442.040372	4225.433333	929.057617	60.156708
-7442.040372	4225.433333	927.879883	127.382660
-7442.040372	4225.433333	926.702148	-32.259899
-7442.040372	4225.433333	925.523438	120.948189
-7442.040372	4225.433333	924.344727	86.030045
-7442.040372	4225.433333	923.166016	193.396408
-7442.040372	4225.433333	921.987305	100.403336
-7442.040372	4225.433333	920.807617	39.019810
-7442.040372	4225.433333	919.627930	39.736923
-7442.040372	4225.433333	919.497070	-22.312569
-7442.040372	4225.433333	918.331055	-55.671478
-7442.040372	4225.433333	917.165039	-46.943886
-7442.040372	4225.433333	915.999023	88.078796
-7442.040372	4225.433333	914.833008	-20.880199
-7442.040372	4225.433333	913.666016	26.274801
-7442.040372	4225.433333	912.499023	122.466797
-7442.040372	4225.433333	911.332031	37.966873
-7442.040372	4225.433333	910.165039	79.674072
-7442.040372	4225.433333	908.997070	65.229797
-7442.040372	4225.433333	907.830078	-5.332586
-7442.040372	4225.433333	906.661133	-23.352825
-7442.040372	4225.433333	905.493164	16.393810
-7442.040372	4225.433333	904.325195	3.538935
-7442.040372	4225.433333	903.156250	44.923000
-7442.040372	4225.433333	901.987305	135.262344
-7442.040372	4225.433333	900.818359	-31.763718
-7442.040372	4225.433333	899.648438	58.466412
-7442.040372	4225.433333	898.478516	-75.321053
-7442.040372	4225.433333	897.308594	6.050277
-7442.040372	4225.433333	896.138672	71.607376
-7442.040372	4225.433333	894.968750	39.183853
-7442.040372	4225.433333	893.797852	136.090591
-7442.040372	4225.433333	892.626953	-8.269238
-7442.040372	4225.433333	891.456055	23.875460
-7442.040372	4225.433333	890.284180	272.598175
-7442.040372	4225.433333	889.113281	213.768387
-7442.040372	4225.433333	887.941406	8.234555
-7442.040372	4225.433333	886.768555	8.769676
-7442.040372	4225.433333	885.596680	-161.800552
-7442.040372	4225.433333	884.423828	123.170029
-7442.040372	4225.433333	883.250977	59.012554
-7442.040372	4225.433333	882.078125	78.583099
-7442.040372	4225.433333	880.905273	-107.699760
-7442.040372	4225.433333	879.731445	-16.675894
-7442.040372	4225.433333	878.557617	32.435177
-7442.040372	4225.433333	877.383789	191.309830
-7442.040372	4225.433333	876.209961	81.703560
-7442.040372	4225.433333	875.035156	-155.082993
-7442.040372	4225.433333	873.860352	104.674126
-7442.040372	4225.433333	872.685547	-100.731537
-7442.040372	4225.433333	871.510742	-60.558174
-7442.040372	4225.433333	870.334961	66.617828
-7442.040372	4225.433333	869.159180	-204.885757
-7442.040372	4225.433333	867.983398	-62.126949
-7442.040372	4225.433333	866.807617	80.546227
-7442.040372	4225.433333	865.630859	-25.620457
-7442.040372	4225.433333	864.454102	-39.593327
-7442.040372	4225.433333	863.277344	-53.586647
-7442.040372	4225.433333	862.100586	139.278107
-7442.040372	4225.433333	860.922852	149.536636
-7442.040372	4225.433333	859.745117	-31.385677
-7442.040372	4225.433333	858.567383	-73.265625
-7442.040372	4225.433333	857.389648	35.970619
-7442.040372	4225.433333	856.210938	80.882126
-7442.040372	4225.433333	855.032227	0.737093
-7442.040372	4225.433333	853.853516	-67.244194
-7442.040372	4225.433333	852.674805	-173.401993
-7442.040372	4225.433333	851.495117	142.130310
-7442.040372	4225.433333	850.315430	-135.823364
-7442.040372	4225.433333	849.135742	-9.532006
-7442.040372	4225.433333	847.956055	-200.668900
-7442.040372	4225.433333	846.775391	-12.036418
-7442.040372	4225.433333	845.595703	115.830208
-7442.040372	4225.433333	844.415039	52.981899
-7442.040372	4225.433333	843.233398	-16.787895
-7442.040372	4225.433333	842.052734	-48.431301
-7442.040372	4225.433333	840.871094	-62.757854
-7442.040372	4225.433333	839.689453	106.465622
-7442.040372	4225.433333	838.506836	-89.708878
-7442.040372	4225.433333	837.325195	-76.365250
-7442.040372	4225.433333	836.142578	66.753273
-7442.040372	4225.433333	834.959961	-96.456039
-7442.040372	4225.433333	833.777344	-22.613787
-7442.040372	4225.433333	832.593750	-192.682693
-7442.040372	4225.433333	831.410156	-122.333824
-7442.040372	4225.433333	830.226563	-22.634090
-7442.040372	4225.433333	829.042969	75.284180
-7442.040372	4225.433333	827.858398	162.782425
-7442.040372	4225.433333	826.673828	34.262833
-7442.040372	4225.433333	825.489258	45.708286
-7442.040372	4225.433333	824.304688	121.041115
-7442.040372	4225.433333	823.120117	104.819397
-7442.040372	4225.433333	821.934570	67.879128
-7442.040372	4225.433333	820.749023	87.903740
-7442.040372	4225.433333	819.562500	-102.615509
-7442.040372	4225.433333	818.376953	69.248375
-7442.040372	4225.433333	817.190430	94.413971
-7442.040372	4225.433333	816.003906	235.109634
-7442.040372	4225.433333	814.817383	1.587740
-7442.040372	4225.433333	813.629883	-100.830437
-7442.040372	4225.433333	812.442383	63.931114
-7442.040372	4225.433333	811.254883	6.335681
-7442.040372	4225.433333	810.067383	212.346542
-7442.040372	4225.433333	808.878906	132.343552
-7442.040372	4225.433333	807.690430	238.354843
-7442.040372	4225.433333	806.501953	273.729431
-7442.040372	4225.433333	805.313477	61.209846
-7442.040372	4225.433333	804.124023	201.582184
-7442.040372	4225.433333	802.934570	118.210495
-7442.040372	4225.433333	801.745117	58.955475
-7442.040372	4225.433333	800.555664	169.998123
-7442.040372	4225.433333	799.365234	76.362785
-7442.040372	4225.433333	798.175781	-51.617355
-7442.040372	4225.433333	796.985352	40.470276
-7442.040372	4225.433333	795.793945	-65.111305
-7442.040372	4225.433333	794.603516	-24.603149
-7442.040372	4225.433333	793.412109	-76.872971
-7442.040372	4225.433333	792.220703	-132.554825
-7442.040372	4225.433333	791.028320	-83.471092
-7442.040372	4225.433333	789.836914	-82.472244
-7442.040372	4225.433333	788.644531	9.493919
-7442.040372	4225.433333	787.452148	-228.051422
-7442.040372	4225.433333	786.258789	-237.313477
-7442.040372	4225.433333	785.066406	15.876763
-7442.040372	4225.433333	783.873047	-219.800568
-7442.040372	4225.433333	782.679688	4.137571
-7442.040372	4225.433333	781.485352	-132.006210
-7442.040372	4225.433333	780.291992	108.967285
-7442.040372	4225.433333	779.097656	1.995049
-7442.040372	4225.433333	777.903320	21.848167
-7442.040372	4225.433333	776.708008	79.378052
-7442.040372	4225.433333	775.512695	-49.770203
-7442.040372	4225.433333	774.318359	-50.450558
-7442.040372	4225.433333	773.122070	36.172073
-7442.040372	4225.433333	771.926758	-87.737038
-7442.040372	4225.433333	770.730469	38.221992
-7442.040372	4225.433333	769.534180	35.832870
-7442.040372	4225.433333	768.337891	-180.340775
-7442.040372	4225.433333	767.141602	-37.324200
-7442.040372	4225.433333	765.944336	-147.385132
-7442.040372	4225.433333	764.747070	93.005196
-7442.040372	4225.433333	763.549805	138.485565
-7442.040372	4225.433333	762.351563	4.553878
-7442.040372	4225.433333	761.154297	29.549664
-7442.040372	4225.433333	759.956055	1.596501
-7442.040372	4225.433333	758.757813	0.981872
-7442.040372	4225.433333	757.558594	56.708546
-7442.040372	4225.433333	756.359375	216.531754
-7442.040372	4225.433333	755.160156	-5.941998
-7442.040372	4225.433333	753.960938	12.239523
-7442.040372	4225.433333	752.761719	64.534378
-7442.040372	4225.433333	751.561523	186.733414
-7442.040372	4225.433333	750.361328	92.353523
-7442.040372	4225.433333	749.160156	330.424805
-7442.040372	4225.433333	747.959961	392.864685
-7442.040372	4225.433333	746.758789	233.772446
-7442.040372	4225.433333	745.557617	212.743958
-7442.040372	4225.433333	744.356445	229.203079
-7442.040372	4225.433333	743.154297	-37.014412
-7442.040372	4225.433333	741.952148	90.167839
-7442.040372	4225.433333	740.750000	212.197083
-7442.040372	4225.433333	739.547852	249.092850
-7442.040372	4225.433333	738.344727	195.803207
-7442.040372	4225.433333	737.142578	-39.472378
-7442.040372	4225.433333	735.939453	315.511902
-7442.040372	4225.433333	734.735352	306.472809
-7442.040372	4225.433333	733.532227	254.945724
-7442.040372	4225.433333	732.328125	147.357086
-7442.040372	4225.433333	731.124023	165.570236
-7442.040372	4225.433333	729.918945	151.501068
-7442.040372	4225.433333	728.714844	201.993408
-7442.040372	4225.433333	727.509766	230.393707
-7442.040372	4225.433333	726.303711	104.280022
-7442.040372	4225.433333	725.098633	34.245178
-7442.040372	4225.433333	723.892578	144.147339
-7442.040372	4225.433333	722.686523	208.195480
-7442.040372	4225.433333	721.480469	146.684387
-7442.040372	4225.433333	720.274414	103.862984
-7442.040372	4225.433333	719.067383	171.289719
-7442.040372	4225.433333	717.860352	116.625641
-7442.040372	4225.433333	716.653320	117.926285
-7442.040372	4225.433333	715.445313	76.865334
-7442.040372	4225.433333	714.238281	-142.078812
-7442.040372	4225.433333	713.030273	-23.822319
-7442.040372	4225.433333	711.821289	-29.245207
-7442.040372	4225.433333	710.613281	41.537121
-7442.040372	4225.433333	709.404297	-28.217649
-7442.040372	4225.433333	708.195313	-28.542898
-7442.040372	4225.433333	706.986328	98.053391
-7442.040372	4225.433333	705.776367	-51.173050
-7442.040372	4225.433333	704.566406	-92.074966
-7442.040372	4225.433333	703.356445	41.232220
-7442.040372	4225.433333	702.146484	-3.045609
-7442.040372	4225.433333	700.935547	72.719337
-7442.040372	4225.433333	699.724609	45.362759
-7442.040372	4225.433333	698.513672	24.778994
-7442.040372	4225.433333	697.302734	78.540108
-7442.040372	4225.433333	696.090820	-60.266148
-7442.040372	4225.433333	694.878906	-80.805069
-7442.040372	4225.433333	693.666992	35.421181
-7442.040372	4225.433333	692.455078	-10.443089
-7442.040372	4225.433333	691.242188	-69.786667
-7442.040372	4225.433333	690.029297	194.848145
-7442.040372	4225.433333	688.816406	143.925003
-7442.040372	4225.433333	687.602539	-11.540588
-7442.040372	4225.433333	686.389648	111.281021
-7442.040372	4225.433333	685.175781	198.649582
-7442.040372	4225.433333	683.960938	240.475006
-7442.040372	4225.433333	682.747070	346.317413
-7442.040372	4225.433333	681.532227	202.771515
-7442.040372	4225.433333	680.317383	162.035217
-7442.040372	4225.433333	679.102539	362.135620
-7442.040372	4225.433333	677.886719	233.830414
-7442.040372	4225.433333	676.670898	152.712997
-7442.040372	4225.433333	675.455078	229.829041
-7442.040372	4225.433333	674.239258	34.326740
-7442.040372	4225.433333	673.022461	138.349518
-7442.040372	4225.433333	671.805664	171.687057
-7442.040372	4225.433333	670.588867	450.517822
-7442.040372	4225.433333	669.372070	285.389465
-7442.040372	4225.433333	668.154297	199.328186
-7442.040372	4225.433333	666.936523	281.352173
-7442.040372	4225.433333	665.718750	166.761047
-7442.040372	4225.433333	664.500977	317.622864
-7442.040372	4225.433333	663.282227	367.651428
-7442.040372	4225.433333	662.063477	303.478149
-7442.040372	4225.433333	660.844727	225.898743
-7442.040372	4225.433333	659.625000	210.447250
-7442.040372	4225.433333	658.405273	148.014908
-7442.040372	4225.433333	657.185547	268.469666
-7442.040372	4225.433333	655.965820	330.163849
-7442.040372	4225.433333	654.745117	281.147095
-7442.040372	4225.433333	653.525391	289.152374
-7442.040372	4225.433333	652.303711	65.824310
-7442.040372	4225.433333	651.083008	155.979767
-7442.040372	4225.433333	649.861328	169.015167
-7442.040372	4225.433333	648.640625	126.759254
-7442.040372	4225.433333	647.417969	280.469849
-7442.040372	4225.433333	646.196289	273.360352
-7442.040372	4225.433333	644.973633	279.638763
-7442.040372	4225.433333	643.750977	160.376038
-7442.040372	4225.433333	642.528320	86.338593
-7442.040372	4225.433333	641.305664	236.516464
-7442.040372	4225.433333	640.082031	308.006195
-7442.040372	4225.433333	638.858398	382.802643
-7442.040372	4225.433333	637.634766	335.503296
-7442.040372	4225.433333	636.410156	221.350174
-7442.040372	4225.433333	635.185547	209.185852
-7442.040372	4225.433333	633.960938	208.716187
-7442.040372	4225.433333	632.736328	224.943954
-7442.040372	4225.433333	631.510742	256.188324
-7442.040372	4225.433333	630.285156	78.674744
-7442.040372	4225.433333	629.059570	201.743835
-7442.040372	4225.433333	627.833984	81.051735
-7442.040372	4225.433333	626.607422	143.971313
-7442.040372	4225.433333	625.380859	250.234879
-7442.040372	4225.433333	624.154297	296.393066
-7442.040372	4225.433333	622.927734	159.068802
-7442.040372	4225.433333	621.700195	218.545135
-7442.040372	4225.433333	620.472656	-13.746367
-7442.040372	4225.433333	619.245117	19.055506
-7442.040372	4225.433333	618.016602	45.167400
-7442.040372	4225.433333	616.788086	242.854889
-7442.040372	4225.433333	615.559570	10.714585
-7442.040372	4225.433333	614.331055	165.009079
-7442.040372	4225.433333	613.101563	119.434540
-7442.040372	4225.433333	611.872070	55.559303
-7442.040372	4225.433333	610.642578	49.947777
-7442.040372	4225.433333	609.413086	17.707340
-7442.040372	4225.433333	608.182617	-47.801811
-7442.040372	4225.433333	606.952148	-30.135279
-7442.040372	4225.433333	605.721680	-24.126095
-7442.040372	4225.433333	604.491211	68.317520
-7442.040372	4225.433333	603.259766	-42.065327
-7442.040372	4225.433333	602.028320	8.777251
-7442.040372	4225.433333	600.796875	-96.583458
-7442.040372	4225.433333	599.564453	-107.231583
-7442.040372	4225.433333	598.332031	-6.620075
-7442.040372	4225.433333	597.099609	-22.285044
-7442.040372	4225.433333	595.867188	-120.952034
-7442.040372	4225.433333	594.633789	19.397369
-7442.040372	4225.433333	593.400391	-143.970978
-7442.040372	4225.433333	592.166992	-53.464249
-7442.040372	4225.433333	590.933594	-123.888023
-7442.040372	4225.433333	589.699219	-33.446545
-7442.040372	4225.433333	588.464844	-97.234245
-7442.040372	4225.433333	587.230469	29.608341
-7442.040372	4225.433333	585.995117	25.470739
-7442.040372	4225.433333	584.760742	-15.123040
-7442.040372	4225.433333	583.525391	25.455557
-7442.040372	4225.433333	582.289063	-13.486718
-7442.040372	4225.433333	581.053711	-37.518562
-7442.040372	4225.433333	579.817383	-28.443075
-7442.040372	4225.433333	578.581055	50.131752
-7442.040372	4225.433333	577.343750	231.251709
-7442.040372	4225.433333	576.107422	241.892105
-7442.040372	4225.433333	574.870117	131.777191
-7442.040372	4225.433333	573.631836	34.928612
-7442.040372	4225.433333	572.394531	43.923317
-7442.040372	4225.433333	571.156250	-84.285957
-7442.040372	4225.433333	569.917969	187.471207
-7442.040372	4225.433333	568.679688	103.878624
-7442.040372	4225.433333	567.440430	190.455734
-7442.040372	4225.433333	566.202148	35.869408
-7442.040372	4225.433333	564.961914	-49.311745
-7442.040372	4225.433333	563.722656	113.158600
-7442.040372	4225.433333	562.482422	102.253677
-7442.040372	4225.433333	561.243164	282.759552
-7442.040372	4225.433333	560.001953	78.790718
-7442.040372	4225.433333	558.761719	64.583801
-7442.040372	4225.433333	557.520508	319.169647
-7442.040372	4225.433333	556.279297	3.196324
-7442.040372	4225.433333	555.038086	73.063538
-7442.040372	4225.433333	553.795898	230.237030
-7442.040372	4225.433333	552.554688	89.120163
-7442.040372	4225.433333	551.311523	116.079338
-7442.040372	4225.433333	550.069336	119.966507
-7442.040372	4225.433333	548.826172	97.502937
-7442.040372	4225.433333	547.583984	188.636917
-7442.040372	4225.433333	546.339844	141.473145
-7442.040372	4225.433333	545.096680	67.999329
-7442.040372	4225.433333	543.852539	78.458237
-7442.040372	4225.433333	542.608398	5.024349
-7442.040372	4225.433333	541.364258	252.289795
-7442.040372	4225.433333	540.119141	75.268173
-7442.040372	4225.433333	538.875000	240.222260
-7442.040372	4225.433333	537.628906	178.313370
-7442.040372	4225.433333	536.383789	55.639599
-7442.040372	4225.433333	535.137695	57.862625
-7442.040372	4225.433333	533.892578	133.990311
-7442.040372	4225.433333	532.645508	21.255291
-7442.040372	4225.433333	531.399414	-47.104752
-7442.040372	4225.433333	530.152344	-108.870499
-7442.040372	4225.433333	528.905273	-1.592097
-7442.040372	4225.433333	527.658203	25.253199
-7442.040372	4225.433333	526.410156	116.055946
-7442.040372	4225.433333	525.163086	183.865921
-7442.040372	4225.433333	523.914063	102.449936
-7442.040372	4225.433333	522.666016	-116.617493
-7442.040372	4225.433333	521.416992	2.007923
-7442.040372	4225.433333	520.167969	128.777924
-7442.040372	4225.433333	518.918945	-29.534821
-7442.040372	4225.433333	517.669922	56.250557
-7442.040372	4225.433333	516.419922	-113.435402
-7442.040372	4225.433333	515.169922	-86.596107
-7442.040372	4225.433333	513.919922	133.368195
-7442.040372	4225.433333	512.668945	9.604816
-7442.040372	4225.433333	511.417969	-14.303782
-7442.040372	4225.433333	510.166992	-64.368240
-7442.040372	4225.433333	508.916016	143.971100
-7442.040372	4225.433333	507.664063	-120.276230
-7442.040372	4225.433333	506.412109	-5.178240
-7442.040372	4225.433333	505.160156	21.626402
-7442.040372	4225.433333	503.907227	35.351295
-7442.040372	4225.433333	502.655273	-40.768696
-7442.040372	4225.433333	501.402344	-82.554466
-7442.040372	4225.433333	500.148438	-44.310772
-7442.040372	4225.433333	498.895508	-40.359509
-7442.040372	4225.433333	497.641602	-113.117340
-7442.040372	4225.433333	496.387695	-7.973845
-7442.040372	4225.433333	495.132813	-160.641403
-7442.040372	4225.433333	493.878906	-114.244797
-7442.040372	4225.433333	492.624023	82.162483
-7442.040372	4225.433333	491.368164	9.472690
-7442.040372	4225.433333	490.113281	-20.801424
-7442.040372	4225.433333	488.857422	-101.580627
-7442.040372	4225.433333	487.601563	11.566462
-7442.040372	4225.433333	486.344727	-101.762230
-7442.040372	4225.433333	485.088867	-27.748497
-7442.040372	4225.433333	483.832031	-246.858200
-7442.040372	4225.433333	482.575195	-122.379890
-7442.040372	4225.433333	481.317383	-45.158226
-7442.040372	4225.433333	480.059570	-161.611755
-7442.040372	4225.433333	478.801758	-42.120213
-7442.040372	4225.433333	477.543945	-0.757737
-7442.040372	4225.433333	476.285156	-123.662209
-7442.040372	4225.433333	475.027344	-1.018798
-7442.040372	4225.433333	473.767578	20.784046
-7442.040372	4225.433333	472.508789	-111.816696
-7442.040372	4225.433333	471.249023	-51.022881
-7442.040372	4225.433333	469.989258	8.109715
-7442.040372	4225.433333	468.729492	-46.478886
-7442.040372	4225.433333	467.469727	-42.604588
-7442.040372	4225.433333	466.208984	5.083339
-7442.040372	4225.433333	464.948242	148.492691
-7442.040372	4225.433333	463.686523	69.515038
-7442.040372	4225.433333	462.425781	96.003624
-7442.040372	4225.433333	461.164063	135.432526
-7442.040372	4225.433333	459.901367	1.306524
-7442.040372	4225.433333	458.639648	30.961128
-7442.040372	4225.433333	457.376953	80.025269
-7442.040372	4225.433333	456.114258	192.239182
-7442.040372	4225.433333	454.851563	139.109268
-7442.040372	4225.433333	453.587891	90.824921
-7442.040372	4225.433333	452.324219	309.743286
-7442.040372	4225.433333	451.060547	99.447586
-7442.040372	4225.433333	449.796875	204.868515
-7442.040372	4225.433333	448.532227	300.483002
-7442.040372	4225.433333	447.267578	96.655586
-7442.040372	4225.433333	446.002930	72.434814
-7442.040372	4225.433333	444.737305	166.237473
-7442.040372	4225.433333	443.471680	237.300903
-7442.040372	4225.433333	442.206055	44.743511
-7442.040372	4225.433333	440.940430	156.079056
-7442.040372	4225.433333	439.673828	24.890549
-7442.040372	4225.433333	438.407227	152.188354
-7442.040372	4225.433333	437.140625	14.438903
-7442.040372	4225.433333	435.873047	154.436447
-7442.040372	4225.433333	434.605469	113.446899
-7442.040372	4225.433333	433.337891	148.250610
-7442.040372	4225.433333	432.070313	192.623901
-7442.040372	4225.433333	430.801758	201.371750
-7442.040372	4225.433333	429.533203	266.468597
-7442.040372	4225.433333	428.264648	331.420654
-7442.040372	4225.433333	426.996094	381.711456
-7442.040372	4225.433333	425.726563	288.365601
-7442.040372	4225.433333	424.457031	177.197861
-7442.040372	4225.433333	423.186523	140.061279
-7442.040372	4225.433333	421.916992	368.632843
-7442.040372	4225.433333	420.646484	271.572662
-7442.040372	4225.433333	419.375977	340.266357
-7442.040372	4225.433333	418.104492	350.796997
-7442.040372	4225.433333	416.833008	440.022644
-7442.040372	4225.433333	415.561523	234.510788
-7442.040372	4225.433333	414.290039	265.422485
-7442.040372	4225.433333	413.017578	365.290436
-7442.040372	4225.433333	411.746094	294.427551
-7442.040372	4225.433333	410.472656	200.857483
-7442.040372	4225.433333	409.200195	332.174652
-7442.040372	4225.433333	407.926758	429.440033
-7442.040372	4225.433333	406.653320	230.742142
-7442.040372	4225.433333	405.379883	499.389526
-7442.040372	4225.433333	404.105469	386.972229
-7442.040372	4225.433333	402.831055	494.332336
-7442.040372	4225.433333	401.556641	330.021667
-7442.040372	4225.433333	400.282227	351.685333
-7442.040372	4225.433333	399.006836	313.643707
-7442.040372	4225.433333	397.731445	300.966980
-7442.040372	4225.433333	396.456055	215.773911
-7442.040372	4225.433333	395.179688	314.699432
-7442.040372	4225.433333	393.903320	235.239227
-7442.040372	4225.433333	392.626953	469.645752
-7442.040372	4225.433333	391.350586	274.024719
-7442.040372	4225.433333	390.073242	254.342361
-7442.040372	4225.433333	388.795898	327.171082
-7442.040372	4225.433333	387.518555	298.629089
-7442.040372	4225.433333	386.240234	277.649200
-7442.040372	4225.433333	384.961914	76.902184
-7442.040372	4225.433333	383.683594	114.260818
-7442.040372	4225.433333	382.405273	213.520355
-7442.040372	4225.433333	381.125977	278.612396
-7442.040372	4225.433333	379.846680	277.561890
-7442.040372	4225.433333	378.567383	189.601196
-7442.040372	4225.433333	377.287109	166.655380
-7442.040372	4225.433333	376.006836	91.978661
-7442.040372	4225.433333	374.726563	158.968979
-7442.040372	4225.433333	373.446289	198.140961
-7442.040372	4225.433333	372.165039	164.746948
-7442.040372	4225.433333	370.883789	49.242081
-7442.040372	4225.433333	369.602539	118.330879
-7442.040372	4225.433333	368.320313	95.662888
-7442.040372	4225.433333	367.039063	-15.501843
-7442.040372	4225.433333	365.755859	97.598175
-7442.040372	4225.433333	364.473633	53.530487
-7442.040372	4225.433333	363.190430	97.982719
-7442.040372	4225.433333	361.907227	267.570007
-7442.040372	4225.433333	360.624023	31.246805
-7442.040372	4225.433333	359.340820	224.539276
-7442.040372	4225.433333	358.056641	203.259216
-7442.040372	4225.433333	356.772461	168.304016
-7442.040372	4225.433333	355.487305	28.829399
-7442.040372	4225.433333	354.202148	-81.319916
-7442.040372	4225.433333	352.916992	121.240280
-7442.040372	4225.433333	351.631836	77.492180
-7442.040372	4225.433333	350.346680	121.807907
-7442.040372	4225.433333	349.060547	-178.755997
-7442.040372	4225.433333	347.774414	-1.469716
-7442.040372	4225.433333	346.487305	74.319633
-7442.040372	4225.433333	345.200195	-51.513435
-7442.040372	4225.433333	343.913086	-91.101471
-7442.040372	4225.433333	342.625977	182.766953
-7442.040372	4225.433333	341.338867	202.508560
-7442.040372	4225.433333	340.050781	-34.959091
-7442.040372	4225.433333	338.762695	-160.941422
-7442.040372	4225.433333	337.473633	-115.234627
-7442.040372	4225.433333	336.184570	100.453819
-7442.040372	4225.433333	334.895508	22.431931
-7442.040372	4225.433333	333.606445	-47.597622
-7442.040372	4225.433333	332.317383	136.268127
-7442.040372	4225.433333	331.027344	-189.290970
-7442.040372	4225.433333	329.736328	41.853863
-7442.040372	4225.433333	328.446289	42.853252
-7442.040372	4225.433333	327.155273	-122.858597
-7442.040372	4225.433333	325.864258	-68.427528
-7442.040372	4225.433333	324.573242	-198.143799
-7442.040372	4225.433333	323.281250	-55.692192
-7442.040372	4225.433333	321.989258	-75.272232
-7442.040372	4225.433333	320.697266	118.497520
-7442.040372	4225.433333	319.405273	-60.400932
-7442.040372	4225.433333	318.112305	-18.219446
-7442.040372	4225.433333	316.819336	-176.082657
-7442.040372	4225.433333	315.526367	-97.208176
-7442.040372	4225.433333	314.232422	66.265747
-7442.040372	4225.433333	312.938477	-60.551682
-7442.040372	4225.433333	311.644531	-1.577851
-7442.040372	4225.433333	310.349609	-24.231525
-7442.040372	4225.433333	309.054688	72.269020
-7442.040372	4225.433333	307.759766	241.956818
-7442.040372	4225.433333	306.464844	167.168396
-7442.040372	4225.433333	305.168945	187.520859
-7442.040372	4225.433333	303.873047	83.447914
-7442.040372	4225.433333	302.577148	-10.836987
-7442.040372	4225.433333	301.281250	209.233780
-7442.040372	4225.433333	299.984375	356.660736
