#X		#Y		#Wave		#Intensity
-7412.980372	4050.363000	1999.946289	127.280197
-7412.980372	4050.363000	1998.981445	-5.140146
-7412.980372	4050.363000	1998.017578	91.267807
-7412.980372	4050.363000	1997.052734	138.261963
-7412.980372	4050.363000	1996.088867	24.375090
-7412.980372	4050.363000	1995.124023	-24.888794
-7412.980372	4050.363000	1994.159180	22.628954
-7412.980372	4050.363000	1993.193359	159.438095
-7412.980372	4050.363000	1992.228516	160.189575
-7412.980372	4050.363000	1991.262695	-4.755324
-7412.980372	4050.363000	1990.296875	-1.196253
-7412.980372	4050.363000	1989.331055	76.739700
-7412.980372	4050.363000	1988.365234	-70.344963
-7412.980372	4050.363000	1987.398438	-61.408703
-7412.980372	4050.363000	1986.432617	-39.977547
-7412.980372	4050.363000	1985.465820	28.549438
-7412.980372	4050.363000	1984.499023	-41.267319
-7412.980372	4050.363000	1983.532227	-46.675426
-7412.980372	4050.363000	1982.565430	29.581520
-7412.980372	4050.363000	1981.597656	-76.918488
-7412.980372	4050.363000	1980.629883	-69.638588
-7412.980372	4050.363000	1979.662109	-27.682472
-7412.980372	4050.363000	1978.694336	95.845284
-7412.980372	4050.363000	1977.726563	147.820679
-7412.980372	4050.363000	1976.758789	-9.952504
-7412.980372	4050.363000	1975.790039	-19.501606
-7412.980372	4050.363000	1974.821289	27.790199
-7412.980372	4050.363000	1973.852539	-48.212494
-7412.980372	4050.363000	1972.883789	21.421398
-7412.980372	4050.363000	1971.915039	-170.314468
-7412.980372	4050.363000	1970.945313	-63.557014
-7412.980372	4050.363000	1969.975586	92.531265
-7412.980372	4050.363000	1969.005859	-20.039131
-7412.980372	4050.363000	1968.036133	-58.577961
-7412.980372	4050.363000	1967.066406	159.197876
-7412.980372	4050.363000	1966.096680	-68.934296
-7412.980372	4050.363000	1965.125977	-26.003214
-7412.980372	4050.363000	1964.155273	19.422443
-7412.980372	4050.363000	1963.184570	-82.847580
-7412.980372	4050.363000	1962.213867	-118.573776
-7412.980372	4050.363000	1961.242188	82.025124
-7412.980372	4050.363000	1960.271484	98.033104
-7412.980372	4050.363000	1959.299805	50.105362
-7412.980372	4050.363000	1958.328125	88.320786
-7412.980372	4050.363000	1957.356445	62.609631
-7412.980372	4050.363000	1956.384766	56.606308
-7412.980372	4050.363000	1955.412109	188.302612
-7412.980372	4050.363000	1954.439453	155.291245
-7412.980372	4050.363000	1953.467773	-106.233612
-7412.980372	4050.363000	1952.495117	123.765900
-7412.980372	4050.363000	1951.521484	-29.528591
-7412.980372	4050.363000	1950.548828	72.685684
-7412.980372	4050.363000	1949.575195	88.927299
-7412.980372	4050.363000	1948.601563	-125.614166
-7412.980372	4050.363000	1947.627930	55.148331
-7412.980372	4050.363000	1946.654297	329.115387
-7412.980372	4050.363000	1945.680664	14.065577
-7412.980372	4050.363000	1944.706055	-87.416771
-7412.980372	4050.363000	1943.732422	12.280901
-7412.980372	4050.363000	1942.757813	-54.824306
-7412.980372	4050.363000	1941.783203	-99.835518
-7412.980372	4050.363000	1940.807617	95.420654
-7412.980372	4050.363000	1939.833008	141.084274
-7412.980372	4050.363000	1938.857422	145.067184
-7412.980372	4050.363000	1937.881836	73.086708
-7412.980372	4050.363000	1936.906250	-177.703156
-7412.980372	4050.363000	1935.930664	68.793022
-7412.980372	4050.363000	1934.955078	160.913879
-7412.980372	4050.363000	1933.978516	196.678757
-7412.980372	4050.363000	1933.001953	-105.392029
-7412.980372	4050.363000	1932.025391	-145.486069
-7412.980372	4050.363000	1931.048828	159.446350
-7412.980372	4050.363000	1930.072266	136.414948
-7412.980372	4050.363000	1929.094727	59.563232
-7412.980372	4050.363000	1928.118164	-2.602800
-7412.980372	4050.363000	1927.140625	121.069107
-7412.980372	4050.363000	1926.163086	27.097683
-7412.980372	4050.363000	1925.184570	138.460449
-7412.980372	4050.363000	1924.207031	-50.826511
-7412.980372	4050.363000	1923.228516	-7.945947
-7412.980372	4050.363000	1922.250000	-31.061537
-7412.980372	4050.363000	1921.271484	14.198073
-7412.980372	4050.363000	1920.292969	25.229660
-7412.980372	4050.363000	1919.314453	-66.311180
-7412.980372	4050.363000	1918.334961	13.033610
-7412.980372	4050.363000	1917.355469	58.154312
-7412.980372	4050.363000	1916.375977	-28.535585
-7412.980372	4050.363000	1915.396484	70.197754
-7412.980372	4050.363000	1914.416992	51.784473
-7412.980372	4050.363000	1913.436523	108.952171
-7412.980372	4050.363000	1912.457031	68.538124
-7412.980372	4050.363000	1911.476563	-125.474609
-7412.980372	4050.363000	1910.496094	-41.578217
-7412.980372	4050.363000	1909.515625	3.265977
-7412.980372	4050.363000	1908.534180	16.390038
-7412.980372	4050.363000	1907.552734	277.957214
-7412.980372	4050.363000	1906.572266	213.025436
-7412.980372	4050.363000	1905.590820	89.643944
-7412.980372	4050.363000	1904.608398	268.179565
-7412.980372	4050.363000	1903.626953	122.863815
-7412.980372	4050.363000	1902.644531	94.392349
-7412.980372	4050.363000	1901.663086	26.966591
-7412.980372	4050.363000	1900.680664	156.597504
-7412.980372	4050.363000	1899.698242	-37.363773
-7412.980372	4050.363000	1898.714844	72.709656
-7412.980372	4050.363000	1897.732422	112.196312
-7412.980372	4050.363000	1896.749023	-35.555145
-7412.980372	4050.363000	1895.765625	-61.754887
-7412.980372	4050.363000	1894.782227	169.617493
-7412.980372	4050.363000	1893.798828	38.847065
-7412.980372	4050.363000	1892.814453	158.302795
-7412.980372	4050.363000	1891.831055	97.951599
-7412.980372	4050.363000	1890.846680	-178.531021
-7412.980372	4050.363000	1889.862305	69.476097
-7412.980372	4050.363000	1888.877930	103.744431
-7412.980372	4050.363000	1887.892578	67.584259
-7412.980372	4050.363000	1886.908203	-14.699224
-7412.980372	4050.363000	1885.922852	-55.742294
-7412.980372	4050.363000	1884.937500	-65.271217
-7412.980372	4050.363000	1883.952148	-176.685364
-7412.980372	4050.363000	1882.965820	160.475845
-7412.980372	4050.363000	1881.980469	148.388107
-7412.980372	4050.363000	1880.994141	19.929508
-7412.980372	4050.363000	1880.007813	44.155262
-7412.980372	4050.363000	1879.021484	65.917030
-7412.980372	4050.363000	1878.035156	19.808678
-7412.980372	4050.363000	1877.047852	-19.050182
-7412.980372	4050.363000	1876.061523	152.746078
-7412.980372	4050.363000	1875.074219	138.022491
-7412.980372	4050.363000	1874.086914	82.121635
-7412.980372	4050.363000	1873.098633	84.291931
-7412.980372	4050.363000	1872.111328	45.294758
-7412.980372	4050.363000	1871.123047	-165.486465
-7412.980372	4050.363000	1870.135742	146.238098
-7412.980372	4050.363000	1869.147461	56.369339
-7412.980372	4050.363000	1868.158203	135.754028
-7412.980372	4050.363000	1867.169922	-9.742599
-7412.980372	4050.363000	1866.180664	-143.132904
-7412.980372	4050.363000	1865.192383	1.397688
-7412.980372	4050.363000	1864.203125	-35.363476
-7412.980372	4050.363000	1863.213867	-118.039261
-7412.980372	4050.363000	1862.223633	-70.295540
-7412.980372	4050.363000	1861.234375	-150.579208
-7412.980372	4050.363000	1860.244141	73.332397
-7412.980372	4050.363000	1859.253906	128.163254
-7412.980372	4050.363000	1858.263672	-89.765137
-7412.980372	4050.363000	1857.273438	-63.937855
-7412.980372	4050.363000	1856.282227	109.008339
-7412.980372	4050.363000	1855.291992	-89.585953
-7412.980372	4050.363000	1854.300781	-34.923191
-7412.980372	4050.363000	1853.309570	77.555740
-7412.980372	4050.363000	1852.317383	250.229630
-7412.980372	4050.363000	1851.326172	167.331879
-7412.980372	4050.363000	1850.333984	31.421532
-7412.980372	4050.363000	1849.342773	52.139343
-7412.980372	4050.363000	1848.350586	195.670242
-7412.980372	4050.363000	1847.357422	79.014404
-7412.980372	4050.363000	1846.365234	-37.622803
-7412.980372	4050.363000	1845.372070	69.649452
-7412.980372	4050.363000	1844.379883	1.145022
-7412.980372	4050.363000	1843.386719	199.766357
-7412.980372	4050.363000	1842.393555	-32.405617
-7412.980372	4050.363000	1841.399414	53.028114
-7412.980372	4050.363000	1840.406250	138.406021
-7412.980372	4050.363000	1839.412109	139.559097
-7412.980372	4050.363000	1838.417969	32.493122
-7412.980372	4050.363000	1837.423828	-67.345322
-7412.980372	4050.363000	1836.429688	-22.967682
-7412.980372	4050.363000	1835.434570	-50.720181
-7412.980372	4050.363000	1834.440430	-76.082436
-7412.980372	4050.363000	1833.445313	201.195206
-7412.980372	4050.363000	1832.450195	-13.977995
-7412.980372	4050.363000	1831.454102	-149.858505
-7412.980372	4050.363000	1830.458984	156.014664
-7412.980372	4050.363000	1829.462891	-25.495722
-7412.980372	4050.363000	1828.466797	83.411270
-7412.980372	4050.363000	1827.470703	69.889229
-7412.980372	4050.363000	1826.474609	-137.957077
-7412.980372	4050.363000	1825.478516	126.740768
-7412.980372	4050.363000	1824.481445	22.029875
-7412.980372	4050.363000	1823.484375	53.994480
-7412.980372	4050.363000	1822.487305	107.500084
-7412.980372	4050.363000	1821.490234	-210.509705
-7412.980372	4050.363000	1820.493164	-15.643006
-7412.980372	4050.363000	1819.495117	119.236015
-7412.980372	4050.363000	1818.498047	-160.332077
-7412.980372	4050.363000	1817.500000	87.038406
-7412.980372	4050.363000	1816.500977	152.324234
-7412.980372	4050.363000	1815.502930	14.087521
-7412.980372	4050.363000	1814.504883	74.538315
-7412.980372	4050.363000	1813.505859	-89.994286
-7412.980372	4050.363000	1812.506836	-91.791084
-7412.980372	4050.363000	1811.507813	45.134483
-7412.980372	4050.363000	1810.508789	208.299255
-7412.980372	4050.363000	1809.508789	-82.943336
-7412.980372	4050.363000	1808.508789	163.821289
-7412.980372	4050.363000	1807.508789	118.860916
-7412.980372	4050.363000	1806.508789	9.375009
-7412.980372	4050.363000	1805.508789	-42.740715
-7412.980372	4050.363000	1804.508789	-116.355179
-7412.980372	4050.363000	1803.507813	-13.213675
-7412.980372	4050.363000	1802.506836	-22.364458
-7412.980372	4050.363000	1801.505859	9.060850
-7412.980372	4050.363000	1800.504883	138.330032
-7412.980372	4050.363000	1799.502930	19.318815
-7412.980372	4050.363000	1798.501953	7.718722
-7412.980372	4050.363000	1797.500000	-3.894797
-7412.980372	4050.363000	1796.498047	84.663475
-7412.980372	4050.363000	1795.496094	13.387875
-7412.980372	4050.363000	1794.493164	39.881580
-7412.980372	4050.363000	1793.491211	23.442684
-7412.980372	4050.363000	1792.488281	73.730469
-7412.980372	4050.363000	1791.485352	88.239777
-7412.980372	4050.363000	1790.482422	-35.461838
-7412.980372	4050.363000	1789.478516	71.934792
-7412.980372	4050.363000	1788.475586	-23.164721
-7412.980372	4050.363000	1787.471680	48.442722
-7412.980372	4050.363000	1786.467773	98.582077
-7412.980372	4050.363000	1785.463867	65.376564
-7412.980372	4050.363000	1784.459961	158.304840
-7412.980372	4050.363000	1783.455078	77.482628
-7412.980372	4050.363000	1782.450195	208.408752
-7412.980372	4050.363000	1781.445313	-96.000618
-7412.980372	4050.363000	1780.440430	1.589607
-7412.980372	4050.363000	1779.435547	144.304581
-7412.980372	4050.363000	1778.429688	-171.846497
-7412.980372	4050.363000	1777.424805	-126.622849
-7412.980372	4050.363000	1776.418945	-0.639025
-7412.980372	4050.363000	1775.413086	-17.264322
-7412.980372	4050.363000	1774.406250	-19.645842
-7412.980372	4050.363000	1773.400391	-19.660887
-7412.980372	4050.363000	1772.393555	-79.052048
-7412.980372	4050.363000	1771.386719	30.122936
-7412.980372	4050.363000	1770.379883	25.313404
-7412.980372	4050.363000	1769.373047	-238.176819
-7412.980372	4050.363000	1768.365234	103.451355
-7412.980372	4050.363000	1767.358398	-176.581604
-7412.980372	4050.363000	1766.350586	-126.845566
-7412.980372	4050.363000	1765.342773	112.566605
-7412.980372	4050.363000	1764.334961	-53.543232
-7412.980372	4050.363000	1763.326172	10.327094
-7412.980372	4050.363000	1762.318359	-49.072590
-7412.980372	4050.363000	1761.309570	52.663322
-7412.980372	4050.363000	1760.300781	99.860962
-7412.980372	4050.363000	1759.291016	40.440418
-7412.980372	4050.363000	1758.282227	116.019745
-7412.980372	4050.363000	1757.272461	-19.170343
-7412.980372	4050.363000	1756.262695	54.000023
-7412.980372	4050.363000	1755.252930	-133.217133
-7412.980372	4050.363000	1754.243164	-60.073711
-7412.980372	4050.363000	1753.233398	124.230179
-7412.980372	4050.363000	1752.222656	-55.831749
-7412.980372	4050.363000	1751.211914	78.712204
-7412.980372	4050.363000	1750.201172	52.405060
-7412.980372	4050.363000	1749.190430	87.564255
-7412.980372	4050.363000	1748.179688	-134.940048
-7412.980372	4050.363000	1747.167969	271.242798
-7412.980372	4050.363000	1746.156250	-92.999481
-7412.980372	4050.363000	1745.144531	166.537262
-7412.980372	4050.363000	1744.132813	52.791531
-7412.980372	4050.363000	1743.121094	-53.837196
-7412.980372	4050.363000	1742.108398	92.185242
-7412.980372	4050.363000	1741.095703	-26.235809
-7412.980372	4050.363000	1740.083008	-76.178444
-7412.980372	4050.363000	1739.070313	27.261669
-7412.980372	4050.363000	1738.057617	43.363853
-7412.980372	4050.363000	1737.043945	101.904427
-7412.980372	4050.363000	1736.030273	66.082703
-7412.980372	4050.363000	1735.016602	-56.974339
-7412.980372	4050.363000	1734.002930	-52.696373
-7412.980372	4050.363000	1732.989258	15.206671
-7412.980372	4050.363000	1731.974609	-55.959648
-7412.980372	4050.363000	1730.959961	-117.684464
-7412.980372	4050.363000	1729.945313	-155.839828
-7412.980372	4050.363000	1728.930664	100.397514
-7412.980372	4050.363000	1727.916016	106.934807
-7412.980372	4050.363000	1726.900391	184.082443
-7412.980372	4050.363000	1725.885742	-14.195384
-7412.980372	4050.363000	1724.870117	-2.965399
-7412.980372	4050.363000	1723.853516	201.181564
-7412.980372	4050.363000	1722.837891	-8.779524
-7412.980372	4050.363000	1721.822266	124.715622
-7412.980372	4050.363000	1720.805664	-120.445503
-7412.980372	4050.363000	1719.789063	-5.810565
-7412.980372	4050.363000	1718.772461	-107.485023
-7412.980372	4050.363000	1717.754883	-18.770853
-7412.980372	4050.363000	1716.738281	11.160497
-7412.980372	4050.363000	1715.720703	158.530258
-7412.980372	4050.363000	1714.703125	129.673615
-7412.980372	4050.363000	1713.685547	39.761452
-7412.980372	4050.363000	1712.667969	-43.082199
-7412.980372	4050.363000	1711.649414	282.549622
-7412.980372	4050.363000	1710.630859	-35.032318
-7412.980372	4050.363000	1709.612305	-31.024288
-7412.980372	4050.363000	1708.593750	172.392059
-7412.980372	4050.363000	1707.575195	89.550697
-7412.980372	4050.363000	1706.555664	-54.247898
-7412.980372	4050.363000	1705.536133	158.402802
-7412.980372	4050.363000	1704.516602	106.054535
-7412.980372	4050.363000	1703.497070	-2.534872
-7412.980372	4050.363000	1702.477539	62.319126
-7412.980372	4050.363000	1701.457031	-62.644554
-7412.980372	4050.363000	1700.437500	74.794472
-7412.980372	4050.363000	1699.416992	177.035904
-7412.980372	4050.363000	1698.395508	80.189079
-7412.980372	4050.363000	1697.375000	-84.521660
-7412.980372	4050.363000	1696.354492	71.499023
-7412.980372	4050.363000	1695.333008	-25.301991
-7412.980372	4050.363000	1694.311523	25.332487
-7412.980372	4050.363000	1693.290039	71.258896
-7412.980372	4050.363000	1692.267578	84.410408
-7412.980372	4050.363000	1691.246094	50.780022
-7412.980372	4050.363000	1690.223633	176.134476
-7412.980372	4050.363000	1689.201172	184.552292
-7412.980372	4050.363000	1688.178711	206.979752
-7412.980372	4050.363000	1687.155273	287.801178
-7412.980372	4050.363000	1686.132813	207.386566
-7412.980372	4050.363000	1685.109375	-41.185852
-7412.980372	4050.363000	1684.085938	23.260118
-7412.980372	4050.363000	1683.062500	197.409058
-7412.980372	4050.363000	1682.039063	264.097839
-7412.980372	4050.363000	1681.014648	181.373886
-7412.980372	4050.363000	1679.990234	157.010071
-7412.980372	4050.363000	1678.965820	375.283783
-7412.980372	4050.363000	1677.941406	194.585587
-7412.980372	4050.363000	1676.916992	233.171402
-7412.980372	4050.363000	1675.891602	208.771133
-7412.980372	4050.363000	1674.866211	254.309128
-7412.980372	4050.363000	1673.840820	290.496338
-7412.980372	4050.363000	1672.815430	137.898209
-7412.980372	4050.363000	1671.790039	316.198303
-7412.980372	4050.363000	1670.763672	210.220291
-7412.980372	4050.363000	1669.737305	155.511627
-7412.980372	4050.363000	1668.710938	147.385773
-7412.980372	4050.363000	1667.684570	257.986298
-7412.980372	4050.363000	1666.658203	224.218491
-7412.980372	4050.363000	1665.630859	181.141327
-7412.980372	4050.363000	1664.603516	172.972198
-7412.980372	4050.363000	1663.576172	283.438660
-7412.980372	4050.363000	1662.548828	445.021210
-7412.980372	4050.363000	1661.520508	418.168457
-7412.980372	4050.363000	1660.493164	365.744934
-7412.980372	4050.363000	1659.464844	420.255280
-7412.980372	4050.363000	1658.436523	353.883698
-7412.980372	4050.363000	1657.408203	373.500366
-7412.980372	4050.363000	1656.378906	441.883911
-7412.980372	4050.363000	1655.350586	329.061127
-7412.980372	4050.363000	1654.321289	225.557007
-7412.980372	4050.363000	1653.291992	403.025604
-7412.980372	4050.363000	1652.261719	394.700623
-7412.980372	4050.363000	1651.232422	437.433075
-7412.980372	4050.363000	1650.202148	250.407181
-7412.980372	4050.363000	1649.171875	260.648071
-7412.980372	4050.363000	1648.141602	224.481934
-7412.980372	4050.363000	1647.111328	589.531860
-7412.980372	4050.363000	1646.080078	511.556976
-7412.980372	4050.363000	1645.049805	384.923004
-7412.980372	4050.363000	1644.018555	320.904877
-7412.980372	4050.363000	1642.987305	307.883270
-7412.980372	4050.363000	1641.955078	561.296936
-7412.980372	4050.363000	1640.923828	494.936493
-7412.980372	4050.363000	1639.891602	379.952820
-7412.980372	4050.363000	1638.859375	394.674866
-7412.980372	4050.363000	1637.827148	457.999146
-7412.980372	4050.363000	1636.794922	486.569336
-7412.980372	4050.363000	1635.761719	498.915863
-7412.980372	4050.363000	1634.729492	613.058044
-7412.980372	4050.363000	1633.696289	560.584167
-7412.980372	4050.363000	1632.662109	415.603577
-7412.980372	4050.363000	1631.628906	451.041931
-7412.980372	4050.363000	1630.594727	625.171021
-7412.980372	4050.363000	1629.561523	496.419342
-7412.980372	4050.363000	1628.527344	453.215027
-7412.980372	4050.363000	1627.493164	511.684937
-7412.980372	4050.363000	1626.458008	470.783386
-7412.980372	4050.363000	1625.423828	471.467255
-7412.980372	4050.363000	1624.388672	495.231018
-7412.980372	4050.363000	1623.353516	452.021851
-7412.980372	4050.363000	1622.318359	484.997162
-7412.980372	4050.363000	1621.282227	554.873840
-7412.980372	4050.363000	1620.247070	481.655792
-7412.980372	4050.363000	1619.210938	565.331543
-7412.980372	4050.363000	1618.174805	552.091492
-7412.980372	4050.363000	1617.137695	511.171204
-7412.980372	4050.363000	1616.101563	608.602905
-7412.980372	4050.363000	1615.064453	650.659241
-7412.980372	4050.363000	1614.027344	252.479904
-7412.980372	4050.363000	1612.990234	725.484009
-7412.980372	4050.363000	1611.953125	543.995850
-7412.980372	4050.363000	1610.916016	625.161072
-7412.980372	4050.363000	1609.877930	791.493530
-7412.980372	4050.363000	1608.839844	702.173889
-7412.980372	4050.363000	1607.801758	854.600769
-7412.980372	4050.363000	1606.763672	997.754822
-7412.980372	4050.363000	1605.724609	609.268921
-7412.980372	4050.363000	1604.685547	646.563110
-7412.980372	4050.363000	1603.646484	801.152222
-7412.980372	4050.363000	1602.607422	744.089111
-7412.980372	4050.363000	1601.568359	1110.130737
-7412.980372	4050.363000	1600.528320	956.457886
-7412.980372	4050.363000	1599.489258	993.618652
-7412.980372	4050.363000	1598.449219	849.208862
-7412.980372	4050.363000	1597.408203	785.262695
-7412.980372	4050.363000	1596.368164	827.009033
-7412.980372	4050.363000	1595.327148	939.926453
-7412.980372	4050.363000	1594.287109	726.731873
-7412.980372	4050.363000	1593.246094	988.842529
-7412.980372	4050.363000	1592.204102	844.564148
-7412.980372	4050.363000	1591.163086	936.717285
-7412.980372	4050.363000	1590.121094	962.286438
-7412.980372	4050.363000	1589.079102	785.969116
-7412.980372	4050.363000	1588.037109	1013.382629
-7412.980372	4050.363000	1586.995117	837.116028
-7412.980372	4050.363000	1585.953125	972.716370
-7412.980372	4050.363000	1584.910156	748.379150
-7412.980372	4050.363000	1583.867188	1058.107422
-7412.980372	4050.363000	1582.824219	627.615417
-7412.980372	4050.363000	1581.781250	726.480286
-7412.980372	4050.363000	1580.737305	811.556824
-7412.980372	4050.363000	1579.693359	674.470093
-7412.980372	4050.363000	1578.649414	704.570068
-7412.980372	4050.363000	1577.605469	622.491638
-7412.980372	4050.363000	1576.561523	572.484009
-7412.980372	4050.363000	1575.516602	579.694885
-7412.980372	4050.363000	1574.472656	520.559998
-7412.980372	4050.363000	1573.427734	548.360779
-7412.980372	4050.363000	1572.381836	267.422668
-7412.980372	4050.363000	1571.336914	578.771301
-7412.980372	4050.363000	1570.291016	400.803314
-7412.980372	4050.363000	1569.246094	456.027771
-7412.980372	4050.363000	1568.200195	586.633362
-7412.980372	4050.363000	1567.153320	657.783325
-7412.980372	4050.363000	1566.107422	347.458435
-7412.980372	4050.363000	1565.060547	553.365906
-7412.980372	4050.363000	1564.013672	629.049011
-7412.980372	4050.363000	1562.966797	312.061584
-7412.980372	4050.363000	1561.919922	442.539703
-7412.980372	4050.363000	1560.872070	388.130981
-7412.980372	4050.363000	1559.825195	313.215607
-7412.980372	4050.363000	1558.777344	566.792786
-7412.980372	4050.363000	1557.729492	350.476135
-7412.980372	4050.363000	1556.680664	396.457214
-7412.980372	4050.363000	1555.632813	364.916962
-7412.980372	4050.363000	1554.583984	559.030457
-7412.980372	4050.363000	1553.535156	506.963928
-7412.980372	4050.363000	1552.486328	420.746948
-7412.980372	4050.363000	1551.436523	471.235260
-7412.980372	4050.363000	1550.387695	590.033569
-7412.980372	4050.363000	1549.337891	487.919495
-7412.980372	4050.363000	1548.288086	561.142334
-7412.980372	4050.363000	1547.238281	500.052948
-7412.980372	4050.363000	1546.187500	536.840088
-7412.980372	4050.363000	1545.136719	528.114380
-7412.980372	4050.363000	1544.086914	655.884705
-7412.980372	4050.363000	1543.035156	401.523712
-7412.980372	4050.363000	1541.984375	454.239410
-7412.980372	4050.363000	1540.933594	550.135681
-7412.980372	4050.363000	1539.881836	457.343781
-7412.980372	4050.363000	1538.830078	485.035706
-7412.980372	4050.363000	1537.778320	474.099457
-7412.980372	4050.363000	1536.725586	706.232727
-7412.980372	4050.363000	1535.673828	627.137695
-7412.980372	4050.363000	1534.621094	339.173218
-7412.980372	4050.363000	1533.568359	521.273132
-7412.980372	4050.363000	1532.515625	710.119324
-7412.980372	4050.363000	1531.461914	594.802124
-7412.980372	4050.363000	1530.409180	486.349762
-7412.980372	4050.363000	1529.355469	332.577332
-7412.980372	4050.363000	1528.301758	571.240845
-7412.980372	4050.363000	1527.247070	281.473602
-7412.980372	4050.363000	1526.193359	248.019562
-7412.980372	4050.363000	1525.138672	219.118759
-7412.980372	4050.363000	1524.083984	523.373840
-7412.980372	4050.363000	1523.029297	286.000824
-7412.980372	4050.363000	1521.974609	202.775452
-7412.980372	4050.363000	1520.918945	506.883881
-7412.980372	4050.363000	1519.863281	208.546783
-7412.980372	4050.363000	1518.807617	50.707840
-7412.980372	4050.363000	1517.751953	175.883942
-7412.980372	4050.363000	1516.696289	176.554886
-7412.980372	4050.363000	1515.639648	177.235001
-7412.980372	4050.363000	1514.583008	141.732849
-7412.980372	4050.363000	1513.526367	83.641479
-7412.980372	4050.363000	1512.469727	48.200466
-7412.980372	4050.363000	1511.412109	35.392963
-7412.980372	4050.363000	1510.355469	142.409805
-7412.980372	4050.363000	1509.297852	197.417236
-7412.980372	4050.363000	1508.240234	116.848709
-7412.980372	4050.363000	1507.181641	-47.261765
-7412.980372	4050.363000	1506.124023	75.555817
-7412.980372	4050.363000	1505.065430	184.789108
-7412.980372	4050.363000	1504.006836	14.039491
-7412.980372	4050.363000	1502.948242	-64.077522
-7412.980372	4050.363000	1501.888672	103.843277
-7412.980372	4050.363000	1500.830078	312.333221
-7412.980372	4050.363000	1499.770508	-88.343437
-7412.980372	4050.363000	1498.710938	-44.514183
-7412.980372	4050.363000	1497.650391	-66.083298
-7412.980372	4050.363000	1496.590820	-175.549850
-7412.980372	4050.363000	1495.530273	-122.660217
-7412.980372	4050.363000	1494.469727	-90.054428
-7412.980372	4050.363000	1493.409180	-131.799561
-7412.980372	4050.363000	1492.348633	74.300011
-7412.980372	4050.363000	1491.287109	28.072523
-7412.980372	4050.363000	1490.225586	-72.161186
-7412.980372	4050.363000	1489.164063	-68.767029
-7412.980372	4050.363000	1488.102539	-51.847240
-7412.980372	4050.363000	1487.041016	-214.956207
-7412.980372	4050.363000	1485.978516	-247.474564
-7412.980372	4050.363000	1484.916016	-39.180210
-7412.980372	4050.363000	1483.853516	-85.233002
-7412.980372	4050.363000	1482.791016	230.873215
-7412.980372	4050.363000	1481.727539	83.739342
-7412.980372	4050.363000	1480.664063	-22.844255
-7412.980372	4050.363000	1479.600586	-48.434895
-7412.980372	4050.363000	1478.537109	-197.603577
-7412.980372	4050.363000	1477.473633	68.926376
-7412.980372	4050.363000	1476.409180	113.018669
-7412.980372	4050.363000	1475.344727	118.982094
-7412.980372	4050.363000	1474.280273	44.147030
-7412.980372	4050.363000	1473.215820	160.140717
-7412.980372	4050.363000	1472.151367	107.852119
-7412.980372	4050.363000	1471.085938	326.811096
-7412.980372	4050.363000	1470.020508	350.925903
-7412.980372	4050.363000	1468.955078	137.478104
-7412.980372	4050.363000	1467.888672	352.051331
-7412.980372	4050.363000	1466.823242	230.332687
-7412.980372	4050.363000	1465.756836	221.015594
-7412.980372	4050.363000	1464.690430	417.474945
-7412.980372	4050.363000	1463.624023	488.470825
-7412.980372	4050.363000	1462.556641	231.191452
-7412.980372	4050.363000	1461.490234	501.289520
-7412.980372	4050.363000	1460.422852	422.748749
-7412.980372	4050.363000	1459.355469	703.690918
-7412.980372	4050.363000	1458.287109	461.629700
-7412.980372	4050.363000	1457.219727	475.289703
-7412.980372	4050.363000	1456.151367	784.913635
-7412.980372	4050.363000	1455.083008	657.326416
-7412.980372	4050.363000	1454.014648	464.427704
-7412.980372	4050.363000	1452.945313	540.846436
-7412.980372	4050.363000	1451.876953	740.292358
-7412.980372	4050.363000	1450.807617	286.813141
-7412.980372	4050.363000	1449.738281	581.324341
-7412.980372	4050.363000	1448.668945	508.569305
-7412.980372	4050.363000	1447.598633	511.388153
-7412.980372	4050.363000	1446.528320	420.909149
-7412.980372	4050.363000	1445.458008	469.256592
-7412.980372	4050.363000	1444.387695	313.697327
-7412.980372	4050.363000	1443.317383	241.639801
-7412.980372	4050.363000	1442.246094	130.697647
-7412.980372	4050.363000	1441.174805	469.252899
-7412.980372	4050.363000	1440.103516	281.154419
-7412.980372	4050.363000	1439.032227	252.874161
-7412.980372	4050.363000	1437.960938	168.653534
-7412.980372	4050.363000	1436.888672	285.979401
-7412.980372	4050.363000	1435.816406	341.480682
-7412.980372	4050.363000	1434.744141	245.824615
-7412.980372	4050.363000	1433.670898	-65.341743
-7412.980372	4050.363000	1432.598633	236.370789
-7412.980372	4050.363000	1431.525391	-19.727232
-7412.980372	4050.363000	1430.452148	26.954874
-7412.980372	4050.363000	1429.378906	127.472008
-7412.980372	4050.363000	1428.304688	-65.323509
-7412.980372	4050.363000	1427.231445	170.782318
-7412.980372	4050.363000	1426.157227	239.538879
-7412.980372	4050.363000	1425.083008	13.170436
-7412.980372	4050.363000	1424.007813	-27.417807
-7412.980372	4050.363000	1422.933594	-5.746551
-7412.980372	4050.363000	1421.858398	165.052048
-7412.980372	4050.363000	1420.783203	-38.418011
-7412.980372	4050.363000	1419.708008	281.800476
-7412.980372	4050.363000	1418.631836	-8.956440
-7412.980372	4050.363000	1417.555664	349.077209
-7412.980372	4050.363000	1416.479492	190.512924
-7412.980372	4050.363000	1415.403320	233.915359
-7412.980372	4050.363000	1414.327148	98.241699
-7412.980372	4050.363000	1413.250000	234.216827
-7412.980372	4050.363000	1412.173828	240.790970
-7412.980372	4050.363000	1411.096680	304.840485
-7412.980372	4050.363000	1410.018555	334.248474
-7412.980372	4050.363000	1408.941406	48.347706
-7412.980372	4050.363000	1407.863281	76.733543
-7412.980372	4050.363000	1406.785156	283.607086
-7412.980372	4050.363000	1405.707031	355.840546
-7412.980372	4050.363000	1404.628906	219.893082
-7412.980372	4050.363000	1403.549805	282.556274
-7412.980372	4050.363000	1402.470703	283.688324
-7412.980372	4050.363000	1401.391602	220.757095
-7412.980372	4050.363000	1400.312500	499.813538
-7412.980372	4050.363000	1399.233398	290.980804
-7412.980372	4050.363000	1398.153320	430.017517
-7412.980372	4050.363000	1397.073242	423.756195
-7412.980372	4050.363000	1395.993164	346.824890
-7412.980372	4050.363000	1394.913086	265.185638
-7412.980372	4050.363000	1393.832031	139.303268
-7412.980372	4050.363000	1392.750977	228.863632
-7412.980372	4050.363000	1391.669922	285.749664
-7412.980372	4050.363000	1390.588867	165.503448
-7412.980372	4050.363000	1389.506836	68.418068
-7412.980372	4050.363000	1388.425781	319.456512
-7412.980372	4050.363000	1387.343750	154.511520
-7412.980372	4050.363000	1386.261719	309.592926
-7412.980372	4050.363000	1385.178711	-95.958176
-7412.980372	4050.363000	1384.096680	-163.674271
-7412.980372	4050.363000	1383.013672	-42.235538
-7412.980372	4050.363000	1381.930664	343.228027
-7412.980372	4050.363000	1380.846680	135.149445
-7412.980372	4050.363000	1379.763672	66.164856
-7412.980372	4050.363000	1378.679688	203.962540
-7412.980372	4050.363000	1377.595703	68.089096
-7412.980372	4050.363000	1376.511719	40.932259
-7412.980372	4050.363000	1375.427734	6.936411
-7412.980372	4050.363000	1374.342773	293.641235
-7412.980372	4050.363000	1373.257813	28.448648
-7412.980372	4050.363000	1372.172852	117.295166
-7412.980372	4050.363000	1371.087891	-103.065269
-7412.980372	4050.363000	1370.001953	123.262672
-7412.980372	4050.363000	1368.916992	204.132004
-7412.980372	4050.363000	1367.831055	163.273819
-7412.980372	4050.363000	1366.744141	-14.729712
-7412.980372	4050.363000	1365.658203	64.380417
-7412.980372	4050.363000	1364.571289	187.711502
-7412.980372	4050.363000	1363.484375	251.857376
-7412.980372	4050.363000	1362.397461	201.195007
-7412.980372	4050.363000	1361.310547	152.170654
-7412.980372	4050.363000	1360.222656	150.217102
-7412.980372	4050.363000	1359.135742	321.011780
-7412.980372	4050.363000	1358.047852	148.242523
-7412.980372	4050.363000	1356.958984	319.584259
-7412.980372	4050.363000	1355.871094	379.886017
-7412.980372	4050.363000	1354.782227	127.125954
-7412.980372	4050.363000	1353.693359	331.329102
-7412.980372	4050.363000	1352.604492	502.076447
-7412.980372	4050.363000	1351.515625	549.789856
-7412.980372	4050.363000	1350.425781	394.381989
-7412.980372	4050.363000	1349.335938	456.864929
-7412.980372	4050.363000	1348.246094	521.445679
-7412.980372	4050.363000	1347.156250	363.886871
-7412.980372	4050.363000	1346.066406	508.796875
-7412.980372	4050.363000	1344.975586	430.045471
-7412.980372	4050.363000	1343.884766	590.706116
-7412.980372	4050.363000	1342.793945	492.483887
-7412.980372	4050.363000	1341.702148	390.525024
-7412.980372	4050.363000	1340.611328	469.863861
-7412.980372	4050.363000	1339.519531	599.971863
-7412.980372	4050.363000	1338.427734	451.368500
-7412.980372	4050.363000	1337.334961	568.983459
-7412.980372	4050.363000	1336.243164	318.151550
-7412.980372	4050.363000	1335.150391	485.299530
-7412.980372	4050.363000	1334.057617	555.761230
-7412.980372	4050.363000	1332.964844	525.629333
-7412.980372	4050.363000	1331.871094	306.070923
-7412.980372	4050.363000	1330.778320	449.373474
-7412.980372	4050.363000	1329.684570	296.900757
-7412.980372	4050.363000	1328.590820	296.765594
-7412.980372	4050.363000	1327.496094	245.081635
-7412.980372	4050.363000	1326.402344	292.113464
-7412.980372	4050.363000	1325.307617	130.172394
-7412.980372	4050.363000	1324.212891	17.134836
-7412.980372	4050.363000	1323.117188	87.869370
-7412.980372	4050.363000	1322.022461	70.303383
-7412.980372	4050.363000	1320.926758	-29.965355
-7412.980372	4050.363000	1319.831055	24.431519
-7412.980372	4050.363000	1318.735352	159.918640
-7412.980372	4050.363000	1317.638672	61.490765
-7412.980372	4050.363000	1316.542969	-37.979809
-7412.980372	4050.363000	1315.446289	-3.403750
-7412.980372	4050.363000	1314.349609	127.305847
-7412.980372	4050.363000	1313.251953	61.163425
-7412.980372	4050.363000	1312.155273	75.007729
-7412.980372	4050.363000	1311.057617	137.129562
-7412.980372	4050.363000	1309.959961	52.401806
-7412.980372	4050.363000	1308.862305	31.421892
-7412.980372	4050.363000	1307.763672	57.494473
-7412.980372	4050.363000	1306.665039	48.870213
-7412.980372	4050.363000	1305.566406	-12.469666
-7412.980372	4050.363000	1304.467773	75.380867
-7412.980372	4050.363000	1303.369141	-5.804984
-7412.980372	4050.363000	1302.269531	139.812744
-7412.980372	4050.363000	1301.169922	71.002113
-7412.980372	4050.363000	1300.070313	125.433746
-7412.980372	4050.363000	1298.970703	148.282227
-7412.980372	4050.363000	1297.870117	83.939415
-7412.980372	4050.363000	1296.769531	114.725899
-7412.980372	4050.363000	1295.668945	309.447113
-7412.980372	4050.363000	1294.568359	227.365463
-7412.980372	4050.363000	1293.466797	30.342674
-7412.980372	4050.363000	1292.366211	198.538376
-7412.980372	4050.363000	1291.264648	-133.981949
-7412.980372	4050.363000	1290.162109	74.304977
-7412.980372	4050.363000	1289.060547	36.487263
-7412.980372	4050.363000	1287.958008	164.526123
-7412.980372	4050.363000	1286.855469	-17.606836
-7412.980372	4050.363000	1285.752930	-202.799576
-7412.980372	4050.363000	1284.650391	15.318692
-7412.980372	4050.363000	1283.546875	-26.283598
-7412.980372	4050.363000	1282.444336	-2.942588
-7412.980372	4050.363000	1281.339844	-2.307012
-7412.980372	4050.363000	1280.236328	81.932388
-7412.980372	4050.363000	1279.132813	-79.115311
-7412.980372	4050.363000	1278.028320	179.099503
-7412.980372	4050.363000	1276.923828	91.492485
-7412.980372	4050.363000	1275.819336	-30.009941
-7412.980372	4050.363000	1274.713867	137.404633
-7412.980372	4050.363000	1273.608398	-52.502563
-7412.980372	4050.363000	1272.503906	-20.812214
-7412.980372	4050.363000	1271.397461	-15.432001
-7412.980372	4050.363000	1270.291992	70.474785
-7412.980372	4050.363000	1269.185547	-62.433342
-7412.980372	4050.363000	1268.080078	23.261520
-7412.980372	4050.363000	1266.972656	-1.561838
-7412.980372	4050.363000	1265.866211	24.546204
-7412.980372	4050.363000	1264.759766	-2.203361
-7412.980372	4050.363000	1263.652344	108.206238
-7412.980372	4050.363000	1262.544922	262.730225
-7412.980372	4050.363000	1261.436523	45.420609
-7412.980372	4050.363000	1260.329102	90.435066
-7412.980372	4050.363000	1259.220703	113.520508
-7412.980372	4050.363000	1258.112305	322.310760
-7412.980372	4050.363000	1257.003906	180.691208
-7412.980372	4050.363000	1255.895508	139.949570
-7412.980372	4050.363000	1254.786133	96.477798
-7412.980372	4050.363000	1253.676758	92.932076
-7412.980372	4050.363000	1252.567383	-82.101074
-7412.980372	4050.363000	1251.458008	0.775446
-7412.980372	4050.363000	1250.347656	-58.128353
-7412.980372	4050.363000	1249.237305	42.389492
-7412.980372	4050.363000	1248.126953	126.815903
-7412.980372	4050.363000	1247.016602	-13.358294
-7412.980372	4050.363000	1245.905273	-122.443123
-7412.980372	4050.363000	1244.793945	-120.524803
-7412.980372	4050.363000	1243.682617	-32.053925
-7412.980372	4050.363000	1242.571289	2.226929
-7412.980372	4050.363000	1241.459961	47.444313
-7412.980372	4050.363000	1240.347656	-94.678490
-7412.980372	4050.363000	1239.235352	-307.414337
-7412.980372	4050.363000	1238.123047	-99.367172
-7412.980372	4050.363000	1237.009766	-72.030434
-7412.980372	4050.363000	1235.897461	-107.712349
-7412.980372	4050.363000	1234.784180	3.779295
-7412.980372	4050.363000	1233.670898	-28.573599
-7412.980372	4050.363000	1232.556641	69.131088
-7412.980372	4050.363000	1231.443359	-2.722647
-7412.980372	4050.363000	1230.329102	-77.672913
-7412.980372	4050.363000	1229.214844	48.294342
-7412.980372	4050.363000	1228.099609	-190.233154
-7412.980372	4050.363000	1226.985352	-45.033669
-7412.980372	4050.363000	1225.870117	12.438816
-7412.980372	4050.363000	1224.754883	-191.676727
-7412.980372	4050.363000	1223.639648	-8.646351
-7412.980372	4050.363000	1222.523438	103.366776
-7412.980372	4050.363000	1221.408203	45.440674
-7412.980372	4050.363000	1220.291992	-34.347248
-7412.980372	4050.363000	1219.174805	-76.755180
-7412.980372	4050.363000	1218.058594	112.276245
-7412.980372	4050.363000	1216.941406	-65.620789
-7412.980372	4050.363000	1215.824219	-72.097481
-7412.980372	4050.363000	1214.707031	-154.793900
-7412.980372	4050.363000	1213.589844	-45.375534
-7412.980372	4050.363000	1212.471680	-10.535698
-7412.980372	4050.363000	1211.353516	-66.302605
-7412.980372	4050.363000	1210.235352	-2.720638
-7412.980372	4050.363000	1209.117188	-116.894714
-7412.980372	4050.363000	1207.998047	-52.003479
-7412.980372	4050.363000	1206.878906	-135.359360
-7412.980372	4050.363000	1205.759766	-36.506760
-7412.980372	4050.363000	1204.640625	-78.374794
-7412.980372	4050.363000	1203.520508	-47.545410
-7412.980372	4050.363000	1202.401367	-31.652908
-7412.980372	4050.363000	1201.281250	17.984018
-7412.980372	4050.363000	1200.160156	-40.063747
-7412.980372	4050.363000	1199.040039	-63.608299
-7412.980372	4050.363000	1197.918945	92.388161
-7412.980372	4050.363000	1196.797852	-28.712074
-7412.980372	4050.363000	1195.676758	10.502666
-7412.980372	4050.363000	1194.555664	-1.852814
-7412.980372	4050.363000	1193.433594	150.798798
-7412.980372	4050.363000	1192.311523	1.682077
-7412.980372	4050.363000	1191.189453	-75.156548
-7412.980372	4050.363000	1190.066406	145.965729
-7412.980372	4050.363000	1188.944336	-57.593369
-7412.980372	4050.363000	1187.821289	12.855431
-7412.980372	4050.363000	1186.698242	33.823780
-7412.980372	4050.363000	1185.574219	-69.805305
-7412.980372	4050.363000	1184.451172	166.180359
-7412.980372	4050.363000	1183.327148	-59.169582
-7412.980372	4050.363000	1182.203125	-54.365932
-7412.980372	4050.363000	1181.078125	-97.416298
-7412.980372	4050.363000	1179.954102	150.608276
-7412.980372	4050.363000	1178.829102	-92.599930
-7412.980372	4050.363000	1177.704102	18.115232
-7412.980372	4050.363000	1176.579102	54.253345
-7412.980372	4050.363000	1175.453125	-14.103344
-7412.980372	4050.363000	1174.327148	-65.240074
-7412.980372	4050.363000	1173.201172	20.127901
-7412.980372	4050.363000	1172.075195	-64.936371
-7412.980372	4050.363000	1170.949219	-104.924507
-7412.980372	4050.363000	1169.822266	111.563126
-7412.980372	4050.363000	1168.695313	-145.111252
-7412.980372	4050.363000	1167.568359	-129.079880
-7412.980372	4050.363000	1166.440430	-102.853287
-7412.980372	4050.363000	1165.313477	48.409645
-7412.980372	4050.363000	1164.185547	-22.577356
-7412.980372	4050.363000	1163.057617	-2.245986
-7412.980372	4050.363000	1161.928711	45.564117
-7412.980372	4050.363000	1160.800781	-20.027569
-7412.980372	4050.363000	1159.671875	51.623318
-7412.980372	4050.363000	1158.541992	72.228279
-7412.980372	4050.363000	1157.413086	197.537689
-7412.980372	4050.363000	1156.283203	30.149977
-7412.980372	4050.363000	1155.154297	43.459110
-7412.980372	4050.363000	1154.023438	192.117767
-7412.980372	4050.363000	1152.893555	176.002777
-7412.980372	4050.363000	1151.763672	185.134827
-7412.980372	4050.363000	1150.632813	130.814835
-7412.980372	4050.363000	1149.501953	-11.344828
-7412.980372	4050.363000	1148.370117	124.403046
-7412.980372	4050.363000	1147.239258	-61.307220
-7412.980372	4050.363000	1146.107422	95.153931
-7412.980372	4050.363000	1144.975586	206.894012
-7412.980372	4050.363000	1143.843750	80.063057
-7412.980372	4050.363000	1142.710938	-80.935516
-7412.980372	4050.363000	1141.578125	89.512672
-7412.980372	4050.363000	1140.445313	-12.757765
-7412.980372	4050.363000	1139.312500	12.968631
-7412.980372	4050.363000	1138.178711	78.581589
-7412.980372	4050.363000	1137.045898	84.230270
-7412.980372	4050.363000	1135.912109	-2.549652
-7412.980372	4050.363000	1134.777344	-14.418727
-7412.980372	4050.363000	1133.643555	65.311371
-7412.980372	4050.363000	1132.508789	152.456497
-7412.980372	4050.363000	1131.374023	-34.317081
-7412.980372	4050.363000	1130.239258	34.864338
-7412.980372	4050.363000	1129.104492	-42.610909
-7412.980372	4050.363000	1127.968750	121.227867
-7412.980372	4050.363000	1126.833008	40.432751
-7412.980372	4050.363000	1125.697266	96.026848
-7412.980372	4050.363000	1124.560547	-25.514288
-7412.980372	4050.363000	1123.424805	-13.435663
-7412.980372	4050.363000	1122.288086	35.609612
-7412.980372	4050.363000	1121.151367	210.782104
-7412.980372	4050.363000	1120.013672	20.403980
-7412.980372	4050.363000	1118.876953	104.929604
-7412.980372	4050.363000	1117.739258	-72.360664
-7412.980372	4050.363000	1116.601563	-49.650894
-7412.980372	4050.363000	1115.462891	69.015785
-7412.980372	4050.363000	1114.324219	-58.670643
-7412.980372	4050.363000	1113.186523	-98.460556
-7412.980372	4050.363000	1112.046875	-106.469162
-7412.980372	4050.363000	1110.908203	-20.744883
-7412.980372	4050.363000	1109.769531	-79.814247
-7412.980372	4050.363000	1108.629883	-67.195076
-7412.980372	4050.363000	1107.490234	-77.394508
-7412.980372	4050.363000	1106.349609	-25.081774
-7412.980372	4050.363000	1105.209961	-167.258087
-7412.980372	4050.363000	1104.069336	11.220805
-7412.980372	4050.363000	1102.928711	-102.333817
-7412.980372	4050.363000	1101.787109	91.422462
-7412.980372	4050.363000	1100.646484	-0.020213
-7412.980372	4050.363000	1099.504883	199.918793
-7412.980372	4050.363000	1098.363281	60.258881
-7412.980372	4050.363000	1097.221680	13.672678
-7412.980372	4050.363000	1096.079102	178.830673
-7412.980372	4050.363000	1094.936523	24.794342
-7412.980372	4050.363000	1093.793945	41.241199
-7412.980372	4050.363000	1092.651367	114.903465
-7412.980372	4050.363000	1091.507813	38.323647
-7412.980372	4050.363000	1090.364258	167.171692
-7412.980372	4050.363000	1089.220703	88.829262
-7412.980372	4050.363000	1088.077148	66.289330
-7412.980372	4050.363000	1086.933594	-56.544971
-7412.980372	4050.363000	1085.789063	-99.980827
-7412.980372	4050.363000	1084.644531	52.086411
-7412.980372	4050.363000	1083.499023	-33.288174
-7412.980372	4050.363000	1082.354492	120.928307
-7412.980372	4050.363000	1081.208984	-38.633335
-7412.980372	4050.363000	1080.063477	-27.285330
-7412.980372	4050.363000	1078.917969	-203.355957
-7412.980372	4050.363000	1077.771484	67.338692
-7412.980372	4050.363000	1076.625977	-7.678993
-7412.980372	4050.363000	1075.479492	19.909086
-7412.980372	4050.363000	1074.332031	6.269725
-7412.980372	4050.363000	1073.185547	-118.253220
-7412.980372	4050.363000	1072.038086	-14.429678
-7412.980372	4050.363000	1070.890625	-44.870472
-7412.980372	4050.363000	1069.743164	39.914524
-7412.980372	4050.363000	1068.594727	-36.678070
-7412.980372	4050.363000	1067.447266	200.800354
-7412.980372	4050.363000	1066.298828	48.925373
-7412.980372	4050.363000	1065.149414	39.725132
-7412.980372	4050.363000	1064.000977	65.364227
-7412.980372	4050.363000	1062.851563	68.363403
-7412.980372	4050.363000	1061.702148	387.123779
-7412.980372	4050.363000	1060.552734	159.927505
-7412.980372	4050.363000	1059.402344	-8.048655
-7412.980372	4050.363000	1058.252930	67.806427
-7412.980372	4050.363000	1057.102539	160.685165
-7412.980372	4050.363000	1055.951172	-22.570784
-7412.980372	4050.363000	1054.800781	63.629395
-7412.980372	4050.363000	1053.649414	-120.270081
-7412.980372	4050.363000	1052.498047	242.248352
-7412.980372	4050.363000	1051.346680	192.046005
-7412.980372	4050.363000	1050.194336	-31.195677
-7412.980372	4050.363000	1049.042969	67.685692
-7412.980372	4050.363000	1047.890625	37.754211
-7412.980372	4050.363000	1046.738281	3.085224
-7412.980372	4050.363000	1045.584961	106.735107
-7412.980372	4050.363000	1044.431641	104.632782
-7412.980372	4050.363000	1043.278320	-74.685616
-7412.980372	4050.363000	1042.125000	35.397102
-7412.980372	4050.363000	1040.971680	-19.996971
-7412.980372	4050.363000	1039.817383	174.326141
-7412.980372	4050.363000	1038.663086	-141.186920
-7412.980372	4050.363000	1037.508789	146.375977
-7412.980372	4050.363000	1036.353516	107.462677
-7412.980372	4050.363000	1035.198242	0.225938
-7412.980372	4050.363000	1034.042969	182.081833
-7412.980372	4050.363000	1032.887695	135.928848
-7412.980372	4050.363000	1031.732422	42.373489
-7412.980372	4050.363000	1030.576172	139.703308
-7412.980372	4050.363000	1029.419922	206.716766
-7412.980372	4050.363000	1028.263672	229.443207
-7412.980372	4050.363000	1027.106445	173.569565
-7412.980372	4050.363000	1025.949219	59.083813
-7412.980372	4050.363000	1024.792969	170.448654
-7412.980372	4050.363000	1023.634766	136.437485
-7412.980372	4050.363000	1022.477539	16.799536
-7412.980372	4050.363000	1021.319336	82.689697
-7412.980372	4050.363000	1020.161133	47.714260
-7412.980372	4050.363000	1019.002930	20.989536
-7412.980372	4050.363000	1017.843750	90.588036
-7412.980372	4050.363000	1016.684570	-101.505928
-7412.980372	4050.363000	1015.525391	-25.241455
-7412.980372	4050.363000	1014.366211	93.499733
-7412.980372	4050.363000	1013.207031	21.856449
-7412.980372	4050.363000	1012.046875	19.468477
-7412.980372	4050.363000	1010.886719	180.085892
-7412.980372	4050.363000	1009.726563	13.003775
-7412.980372	4050.363000	1008.565430	122.909698
-7412.980372	4050.363000	1007.404297	165.775497
-7412.980372	4050.363000	1006.243164	93.348412
-7412.980372	4050.363000	1005.082031	37.400078
-7412.980372	4050.363000	1003.920898	139.066391
-7412.980372	4050.363000	1002.758789	249.610062
-7412.980372	4050.363000	1001.596680	16.657352
-7412.980372	4050.363000	1000.433594	-33.996857
-7412.980372	4050.363000	999.271484	121.749588
-7412.980372	4050.363000	998.108398	280.605408
-7412.980372	4050.363000	996.945313	82.309258
-7412.980372	4050.363000	995.782227	253.436554
-7412.980372	4050.363000	994.618164	95.013527
-7412.980372	4050.363000	993.454102	316.695923
-7412.980372	4050.363000	992.290039	346.438049
-7412.980372	4050.363000	991.125977	293.030182
-7412.980372	4050.363000	989.960938	41.463276
-7412.980372	4050.363000	988.796875	217.908295
-7412.980372	4050.363000	987.630859	204.666916
-7412.980372	4050.363000	986.465820	339.131256
-7412.980372	4050.363000	985.300781	149.952454
-7412.980372	4050.363000	984.134766	194.404694
-7412.980372	4050.363000	982.968750	111.631210
-7412.980372	4050.363000	981.801758	280.701050
-7412.980372	4050.363000	980.635742	150.485641
-7412.980372	4050.363000	979.468750	229.214569
-7412.980372	4050.363000	978.301758	94.852501
-7412.980372	4050.363000	977.133789	115.596329
-7412.980372	4050.363000	975.966797	24.157482
-7412.980372	4050.363000	974.798828	31.204882
-7412.980372	4050.363000	973.630859	41.396633
-7412.980372	4050.363000	972.461914	66.426636
-7412.980372	4050.363000	971.293945	-73.906609
-7412.980372	4050.363000	970.125000	96.122337
-7412.980372	4050.363000	968.956055	14.205825
-7412.980372	4050.363000	967.786133	10.546497
-7412.980372	4050.363000	966.617188	61.798481
-7412.980372	4050.363000	965.447266	-30.290474
-7412.980372	4050.363000	964.276367	6.251549
-7412.980372	4050.363000	963.106445	-25.104815
-7412.980372	4050.363000	961.935547	132.167404
-7412.980372	4050.363000	960.764648	34.519485
-7412.980372	4050.363000	959.593750	48.788647
-7412.980372	4050.363000	958.422852	-13.658621
-7412.980372	4050.363000	957.250977	163.539383
-7412.980372	4050.363000	956.079102	-58.357395
-7412.980372	4050.363000	954.907227	60.692368
-7412.980372	4050.363000	953.734375	-207.057098
-7412.980372	4050.363000	952.562500	28.543846
-7412.980372	4050.363000	951.389648	65.987740
-7412.980372	4050.363000	950.215820	5.810969
-7412.980372	4050.363000	949.042969	-91.258598
-7412.980372	4050.363000	947.869141	213.936523
-7412.980372	4050.363000	946.695313	22.318531
-7412.980372	4050.363000	945.521484	111.848679
-7412.980372	4050.363000	944.346680	-13.439603
-7412.980372	4050.363000	943.172852	32.798870
-7412.980372	4050.363000	941.998047	40.356236
-7412.980372	4050.363000	940.822266	38.112663
-7412.980372	4050.363000	939.647461	35.383121
-7412.980372	4050.363000	938.471680	-82.479759
-7412.980372	4050.363000	937.295898	120.376991
-7412.980372	4050.363000	936.119141	64.887123
-7412.980372	4050.363000	934.943359	98.702629
-7412.980372	4050.363000	933.766602	76.997330
-7412.980372	4050.363000	932.589844	127.781471
-7412.980372	4050.363000	931.413086	48.252636
-7412.980372	4050.363000	930.235352	243.653137
-7412.980372	4050.363000	929.057617	183.374100
-7412.980372	4050.363000	927.879883	101.416824
-7412.980372	4050.363000	926.702148	161.719131
-7412.980372	4050.363000	925.523438	9.827993
-7412.980372	4050.363000	924.344727	96.651161
-7412.980372	4050.363000	923.166016	55.684086
-7412.980372	4050.363000	921.987305	120.763023
-7412.980372	4050.363000	920.807617	-122.568024
-7412.980372	4050.363000	919.627930	-120.531136
-7412.980372	4050.363000	919.497070	-74.118828
-7412.980372	4050.363000	918.331055	-98.193100
-7412.980372	4050.363000	917.165039	-88.555832
-7412.980372	4050.363000	915.999023	-35.597332
-7412.980372	4050.363000	914.833008	-242.604401
-7412.980372	4050.363000	913.666016	-83.768433
-7412.980372	4050.363000	912.499023	-30.859346
-7412.980372	4050.363000	911.332031	-134.327026
-7412.980372	4050.363000	910.165039	19.563194
-7412.980372	4050.363000	908.997070	-76.667198
-7412.980372	4050.363000	907.830078	139.639954
-7412.980372	4050.363000	906.661133	113.114830
-7412.980372	4050.363000	905.493164	110.623955
-7412.980372	4050.363000	904.325195	-172.953812
-7412.980372	4050.363000	903.156250	11.959641
-7412.980372	4050.363000	901.987305	-100.985664
-7412.980372	4050.363000	900.818359	-261.905640
-7412.980372	4050.363000	899.648438	-21.884317
-7412.980372	4050.363000	898.478516	-48.359547
-7412.980372	4050.363000	897.308594	4.355485
-7412.980372	4050.363000	896.138672	35.457355
-7412.980372	4050.363000	894.968750	102.522522
-7412.980372	4050.363000	893.797852	-12.689318
-7412.980372	4050.363000	892.626953	-36.748821
-7412.980372	4050.363000	891.456055	157.332565
-7412.980372	4050.363000	890.284180	-125.579002
-7412.980372	4050.363000	889.113281	56.458836
-7412.980372	4050.363000	887.941406	44.384140
-7412.980372	4050.363000	886.768555	120.933502
-7412.980372	4050.363000	885.596680	63.353012
-7412.980372	4050.363000	884.423828	218.874649
-7412.980372	4050.363000	883.250977	175.664078
-7412.980372	4050.363000	882.078125	34.353386
-7412.980372	4050.363000	880.905273	58.194778
-7412.980372	4050.363000	879.731445	-73.459290
-7412.980372	4050.363000	878.557617	-4.159008
-7412.980372	4050.363000	877.383789	-6.618969
-7412.980372	4050.363000	876.209961	-47.326237
-7412.980372	4050.363000	875.035156	74.520859
-7412.980372	4050.363000	873.860352	-49.818325
-7412.980372	4050.363000	872.685547	-80.923622
-7412.980372	4050.363000	871.510742	55.198345
-7412.980372	4050.363000	870.334961	117.235001
-7412.980372	4050.363000	869.159180	2.556026
-7412.980372	4050.363000	867.983398	-66.712379
-7412.980372	4050.363000	866.807617	-190.844421
-7412.980372	4050.363000	865.630859	-11.861662
-7412.980372	4050.363000	864.454102	-57.210857
-7412.980372	4050.363000	863.277344	62.048626
-7412.980372	4050.363000	862.100586	-181.226563
-7412.980372	4050.363000	860.922852	109.693947
-7412.980372	4050.363000	859.745117	7.168080
-7412.980372	4050.363000	858.567383	-69.093048
-7412.980372	4050.363000	857.389648	-9.493557
-7412.980372	4050.363000	856.210938	-9.469070
-7412.980372	4050.363000	855.032227	195.402740
-7412.980372	4050.363000	853.853516	-107.039108
-7412.980372	4050.363000	852.674805	-59.356930
-7412.980372	4050.363000	851.495117	-33.109409
-7412.980372	4050.363000	850.315430	71.672623
-7412.980372	4050.363000	849.135742	-49.628860
-7412.980372	4050.363000	847.956055	105.085907
-7412.980372	4050.363000	846.775391	138.445755
-7412.980372	4050.363000	845.595703	202.710037
-7412.980372	4050.363000	844.415039	240.806213
-7412.980372	4050.363000	843.233398	179.063507
-7412.980372	4050.363000	842.052734	86.457077
-7412.980372	4050.363000	840.871094	143.588196
-7412.980372	4050.363000	839.689453	-105.739113
-7412.980372	4050.363000	838.506836	-79.448738
-7412.980372	4050.363000	837.325195	-209.882034
-7412.980372	4050.363000	836.142578	58.590649
-7412.980372	4050.363000	834.959961	-43.315586
-7412.980372	4050.363000	833.777344	54.167896
-7412.980372	4050.363000	832.593750	-121.225555
-7412.980372	4050.363000	831.410156	-11.885370
-7412.980372	4050.363000	830.226563	-59.107380
-7412.980372	4050.363000	829.042969	-9.084877
-7412.980372	4050.363000	827.858398	-160.575729
-7412.980372	4050.363000	826.673828	-53.649094
-7412.980372	4050.363000	825.489258	1.111086
-7412.980372	4050.363000	824.304688	10.844496
-7412.980372	4050.363000	823.120117	105.854881
-7412.980372	4050.363000	821.934570	-147.286499
-7412.980372	4050.363000	820.749023	-64.100075
-7412.980372	4050.363000	819.562500	-104.031166
-7412.980372	4050.363000	818.376953	-70.568916
-7412.980372	4050.363000	817.190430	14.947702
-7412.980372	4050.363000	816.003906	164.314651
-7412.980372	4050.363000	814.817383	-12.777660
-7412.980372	4050.363000	813.629883	146.013519
-7412.980372	4050.363000	812.442383	-52.259056
-7412.980372	4050.363000	811.254883	125.404572
-7412.980372	4050.363000	810.067383	-86.942894
-7412.980372	4050.363000	808.878906	-100.713577
-7412.980372	4050.363000	807.690430	-10.525699
-7412.980372	4050.363000	806.501953	-54.990631
-7412.980372	4050.363000	805.313477	-111.235390
-7412.980372	4050.363000	804.124023	37.950951
-7412.980372	4050.363000	802.934570	-209.460037
-7412.980372	4050.363000	801.745117	107.255203
-7412.980372	4050.363000	800.555664	-175.439545
-7412.980372	4050.363000	799.365234	-75.861664
-7412.980372	4050.363000	798.175781	-44.712589
-7412.980372	4050.363000	796.985352	-110.241272
-7412.980372	4050.363000	795.793945	-22.497597
-7412.980372	4050.363000	794.603516	-87.985786
-7412.980372	4050.363000	793.412109	58.645805
-7412.980372	4050.363000	792.220703	0.255354
-7412.980372	4050.363000	791.028320	-22.768473
-7412.980372	4050.363000	789.836914	-26.936808
-7412.980372	4050.363000	788.644531	37.188942
-7412.980372	4050.363000	787.452148	138.960068
-7412.980372	4050.363000	786.258789	-11.131271
-7412.980372	4050.363000	785.066406	-194.097244
-7412.980372	4050.363000	783.873047	-75.847855
-7412.980372	4050.363000	782.679688	42.358738
-7412.980372	4050.363000	781.485352	99.384834
-7412.980372	4050.363000	780.291992	81.155685
-7412.980372	4050.363000	779.097656	182.825745
-7412.980372	4050.363000	777.903320	-173.816299
-7412.980372	4050.363000	776.708008	71.207069
-7412.980372	4050.363000	775.512695	118.806602
-7412.980372	4050.363000	774.318359	196.921310
-7412.980372	4050.363000	773.122070	19.063307
-7412.980372	4050.363000	771.926758	87.790344
-7412.980372	4050.363000	770.730469	3.926816
-7412.980372	4050.363000	769.534180	65.600204
-7412.980372	4050.363000	768.337891	232.832718
-7412.980372	4050.363000	767.141602	193.575287
-7412.980372	4050.363000	765.944336	161.376694
-7412.980372	4050.363000	764.747070	194.848740
-7412.980372	4050.363000	763.549805	-8.461940
-7412.980372	4050.363000	762.351563	-26.522203
-7412.980372	4050.363000	761.154297	37.441605
-7412.980372	4050.363000	759.956055	-22.786137
-7412.980372	4050.363000	758.757813	-45.508701
-7412.980372	4050.363000	757.558594	299.451599
-7412.980372	4050.363000	756.359375	87.028763
-7412.980372	4050.363000	755.160156	5.784029
-7412.980372	4050.363000	753.960938	121.166290
-7412.980372	4050.363000	752.761719	-20.885328
-7412.980372	4050.363000	751.561523	5.560750
-7412.980372	4050.363000	750.361328	-33.492157
-7412.980372	4050.363000	749.160156	58.424622
-7412.980372	4050.363000	747.959961	-15.693672
-7412.980372	4050.363000	746.758789	3.719528
-7412.980372	4050.363000	745.557617	-35.300247
-7412.980372	4050.363000	744.356445	26.162664
-7412.980372	4050.363000	743.154297	-24.526619
-7412.980372	4050.363000	741.952148	-56.513241
-7412.980372	4050.363000	740.750000	67.957314
-7412.980372	4050.363000	739.547852	253.070221
-7412.980372	4050.363000	738.344727	223.374161
-7412.980372	4050.363000	737.142578	121.344841
-7412.980372	4050.363000	735.939453	208.333923
-7412.980372	4050.363000	734.735352	183.320480
-7412.980372	4050.363000	733.532227	230.606415
-7412.980372	4050.363000	732.328125	196.263046
-7412.980372	4050.363000	731.124023	178.245834
-7412.980372	4050.363000	729.918945	57.685425
-7412.980372	4050.363000	728.714844	333.289978
-7412.980372	4050.363000	727.509766	201.085861
-7412.980372	4050.363000	726.303711	231.973999
-7412.980372	4050.363000	725.098633	165.034668
-7412.980372	4050.363000	723.892578	326.279541
-7412.980372	4050.363000	722.686523	345.458954
-7412.980372	4050.363000	721.480469	192.407471
-7412.980372	4050.363000	720.274414	332.578766
-7412.980372	4050.363000	719.067383	147.009644
-7412.980372	4050.363000	717.860352	433.636047
-7412.980372	4050.363000	716.653320	122.538620
-7412.980372	4050.363000	715.445313	260.244354
-7412.980372	4050.363000	714.238281	88.748703
-7412.980372	4050.363000	713.030273	26.532860
-7412.980372	4050.363000	711.821289	89.792656
-7412.980372	4050.363000	710.613281	25.255016
-7412.980372	4050.363000	709.404297	102.396210
-7412.980372	4050.363000	708.195313	-182.717880
-7412.980372	4050.363000	706.986328	56.901562
-7412.980372	4050.363000	705.776367	52.716026
-7412.980372	4050.363000	704.566406	85.642990
-7412.980372	4050.363000	703.356445	44.304070
-7412.980372	4050.363000	702.146484	-1.672270
-7412.980372	4050.363000	700.935547	-36.050175
-7412.980372	4050.363000	699.724609	163.733383
-7412.980372	4050.363000	698.513672	106.121323
-7412.980372	4050.363000	697.302734	-88.214935
-7412.980372	4050.363000	696.090820	27.989702
-7412.980372	4050.363000	694.878906	76.948715
-7412.980372	4050.363000	693.666992	0.803264
-7412.980372	4050.363000	692.455078	79.809738
-7412.980372	4050.363000	691.242188	-51.903553
-7412.980372	4050.363000	690.029297	52.501938
-7412.980372	4050.363000	688.816406	87.421280
-7412.980372	4050.363000	687.602539	73.720047
-7412.980372	4050.363000	686.389648	180.281967
-7412.980372	4050.363000	685.175781	208.149155
-7412.980372	4050.363000	683.960938	143.498871
-7412.980372	4050.363000	682.747070	83.474724
-7412.980372	4050.363000	681.532227	233.767151
-7412.980372	4050.363000	680.317383	185.255890
-7412.980372	4050.363000	679.102539	97.466873
-7412.980372	4050.363000	677.886719	166.749908
-7412.980372	4050.363000	676.670898	312.182037
-7412.980372	4050.363000	675.455078	41.958183
-7412.980372	4050.363000	674.239258	0.336710
-7412.980372	4050.363000	673.022461	187.173218
-7412.980372	4050.363000	671.805664	113.184509
-7412.980372	4050.363000	670.588867	92.253960
-7412.980372	4050.363000	669.372070	184.312836
-7412.980372	4050.363000	668.154297	186.378769
-7412.980372	4050.363000	666.936523	15.518251
-7412.980372	4050.363000	665.718750	56.742641
-7412.980372	4050.363000	664.500977	187.789841
-7412.980372	4050.363000	663.282227	58.417652
-7412.980372	4050.363000	662.063477	214.685852
-7412.980372	4050.363000	660.844727	50.758144
-7412.980372	4050.363000	659.625000	153.946960
-7412.980372	4050.363000	658.405273	312.305328
-7412.980372	4050.363000	657.185547	194.395447
-7412.980372	4050.363000	655.965820	168.540176
-7412.980372	4050.363000	654.745117	216.278442
-7412.980372	4050.363000	653.525391	24.766802
-7412.980372	4050.363000	652.303711	127.637192
-7412.980372	4050.363000	651.083008	202.841034
-7412.980372	4050.363000	649.861328	18.249321
-7412.980372	4050.363000	648.640625	45.118450
-7412.980372	4050.363000	647.417969	-24.553701
-7412.980372	4050.363000	646.196289	-6.944281
-7412.980372	4050.363000	644.973633	169.086090
-7412.980372	4050.363000	643.750977	195.761734
-7412.980372	4050.363000	642.528320	-142.608978
-7412.980372	4050.363000	641.305664	95.199280
-7412.980372	4050.363000	640.082031	-286.676178
-7412.980372	4050.363000	638.858398	106.989113
-7412.980372	4050.363000	637.634766	-4.149766
-7412.980372	4050.363000	636.410156	274.558105
-7412.980372	4050.363000	635.185547	48.723030
-7412.980372	4050.363000	633.960938	242.416153
-7412.980372	4050.363000	632.736328	-52.143974
-7412.980372	4050.363000	631.510742	-94.581902
-7412.980372	4050.363000	630.285156	-54.574234
-7412.980372	4050.363000	629.059570	70.118126
-7412.980372	4050.363000	627.833984	178.689392
-7412.980372	4050.363000	626.607422	-134.048553
-7412.980372	4050.363000	625.380859	-25.556355
-7412.980372	4050.363000	624.154297	-1.816516
-7412.980372	4050.363000	622.927734	56.191368
-7412.980372	4050.363000	621.700195	153.020309
-7412.980372	4050.363000	620.472656	142.287979
-7412.980372	4050.363000	619.245117	-151.989075
-7412.980372	4050.363000	618.016602	49.855370
-7412.980372	4050.363000	616.788086	217.292633
-7412.980372	4050.363000	615.559570	96.722092
-7412.980372	4050.363000	614.331055	117.797058
-7412.980372	4050.363000	613.101563	70.304779
-7412.980372	4050.363000	611.872070	253.421829
-7412.980372	4050.363000	610.642578	169.315201
-7412.980372	4050.363000	609.413086	130.853104
-7412.980372	4050.363000	608.182617	23.907669
-7412.980372	4050.363000	606.952148	215.846069
-7412.980372	4050.363000	605.721680	156.750381
-7412.980372	4050.363000	604.491211	-9.544328
-7412.980372	4050.363000	603.259766	129.718765
-7412.980372	4050.363000	602.028320	43.204830
-7412.980372	4050.363000	600.796875	25.061464
-7412.980372	4050.363000	599.564453	75.244652
-7412.980372	4050.363000	598.332031	95.751747
-7412.980372	4050.363000	597.099609	277.922760
-7412.980372	4050.363000	595.867188	145.730469
-7412.980372	4050.363000	594.633789	-13.763681
-7412.980372	4050.363000	593.400391	-32.106144
-7412.980372	4050.363000	592.166992	79.235527
-7412.980372	4050.363000	590.933594	33.501770
-7412.980372	4050.363000	589.699219	78.738297
-7412.980372	4050.363000	588.464844	110.272865
-7412.980372	4050.363000	587.230469	239.526642
-7412.980372	4050.363000	585.995117	150.454437
-7412.980372	4050.363000	584.760742	22.745050
-7412.980372	4050.363000	583.525391	-70.862053
-7412.980372	4050.363000	582.289063	64.987839
-7412.980372	4050.363000	581.053711	53.105785
-7412.980372	4050.363000	579.817383	63.902020
-7412.980372	4050.363000	578.581055	40.602097
-7412.980372	4050.363000	577.343750	-109.837311
-7412.980372	4050.363000	576.107422	93.778908
-7412.980372	4050.363000	574.870117	-68.021988
-7412.980372	4050.363000	573.631836	-12.019968
-7412.980372	4050.363000	572.394531	121.034966
-7412.980372	4050.363000	571.156250	36.322277
-7412.980372	4050.363000	569.917969	-37.052330
-7412.980372	4050.363000	568.679688	-114.960495
-7412.980372	4050.363000	567.440430	65.454727
-7412.980372	4050.363000	566.202148	96.238556
-7412.980372	4050.363000	564.961914	-162.950226
-7412.980372	4050.363000	563.722656	-118.607353
-7412.980372	4050.363000	562.482422	-49.410095
-7412.980372	4050.363000	561.243164	35.573734
-7412.980372	4050.363000	560.001953	145.382538
-7412.980372	4050.363000	558.761719	-77.487892
-7412.980372	4050.363000	557.520508	170.231339
-7412.980372	4050.363000	556.279297	137.370880
-7412.980372	4050.363000	555.038086	-180.410507
-7412.980372	4050.363000	553.795898	-73.075394
-7412.980372	4050.363000	552.554688	138.158371
-7412.980372	4050.363000	551.311523	-37.139950
-7412.980372	4050.363000	550.069336	106.165565
-7412.980372	4050.363000	548.826172	9.954896
-7412.980372	4050.363000	547.583984	87.649017
-7412.980372	4050.363000	546.339844	-150.806061
-7412.980372	4050.363000	545.096680	-18.984129
-7412.980372	4050.363000	543.852539	11.199731
-7412.980372	4050.363000	542.608398	118.063766
-7412.980372	4050.363000	541.364258	100.788231
-7412.980372	4050.363000	540.119141	187.245392
-7412.980372	4050.363000	538.875000	127.077194
-7412.980372	4050.363000	537.628906	69.167770
-7412.980372	4050.363000	536.383789	-20.291655
-7412.980372	4050.363000	535.137695	-299.021088
-7412.980372	4050.363000	533.892578	-63.974171
-7412.980372	4050.363000	532.645508	-58.802090
-7412.980372	4050.363000	531.399414	-24.371103
-7412.980372	4050.363000	530.152344	-3.483354
-7412.980372	4050.363000	528.905273	-74.912247
-7412.980372	4050.363000	527.658203	-54.054710
-7412.980372	4050.363000	526.410156	-1.722250
-7412.980372	4050.363000	525.163086	-120.392815
-7412.980372	4050.363000	523.914063	-52.355556
-7412.980372	4050.363000	522.666016	-15.839843
-7412.980372	4050.363000	521.416992	-40.054272
-7412.980372	4050.363000	520.167969	23.386938
-7412.980372	4050.363000	518.918945	-48.041145
-7412.980372	4050.363000	517.669922	-34.077324
-7412.980372	4050.363000	516.419922	-202.073318
-7412.980372	4050.363000	515.169922	-255.478348
-7412.980372	4050.363000	513.919922	-79.857422
-7412.980372	4050.363000	512.668945	-18.805523
-7412.980372	4050.363000	511.417969	-83.469147
-7412.980372	4050.363000	510.166992	-87.532524
-7412.980372	4050.363000	508.916016	-201.524658
-7412.980372	4050.363000	507.664063	-252.680252
-7412.980372	4050.363000	506.412109	3.377540
-7412.980372	4050.363000	505.160156	50.823757
-7412.980372	4050.363000	503.907227	-56.415291
-7412.980372	4050.363000	502.655273	-345.126221
-7412.980372	4050.363000	501.402344	-147.555313
-7412.980372	4050.363000	500.148438	-149.431976
-7412.980372	4050.363000	498.895508	-153.553635
-7412.980372	4050.363000	497.641602	-9.910862
-7412.980372	4050.363000	496.387695	-121.525444
-7412.980372	4050.363000	495.132813	-74.203789
-7412.980372	4050.363000	493.878906	-71.659447
-7412.980372	4050.363000	492.624023	-60.178127
-7412.980372	4050.363000	491.368164	22.858149
-7412.980372	4050.363000	490.113281	105.851921
-7412.980372	4050.363000	488.857422	-5.697529
-7412.980372	4050.363000	487.601563	117.477753
-7412.980372	4050.363000	486.344727	115.450874
-7412.980372	4050.363000	485.088867	41.922066
-7412.980372	4050.363000	483.832031	104.666702
-7412.980372	4050.363000	482.575195	13.283587
-7412.980372	4050.363000	481.317383	-69.142723
-7412.980372	4050.363000	480.059570	78.372200
-7412.980372	4050.363000	478.801758	62.894009
-7412.980372	4050.363000	477.543945	-160.099609
-7412.980372	4050.363000	476.285156	-61.781258
-7412.980372	4050.363000	475.027344	16.406324
-7412.980372	4050.363000	473.767578	92.311226
-7412.980372	4050.363000	472.508789	67.845856
-7412.980372	4050.363000	471.249023	47.827675
-7412.980372	4050.363000	469.989258	9.971034
-7412.980372	4050.363000	468.729492	-85.817253
-7412.980372	4050.363000	467.469727	83.474030
-7412.980372	4050.363000	466.208984	127.956657
-7412.980372	4050.363000	464.948242	27.673769
-7412.980372	4050.363000	463.686523	-10.268964
-7412.980372	4050.363000	462.425781	252.216370
-7412.980372	4050.363000	461.164063	56.202984
-7412.980372	4050.363000	459.901367	9.280520
-7412.980372	4050.363000	458.639648	44.632393
-7412.980372	4050.363000	457.376953	39.903599
-7412.980372	4050.363000	456.114258	6.234330
-7412.980372	4050.363000	454.851563	125.895454
-7412.980372	4050.363000	453.587891	63.240498
-7412.980372	4050.363000	452.324219	76.098824
-7412.980372	4050.363000	451.060547	93.340500
-7412.980372	4050.363000	449.796875	245.980988
-7412.980372	4050.363000	448.532227	-14.464766
-7412.980372	4050.363000	447.267578	-12.933469
-7412.980372	4050.363000	446.002930	157.192444
-7412.980372	4050.363000	444.737305	38.733921
-7412.980372	4050.363000	443.471680	117.678764
-7412.980372	4050.363000	442.206055	96.710464
-7412.980372	4050.363000	440.940430	80.103142
-7412.980372	4050.363000	439.673828	249.627060
-7412.980372	4050.363000	438.407227	55.503933
-7412.980372	4050.363000	437.140625	-54.429165
-7412.980372	4050.363000	435.873047	77.061127
-7412.980372	4050.363000	434.605469	37.837757
-7412.980372	4050.363000	433.337891	120.314392
-7412.980372	4050.363000	432.070313	43.232616
-7412.980372	4050.363000	430.801758	-100.347229
-7412.980372	4050.363000	429.533203	-58.101749
-7412.980372	4050.363000	428.264648	169.841858
-7412.980372	4050.363000	426.996094	56.889366
-7412.980372	4050.363000	425.726563	249.030472
-7412.980372	4050.363000	424.457031	69.469933
-7412.980372	4050.363000	423.186523	340.784607
-7412.980372	4050.363000	421.916992	185.260223
-7412.980372	4050.363000	420.646484	294.779602
-7412.980372	4050.363000	419.375977	317.908325
-7412.980372	4050.363000	418.104492	252.480423
-7412.980372	4050.363000	416.833008	259.749725
-7412.980372	4050.363000	415.561523	224.857986
-7412.980372	4050.363000	414.290039	467.874512
-7412.980372	4050.363000	413.017578	266.990021
-7412.980372	4050.363000	411.746094	79.195610
-7412.980372	4050.363000	410.472656	91.953583
-7412.980372	4050.363000	409.200195	305.137329
-7412.980372	4050.363000	407.926758	290.852051
-7412.980372	4050.363000	406.653320	245.430573
-7412.980372	4050.363000	405.379883	272.465393
-7412.980372	4050.363000	404.105469	127.312584
-7412.980372	4050.363000	402.831055	173.562347
-7412.980372	4050.363000	401.556641	283.335510
-7412.980372	4050.363000	400.282227	260.602112
-7412.980372	4050.363000	399.006836	257.330994
-7412.980372	4050.363000	397.731445	368.148041
-7412.980372	4050.363000	396.456055	97.839569
-7412.980372	4050.363000	395.179688	216.659515
-7412.980372	4050.363000	393.903320	187.645508
-7412.980372	4050.363000	392.626953	208.798523
-7412.980372	4050.363000	391.350586	291.064392
-7412.980372	4050.363000	390.073242	232.147217
-7412.980372	4050.363000	388.795898	144.212158
-7412.980372	4050.363000	387.518555	235.998672
-7412.980372	4050.363000	386.240234	142.702576
-7412.980372	4050.363000	384.961914	358.594177
-7412.980372	4050.363000	383.683594	380.621521
-7412.980372	4050.363000	382.405273	145.228348
-7412.980372	4050.363000	381.125977	93.710358
-7412.980372	4050.363000	379.846680	223.745743
-7412.980372	4050.363000	378.567383	105.197609
-7412.980372	4050.363000	377.287109	233.898773
-7412.980372	4050.363000	376.006836	138.205917
-7412.980372	4050.363000	374.726563	107.642662
-7412.980372	4050.363000	373.446289	45.698910
-7412.980372	4050.363000	372.165039	22.484438
-7412.980372	4050.363000	370.883789	13.863536
-7412.980372	4050.363000	369.602539	57.042156
-7412.980372	4050.363000	368.320313	49.011318
-7412.980372	4050.363000	367.039063	217.529892
-7412.980372	4050.363000	365.755859	1.992952
-7412.980372	4050.363000	364.473633	61.454109
-7412.980372	4050.363000	363.190430	41.189148
-7412.980372	4050.363000	361.907227	-155.016876
-7412.980372	4050.363000	360.624023	89.711433
-7412.980372	4050.363000	359.340820	105.921677
-7412.980372	4050.363000	358.056641	59.863644
-7412.980372	4050.363000	356.772461	-4.715598
-7412.980372	4050.363000	355.487305	8.292974
-7412.980372	4050.363000	354.202148	-128.390854
-7412.980372	4050.363000	352.916992	78.957581
-7412.980372	4050.363000	351.631836	1.127625
-7412.980372	4050.363000	350.346680	-274.391907
-7412.980372	4050.363000	349.060547	-5.348852
-7412.980372	4050.363000	347.774414	-62.897984
-7412.980372	4050.363000	346.487305	-3.957769
-7412.980372	4050.363000	345.200195	7.778185
-7412.980372	4050.363000	343.913086	266.735016
-7412.980372	4050.363000	342.625977	53.140770
-7412.980372	4050.363000	341.338867	25.636669
-7412.980372	4050.363000	340.050781	116.457626
-7412.980372	4050.363000	338.762695	-114.660385
-7412.980372	4050.363000	337.473633	-37.966217
-7412.980372	4050.363000	336.184570	-8.706893
-7412.980372	4050.363000	334.895508	-157.557327
-7412.980372	4050.363000	333.606445	-295.029297
-7412.980372	4050.363000	332.317383	-77.257637
-7412.980372	4050.363000	331.027344	34.068691
-7412.980372	4050.363000	329.736328	-67.648415
-7412.980372	4050.363000	328.446289	24.555122
-7412.980372	4050.363000	327.155273	-4.945417
-7412.980372	4050.363000	325.864258	35.268467
-7412.980372	4050.363000	324.573242	-180.984360
-7412.980372	4050.363000	323.281250	-147.243439
-7412.980372	4050.363000	321.989258	-46.202339
-7412.980372	4050.363000	320.697266	-86.517281
-7412.980372	4050.363000	319.405273	-120.459869
-7412.980372	4050.363000	318.112305	-50.438587
-7412.980372	4050.363000	316.819336	-71.915611
-7412.980372	4050.363000	315.526367	110.302589
-7412.980372	4050.363000	314.232422	-48.738972
-7412.980372	4050.363000	312.938477	-216.867004
-7412.980372	4050.363000	311.644531	-8.038305
-7412.980372	4050.363000	310.349609	-71.067444
-7412.980372	4050.363000	309.054688	64.719757
-7412.980372	4050.363000	307.759766	234.377167
-7412.980372	4050.363000	306.464844	188.579391
-7412.980372	4050.363000	305.168945	351.996552
-7412.980372	4050.363000	303.873047	468.874146
-7412.980372	4050.363000	302.577148	582.482117
-7412.980372	4050.363000	301.281250	480.543121
-7412.980372	4050.363000	299.984375	751.868896
