#X		#Y		#Wave		#Intensity
-7432.984255	4087.822500	1999.946289	39.570122
-7432.984255	4087.822500	1998.981445	-94.649818
-7432.984255	4087.822500	1998.017578	-280.403534
-7432.984255	4087.822500	1997.052734	-47.372524
-7432.984255	4087.822500	1996.088867	7.095458
-7432.984255	4087.822500	1995.124023	16.873213
-7432.984255	4087.822500	1994.159180	-55.166344
-7432.984255	4087.822500	1993.193359	107.989929
-7432.984255	4087.822500	1992.228516	53.134426
-7432.984255	4087.822500	1991.262695	15.553228
-7432.984255	4087.822500	1990.296875	84.332336
-7432.984255	4087.822500	1989.331055	46.612068
-7432.984255	4087.822500	1988.365234	157.273895
-7432.984255	4087.822500	1987.398438	97.153580
-7432.984255	4087.822500	1986.432617	-123.763428
-7432.984255	4087.822500	1985.465820	182.001251
-7432.984255	4087.822500	1984.499023	116.765327
-7432.984255	4087.822500	1983.532227	-89.395546
-7432.984255	4087.822500	1982.565430	-58.305153
-7432.984255	4087.822500	1981.597656	276.617767
-7432.984255	4087.822500	1980.629883	13.542647
-7432.984255	4087.822500	1979.662109	-34.617111
-7432.984255	4087.822500	1978.694336	-87.754730
-7432.984255	4087.822500	1977.726563	7.207233
-7432.984255	4087.822500	1976.758789	97.143059
-7432.984255	4087.822500	1975.790039	196.863983
-7432.984255	4087.822500	1974.821289	-11.949692
-7432.984255	4087.822500	1973.852539	-117.119057
-7432.984255	4087.822500	1972.883789	49.031822
-7432.984255	4087.822500	1971.915039	-135.126816
-7432.984255	4087.822500	1970.945313	272.508850
-7432.984255	4087.822500	1969.975586	142.518646
-7432.984255	4087.822500	1969.005859	-36.766273
-7432.984255	4087.822500	1968.036133	-16.417198
-7432.984255	4087.822500	1967.066406	114.755333
-7432.984255	4087.822500	1966.096680	112.809875
-7432.984255	4087.822500	1965.125977	167.471909
-7432.984255	4087.822500	1964.155273	10.295048
-7432.984255	4087.822500	1963.184570	27.942286
-7432.984255	4087.822500	1962.213867	-62.767162
-7432.984255	4087.822500	1961.242188	-3.352228
-7432.984255	4087.822500	1960.271484	161.812347
-7432.984255	4087.822500	1959.299805	68.553024
-7432.984255	4087.822500	1958.328125	34.325886
-7432.984255	4087.822500	1957.356445	91.071121
-7432.984255	4087.822500	1956.384766	51.863667
-7432.984255	4087.822500	1955.412109	34.761410
-7432.984255	4087.822500	1954.439453	-56.107651
-7432.984255	4087.822500	1953.467773	7.846533
-7432.984255	4087.822500	1952.495117	-186.244553
-7432.984255	4087.822500	1951.521484	123.302223
-7432.984255	4087.822500	1950.548828	56.916325
-7432.984255	4087.822500	1949.575195	96.116684
-7432.984255	4087.822500	1948.601563	-4.674672
-7432.984255	4087.822500	1947.627930	66.373863
-7432.984255	4087.822500	1946.654297	321.437622
-7432.984255	4087.822500	1945.680664	51.258305
-7432.984255	4087.822500	1944.706055	-54.474907
-7432.984255	4087.822500	1943.732422	173.402084
-7432.984255	4087.822500	1942.757813	271.185028
-7432.984255	4087.822500	1941.783203	216.880035
-7432.984255	4087.822500	1940.807617	211.597946
-7432.984255	4087.822500	1939.833008	130.308701
-7432.984255	4087.822500	1938.857422	53.923958
-7432.984255	4087.822500	1937.881836	-54.310871
-7432.984255	4087.822500	1936.906250	8.951247
-7432.984255	4087.822500	1935.930664	130.945999
-7432.984255	4087.822500	1934.955078	83.902229
-7432.984255	4087.822500	1933.978516	39.299660
-7432.984255	4087.822500	1933.001953	-27.341850
-7432.984255	4087.822500	1932.025391	23.494581
-7432.984255	4087.822500	1931.048828	181.955704
-7432.984255	4087.822500	1930.072266	-7.072489
-7432.984255	4087.822500	1929.094727	254.022354
-7432.984255	4087.822500	1928.118164	123.699814
-7432.984255	4087.822500	1927.140625	-11.489527
-7432.984255	4087.822500	1926.163086	46.482063
-7432.984255	4087.822500	1925.184570	-137.573975
-7432.984255	4087.822500	1924.207031	169.621368
-7432.984255	4087.822500	1923.228516	102.847008
-7432.984255	4087.822500	1922.250000	114.248856
-7432.984255	4087.822500	1921.271484	76.775299
-7432.984255	4087.822500	1920.292969	-102.341118
-7432.984255	4087.822500	1919.314453	-73.882492
-7432.984255	4087.822500	1918.334961	18.009251
-7432.984255	4087.822500	1917.355469	-39.031628
-7432.984255	4087.822500	1916.375977	16.174648
-7432.984255	4087.822500	1915.396484	3.027566
-7432.984255	4087.822500	1914.416992	80.115082
-7432.984255	4087.822500	1913.436523	140.080276
-7432.984255	4087.822500	1912.457031	-155.992767
-7432.984255	4087.822500	1911.476563	-186.250595
-7432.984255	4087.822500	1910.496094	-72.710236
-7432.984255	4087.822500	1909.515625	-229.736908
-7432.984255	4087.822500	1908.534180	-94.345856
-7432.984255	4087.822500	1907.552734	-85.702538
-7432.984255	4087.822500	1906.572266	115.331413
-7432.984255	4087.822500	1905.590820	-119.624245
-7432.984255	4087.822500	1904.608398	35.034901
-7432.984255	4087.822500	1903.626953	-134.137054
-7432.984255	4087.822500	1902.644531	-113.433594
-7432.984255	4087.822500	1901.663086	-73.290764
-7432.984255	4087.822500	1900.680664	-30.754101
-7432.984255	4087.822500	1899.698242	-0.416656
-7432.984255	4087.822500	1898.714844	-6.593784
-7432.984255	4087.822500	1897.732422	-83.302483
-7432.984255	4087.822500	1896.749023	-157.575745
-7432.984255	4087.822500	1895.765625	237.262939
-7432.984255	4087.822500	1894.782227	-77.670319
-7432.984255	4087.822500	1893.798828	-159.258423
-7432.984255	4087.822500	1892.814453	-7.634256
-7432.984255	4087.822500	1891.831055	124.483238
-7432.984255	4087.822500	1890.846680	343.946533
-7432.984255	4087.822500	1889.862305	218.546448
-7432.984255	4087.822500	1888.877930	34.911823
-7432.984255	4087.822500	1887.892578	89.164490
-7432.984255	4087.822500	1886.908203	-67.731674
-7432.984255	4087.822500	1885.922852	-8.675434
-7432.984255	4087.822500	1884.937500	-61.243015
-7432.984255	4087.822500	1883.952148	17.143557
-7432.984255	4087.822500	1882.965820	126.995659
-7432.984255	4087.822500	1881.980469	-42.001930
-7432.984255	4087.822500	1880.994141	65.347488
-7432.984255	4087.822500	1880.007813	-11.540038
-7432.984255	4087.822500	1879.021484	221.704468
-7432.984255	4087.822500	1878.035156	-17.535372
-7432.984255	4087.822500	1877.047852	-9.673144
-7432.984255	4087.822500	1876.061523	194.307236
-7432.984255	4087.822500	1875.074219	73.760391
-7432.984255	4087.822500	1874.086914	62.161068
-7432.984255	4087.822500	1873.098633	-68.049927
-7432.984255	4087.822500	1872.111328	-24.017452
-7432.984255	4087.822500	1871.123047	78.031837
-7432.984255	4087.822500	1870.135742	-86.047791
-7432.984255	4087.822500	1869.147461	-61.465523
-7432.984255	4087.822500	1868.158203	-19.996025
-7432.984255	4087.822500	1867.169922	50.442638
-7432.984255	4087.822500	1866.180664	-38.695774
-7432.984255	4087.822500	1865.192383	-86.744255
-7432.984255	4087.822500	1864.203125	-38.162247
-7432.984255	4087.822500	1863.213867	179.466690
-7432.984255	4087.822500	1862.223633	73.351593
-7432.984255	4087.822500	1861.234375	-35.164536
-7432.984255	4087.822500	1860.244141	117.068031
-7432.984255	4087.822500	1859.253906	83.352547
-7432.984255	4087.822500	1858.263672	-126.553391
-7432.984255	4087.822500	1857.273438	85.846130
-7432.984255	4087.822500	1856.282227	-25.133560
-7432.984255	4087.822500	1855.291992	-8.262429
-7432.984255	4087.822500	1854.300781	-13.134233
-7432.984255	4087.822500	1853.309570	-44.555920
-7432.984255	4087.822500	1852.317383	-13.323582
-7432.984255	4087.822500	1851.326172	41.971737
-7432.984255	4087.822500	1850.333984	-66.648705
-7432.984255	4087.822500	1849.342773	-11.425243
-7432.984255	4087.822500	1848.350586	125.642754
-7432.984255	4087.822500	1847.357422	69.955406
-7432.984255	4087.822500	1846.365234	-9.819254
-7432.984255	4087.822500	1845.372070	100.590729
-7432.984255	4087.822500	1844.379883	249.443359
-7432.984255	4087.822500	1843.386719	90.164772
-7432.984255	4087.822500	1842.393555	-18.558495
-7432.984255	4087.822500	1841.399414	127.723251
-7432.984255	4087.822500	1840.406250	141.633484
-7432.984255	4087.822500	1839.412109	47.288555
-7432.984255	4087.822500	1838.417969	142.885849
-7432.984255	4087.822500	1837.423828	-74.086502
-7432.984255	4087.822500	1836.429688	-55.478298
-7432.984255	4087.822500	1835.434570	78.426582
-7432.984255	4087.822500	1834.440430	262.702209
-7432.984255	4087.822500	1833.445313	141.813156
-7432.984255	4087.822500	1832.450195	-36.703083
-7432.984255	4087.822500	1831.454102	-13.494792
-7432.984255	4087.822500	1830.458984	-146.371429
-7432.984255	4087.822500	1829.462891	78.397003
-7432.984255	4087.822500	1828.466797	-56.919502
-7432.984255	4087.822500	1827.470703	-127.439247
-7432.984255	4087.822500	1826.474609	-111.608665
-7432.984255	4087.822500	1825.478516	-47.851730
-7432.984255	4087.822500	1824.481445	78.188942
-7432.984255	4087.822500	1823.484375	12.345071
-7432.984255	4087.822500	1822.487305	-103.848312
-7432.984255	4087.822500	1821.490234	17.229742
-7432.984255	4087.822500	1820.493164	-194.839828
-7432.984255	4087.822500	1819.495117	33.939857
-7432.984255	4087.822500	1818.498047	-36.806232
-7432.984255	4087.822500	1817.500000	179.808350
-7432.984255	4087.822500	1816.500977	118.556824
-7432.984255	4087.822500	1815.502930	-98.307693
-7432.984255	4087.822500	1814.504883	106.116898
-7432.984255	4087.822500	1813.505859	-110.742027
-7432.984255	4087.822500	1812.506836	33.715237
-7432.984255	4087.822500	1811.507813	-85.048515
-7432.984255	4087.822500	1810.508789	-93.790207
-7432.984255	4087.822500	1809.508789	146.112717
-7432.984255	4087.822500	1808.508789	120.514999
-7432.984255	4087.822500	1807.508789	11.229062
-7432.984255	4087.822500	1806.508789	85.962845
-7432.984255	4087.822500	1805.508789	-4.236848
-7432.984255	4087.822500	1804.508789	-132.663055
-7432.984255	4087.822500	1803.507813	27.920858
-7432.984255	4087.822500	1802.506836	-157.857666
-7432.984255	4087.822500	1801.505859	16.918303
-7432.984255	4087.822500	1800.504883	19.716501
-7432.984255	4087.822500	1799.502930	146.577148
-7432.984255	4087.822500	1798.501953	1.327837
-7432.984255	4087.822500	1797.500000	75.579308
-7432.984255	4087.822500	1796.498047	28.112555
-7432.984255	4087.822500	1795.496094	-88.536316
-7432.984255	4087.822500	1794.493164	-209.953217
-7432.984255	4087.822500	1793.491211	195.494537
-7432.984255	4087.822500	1792.488281	176.481781
-7432.984255	4087.822500	1791.485352	-37.972973
-7432.984255	4087.822500	1790.482422	21.612692
-7432.984255	4087.822500	1789.478516	174.034546
-7432.984255	4087.822500	1788.475586	61.996925
-7432.984255	4087.822500	1787.471680	95.213417
-7432.984255	4087.822500	1786.467773	104.568939
-7432.984255	4087.822500	1785.463867	-100.348595
-7432.984255	4087.822500	1784.459961	-41.059662
-7432.984255	4087.822500	1783.455078	-112.707161
-7432.984255	4087.822500	1782.450195	-148.682373
-7432.984255	4087.822500	1781.445313	27.006933
-7432.984255	4087.822500	1780.440430	71.795380
-7432.984255	4087.822500	1779.435547	-202.075760
-7432.984255	4087.822500	1778.429688	232.513138
-7432.984255	4087.822500	1777.424805	56.082718
-7432.984255	4087.822500	1776.418945	129.184677
-7432.984255	4087.822500	1775.413086	-139.900116
-7432.984255	4087.822500	1774.406250	125.532852
-7432.984255	4087.822500	1773.400391	-31.905668
-7432.984255	4087.822500	1772.393555	102.732254
-7432.984255	4087.822500	1771.386719	-95.083862
-7432.984255	4087.822500	1770.379883	-46.012115
-7432.984255	4087.822500	1769.373047	-184.474274
-7432.984255	4087.822500	1768.365234	21.108957
-7432.984255	4087.822500	1767.358398	8.337094
-7432.984255	4087.822500	1766.350586	192.383255
-7432.984255	4087.822500	1765.342773	-24.433176
-7432.984255	4087.822500	1764.334961	55.153542
-7432.984255	4087.822500	1763.326172	42.219646
-7432.984255	4087.822500	1762.318359	143.017349
-7432.984255	4087.822500	1761.309570	158.429428
-7432.984255	4087.822500	1760.300781	95.619202
-7432.984255	4087.822500	1759.291016	231.752625
-7432.984255	4087.822500	1758.282227	303.862488
-7432.984255	4087.822500	1757.272461	250.411377
-7432.984255	4087.822500	1756.262695	7.562780
-7432.984255	4087.822500	1755.252930	110.324677
-7432.984255	4087.822500	1754.243164	11.869136
-7432.984255	4087.822500	1753.233398	-84.219673
-7432.984255	4087.822500	1752.222656	56.231827
-7432.984255	4087.822500	1751.211914	137.467377
-7432.984255	4087.822500	1750.201172	197.355362
-7432.984255	4087.822500	1749.190430	141.342255
-7432.984255	4087.822500	1748.179688	-63.596115
-7432.984255	4087.822500	1747.167969	-190.512878
-7432.984255	4087.822500	1746.156250	-57.512745
-7432.984255	4087.822500	1745.144531	-4.916765
-7432.984255	4087.822500	1744.132813	14.557522
-7432.984255	4087.822500	1743.121094	114.277542
-7432.984255	4087.822500	1742.108398	161.977173
-7432.984255	4087.822500	1741.095703	-75.997940
-7432.984255	4087.822500	1740.083008	113.254829
-7432.984255	4087.822500	1739.070313	-65.698837
-7432.984255	4087.822500	1738.057617	14.890342
-7432.984255	4087.822500	1737.043945	-17.809311
-7432.984255	4087.822500	1736.030273	140.489456
-7432.984255	4087.822500	1735.016602	-14.894723
-7432.984255	4087.822500	1734.002930	-33.525036
-7432.984255	4087.822500	1732.989258	-96.961739
-7432.984255	4087.822500	1731.974609	185.985825
-7432.984255	4087.822500	1730.959961	18.795511
-7432.984255	4087.822500	1729.945313	-58.851719
-7432.984255	4087.822500	1728.930664	21.292492
-7432.984255	4087.822500	1727.916016	0.123965
-7432.984255	4087.822500	1726.900391	-4.594481
-7432.984255	4087.822500	1725.885742	110.707184
-7432.984255	4087.822500	1724.870117	-65.882278
-7432.984255	4087.822500	1723.853516	25.783890
-7432.984255	4087.822500	1722.837891	18.591303
-7432.984255	4087.822500	1721.822266	16.076187
-7432.984255	4087.822500	1720.805664	-2.934307
-7432.984255	4087.822500	1719.789063	27.406172
-7432.984255	4087.822500	1718.772461	-22.213547
-7432.984255	4087.822500	1717.754883	3.354918
-7432.984255	4087.822500	1716.738281	136.979935
-7432.984255	4087.822500	1715.720703	-27.836075
-7432.984255	4087.822500	1714.703125	30.520002
-7432.984255	4087.822500	1713.685547	-319.785461
-7432.984255	4087.822500	1712.667969	-52.484463
-7432.984255	4087.822500	1711.649414	22.189388
-7432.984255	4087.822500	1710.630859	-8.805963
-7432.984255	4087.822500	1709.612305	140.870697
-7432.984255	4087.822500	1708.593750	44.124062
-7432.984255	4087.822500	1707.575195	151.462341
-7432.984255	4087.822500	1706.555664	-158.718216
-7432.984255	4087.822500	1705.536133	91.592194
-7432.984255	4087.822500	1704.516602	137.829529
-7432.984255	4087.822500	1703.497070	-1.137619
-7432.984255	4087.822500	1702.477539	82.548584
-7432.984255	4087.822500	1701.457031	9.196412
-7432.984255	4087.822500	1700.437500	172.451324
-7432.984255	4087.822500	1699.416992	59.251690
-7432.984255	4087.822500	1698.395508	81.880142
-7432.984255	4087.822500	1697.375000	-61.734577
-7432.984255	4087.822500	1696.354492	-209.995132
-7432.984255	4087.822500	1695.333008	34.937939
-7432.984255	4087.822500	1694.311523	221.263138
-7432.984255	4087.822500	1693.290039	288.189911
-7432.984255	4087.822500	1692.267578	172.630951
-7432.984255	4087.822500	1691.246094	-20.063938
-7432.984255	4087.822500	1690.223633	180.077606
-7432.984255	4087.822500	1689.201172	106.630173
-7432.984255	4087.822500	1688.178711	47.217258
-7432.984255	4087.822500	1687.155273	111.647003
-7432.984255	4087.822500	1686.132813	169.036011
-7432.984255	4087.822500	1685.109375	-67.926712
-7432.984255	4087.822500	1684.085938	94.526871
-7432.984255	4087.822500	1683.062500	186.858170
-7432.984255	4087.822500	1682.039063	253.461243
-7432.984255	4087.822500	1681.014648	137.969360
-7432.984255	4087.822500	1679.990234	295.530487
-7432.984255	4087.822500	1678.965820	250.041580
-7432.984255	4087.822500	1677.941406	456.481689
-7432.984255	4087.822500	1676.916992	308.342499
-7432.984255	4087.822500	1675.891602	290.817810
-7432.984255	4087.822500	1674.866211	219.669937
-7432.984255	4087.822500	1673.840820	341.998962
-7432.984255	4087.822500	1672.815430	580.789795
-7432.984255	4087.822500	1671.790039	437.372955
-7432.984255	4087.822500	1670.763672	424.446259
-7432.984255	4087.822500	1669.737305	572.219177
-7432.984255	4087.822500	1668.710938	421.871033
-7432.984255	4087.822500	1667.684570	378.668854
-7432.984255	4087.822500	1666.658203	370.391571
-7432.984255	4087.822500	1665.630859	431.921387
-7432.984255	4087.822500	1664.603516	628.375183
-7432.984255	4087.822500	1663.576172	587.463440
-7432.984255	4087.822500	1662.548828	709.375122
-7432.984255	4087.822500	1661.520508	452.183960
-7432.984255	4087.822500	1660.493164	453.169922
-7432.984255	4087.822500	1659.464844	663.352966
-7432.984255	4087.822500	1658.436523	627.100891
-7432.984255	4087.822500	1657.408203	888.286255
-7432.984255	4087.822500	1656.378906	838.055054
-7432.984255	4087.822500	1655.350586	762.301575
-7432.984255	4087.822500	1654.321289	876.997925
-7432.984255	4087.822500	1653.291992	787.328186
-7432.984255	4087.822500	1652.261719	590.904297
-7432.984255	4087.822500	1651.232422	793.766907
-7432.984255	4087.822500	1650.202148	578.857910
-7432.984255	4087.822500	1649.171875	549.637878
-7432.984255	4087.822500	1648.141602	905.485229
-7432.984255	4087.822500	1647.111328	716.201294
-7432.984255	4087.822500	1646.080078	642.922485
-7432.984255	4087.822500	1645.049805	685.597473
-7432.984255	4087.822500	1644.018555	723.618469
-7432.984255	4087.822500	1642.987305	699.062256
-7432.984255	4087.822500	1641.955078	746.339539
-7432.984255	4087.822500	1640.923828	798.246704
-7432.984255	4087.822500	1639.891602	952.038330
-7432.984255	4087.822500	1638.859375	658.877991
-7432.984255	4087.822500	1637.827148	803.394165
-7432.984255	4087.822500	1636.794922	980.270081
-7432.984255	4087.822500	1635.761719	1020.541565
-7432.984255	4087.822500	1634.729492	894.226501
-7432.984255	4087.822500	1633.696289	791.097168
-7432.984255	4087.822500	1632.662109	960.929626
-7432.984255	4087.822500	1631.628906	663.609802
-7432.984255	4087.822500	1630.594727	708.582031
-7432.984255	4087.822500	1629.561523	876.067139
-7432.984255	4087.822500	1628.527344	717.635498
-7432.984255	4087.822500	1627.493164	822.689758
-7432.984255	4087.822500	1626.458008	874.578369
-7432.984255	4087.822500	1625.423828	764.789795
-7432.984255	4087.822500	1624.388672	959.876770
-7432.984255	4087.822500	1623.353516	857.067200
-7432.984255	4087.822500	1622.318359	938.985596
-7432.984255	4087.822500	1621.282227	852.404480
-7432.984255	4087.822500	1620.247070	1061.240601
-7432.984255	4087.822500	1619.210938	1143.121338
-7432.984255	4087.822500	1618.174805	881.311340
-7432.984255	4087.822500	1617.137695	1189.228882
-7432.984255	4087.822500	1616.101563	1100.478882
-7432.984255	4087.822500	1615.064453	1124.734741
-7432.984255	4087.822500	1614.027344	943.878540
-7432.984255	4087.822500	1612.990234	1325.371582
-7432.984255	4087.822500	1611.953125	923.420654
-7432.984255	4087.822500	1610.916016	869.469482
-7432.984255	4087.822500	1609.877930	1006.703003
-7432.984255	4087.822500	1608.839844	1215.288086
-7432.984255	4087.822500	1607.801758	1292.598267
-7432.984255	4087.822500	1606.763672	1224.902832
-7432.984255	4087.822500	1605.724609	1336.745972
-7432.984255	4087.822500	1604.685547	1476.181152
-7432.984255	4087.822500	1603.646484	1376.361328
-7432.984255	4087.822500	1602.607422	1223.711792
-7432.984255	4087.822500	1601.568359	1402.263428
-7432.984255	4087.822500	1600.528320	1063.506958
-7432.984255	4087.822500	1599.489258	1366.199951
-7432.984255	4087.822500	1598.449219	1151.738159
-7432.984255	4087.822500	1597.408203	1171.740479
-7432.984255	4087.822500	1596.368164	1325.008301
-7432.984255	4087.822500	1595.327148	1223.307739
-7432.984255	4087.822500	1594.287109	1032.134399
-7432.984255	4087.822500	1593.246094	1162.474243
-7432.984255	4087.822500	1592.204102	1040.301636
-7432.984255	4087.822500	1591.163086	1191.312866
-7432.984255	4087.822500	1590.121094	1128.908569
-7432.984255	4087.822500	1589.079102	1107.857422
-7432.984255	4087.822500	1588.037109	1249.694092
-7432.984255	4087.822500	1586.995117	1166.787476
-7432.984255	4087.822500	1585.953125	1049.560669
-7432.984255	4087.822500	1584.910156	939.287231
-7432.984255	4087.822500	1583.867188	973.478027
-7432.984255	4087.822500	1582.824219	870.215637
-7432.984255	4087.822500	1581.781250	970.920349
-7432.984255	4087.822500	1580.737305	934.193970
-7432.984255	4087.822500	1579.693359	989.122375
-7432.984255	4087.822500	1578.649414	925.015625
-7432.984255	4087.822500	1577.605469	1002.897583
-7432.984255	4087.822500	1576.561523	790.137024
-7432.984255	4087.822500	1575.516602	847.500793
-7432.984255	4087.822500	1574.472656	831.684021
-7432.984255	4087.822500	1573.427734	772.453613
-7432.984255	4087.822500	1572.381836	866.502563
-7432.984255	4087.822500	1571.336914	823.383118
-7432.984255	4087.822500	1570.291016	835.181702
-7432.984255	4087.822500	1569.246094	840.171143
-7432.984255	4087.822500	1568.200195	744.657837
-7432.984255	4087.822500	1567.153320	658.362000
-7432.984255	4087.822500	1566.107422	613.267151
-7432.984255	4087.822500	1565.060547	725.807800
-7432.984255	4087.822500	1564.013672	573.495972
-7432.984255	4087.822500	1562.966797	635.875916
-7432.984255	4087.822500	1561.919922	563.622009
-7432.984255	4087.822500	1560.872070	756.141479
-7432.984255	4087.822500	1559.825195	713.651428
-7432.984255	4087.822500	1558.777344	281.171051
-7432.984255	4087.822500	1557.729492	298.182617
-7432.984255	4087.822500	1556.680664	417.838715
-7432.984255	4087.822500	1555.632813	270.784760
-7432.984255	4087.822500	1554.583984	454.321564
-7432.984255	4087.822500	1553.535156	453.260315
-7432.984255	4087.822500	1552.486328	420.356323
-7432.984255	4087.822500	1551.436523	310.066986
-7432.984255	4087.822500	1550.387695	193.048065
-7432.984255	4087.822500	1549.337891	508.750183
-7432.984255	4087.822500	1548.288086	246.146423
-7432.984255	4087.822500	1547.238281	379.738098
-7432.984255	4087.822500	1546.187500	458.714417
-7432.984255	4087.822500	1545.136719	378.454407
-7432.984255	4087.822500	1544.086914	402.923950
-7432.984255	4087.822500	1543.035156	591.181213
-7432.984255	4087.822500	1541.984375	567.960693
-7432.984255	4087.822500	1540.933594	397.036621
-7432.984255	4087.822500	1539.881836	580.813293
-7432.984255	4087.822500	1538.830078	457.790588
-7432.984255	4087.822500	1537.778320	259.897522
-7432.984255	4087.822500	1536.725586	668.654785
-7432.984255	4087.822500	1535.673828	548.138306
-7432.984255	4087.822500	1534.621094	504.929230
-7432.984255	4087.822500	1533.568359	321.042694
-7432.984255	4087.822500	1532.515625	298.446747
-7432.984255	4087.822500	1531.461914	253.223938
-7432.984255	4087.822500	1530.409180	541.613586
-7432.984255	4087.822500	1529.355469	349.035339
-7432.984255	4087.822500	1528.301758	113.503975
-7432.984255	4087.822500	1527.247070	32.319969
-7432.984255	4087.822500	1526.193359	221.021057
-7432.984255	4087.822500	1525.138672	139.975494
-7432.984255	4087.822500	1524.083984	129.278915
-7432.984255	4087.822500	1523.029297	134.510712
-7432.984255	4087.822500	1521.974609	-7.439188
-7432.984255	4087.822500	1520.918945	-350.845184
-7432.984255	4087.822500	1519.863281	105.292427
-7432.984255	4087.822500	1518.807617	29.280504
-7432.984255	4087.822500	1517.751953	-82.850395
-7432.984255	4087.822500	1516.696289	-25.140066
-7432.984255	4087.822500	1515.639648	132.167679
-7432.984255	4087.822500	1514.583008	-190.103607
-7432.984255	4087.822500	1513.526367	10.281641
-7432.984255	4087.822500	1512.469727	-78.789604
-7432.984255	4087.822500	1511.412109	-45.674206
-7432.984255	4087.822500	1510.355469	66.612808
-7432.984255	4087.822500	1509.297852	7.165156
-7432.984255	4087.822500	1508.240234	-178.722351
-7432.984255	4087.822500	1507.181641	-118.232506
-7432.984255	4087.822500	1506.124023	-129.970718
-7432.984255	4087.822500	1505.065430	-225.188477
-7432.984255	4087.822500	1504.006836	65.770073
-7432.984255	4087.822500	1502.948242	108.384613
-7432.984255	4087.822500	1501.888672	-248.405273
-7432.984255	4087.822500	1500.830078	92.234749
-7432.984255	4087.822500	1499.770508	69.607544
-7432.984255	4087.822500	1498.710938	-61.203667
-7432.984255	4087.822500	1497.650391	-92.671158
-7432.984255	4087.822500	1496.590820	-33.871319
-7432.984255	4087.822500	1495.530273	-94.492943
-7432.984255	4087.822500	1494.469727	92.886749
-7432.984255	4087.822500	1493.409180	-147.850281
-7432.984255	4087.822500	1492.348633	-138.361115
-7432.984255	4087.822500	1491.287109	-7.177229
-7432.984255	4087.822500	1490.225586	-69.635910
-7432.984255	4087.822500	1489.164063	-12.670626
-7432.984255	4087.822500	1488.102539	168.149384
-7432.984255	4087.822500	1487.041016	-69.629852
-7432.984255	4087.822500	1485.978516	142.775909
-7432.984255	4087.822500	1484.916016	-11.492447
-7432.984255	4087.822500	1483.853516	-217.413361
-7432.984255	4087.822500	1482.791016	-225.249435
-7432.984255	4087.822500	1481.727539	-239.756180
-7432.984255	4087.822500	1480.664063	-132.786209
-7432.984255	4087.822500	1479.600586	104.562889
-7432.984255	4087.822500	1478.537109	13.845880
-7432.984255	4087.822500	1477.473633	-27.328796
-7432.984255	4087.822500	1476.409180	-252.567886
-7432.984255	4087.822500	1475.344727	9.541245
-7432.984255	4087.822500	1474.280273	-15.591191
-7432.984255	4087.822500	1473.215820	219.613937
-7432.984255	4087.822500	1472.151367	266.194733
-7432.984255	4087.822500	1471.085938	-14.396644
-7432.984255	4087.822500	1470.020508	328.605591
-7432.984255	4087.822500	1468.955078	371.017883
-7432.984255	4087.822500	1467.888672	171.379486
-7432.984255	4087.822500	1466.823242	290.101196
-7432.984255	4087.822500	1465.756836	292.406097
-7432.984255	4087.822500	1464.690430	277.245209
-7432.984255	4087.822500	1463.624023	301.793274
-7432.984255	4087.822500	1462.556641	353.497131
-7432.984255	4087.822500	1461.490234	307.648682
-7432.984255	4087.822500	1460.422852	452.714874
-7432.984255	4087.822500	1459.355469	638.422668
-7432.984255	4087.822500	1458.287109	397.485748
-7432.984255	4087.822500	1457.219727	351.644623
-7432.984255	4087.822500	1456.151367	807.342346
-7432.984255	4087.822500	1455.083008	582.907227
-7432.984255	4087.822500	1454.014648	605.373291
-7432.984255	4087.822500	1452.945313	515.838379
-7432.984255	4087.822500	1451.876953	604.905518
-7432.984255	4087.822500	1450.807617	535.366211
-7432.984255	4087.822500	1449.738281	571.907532
-7432.984255	4087.822500	1448.668945	582.978699
-7432.984255	4087.822500	1447.598633	525.877014
-7432.984255	4087.822500	1446.528320	566.177185
-7432.984255	4087.822500	1445.458008	616.813599
-7432.984255	4087.822500	1444.387695	226.573273
-7432.984255	4087.822500	1443.317383	433.789093
-7432.984255	4087.822500	1442.246094	415.962830
-7432.984255	4087.822500	1441.174805	618.530029
-7432.984255	4087.822500	1440.103516	589.981873
-7432.984255	4087.822500	1439.032227	388.895264
-7432.984255	4087.822500	1437.960938	401.895111
-7432.984255	4087.822500	1436.888672	661.750061
-7432.984255	4087.822500	1435.816406	391.272278
-7432.984255	4087.822500	1434.744141	446.681396
-7432.984255	4087.822500	1433.670898	429.652435
-7432.984255	4087.822500	1432.598633	307.714691
-7432.984255	4087.822500	1431.525391	50.415791
-7432.984255	4087.822500	1430.452148	176.429932
-7432.984255	4087.822500	1429.378906	-34.644474
-7432.984255	4087.822500	1428.304688	305.730286
-7432.984255	4087.822500	1427.231445	256.648193
-7432.984255	4087.822500	1426.157227	20.588198
-7432.984255	4087.822500	1425.083008	-61.124504
-7432.984255	4087.822500	1424.007813	88.250160
-7432.984255	4087.822500	1422.933594	163.882782
-7432.984255	4087.822500	1421.858398	362.198151
-7432.984255	4087.822500	1420.783203	241.857071
-7432.984255	4087.822500	1419.708008	248.806580
-7432.984255	4087.822500	1418.631836	130.811478
-7432.984255	4087.822500	1417.555664	273.274567
-7432.984255	4087.822500	1416.479492	299.716064
-7432.984255	4087.822500	1415.403320	309.017578
-7432.984255	4087.822500	1414.327148	181.137787
-7432.984255	4087.822500	1413.250000	251.084991
-7432.984255	4087.822500	1412.173828	301.895599
-7432.984255	4087.822500	1411.096680	373.719269
-7432.984255	4087.822500	1410.018555	325.410431
-7432.984255	4087.822500	1408.941406	250.985519
-7432.984255	4087.822500	1407.863281	216.132690
-7432.984255	4087.822500	1406.785156	336.880981
-7432.984255	4087.822500	1405.707031	172.356079
-7432.984255	4087.822500	1404.628906	417.503967
-7432.984255	4087.822500	1403.549805	326.639038
-7432.984255	4087.822500	1402.470703	409.377045
-7432.984255	4087.822500	1401.391602	216.975479
-7432.984255	4087.822500	1400.312500	117.135132
-7432.984255	4087.822500	1399.233398	185.563721
-7432.984255	4087.822500	1398.153320	449.902100
-7432.984255	4087.822500	1397.073242	372.282288
-7432.984255	4087.822500	1395.993164	198.829880
-7432.984255	4087.822500	1394.913086	524.016235
-7432.984255	4087.822500	1393.832031	307.817383
-7432.984255	4087.822500	1392.750977	226.318176
-7432.984255	4087.822500	1391.669922	281.965546
-7432.984255	4087.822500	1390.588867	204.065735
-7432.984255	4087.822500	1389.506836	196.643860
-7432.984255	4087.822500	1388.425781	128.599792
-7432.984255	4087.822500	1387.343750	132.179489
-7432.984255	4087.822500	1386.261719	224.731110
-7432.984255	4087.822500	1385.178711	287.939148
-7432.984255	4087.822500	1384.096680	195.153183
-7432.984255	4087.822500	1383.013672	234.386246
-7432.984255	4087.822500	1381.930664	110.699097
-7432.984255	4087.822500	1380.846680	9.369232
-7432.984255	4087.822500	1379.763672	16.700857
-7432.984255	4087.822500	1378.679688	190.147827
-7432.984255	4087.822500	1377.595703	134.064651
-7432.984255	4087.822500	1376.511719	220.618866
-7432.984255	4087.822500	1375.427734	200.588348
-7432.984255	4087.822500	1374.342773	136.816330
-7432.984255	4087.822500	1373.257813	174.319168
-7432.984255	4087.822500	1372.172852	82.266357
-7432.984255	4087.822500	1371.087891	23.735573
-7432.984255	4087.822500	1370.001953	156.456940
-7432.984255	4087.822500	1368.916992	301.987457
-7432.984255	4087.822500	1367.831055	-64.837120
-7432.984255	4087.822500	1366.744141	226.014145
-7432.984255	4087.822500	1365.658203	77.218056
-7432.984255	4087.822500	1364.571289	56.467102
-7432.984255	4087.822500	1363.484375	12.753712
-7432.984255	4087.822500	1362.397461	97.308861
-7432.984255	4087.822500	1361.310547	60.496342
-7432.984255	4087.822500	1360.222656	104.074020
-7432.984255	4087.822500	1359.135742	-1.353181
-7432.984255	4087.822500	1358.047852	80.960510
-7432.984255	4087.822500	1356.958984	16.836031
-7432.984255	4087.822500	1355.871094	56.270596
-7432.984255	4087.822500	1354.782227	53.606915
-7432.984255	4087.822500	1353.693359	150.876038
-7432.984255	4087.822500	1352.604492	140.485657
-7432.984255	4087.822500	1351.515625	244.399155
-7432.984255	4087.822500	1350.425781	175.149200
-7432.984255	4087.822500	1349.335938	213.939484
-7432.984255	4087.822500	1348.246094	141.837845
-7432.984255	4087.822500	1347.156250	126.974670
-7432.984255	4087.822500	1346.066406	385.199982
-7432.984255	4087.822500	1344.975586	186.914856
-7432.984255	4087.822500	1343.884766	171.922363
-7432.984255	4087.822500	1342.793945	139.476837
-7432.984255	4087.822500	1341.702148	137.525360
-7432.984255	4087.822500	1340.611328	407.997467
-7432.984255	4087.822500	1339.519531	430.278076
-7432.984255	4087.822500	1338.427734	491.914154
-7432.984255	4087.822500	1337.334961	358.406647
-7432.984255	4087.822500	1336.243164	251.648636
-7432.984255	4087.822500	1335.150391	168.132751
-7432.984255	4087.822500	1334.057617	266.255432
-7432.984255	4087.822500	1332.964844	169.861832
-7432.984255	4087.822500	1331.871094	347.198151
-7432.984255	4087.822500	1330.778320	364.522369
-7432.984255	4087.822500	1329.684570	92.503227
-7432.984255	4087.822500	1328.590820	201.862167
-7432.984255	4087.822500	1327.496094	182.079880
-7432.984255	4087.822500	1326.402344	152.228546
-7432.984255	4087.822500	1325.307617	190.046463
-7432.984255	4087.822500	1324.212891	113.998131
-7432.984255	4087.822500	1323.117188	126.300682
-7432.984255	4087.822500	1322.022461	120.077782
-7432.984255	4087.822500	1320.926758	191.925400
-7432.984255	4087.822500	1319.831055	185.976868
-7432.984255	4087.822500	1318.735352	222.337067
-7432.984255	4087.822500	1317.638672	382.770172
-7432.984255	4087.822500	1316.542969	444.814514
-7432.984255	4087.822500	1315.446289	343.297882
-7432.984255	4087.822500	1314.349609	296.562408
-7432.984255	4087.822500	1313.251953	357.450439
-7432.984255	4087.822500	1312.155273	444.926880
-7432.984255	4087.822500	1311.057617	394.560944
-7432.984255	4087.822500	1309.959961	408.598877
-7432.984255	4087.822500	1308.862305	552.762817
-7432.984255	4087.822500	1307.763672	388.049561
-7432.984255	4087.822500	1306.665039	377.713135
-7432.984255	4087.822500	1305.566406	389.097687
-7432.984255	4087.822500	1304.467773	424.541504
-7432.984255	4087.822500	1303.369141	192.535263
-7432.984255	4087.822500	1302.269531	513.867859
-7432.984255	4087.822500	1301.169922	312.904510
-7432.984255	4087.822500	1300.070313	500.120239
-7432.984255	4087.822500	1298.970703	353.445160
-7432.984255	4087.822500	1297.870117	342.135986
-7432.984255	4087.822500	1296.769531	478.853851
-7432.984255	4087.822500	1295.668945	341.146942
-7432.984255	4087.822500	1294.568359	481.897522
-7432.984255	4087.822500	1293.466797	290.113403
-7432.984255	4087.822500	1292.366211	504.940338
-7432.984255	4087.822500	1291.264648	366.934570
-7432.984255	4087.822500	1290.162109	212.155121
-7432.984255	4087.822500	1289.060547	393.142212
-7432.984255	4087.822500	1287.958008	262.688477
-7432.984255	4087.822500	1286.855469	278.768341
-7432.984255	4087.822500	1285.752930	166.824585
-7432.984255	4087.822500	1284.650391	111.508942
-7432.984255	4087.822500	1283.546875	185.192673
-7432.984255	4087.822500	1282.444336	350.197021
-7432.984255	4087.822500	1281.339844	104.521622
-7432.984255	4087.822500	1280.236328	282.419617
-7432.984255	4087.822500	1279.132813	229.289551
-7432.984255	4087.822500	1278.028320	260.549622
-7432.984255	4087.822500	1276.923828	308.950470
-7432.984255	4087.822500	1275.819336	102.991524
-7432.984255	4087.822500	1274.713867	17.769672
-7432.984255	4087.822500	1273.608398	11.187869
-7432.984255	4087.822500	1272.503906	140.436127
-7432.984255	4087.822500	1271.397461	-10.550053
-7432.984255	4087.822500	1270.291992	143.424530
-7432.984255	4087.822500	1269.185547	-38.675144
-7432.984255	4087.822500	1268.080078	123.067619
-7432.984255	4087.822500	1266.972656	138.995636
-7432.984255	4087.822500	1265.866211	-14.006530
-7432.984255	4087.822500	1264.759766	29.667881
-7432.984255	4087.822500	1263.652344	-74.101921
-7432.984255	4087.822500	1262.544922	-57.452110
-7432.984255	4087.822500	1261.436523	9.513138
-7432.984255	4087.822500	1260.329102	-44.692860
-7432.984255	4087.822500	1259.220703	-34.816940
-7432.984255	4087.822500	1258.112305	55.057442
-7432.984255	4087.822500	1257.003906	87.427780
-7432.984255	4087.822500	1255.895508	9.331620
-7432.984255	4087.822500	1254.786133	57.721455
-7432.984255	4087.822500	1253.676758	103.617340
-7432.984255	4087.822500	1252.567383	-6.173651
-7432.984255	4087.822500	1251.458008	-70.315140
-7432.984255	4087.822500	1250.347656	95.440300
-7432.984255	4087.822500	1249.237305	-20.661684
-7432.984255	4087.822500	1248.126953	6.921342
-7432.984255	4087.822500	1247.016602	-34.525993
-7432.984255	4087.822500	1245.905273	35.792561
-7432.984255	4087.822500	1244.793945	-48.297256
-7432.984255	4087.822500	1243.682617	45.850521
-7432.984255	4087.822500	1242.571289	-82.602516
-7432.984255	4087.822500	1241.459961	1.819674
-7432.984255	4087.822500	1240.347656	77.927986
-7432.984255	4087.822500	1239.235352	59.259121
-7432.984255	4087.822500	1238.123047	54.575272
-7432.984255	4087.822500	1237.009766	-87.355652
-7432.984255	4087.822500	1235.897461	145.206360
-7432.984255	4087.822500	1234.784180	94.144295
-7432.984255	4087.822500	1233.670898	172.542770
-7432.984255	4087.822500	1232.556641	185.144272
-7432.984255	4087.822500	1231.443359	122.569748
-7432.984255	4087.822500	1230.329102	-76.768555
-7432.984255	4087.822500	1229.214844	90.327278
-7432.984255	4087.822500	1228.099609	57.850712
-7432.984255	4087.822500	1226.985352	101.226479
-7432.984255	4087.822500	1225.870117	88.649948
-7432.984255	4087.822500	1224.754883	-67.233612
-7432.984255	4087.822500	1223.639648	-166.035034
-7432.984255	4087.822500	1222.523438	-78.156433
-7432.984255	4087.822500	1221.408203	-73.942451
-7432.984255	4087.822500	1220.291992	-116.804253
-7432.984255	4087.822500	1219.174805	-207.052902
-7432.984255	4087.822500	1218.058594	-133.607162
-7432.984255	4087.822500	1216.941406	-100.922241
-7432.984255	4087.822500	1215.824219	-149.136932
-7432.984255	4087.822500	1214.707031	-152.098358
-7432.984255	4087.822500	1213.589844	-110.474922
-7432.984255	4087.822500	1212.471680	-56.995983
-7432.984255	4087.822500	1211.353516	-196.242645
-7432.984255	4087.822500	1210.235352	-16.799322
-7432.984255	4087.822500	1209.117188	-59.898861
-7432.984255	4087.822500	1207.998047	-126.809723
-7432.984255	4087.822500	1206.878906	-150.434235
-7432.984255	4087.822500	1205.759766	-139.182953
-7432.984255	4087.822500	1204.640625	-9.328754
-7432.984255	4087.822500	1203.520508	55.577614
-7432.984255	4087.822500	1202.401367	-82.806931
-7432.984255	4087.822500	1201.281250	-1.803217
-7432.984255	4087.822500	1200.160156	-23.120684
-7432.984255	4087.822500	1199.040039	42.417255
-7432.984255	4087.822500	1197.918945	-23.331638
-7432.984255	4087.822500	1196.797852	88.654350
-7432.984255	4087.822500	1195.676758	77.251801
-7432.984255	4087.822500	1194.555664	114.356827
-7432.984255	4087.822500	1193.433594	104.864822
-7432.984255	4087.822500	1192.311523	35.422600
-7432.984255	4087.822500	1191.189453	45.586445
-7432.984255	4087.822500	1190.066406	-164.828384
-7432.984255	4087.822500	1188.944336	-26.111689
-7432.984255	4087.822500	1187.821289	-117.862091
-7432.984255	4087.822500	1186.698242	-180.359421
-7432.984255	4087.822500	1185.574219	-45.809956
-7432.984255	4087.822500	1184.451172	-43.436893
-7432.984255	4087.822500	1183.327148	-144.008972
-7432.984255	4087.822500	1182.203125	-56.270710
-7432.984255	4087.822500	1181.078125	-21.388472
-7432.984255	4087.822500	1179.954102	-140.480728
-7432.984255	4087.822500	1178.829102	-172.029266
-7432.984255	4087.822500	1177.704102	-130.406448
-7432.984255	4087.822500	1176.579102	-90.537392
-7432.984255	4087.822500	1175.453125	-142.240860
-7432.984255	4087.822500	1174.327148	-202.635239
-7432.984255	4087.822500	1173.201172	-224.059662
-7432.984255	4087.822500	1172.075195	-126.026115
-7432.984255	4087.822500	1170.949219	-6.488981
-7432.984255	4087.822500	1169.822266	-92.152908
-7432.984255	4087.822500	1168.695313	-83.724960
-7432.984255	4087.822500	1167.568359	-37.336254
-7432.984255	4087.822500	1166.440430	-152.809662
-7432.984255	4087.822500	1165.313477	-209.486542
-7432.984255	4087.822500	1164.185547	-169.224319
-7432.984255	4087.822500	1163.057617	-127.259209
-7432.984255	4087.822500	1161.928711	-108.205193
-7432.984255	4087.822500	1160.800781	-70.638710
-7432.984255	4087.822500	1159.671875	-88.382271
-7432.984255	4087.822500	1158.541992	-54.764297
-7432.984255	4087.822500	1157.413086	5.099898
-7432.984255	4087.822500	1156.283203	-58.038132
-7432.984255	4087.822500	1155.154297	117.923233
-7432.984255	4087.822500	1154.023438	-38.750610
-7432.984255	4087.822500	1152.893555	-32.791260
-7432.984255	4087.822500	1151.763672	-31.484726
-7432.984255	4087.822500	1150.632813	-61.785091
-7432.984255	4087.822500	1149.501953	-53.353916
-7432.984255	4087.822500	1148.370117	-12.865067
-7432.984255	4087.822500	1147.239258	97.545258
-7432.984255	4087.822500	1146.107422	-44.976387
-7432.984255	4087.822500	1144.975586	-75.550400
-7432.984255	4087.822500	1143.843750	-31.800953
-7432.984255	4087.822500	1142.710938	37.741508
-7432.984255	4087.822500	1141.578125	-54.941738
-7432.984255	4087.822500	1140.445313	-8.043213
-7432.984255	4087.822500	1139.312500	-15.285696
-7432.984255	4087.822500	1138.178711	14.322721
-7432.984255	4087.822500	1137.045898	81.017555
-7432.984255	4087.822500	1135.912109	-62.576645
-7432.984255	4087.822500	1134.777344	-1.617321
-7432.984255	4087.822500	1133.643555	126.647865
-7432.984255	4087.822500	1132.508789	242.394058
-7432.984255	4087.822500	1131.374023	178.366547
-7432.984255	4087.822500	1130.239258	308.492950
-7432.984255	4087.822500	1129.104492	381.117950
-7432.984255	4087.822500	1127.968750	374.051575
-7432.984255	4087.822500	1126.833008	241.596832
-7432.984255	4087.822500	1125.697266	216.493927
-7432.984255	4087.822500	1124.560547	301.893616
-7432.984255	4087.822500	1123.424805	202.622101
-7432.984255	4087.822500	1122.288086	339.653778
-7432.984255	4087.822500	1121.151367	308.582916
-7432.984255	4087.822500	1120.013672	232.193954
-7432.984255	4087.822500	1118.876953	443.084869
-7432.984255	4087.822500	1117.739258	281.911469
-7432.984255	4087.822500	1116.601563	306.735931
-7432.984255	4087.822500	1115.462891	454.877716
-7432.984255	4087.822500	1114.324219	376.371765
-7432.984255	4087.822500	1113.186523	350.561737
-7432.984255	4087.822500	1112.046875	184.415649
-7432.984255	4087.822500	1110.908203	175.437180
-7432.984255	4087.822500	1109.769531	194.512146
-7432.984255	4087.822500	1108.629883	243.706924
-7432.984255	4087.822500	1107.490234	143.231476
-7432.984255	4087.822500	1106.349609	243.374771
-7432.984255	4087.822500	1105.209961	244.997406
-7432.984255	4087.822500	1104.069336	196.107925
-7432.984255	4087.822500	1102.928711	168.802185
-7432.984255	4087.822500	1101.787109	303.737213
-7432.984255	4087.822500	1100.646484	36.267025
-7432.984255	4087.822500	1099.504883	183.956589
-7432.984255	4087.822500	1098.363281	153.574783
-7432.984255	4087.822500	1097.221680	226.584534
-7432.984255	4087.822500	1096.079102	387.006989
-7432.984255	4087.822500	1094.936523	237.243958
-7432.984255	4087.822500	1093.793945	252.024017
-7432.984255	4087.822500	1092.651367	191.148041
-7432.984255	4087.822500	1091.507813	341.258118
-7432.984255	4087.822500	1090.364258	174.232803
-7432.984255	4087.822500	1089.220703	359.112213
-7432.984255	4087.822500	1088.077148	171.516556
-7432.984255	4087.822500	1086.933594	282.858063
-7432.984255	4087.822500	1085.789063	246.828491
-7432.984255	4087.822500	1084.644531	360.516541
-7432.984255	4087.822500	1083.499023	184.410782
-7432.984255	4087.822500	1082.354492	285.875183
-7432.984255	4087.822500	1081.208984	110.527420
-7432.984255	4087.822500	1080.063477	441.216064
-7432.984255	4087.822500	1078.917969	176.660980
-7432.984255	4087.822500	1077.771484	369.755920
-7432.984255	4087.822500	1076.625977	255.364182
-7432.984255	4087.822500	1075.479492	408.162720
-7432.984255	4087.822500	1074.332031	332.432892
-7432.984255	4087.822500	1073.185547	346.652405
-7432.984255	4087.822500	1072.038086	408.336975
-7432.984255	4087.822500	1070.890625	288.772949
-7432.984255	4087.822500	1069.743164	103.319847
-7432.984255	4087.822500	1068.594727	451.799927
-7432.984255	4087.822500	1067.447266	120.762566
-7432.984255	4087.822500	1066.298828	362.793457
-7432.984255	4087.822500	1065.149414	519.411255
-7432.984255	4087.822500	1064.000977	422.732910
-7432.984255	4087.822500	1062.851563	240.425018
-7432.984255	4087.822500	1061.702148	237.536896
-7432.984255	4087.822500	1060.552734	416.414459
-7432.984255	4087.822500	1059.402344	349.520325
-7432.984255	4087.822500	1058.252930	89.826340
-7432.984255	4087.822500	1057.102539	89.334679
-7432.984255	4087.822500	1055.951172	117.714417
-7432.984255	4087.822500	1054.800781	217.914124
-7432.984255	4087.822500	1053.649414	114.516869
-7432.984255	4087.822500	1052.498047	62.093765
-7432.984255	4087.822500	1051.346680	134.851089
-7432.984255	4087.822500	1050.194336	115.752274
-7432.984255	4087.822500	1049.042969	241.542053
-7432.984255	4087.822500	1047.890625	205.456589
-7432.984255	4087.822500	1046.738281	210.602280
-7432.984255	4087.822500	1045.584961	420.264709
-7432.984255	4087.822500	1044.431641	76.637260
-7432.984255	4087.822500	1043.278320	113.513161
-7432.984255	4087.822500	1042.125000	190.855576
-7432.984255	4087.822500	1040.971680	190.368851
-7432.984255	4087.822500	1039.817383	43.688068
-7432.984255	4087.822500	1038.663086	270.324158
-7432.984255	4087.822500	1037.508789	145.155289
-7432.984255	4087.822500	1036.353516	129.155380
-7432.984255	4087.822500	1035.198242	66.884232
-7432.984255	4087.822500	1034.042969	350.062836
-7432.984255	4087.822500	1032.887695	343.372131
-7432.984255	4087.822500	1031.732422	236.208908
-7432.984255	4087.822500	1030.576172	395.668976
-7432.984255	4087.822500	1029.419922	229.077957
-7432.984255	4087.822500	1028.263672	159.730072
-7432.984255	4087.822500	1027.106445	158.466217
-7432.984255	4087.822500	1025.949219	120.161850
-7432.984255	4087.822500	1024.792969	140.540222
-7432.984255	4087.822500	1023.634766	64.026596
-7432.984255	4087.822500	1022.477539	175.978531
-7432.984255	4087.822500	1021.319336	155.238495
-7432.984255	4087.822500	1020.161133	330.042450
-7432.984255	4087.822500	1019.002930	328.832092
-7432.984255	4087.822500	1017.843750	-22.571369
-7432.984255	4087.822500	1016.684570	110.650124
-7432.984255	4087.822500	1015.525391	-44.545101
-7432.984255	4087.822500	1014.366211	122.147949
-7432.984255	4087.822500	1013.207031	90.898544
-7432.984255	4087.822500	1012.046875	209.317825
-7432.984255	4087.822500	1010.886719	65.472000
-7432.984255	4087.822500	1009.726563	66.940491
-7432.984255	4087.822500	1008.565430	-28.072830
-7432.984255	4087.822500	1007.404297	196.887955
-7432.984255	4087.822500	1006.243164	72.608337
-7432.984255	4087.822500	1005.082031	167.957779
-7432.984255	4087.822500	1003.920898	130.994232
-7432.984255	4087.822500	1002.758789	283.785706
-7432.984255	4087.822500	1001.596680	334.431793
-7432.984255	4087.822500	1000.433594	90.062996
-7432.984255	4087.822500	999.271484	236.130234
-7432.984255	4087.822500	998.108398	25.974222
-7432.984255	4087.822500	996.945313	199.885056
-7432.984255	4087.822500	995.782227	46.336697
-7432.984255	4087.822500	994.618164	-85.964272
-7432.984255	4087.822500	993.454102	-102.145668
-7432.984255	4087.822500	992.290039	-130.423965
-7432.984255	4087.822500	991.125977	29.006834
-7432.984255	4087.822500	989.960938	10.694078
-7432.984255	4087.822500	988.796875	-95.369995
-7432.984255	4087.822500	987.630859	-77.511848
-7432.984255	4087.822500	986.465820	38.997009
-7432.984255	4087.822500	985.300781	132.219543
-7432.984255	4087.822500	984.134766	71.301636
-7432.984255	4087.822500	982.968750	24.220102
-7432.984255	4087.822500	981.801758	182.128632
-7432.984255	4087.822500	980.635742	-23.058468
-7432.984255	4087.822500	979.468750	53.937515
-7432.984255	4087.822500	978.301758	122.738945
-7432.984255	4087.822500	977.133789	-64.440979
-7432.984255	4087.822500	975.966797	127.441063
-7432.984255	4087.822500	974.798828	115.732040
-7432.984255	4087.822500	973.630859	45.343430
-7432.984255	4087.822500	972.461914	123.421974
-7432.984255	4087.822500	971.293945	5.885099
-7432.984255	4087.822500	970.125000	146.808197
-7432.984255	4087.822500	968.956055	155.557861
-7432.984255	4087.822500	967.786133	-23.693811
-7432.984255	4087.822500	966.617188	-38.925808
-7432.984255	4087.822500	965.447266	35.774097
-7432.984255	4087.822500	964.276367	16.315363
-7432.984255	4087.822500	963.106445	14.918285
-7432.984255	4087.822500	961.935547	-167.169037
-7432.984255	4087.822500	960.764648	81.125107
-7432.984255	4087.822500	959.593750	152.086212
-7432.984255	4087.822500	958.422852	155.460648
-7432.984255	4087.822500	957.250977	-130.349091
-7432.984255	4087.822500	956.079102	52.266834
-7432.984255	4087.822500	954.907227	101.307739
-7432.984255	4087.822500	953.734375	-100.644234
-7432.984255	4087.822500	952.562500	-87.716331
-7432.984255	4087.822500	951.389648	132.739761
-7432.984255	4087.822500	950.215820	-0.386004
-7432.984255	4087.822500	949.042969	-35.346840
-7432.984255	4087.822500	947.869141	-54.344059
-7432.984255	4087.822500	946.695313	5.248810
-7432.984255	4087.822500	945.521484	-245.363846
-7432.984255	4087.822500	944.346680	-40.277695
-7432.984255	4087.822500	943.172852	-110.324982
-7432.984255	4087.822500	941.998047	28.335859
-7432.984255	4087.822500	940.822266	172.277359
-7432.984255	4087.822500	939.647461	117.536430
-7432.984255	4087.822500	938.471680	-171.554184
-7432.984255	4087.822500	937.295898	-98.959770
-7432.984255	4087.822500	936.119141	65.178047
-7432.984255	4087.822500	934.943359	0.259470
-7432.984255	4087.822500	933.766602	54.908234
-7432.984255	4087.822500	932.589844	-40.632957
-7432.984255	4087.822500	931.413086	-3.695894
-7432.984255	4087.822500	930.235352	58.614891
-7432.984255	4087.822500	929.057617	6.401473
-7432.984255	4087.822500	927.879883	91.603539
-7432.984255	4087.822500	926.702148	120.818977
-7432.984255	4087.822500	925.523438	-48.442528
-7432.984255	4087.822500	924.344727	16.397673
-7432.984255	4087.822500	923.166016	93.933540
-7432.984255	4087.822500	921.987305	-44.703854
-7432.984255	4087.822500	920.807617	93.837936
-7432.984255	4087.822500	919.627930	97.014496
-7432.984255	4087.822500	919.497070	8.988015
-7432.984255	4087.822500	918.331055	122.013626
-7432.984255	4087.822500	917.165039	115.571899
-7432.984255	4087.822500	915.999023	91.349525
-7432.984255	4087.822500	914.833008	6.181652
-7432.984255	4087.822500	913.666016	83.569130
-7432.984255	4087.822500	912.499023	-42.179955
-7432.984255	4087.822500	911.332031	-96.804688
-7432.984255	4087.822500	910.165039	-44.819569
-7432.984255	4087.822500	908.997070	9.686405
-7432.984255	4087.822500	907.830078	8.359487
-7432.984255	4087.822500	906.661133	-309.988586
-7432.984255	4087.822500	905.493164	66.577843
-7432.984255	4087.822500	904.325195	153.980438
-7432.984255	4087.822500	903.156250	-110.970406
-7432.984255	4087.822500	901.987305	42.327312
-7432.984255	4087.822500	900.818359	-27.396799
-7432.984255	4087.822500	899.648438	118.229156
-7432.984255	4087.822500	898.478516	71.318871
-7432.984255	4087.822500	897.308594	-114.834587
-7432.984255	4087.822500	896.138672	38.321629
-7432.984255	4087.822500	894.968750	-56.625473
-7432.984255	4087.822500	893.797852	149.606140
-7432.984255	4087.822500	892.626953	62.272705
-7432.984255	4087.822500	891.456055	141.927032
-7432.984255	4087.822500	890.284180	29.349209
-7432.984255	4087.822500	889.113281	283.449036
-7432.984255	4087.822500	887.941406	211.342209
-7432.984255	4087.822500	886.768555	192.348175
-7432.984255	4087.822500	885.596680	24.272190
-7432.984255	4087.822500	884.423828	167.020996
-7432.984255	4087.822500	883.250977	92.487503
-7432.984255	4087.822500	882.078125	96.274261
-7432.984255	4087.822500	880.905273	246.506317
-7432.984255	4087.822500	879.731445	25.601406
-7432.984255	4087.822500	878.557617	-33.683353
-7432.984255	4087.822500	877.383789	-52.566700
-7432.984255	4087.822500	876.209961	24.427938
-7432.984255	4087.822500	875.035156	-32.283661
-7432.984255	4087.822500	873.860352	77.467690
-7432.984255	4087.822500	872.685547	-9.480127
-7432.984255	4087.822500	871.510742	143.081863
-7432.984255	4087.822500	870.334961	-4.319264
-7432.984255	4087.822500	869.159180	-30.710627
-7432.984255	4087.822500	867.983398	41.160667
-7432.984255	4087.822500	866.807617	37.445946
-7432.984255	4087.822500	865.630859	-31.732992
-7432.984255	4087.822500	864.454102	153.401382
-7432.984255	4087.822500	863.277344	84.233765
-7432.984255	4087.822500	862.100586	-47.818901
-7432.984255	4087.822500	860.922852	64.250900
-7432.984255	4087.822500	859.745117	7.733361
-7432.984255	4087.822500	858.567383	-3.485863
-7432.984255	4087.822500	857.389648	-47.387325
-7432.984255	4087.822500	856.210938	-156.630508
-7432.984255	4087.822500	855.032227	38.310078
-7432.984255	4087.822500	853.853516	167.835709
-7432.984255	4087.822500	852.674805	66.161118
-7432.984255	4087.822500	851.495117	165.491058
-7432.984255	4087.822500	850.315430	21.171301
-7432.984255	4087.822500	849.135742	90.343330
-7432.984255	4087.822500	847.956055	81.666183
-7432.984255	4087.822500	846.775391	-60.029427
-7432.984255	4087.822500	845.595703	-53.612392
-7432.984255	4087.822500	844.415039	-187.691666
-7432.984255	4087.822500	843.233398	-8.165843
-7432.984255	4087.822500	842.052734	13.290495
-7432.984255	4087.822500	840.871094	69.844749
-7432.984255	4087.822500	839.689453	-151.880997
-7432.984255	4087.822500	838.506836	-65.235748
-7432.984255	4087.822500	837.325195	-186.609940
-7432.984255	4087.822500	836.142578	-37.360622
-7432.984255	4087.822500	834.959961	-63.506340
-7432.984255	4087.822500	833.777344	-69.607857
-7432.984255	4087.822500	832.593750	-18.117744
-7432.984255	4087.822500	831.410156	-101.823135
-7432.984255	4087.822500	830.226563	154.871445
-7432.984255	4087.822500	829.042969	-129.010803
-7432.984255	4087.822500	827.858398	70.045288
-7432.984255	4087.822500	826.673828	-136.166367
-7432.984255	4087.822500	825.489258	-19.714401
-7432.984255	4087.822500	824.304688	-28.318787
-7432.984255	4087.822500	823.120117	-29.422178
-7432.984255	4087.822500	821.934570	-55.516273
-7432.984255	4087.822500	820.749023	-56.615791
-7432.984255	4087.822500	819.562500	-70.206589
-7432.984255	4087.822500	818.376953	-123.758240
-7432.984255	4087.822500	817.190430	-7.491215
-7432.984255	4087.822500	816.003906	6.366864
-7432.984255	4087.822500	814.817383	42.678970
-7432.984255	4087.822500	813.629883	-35.818142
-7432.984255	4087.822500	812.442383	-89.337456
-7432.984255	4087.822500	811.254883	-55.534561
-7432.984255	4087.822500	810.067383	8.175168
-7432.984255	4087.822500	808.878906	-65.282104
-7432.984255	4087.822500	807.690430	-106.307846
-7432.984255	4087.822500	806.501953	-10.241259
-7432.984255	4087.822500	805.313477	-268.067078
-7432.984255	4087.822500	804.124023	-199.424606
-7432.984255	4087.822500	802.934570	48.521988
-7432.984255	4087.822500	801.745117	-17.421988
-7432.984255	4087.822500	800.555664	6.286060
-7432.984255	4087.822500	799.365234	47.402271
-7432.984255	4087.822500	798.175781	170.619278
-7432.984255	4087.822500	796.985352	84.765144
-7432.984255	4087.822500	795.793945	-80.669334
-7432.984255	4087.822500	794.603516	-106.763954
-7432.984255	4087.822500	793.412109	43.700890
-7432.984255	4087.822500	792.220703	0.169466
-7432.984255	4087.822500	791.028320	-75.667603
-7432.984255	4087.822500	789.836914	-2.378354
-7432.984255	4087.822500	788.644531	-167.656357
-7432.984255	4087.822500	787.452148	-79.495781
-7432.984255	4087.822500	786.258789	35.936481
-7432.984255	4087.822500	785.066406	-17.546656
-7432.984255	4087.822500	783.873047	25.801558
-7432.984255	4087.822500	782.679688	-171.644867
-7432.984255	4087.822500	781.485352	-4.231596
-7432.984255	4087.822500	780.291992	91.142464
-7432.984255	4087.822500	779.097656	-11.978210
-7432.984255	4087.822500	777.903320	41.167141
-7432.984255	4087.822500	776.708008	-166.070908
-7432.984255	4087.822500	775.512695	55.624073
-7432.984255	4087.822500	774.318359	44.229736
-7432.984255	4087.822500	773.122070	-192.668198
-7432.984255	4087.822500	771.926758	-20.711081
-7432.984255	4087.822500	770.730469	-54.426941
-7432.984255	4087.822500	769.534180	-214.446533
-7432.984255	4087.822500	768.337891	1.917157
-7432.984255	4087.822500	767.141602	-116.007256
-7432.984255	4087.822500	765.944336	-80.460190
-7432.984255	4087.822500	764.747070	88.664948
-7432.984255	4087.822500	763.549805	79.580551
-7432.984255	4087.822500	762.351563	18.539299
-7432.984255	4087.822500	761.154297	-64.757652
-7432.984255	4087.822500	759.956055	-172.764450
-7432.984255	4087.822500	758.757813	45.524021
-7432.984255	4087.822500	757.558594	-82.278320
-7432.984255	4087.822500	756.359375	-123.577454
-7432.984255	4087.822500	755.160156	-290.868042
-7432.984255	4087.822500	753.960938	196.361160
-7432.984255	4087.822500	752.761719	16.674072
-7432.984255	4087.822500	751.561523	-0.030359
-7432.984255	4087.822500	750.361328	67.161331
-7432.984255	4087.822500	749.160156	-72.984772
-7432.984255	4087.822500	747.959961	-3.395964
-7432.984255	4087.822500	746.758789	24.201632
-7432.984255	4087.822500	745.557617	-29.623163
-7432.984255	4087.822500	744.356445	71.875229
-7432.984255	4087.822500	743.154297	3.210806
-7432.984255	4087.822500	741.952148	38.055012
-7432.984255	4087.822500	740.750000	77.780373
-7432.984255	4087.822500	739.547852	53.403946
-7432.984255	4087.822500	738.344727	-32.571106
-7432.984255	4087.822500	737.142578	80.918617
-7432.984255	4087.822500	735.939453	273.111359
-7432.984255	4087.822500	734.735352	275.654968
-7432.984255	4087.822500	733.532227	332.301483
-7432.984255	4087.822500	732.328125	118.239166
-7432.984255	4087.822500	731.124023	160.063553
-7432.984255	4087.822500	729.918945	324.805908
-7432.984255	4087.822500	728.714844	177.157959
-7432.984255	4087.822500	727.509766	191.788239
-7432.984255	4087.822500	726.303711	95.770348
-7432.984255	4087.822500	725.098633	51.355812
-7432.984255	4087.822500	723.892578	124.850632
-7432.984255	4087.822500	722.686523	53.348595
-7432.984255	4087.822500	721.480469	45.688076
-7432.984255	4087.822500	720.274414	45.353928
-7432.984255	4087.822500	719.067383	-92.490044
-7432.984255	4087.822500	717.860352	226.178818
-7432.984255	4087.822500	716.653320	159.427399
-7432.984255	4087.822500	715.445313	-56.986843
-7432.984255	4087.822500	714.238281	-180.151596
-7432.984255	4087.822500	713.030273	37.551060
-7432.984255	4087.822500	711.821289	49.174248
-7432.984255	4087.822500	710.613281	82.805313
-7432.984255	4087.822500	709.404297	-3.705617
-7432.984255	4087.822500	708.195313	-2.022113
-7432.984255	4087.822500	706.986328	-56.728615
-7432.984255	4087.822500	705.776367	-153.094299
-7432.984255	4087.822500	704.566406	-102.550171
-7432.984255	4087.822500	703.356445	58.088860
-7432.984255	4087.822500	702.146484	37.488369
-7432.984255	4087.822500	700.935547	-39.436375
-7432.984255	4087.822500	699.724609	128.279282
-7432.984255	4087.822500	698.513672	39.037273
-7432.984255	4087.822500	697.302734	123.414322
-7432.984255	4087.822500	696.090820	139.244507
-7432.984255	4087.822500	694.878906	79.235809
-7432.984255	4087.822500	693.666992	-171.433441
-7432.984255	4087.822500	692.455078	47.100639
-7432.984255	4087.822500	691.242188	140.898514
-7432.984255	4087.822500	690.029297	-51.166580
-7432.984255	4087.822500	688.816406	-23.428988
-7432.984255	4087.822500	687.602539	40.864044
-7432.984255	4087.822500	686.389648	197.829895
-7432.984255	4087.822500	685.175781	122.834778
-7432.984255	4087.822500	683.960938	291.805939
-7432.984255	4087.822500	682.747070	272.816132
-7432.984255	4087.822500	681.532227	212.317245
-7432.984255	4087.822500	680.317383	398.061829
-7432.984255	4087.822500	679.102539	320.382599
-7432.984255	4087.822500	677.886719	310.922638
-7432.984255	4087.822500	676.670898	381.825256
-7432.984255	4087.822500	675.455078	345.440765
-7432.984255	4087.822500	674.239258	294.398804
-7432.984255	4087.822500	673.022461	104.507332
-7432.984255	4087.822500	671.805664	141.070053
-7432.984255	4087.822500	670.588867	226.242966
-7432.984255	4087.822500	669.372070	216.404739
-7432.984255	4087.822500	668.154297	216.242126
-7432.984255	4087.822500	666.936523	-7.790575
-7432.984255	4087.822500	665.718750	30.888479
-7432.984255	4087.822500	664.500977	144.871857
-7432.984255	4087.822500	663.282227	37.509220
-7432.984255	4087.822500	662.063477	195.071548
-7432.984255	4087.822500	660.844727	124.072319
-7432.984255	4087.822500	659.625000	235.263458
-7432.984255	4087.822500	658.405273	93.715881
-7432.984255	4087.822500	657.185547	136.741013
-7432.984255	4087.822500	655.965820	364.220551
-7432.984255	4087.822500	654.745117	278.381805
-7432.984255	4087.822500	653.525391	146.402573
-7432.984255	4087.822500	652.303711	371.119232
-7432.984255	4087.822500	651.083008	168.694260
-7432.984255	4087.822500	649.861328	56.035343
-7432.984255	4087.822500	648.640625	188.288498
-7432.984255	4087.822500	647.417969	17.356913
-7432.984255	4087.822500	646.196289	115.499428
-7432.984255	4087.822500	644.973633	2.691743
-7432.984255	4087.822500	643.750977	115.204750
-7432.984255	4087.822500	642.528320	-19.483995
-7432.984255	4087.822500	641.305664	3.246612
-7432.984255	4087.822500	640.082031	142.131256
-7432.984255	4087.822500	638.858398	162.268250
-7432.984255	4087.822500	637.634766	116.982834
-7432.984255	4087.822500	636.410156	32.931458
-7432.984255	4087.822500	635.185547	202.888397
-7432.984255	4087.822500	633.960938	111.470932
-7432.984255	4087.822500	632.736328	172.385223
-7432.984255	4087.822500	631.510742	155.837387
-7432.984255	4087.822500	630.285156	129.564835
-7432.984255	4087.822500	629.059570	-51.438152
-7432.984255	4087.822500	627.833984	190.428207
-7432.984255	4087.822500	626.607422	120.488029
-7432.984255	4087.822500	625.380859	50.514149
-7432.984255	4087.822500	624.154297	57.780197
-7432.984255	4087.822500	622.927734	-48.489002
-7432.984255	4087.822500	621.700195	-48.572968
-7432.984255	4087.822500	620.472656	-22.174223
-7432.984255	4087.822500	619.245117	8.977022
-7432.984255	4087.822500	618.016602	13.516178
-7432.984255	4087.822500	616.788086	-61.594048
-7432.984255	4087.822500	615.559570	-201.835785
-7432.984255	4087.822500	614.331055	43.629173
-7432.984255	4087.822500	613.101563	-38.855885
-7432.984255	4087.822500	611.872070	150.924911
-7432.984255	4087.822500	610.642578	27.375246
-7432.984255	4087.822500	609.413086	-45.599255
-7432.984255	4087.822500	608.182617	-70.443512
-7432.984255	4087.822500	606.952148	-220.532227
-7432.984255	4087.822500	605.721680	-67.321053
-7432.984255	4087.822500	604.491211	-0.871097
-7432.984255	4087.822500	603.259766	60.677280
-7432.984255	4087.822500	602.028320	45.163475
-7432.984255	4087.822500	600.796875	72.890678
-7432.984255	4087.822500	599.564453	76.499680
-7432.984255	4087.822500	598.332031	111.303688
-7432.984255	4087.822500	597.099609	76.335419
-7432.984255	4087.822500	595.867188	132.640305
-7432.984255	4087.822500	594.633789	143.215485
-7432.984255	4087.822500	593.400391	199.368484
-7432.984255	4087.822500	592.166992	214.619415
-7432.984255	4087.822500	590.933594	342.654358
-7432.984255	4087.822500	589.699219	26.496714
-7432.984255	4087.822500	588.464844	226.407349
-7432.984255	4087.822500	587.230469	145.447433
-7432.984255	4087.822500	585.995117	222.795517
-7432.984255	4087.822500	584.760742	338.438049
-7432.984255	4087.822500	583.525391	331.685638
-7432.984255	4087.822500	582.289063	178.642319
-7432.984255	4087.822500	581.053711	382.751831
-7432.984255	4087.822500	579.817383	54.730881
-7432.984255	4087.822500	578.581055	100.554588
-7432.984255	4087.822500	577.343750	131.934555
-7432.984255	4087.822500	576.107422	342.871460
-7432.984255	4087.822500	574.870117	206.492889
-7432.984255	4087.822500	573.631836	211.357056
-7432.984255	4087.822500	572.394531	208.999054
-7432.984255	4087.822500	571.156250	371.696655
-7432.984255	4087.822500	569.917969	364.430237
-7432.984255	4087.822500	568.679688	247.102844
-7432.984255	4087.822500	567.440430	103.476654
-7432.984255	4087.822500	566.202148	244.373260
-7432.984255	4087.822500	564.961914	215.453598
-7432.984255	4087.822500	563.722656	203.239883
-7432.984255	4087.822500	562.482422	238.771210
-7432.984255	4087.822500	561.243164	257.533508
-7432.984255	4087.822500	560.001953	324.005707
-7432.984255	4087.822500	558.761719	125.385231
-7432.984255	4087.822500	557.520508	258.624023
-7432.984255	4087.822500	556.279297	334.491913
-7432.984255	4087.822500	555.038086	207.471069
-7432.984255	4087.822500	553.795898	397.755096
-7432.984255	4087.822500	552.554688	168.147614
-7432.984255	4087.822500	551.311523	157.982590
-7432.984255	4087.822500	550.069336	245.541901
-7432.984255	4087.822500	548.826172	142.341644
-7432.984255	4087.822500	547.583984	84.438614
-7432.984255	4087.822500	546.339844	119.442818
-7432.984255	4087.822500	545.096680	56.742847
-7432.984255	4087.822500	543.852539	139.312637
-7432.984255	4087.822500	542.608398	-32.951828
-7432.984255	4087.822500	541.364258	4.318380
-7432.984255	4087.822500	540.119141	-151.238129
-7432.984255	4087.822500	538.875000	-118.768433
-7432.984255	4087.822500	537.628906	-29.248880
-7432.984255	4087.822500	536.383789	-80.118675
-7432.984255	4087.822500	535.137695	14.063596
-7432.984255	4087.822500	533.892578	-124.803177
-7432.984255	4087.822500	532.645508	-140.040268
-7432.984255	4087.822500	531.399414	-48.345543
-7432.984255	4087.822500	530.152344	5.269120
-7432.984255	4087.822500	528.905273	44.589439
-7432.984255	4087.822500	527.658203	-60.996262
-7432.984255	4087.822500	526.410156	-35.967812
-7432.984255	4087.822500	525.163086	-158.144012
-7432.984255	4087.822500	523.914063	-107.036934
-7432.984255	4087.822500	522.666016	-131.895096
-7432.984255	4087.822500	521.416992	47.260563
-7432.984255	4087.822500	520.167969	41.318237
-7432.984255	4087.822500	518.918945	2.164164
-7432.984255	4087.822500	517.669922	-20.391624
-7432.984255	4087.822500	516.419922	13.931532
-7432.984255	4087.822500	515.169922	88.513962
-7432.984255	4087.822500	513.919922	-156.808014
-7432.984255	4087.822500	512.668945	-18.294859
-7432.984255	4087.822500	511.417969	-55.107330
-7432.984255	4087.822500	510.166992	-13.780293
-7432.984255	4087.822500	508.916016	-112.152367
-7432.984255	4087.822500	507.664063	-255.468552
-7432.984255	4087.822500	506.412109	-209.432663
-7432.984255	4087.822500	505.160156	-276.985016
-7432.984255	4087.822500	503.907227	-283.027985
-7432.984255	4087.822500	502.655273	-241.779984
-7432.984255	4087.822500	501.402344	-113.089905
-7432.984255	4087.822500	500.148438	-277.573029
-7432.984255	4087.822500	498.895508	-151.317062
-7432.984255	4087.822500	497.641602	-209.422989
-7432.984255	4087.822500	496.387695	11.223403
-7432.984255	4087.822500	495.132813	-122.495468
-7432.984255	4087.822500	493.878906	-34.213348
-7432.984255	4087.822500	492.624023	-73.464127
-7432.984255	4087.822500	491.368164	-39.549976
-7432.984255	4087.822500	490.113281	-19.817677
-7432.984255	4087.822500	488.857422	14.042423
-7432.984255	4087.822500	487.601563	-55.907581
-7432.984255	4087.822500	486.344727	-121.131454
-7432.984255	4087.822500	485.088867	42.350994
-7432.984255	4087.822500	483.832031	-55.898991
-7432.984255	4087.822500	482.575195	-121.132050
-7432.984255	4087.822500	481.317383	4.483627
-7432.984255	4087.822500	480.059570	26.378899
-7432.984255	4087.822500	478.801758	100.055603
-7432.984255	4087.822500	477.543945	114.813332
-7432.984255	4087.822500	476.285156	56.560673
-7432.984255	4087.822500	475.027344	-55.818333
-7432.984255	4087.822500	473.767578	-38.767555
-7432.984255	4087.822500	472.508789	51.181248
-7432.984255	4087.822500	471.249023	-30.641281
-7432.984255	4087.822500	469.989258	113.286934
-7432.984255	4087.822500	468.729492	-50.864056
-7432.984255	4087.822500	467.469727	3.618670
-7432.984255	4087.822500	466.208984	-115.865074
-7432.984255	4087.822500	464.948242	25.458406
-7432.984255	4087.822500	463.686523	178.418335
-7432.984255	4087.822500	462.425781	-67.968979
-7432.984255	4087.822500	461.164063	108.334808
-7432.984255	4087.822500	459.901367	129.575058
-7432.984255	4087.822500	458.639648	-4.140326
-7432.984255	4087.822500	457.376953	-133.165146
-7432.984255	4087.822500	456.114258	87.353745
-7432.984255	4087.822500	454.851563	14.536260
-7432.984255	4087.822500	453.587891	-6.730110
-7432.984255	4087.822500	452.324219	189.975845
-7432.984255	4087.822500	451.060547	112.287300
-7432.984255	4087.822500	449.796875	25.183001
-7432.984255	4087.822500	448.532227	20.034000
-7432.984255	4087.822500	447.267578	75.706429
-7432.984255	4087.822500	446.002930	-6.904457
-7432.984255	4087.822500	444.737305	299.093231
-7432.984255	4087.822500	443.471680	139.026215
-7432.984255	4087.822500	442.206055	126.372307
-7432.984255	4087.822500	440.940430	-10.395782
-7432.984255	4087.822500	439.673828	42.267117
-7432.984255	4087.822500	438.407227	-54.895668
-7432.984255	4087.822500	437.140625	128.464020
-7432.984255	4087.822500	435.873047	119.907127
-7432.984255	4087.822500	434.605469	59.798721
-7432.984255	4087.822500	433.337891	-19.117132
-7432.984255	4087.822500	432.070313	240.623154
-7432.984255	4087.822500	430.801758	198.771637
-7432.984255	4087.822500	429.533203	28.337547
-7432.984255	4087.822500	428.264648	173.010376
-7432.984255	4087.822500	426.996094	198.398361
-7432.984255	4087.822500	425.726563	295.935791
-7432.984255	4087.822500	424.457031	218.246674
-7432.984255	4087.822500	423.186523	12.083868
-7432.984255	4087.822500	421.916992	-23.927500
-7432.984255	4087.822500	420.646484	238.322983
-7432.984255	4087.822500	419.375977	108.585869
-7432.984255	4087.822500	418.104492	97.536194
-7432.984255	4087.822500	416.833008	268.013184
-7432.984255	4087.822500	415.561523	237.809341
-7432.984255	4087.822500	414.290039	191.056824
-7432.984255	4087.822500	413.017578	239.525482
-7432.984255	4087.822500	411.746094	143.353836
-7432.984255	4087.822500	410.472656	-102.057968
-7432.984255	4087.822500	409.200195	78.228348
-7432.984255	4087.822500	407.926758	44.058804
-7432.984255	4087.822500	406.653320	72.389076
-7432.984255	4087.822500	405.379883	158.516205
-7432.984255	4087.822500	404.105469	-92.906029
-7432.984255	4087.822500	402.831055	76.193024
-7432.984255	4087.822500	401.556641	-1.517514
-7432.984255	4087.822500	400.282227	266.651642
-7432.984255	4087.822500	399.006836	109.150597
-7432.984255	4087.822500	397.731445	16.341730
-7432.984255	4087.822500	396.456055	99.632011
-7432.984255	4087.822500	395.179688	98.852325
-7432.984255	4087.822500	393.903320	-43.975006
-7432.984255	4087.822500	392.626953	19.327362
-7432.984255	4087.822500	391.350586	105.317261
-7432.984255	4087.822500	390.073242	9.818663
-7432.984255	4087.822500	388.795898	39.075401
-7432.984255	4087.822500	387.518555	42.276905
-7432.984255	4087.822500	386.240234	116.770088
-7432.984255	4087.822500	384.961914	195.292816
-7432.984255	4087.822500	383.683594	222.212936
-7432.984255	4087.822500	382.405273	123.414459
-7432.984255	4087.822500	381.125977	-10.729962
-7432.984255	4087.822500	379.846680	125.462799
-7432.984255	4087.822500	378.567383	115.074615
-7432.984255	4087.822500	377.287109	80.835548
-7432.984255	4087.822500	376.006836	-9.637654
-7432.984255	4087.822500	374.726563	-100.805588
-7432.984255	4087.822500	373.446289	297.690002
-7432.984255	4087.822500	372.165039	281.257599
-7432.984255	4087.822500	370.883789	-4.173476
-7432.984255	4087.822500	369.602539	5.579702
-7432.984255	4087.822500	368.320313	176.232666
-7432.984255	4087.822500	367.039063	-42.218933
-7432.984255	4087.822500	365.755859	-88.267776
-7432.984255	4087.822500	364.473633	135.022797
-7432.984255	4087.822500	363.190430	-2.979147
-7432.984255	4087.822500	361.907227	118.967827
-7432.984255	4087.822500	360.624023	-7.109681
-7432.984255	4087.822500	359.340820	131.201080
-7432.984255	4087.822500	358.056641	95.326843
-7432.984255	4087.822500	356.772461	205.992981
-7432.984255	4087.822500	355.487305	117.132057
-7432.984255	4087.822500	354.202148	144.734390
-7432.984255	4087.822500	352.916992	53.577667
-7432.984255	4087.822500	351.631836	-43.370609
-7432.984255	4087.822500	350.346680	63.529247
-7432.984255	4087.822500	349.060547	-250.187744
-7432.984255	4087.822500	347.774414	-76.845688
-7432.984255	4087.822500	346.487305	-73.062454
-7432.984255	4087.822500	345.200195	99.674286
-7432.984255	4087.822500	343.913086	188.047501
-7432.984255	4087.822500	342.625977	28.699411
-7432.984255	4087.822500	341.338867	-58.468735
-7432.984255	4087.822500	340.050781	69.013596
-7432.984255	4087.822500	338.762695	-104.087784
-7432.984255	4087.822500	337.473633	15.488544
-7432.984255	4087.822500	336.184570	-153.976303
-7432.984255	4087.822500	334.895508	-235.458130
-7432.984255	4087.822500	333.606445	-196.892548
-7432.984255	4087.822500	332.317383	-240.541153
-7432.984255	4087.822500	331.027344	-228.654282
-7432.984255	4087.822500	329.736328	153.234909
-7432.984255	4087.822500	328.446289	-17.855061
-7432.984255	4087.822500	327.155273	47.768097
-7432.984255	4087.822500	325.864258	5.776786
-7432.984255	4087.822500	324.573242	-428.265900
-7432.984255	4087.822500	323.281250	-118.925644
-7432.984255	4087.822500	321.989258	-132.934616
-7432.984255	4087.822500	320.697266	109.872864
-7432.984255	4087.822500	319.405273	-140.213516
-7432.984255	4087.822500	318.112305	-87.838486
-7432.984255	4087.822500	316.819336	-28.731674
-7432.984255	4087.822500	315.526367	21.011724
-7432.984255	4087.822500	314.232422	-92.164047
-7432.984255	4087.822500	312.938477	82.892433
-7432.984255	4087.822500	311.644531	19.459730
-7432.984255	4087.822500	310.349609	269.083221
-7432.984255	4087.822500	309.054688	83.393250
-7432.984255	4087.822500	307.759766	-15.836911
-7432.984255	4087.822500	306.464844	74.187332
-7432.984255	4087.822500	305.168945	270.873230
-7432.984255	4087.822500	303.873047	112.392845
-7432.984255	4087.822500	302.577148	343.988403
-7432.984255	4087.822500	301.281250	558.601135
-7432.984255	4087.822500	299.984375	527.623108
