#X		#Y		#Wave		#Intensity
-7442.142660	4087.088000	1999.946289	60.224747
-7442.142660	4087.088000	1998.981445	254.704865
-7442.142660	4087.088000	1998.017578	236.912552
-7442.142660	4087.088000	1997.052734	246.835098
-7442.142660	4087.088000	1996.088867	96.164032
-7442.142660	4087.088000	1995.124023	77.263092
-7442.142660	4087.088000	1994.159180	-161.640457
-7442.142660	4087.088000	1993.193359	189.296936
-7442.142660	4087.088000	1992.228516	208.748749
-7442.142660	4087.088000	1991.262695	141.929871
-7442.142660	4087.088000	1990.296875	-55.663612
-7442.142660	4087.088000	1989.331055	-49.921741
-7442.142660	4087.088000	1988.365234	22.961962
-7442.142660	4087.088000	1987.398438	-47.315594
-7442.142660	4087.088000	1986.432617	41.039165
-7442.142660	4087.088000	1985.465820	65.379738
-7442.142660	4087.088000	1984.499023	92.487663
-7442.142660	4087.088000	1983.532227	-117.404579
-7442.142660	4087.088000	1982.565430	-82.285950
-7442.142660	4087.088000	1981.597656	168.043655
-7442.142660	4087.088000	1980.629883	-1.408961
-7442.142660	4087.088000	1979.662109	-24.825474
-7442.142660	4087.088000	1978.694336	-40.581654
-7442.142660	4087.088000	1977.726563	99.444016
-7442.142660	4087.088000	1976.758789	168.057816
-7442.142660	4087.088000	1975.790039	39.417679
-7442.142660	4087.088000	1974.821289	167.659012
-7442.142660	4087.088000	1973.852539	222.039871
-7442.142660	4087.088000	1972.883789	118.725784
-7442.142660	4087.088000	1971.915039	195.664642
-7442.142660	4087.088000	1970.945313	260.420624
-7442.142660	4087.088000	1969.975586	-182.526245
-7442.142660	4087.088000	1969.005859	-21.269421
-7442.142660	4087.088000	1968.036133	179.510818
-7442.142660	4087.088000	1967.066406	178.322906
-7442.142660	4087.088000	1966.096680	59.028957
-7442.142660	4087.088000	1965.125977	21.189220
-7442.142660	4087.088000	1964.155273	301.153992
-7442.142660	4087.088000	1963.184570	179.817139
-7442.142660	4087.088000	1962.213867	46.331505
-7442.142660	4087.088000	1961.242188	196.032867
-7442.142660	4087.088000	1960.271484	99.710823
-7442.142660	4087.088000	1959.299805	-26.002319
-7442.142660	4087.088000	1958.328125	-65.488449
-7442.142660	4087.088000	1957.356445	8.252719
-7442.142660	4087.088000	1956.384766	-55.650433
-7442.142660	4087.088000	1955.412109	-3.911458
-7442.142660	4087.088000	1954.439453	-30.778225
-7442.142660	4087.088000	1953.467773	57.929985
-7442.142660	4087.088000	1952.495117	16.442331
-7442.142660	4087.088000	1951.521484	-69.194931
-7442.142660	4087.088000	1950.548828	90.860443
-7442.142660	4087.088000	1949.575195	115.840309
-7442.142660	4087.088000	1948.601563	47.553867
-7442.142660	4087.088000	1947.627930	-1.032359
-7442.142660	4087.088000	1946.654297	82.963326
-7442.142660	4087.088000	1945.680664	149.780151
-7442.142660	4087.088000	1944.706055	123.368614
-7442.142660	4087.088000	1943.732422	35.664112
-7442.142660	4087.088000	1942.757813	207.972076
-7442.142660	4087.088000	1941.783203	306.669708
-7442.142660	4087.088000	1940.807617	295.022522
-7442.142660	4087.088000	1939.833008	111.809898
-7442.142660	4087.088000	1938.857422	-127.694351
-7442.142660	4087.088000	1937.881836	0.418593
-7442.142660	4087.088000	1936.906250	-140.986023
-7442.142660	4087.088000	1935.930664	-115.792847
-7442.142660	4087.088000	1934.955078	44.068649
-7442.142660	4087.088000	1933.978516	323.831451
-7442.142660	4087.088000	1933.001953	28.221292
-7442.142660	4087.088000	1932.025391	141.429108
-7442.142660	4087.088000	1931.048828	-173.644119
-7442.142660	4087.088000	1930.072266	-131.425430
-7442.142660	4087.088000	1929.094727	11.045098
-7442.142660	4087.088000	1928.118164	4.256278
-7442.142660	4087.088000	1927.140625	197.947632
-7442.142660	4087.088000	1926.163086	76.172775
-7442.142660	4087.088000	1925.184570	-158.021225
-7442.142660	4087.088000	1924.207031	8.623520
-7442.142660	4087.088000	1923.228516	226.484344
-7442.142660	4087.088000	1922.250000	-93.206009
-7442.142660	4087.088000	1921.271484	-315.115051
-7442.142660	4087.088000	1920.292969	27.118057
-7442.142660	4087.088000	1919.314453	134.798645
-7442.142660	4087.088000	1918.334961	51.995518
-7442.142660	4087.088000	1917.355469	-64.984795
-7442.142660	4087.088000	1916.375977	-1.393451
-7442.142660	4087.088000	1915.396484	-6.180753
-7442.142660	4087.088000	1914.416992	3.624936
-7442.142660	4087.088000	1913.436523	40.207790
-7442.142660	4087.088000	1912.457031	-123.212578
-7442.142660	4087.088000	1911.476563	186.328934
-7442.142660	4087.088000	1910.496094	86.220604
-7442.142660	4087.088000	1909.515625	-13.900578
-7442.142660	4087.088000	1908.534180	190.530487
-7442.142660	4087.088000	1907.552734	153.665085
-7442.142660	4087.088000	1906.572266	-36.679188
-7442.142660	4087.088000	1905.590820	77.389252
-7442.142660	4087.088000	1904.608398	69.626640
-7442.142660	4087.088000	1903.626953	86.159210
-7442.142660	4087.088000	1902.644531	-92.071777
-7442.142660	4087.088000	1901.663086	209.077789
-7442.142660	4087.088000	1900.680664	220.549042
-7442.142660	4087.088000	1899.698242	76.288010
-7442.142660	4087.088000	1898.714844	165.493576
-7442.142660	4087.088000	1897.732422	-136.859512
-7442.142660	4087.088000	1896.749023	-33.169197
-7442.142660	4087.088000	1895.765625	-131.311356
-7442.142660	4087.088000	1894.782227	74.297005
-7442.142660	4087.088000	1893.798828	-26.366568
-7442.142660	4087.088000	1892.814453	-22.590599
-7442.142660	4087.088000	1891.831055	63.708950
-7442.142660	4087.088000	1890.846680	98.925674
-7442.142660	4087.088000	1889.862305	-14.024731
-7442.142660	4087.088000	1888.877930	52.642097
-7442.142660	4087.088000	1887.892578	41.565266
-7442.142660	4087.088000	1886.908203	-73.899025
-7442.142660	4087.088000	1885.922852	67.786995
-7442.142660	4087.088000	1884.937500	25.020874
-7442.142660	4087.088000	1883.952148	-10.505658
-7442.142660	4087.088000	1882.965820	203.669632
-7442.142660	4087.088000	1881.980469	262.562775
-7442.142660	4087.088000	1880.994141	-27.644308
-7442.142660	4087.088000	1880.007813	72.362328
-7442.142660	4087.088000	1879.021484	99.593864
-7442.142660	4087.088000	1878.035156	-86.408195
-7442.142660	4087.088000	1877.047852	105.433449
-7442.142660	4087.088000	1876.061523	-90.285347
-7442.142660	4087.088000	1875.074219	-111.666321
-7442.142660	4087.088000	1874.086914	138.020889
-7442.142660	4087.088000	1873.098633	-31.123062
-7442.142660	4087.088000	1872.111328	-28.450125
-7442.142660	4087.088000	1871.123047	75.780434
-7442.142660	4087.088000	1870.135742	5.775474
-7442.142660	4087.088000	1869.147461	100.196480
-7442.142660	4087.088000	1868.158203	-88.359360
-7442.142660	4087.088000	1867.169922	71.224319
-7442.142660	4087.088000	1866.180664	179.944702
-7442.142660	4087.088000	1865.192383	249.919312
-7442.142660	4087.088000	1864.203125	32.310246
-7442.142660	4087.088000	1863.213867	65.964729
-7442.142660	4087.088000	1862.223633	12.616865
-7442.142660	4087.088000	1861.234375	169.331818
-7442.142660	4087.088000	1860.244141	4.847548
-7442.142660	4087.088000	1859.253906	180.734161
-7442.142660	4087.088000	1858.263672	148.967010
-7442.142660	4087.088000	1857.273438	102.697227
-7442.142660	4087.088000	1856.282227	80.528885
-7442.142660	4087.088000	1855.291992	159.638916
-7442.142660	4087.088000	1854.300781	175.981735
-7442.142660	4087.088000	1853.309570	-130.802002
-7442.142660	4087.088000	1852.317383	-80.734360
-7442.142660	4087.088000	1851.326172	99.434189
-7442.142660	4087.088000	1850.333984	113.228104
-7442.142660	4087.088000	1849.342773	83.622612
-7442.142660	4087.088000	1848.350586	135.893021
-7442.142660	4087.088000	1847.357422	-43.092747
-7442.142660	4087.088000	1846.365234	-39.036068
-7442.142660	4087.088000	1845.372070	13.137053
-7442.142660	4087.088000	1844.379883	94.150169
-7442.142660	4087.088000	1843.386719	117.344742
-7442.142660	4087.088000	1842.393555	51.478962
-7442.142660	4087.088000	1841.399414	168.437744
-7442.142660	4087.088000	1840.406250	201.149902
-7442.142660	4087.088000	1839.412109	214.584656
-7442.142660	4087.088000	1838.417969	66.902603
-7442.142660	4087.088000	1837.423828	-8.629823
-7442.142660	4087.088000	1836.429688	120.131706
-7442.142660	4087.088000	1835.434570	152.702835
-7442.142660	4087.088000	1834.440430	214.075119
-7442.142660	4087.088000	1833.445313	-84.902603
-7442.142660	4087.088000	1832.450195	144.560257
-7442.142660	4087.088000	1831.454102	121.797638
-7442.142660	4087.088000	1830.458984	185.454514
-7442.142660	4087.088000	1829.462891	-0.556949
-7442.142660	4087.088000	1828.466797	-92.921677
-7442.142660	4087.088000	1827.470703	-31.710209
-7442.142660	4087.088000	1826.474609	137.413147
-7442.142660	4087.088000	1825.478516	258.490143
-7442.142660	4087.088000	1824.481445	84.556755
-7442.142660	4087.088000	1823.484375	133.645813
-7442.142660	4087.088000	1822.487305	55.660400
-7442.142660	4087.088000	1821.490234	104.713531
-7442.142660	4087.088000	1820.493164	105.816643
-7442.142660	4087.088000	1819.495117	-39.232670
-7442.142660	4087.088000	1818.498047	91.222488
-7442.142660	4087.088000	1817.500000	27.637907
-7442.142660	4087.088000	1816.500977	-193.960358
-7442.142660	4087.088000	1815.502930	-6.121469
-7442.142660	4087.088000	1814.504883	-24.195345
-7442.142660	4087.088000	1813.505859	10.374328
-7442.142660	4087.088000	1812.506836	210.011032
-7442.142660	4087.088000	1811.507813	2.914628
-7442.142660	4087.088000	1810.508789	-5.601772
-7442.142660	4087.088000	1809.508789	62.397015
-7442.142660	4087.088000	1808.508789	-70.453636
-7442.142660	4087.088000	1807.508789	38.162300
-7442.142660	4087.088000	1806.508789	173.024704
-7442.142660	4087.088000	1805.508789	-19.508423
-7442.142660	4087.088000	1804.508789	189.371109
-7442.142660	4087.088000	1803.507813	-89.080299
-7442.142660	4087.088000	1802.506836	-216.979263
-7442.142660	4087.088000	1801.505859	-60.708073
-7442.142660	4087.088000	1800.504883	45.377361
-7442.142660	4087.088000	1799.502930	132.328354
-7442.142660	4087.088000	1798.501953	47.447140
-7442.142660	4087.088000	1797.500000	-147.147568
-7442.142660	4087.088000	1796.498047	13.747801
-7442.142660	4087.088000	1795.496094	188.895462
-7442.142660	4087.088000	1794.493164	-170.127899
-7442.142660	4087.088000	1793.491211	59.830410
-7442.142660	4087.088000	1792.488281	182.447723
-7442.142660	4087.088000	1791.485352	-2.388873
-7442.142660	4087.088000	1790.482422	-184.765869
-7442.142660	4087.088000	1789.478516	-90.740349
-7442.142660	4087.088000	1788.475586	110.436905
-7442.142660	4087.088000	1787.471680	211.531158
-7442.142660	4087.088000	1786.467773	-123.090141
-7442.142660	4087.088000	1785.463867	132.751129
-7442.142660	4087.088000	1784.459961	29.140282
-7442.142660	4087.088000	1783.455078	89.755577
-7442.142660	4087.088000	1782.450195	69.474167
-7442.142660	4087.088000	1781.445313	-50.688984
-7442.142660	4087.088000	1780.440430	55.123875
-7442.142660	4087.088000	1779.435547	234.613251
-7442.142660	4087.088000	1778.429688	21.807970
-7442.142660	4087.088000	1777.424805	108.567268
-7442.142660	4087.088000	1776.418945	2.822550
-7442.142660	4087.088000	1775.413086	-74.358765
-7442.142660	4087.088000	1774.406250	12.398876
-7442.142660	4087.088000	1773.400391	232.137131
-7442.142660	4087.088000	1772.393555	3.023834
-7442.142660	4087.088000	1771.386719	-161.889328
-7442.142660	4087.088000	1770.379883	24.562889
-7442.142660	4087.088000	1769.373047	260.793793
-7442.142660	4087.088000	1768.365234	117.317612
-7442.142660	4087.088000	1767.358398	220.625000
-7442.142660	4087.088000	1766.350586	108.072380
-7442.142660	4087.088000	1765.342773	33.517937
-7442.142660	4087.088000	1764.334961	13.537008
-7442.142660	4087.088000	1763.326172	57.577473
-7442.142660	4087.088000	1762.318359	141.908081
-7442.142660	4087.088000	1761.309570	299.674438
-7442.142660	4087.088000	1760.300781	431.335175
-7442.142660	4087.088000	1759.291016	255.038391
-7442.142660	4087.088000	1758.282227	334.589752
-7442.142660	4087.088000	1757.272461	281.530518
-7442.142660	4087.088000	1756.262695	301.892395
-7442.142660	4087.088000	1755.252930	345.931366
-7442.142660	4087.088000	1754.243164	368.670898
-7442.142660	4087.088000	1753.233398	363.028046
-7442.142660	4087.088000	1752.222656	307.724182
-7442.142660	4087.088000	1751.211914	505.514587
-7442.142660	4087.088000	1750.201172	483.340698
-7442.142660	4087.088000	1749.190430	295.704498
-7442.142660	4087.088000	1748.179688	505.250488
-7442.142660	4087.088000	1747.167969	639.107361
-7442.142660	4087.088000	1746.156250	560.280212
-7442.142660	4087.088000	1745.144531	519.296448
-7442.142660	4087.088000	1744.132813	646.035889
-7442.142660	4087.088000	1743.121094	465.760162
-7442.142660	4087.088000	1742.108398	682.207458
-7442.142660	4087.088000	1741.095703	655.455933
-7442.142660	4087.088000	1740.083008	468.246765
-7442.142660	4087.088000	1739.070313	337.754761
-7442.142660	4087.088000	1738.057617	339.441681
-7442.142660	4087.088000	1737.043945	390.673615
-7442.142660	4087.088000	1736.030273	-13.241780
-7442.142660	4087.088000	1735.016602	358.730530
-7442.142660	4087.088000	1734.002930	200.171478
-7442.142660	4087.088000	1732.989258	263.238190
-7442.142660	4087.088000	1731.974609	100.072212
-7442.142660	4087.088000	1730.959961	222.061081
-7442.142660	4087.088000	1729.945313	238.019150
-7442.142660	4087.088000	1728.930664	230.434555
-7442.142660	4087.088000	1727.916016	3.884292
-7442.142660	4087.088000	1726.900391	76.417160
-7442.142660	4087.088000	1725.885742	280.749603
-7442.142660	4087.088000	1724.870117	141.433456
-7442.142660	4087.088000	1723.853516	-49.581234
-7442.142660	4087.088000	1722.837891	79.421906
-7442.142660	4087.088000	1721.822266	278.947693
-7442.142660	4087.088000	1720.805664	278.530365
-7442.142660	4087.088000	1719.789063	-79.233810
-7442.142660	4087.088000	1718.772461	-145.372330
-7442.142660	4087.088000	1717.754883	54.092373
-7442.142660	4087.088000	1716.738281	-167.101105
-7442.142660	4087.088000	1715.720703	-17.016914
-7442.142660	4087.088000	1714.703125	-278.017822
-7442.142660	4087.088000	1713.685547	-219.530807
-7442.142660	4087.088000	1712.667969	-60.093189
-7442.142660	4087.088000	1711.649414	96.944542
-7442.142660	4087.088000	1710.630859	-74.646637
-7442.142660	4087.088000	1709.612305	2.574430
-7442.142660	4087.088000	1708.593750	-112.603416
-7442.142660	4087.088000	1707.575195	-309.823975
-7442.142660	4087.088000	1706.555664	25.401199
-7442.142660	4087.088000	1705.536133	-96.718559
-7442.142660	4087.088000	1704.516602	-5.449112
-7442.142660	4087.088000	1703.497070	90.482727
-7442.142660	4087.088000	1702.477539	55.157761
-7442.142660	4087.088000	1701.457031	247.119141
-7442.142660	4087.088000	1700.437500	120.438995
-7442.142660	4087.088000	1699.416992	-78.790268
-7442.142660	4087.088000	1698.395508	26.472157
-7442.142660	4087.088000	1697.375000	70.836388
-7442.142660	4087.088000	1696.354492	42.628796
-7442.142660	4087.088000	1695.333008	-8.963864
-7442.142660	4087.088000	1694.311523	187.490280
-7442.142660	4087.088000	1693.290039	215.443100
-7442.142660	4087.088000	1692.267578	152.173172
-7442.142660	4087.088000	1691.246094	-27.986843
-7442.142660	4087.088000	1690.223633	-56.102554
-7442.142660	4087.088000	1689.201172	79.429718
-7442.142660	4087.088000	1688.178711	37.294281
-7442.142660	4087.088000	1687.155273	121.359573
-7442.142660	4087.088000	1686.132813	125.968925
-7442.142660	4087.088000	1685.109375	39.484524
-7442.142660	4087.088000	1684.085938	308.006104
-7442.142660	4087.088000	1683.062500	170.164261
-7442.142660	4087.088000	1682.039063	216.797577
-7442.142660	4087.088000	1681.014648	-37.665901
-7442.142660	4087.088000	1679.990234	356.689972
-7442.142660	4087.088000	1678.965820	46.311169
-7442.142660	4087.088000	1677.941406	169.923035
-7442.142660	4087.088000	1676.916992	246.846558
-7442.142660	4087.088000	1675.891602	330.737366
-7442.142660	4087.088000	1674.866211	258.402191
-7442.142660	4087.088000	1673.840820	60.234322
-7442.142660	4087.088000	1672.815430	102.171928
-7442.142660	4087.088000	1671.790039	262.921783
-7442.142660	4087.088000	1670.763672	449.234283
-7442.142660	4087.088000	1669.737305	542.313538
-7442.142660	4087.088000	1668.710938	286.073425
-7442.142660	4087.088000	1667.684570	421.057526
-7442.142660	4087.088000	1666.658203	553.662109
-7442.142660	4087.088000	1665.630859	306.875885
-7442.142660	4087.088000	1664.603516	378.952789
-7442.142660	4087.088000	1663.576172	548.707947
-7442.142660	4087.088000	1662.548828	532.326721
-7442.142660	4087.088000	1661.520508	608.965698
-7442.142660	4087.088000	1660.493164	462.379211
-7442.142660	4087.088000	1659.464844	613.384705
-7442.142660	4087.088000	1658.436523	559.811401
-7442.142660	4087.088000	1657.408203	513.228333
-7442.142660	4087.088000	1656.378906	527.061707
-7442.142660	4087.088000	1655.350586	773.162537
-7442.142660	4087.088000	1654.321289	547.739868
-7442.142660	4087.088000	1653.291992	700.861206
-7442.142660	4087.088000	1652.261719	902.667603
-7442.142660	4087.088000	1651.232422	1025.481689
-7442.142660	4087.088000	1650.202148	744.479431
-7442.142660	4087.088000	1649.171875	869.587585
-7442.142660	4087.088000	1648.141602	1043.355835
-7442.142660	4087.088000	1647.111328	743.947021
-7442.142660	4087.088000	1646.080078	824.914246
-7442.142660	4087.088000	1645.049805	722.705383
-7442.142660	4087.088000	1644.018555	792.046936
-7442.142660	4087.088000	1642.987305	1074.552368
-7442.142660	4087.088000	1641.955078	893.561096
-7442.142660	4087.088000	1640.923828	823.826416
-7442.142660	4087.088000	1639.891602	990.343567
-7442.142660	4087.088000	1638.859375	948.391113
-7442.142660	4087.088000	1637.827148	1142.587891
-7442.142660	4087.088000	1636.794922	936.269775
-7442.142660	4087.088000	1635.761719	1132.693970
-7442.142660	4087.088000	1634.729492	1056.015381
-7442.142660	4087.088000	1633.696289	1083.456787
-7442.142660	4087.088000	1632.662109	905.033569
-7442.142660	4087.088000	1631.628906	904.730713
-7442.142660	4087.088000	1630.594727	1158.732910
-7442.142660	4087.088000	1629.561523	827.820984
-7442.142660	4087.088000	1628.527344	866.797791
-7442.142660	4087.088000	1627.493164	1042.077637
-7442.142660	4087.088000	1626.458008	1203.418823
-7442.142660	4087.088000	1625.423828	951.252686
-7442.142660	4087.088000	1624.388672	1281.109497
-7442.142660	4087.088000	1623.353516	1359.169312
-7442.142660	4087.088000	1622.318359	1171.728760
-7442.142660	4087.088000	1621.282227	1097.437866
-7442.142660	4087.088000	1620.247070	1380.828613
-7442.142660	4087.088000	1619.210938	1218.842407
-7442.142660	4087.088000	1618.174805	1165.320435
-7442.142660	4087.088000	1617.137695	1056.461304
-7442.142660	4087.088000	1616.101563	1092.895752
-7442.142660	4087.088000	1615.064453	1034.790894
-7442.142660	4087.088000	1614.027344	1091.938965
-7442.142660	4087.088000	1612.990234	1321.880127
-7442.142660	4087.088000	1611.953125	1017.223511
-7442.142660	4087.088000	1610.916016	963.750427
-7442.142660	4087.088000	1609.877930	1131.372437
-7442.142660	4087.088000	1608.839844	1179.189697
-7442.142660	4087.088000	1607.801758	1084.249878
-7442.142660	4087.088000	1606.763672	1026.163452
-7442.142660	4087.088000	1605.724609	880.643677
-7442.142660	4087.088000	1604.685547	1075.681396
-7442.142660	4087.088000	1603.646484	1006.099609
-7442.142660	4087.088000	1602.607422	959.535278
-7442.142660	4087.088000	1601.568359	1122.224731
-7442.142660	4087.088000	1600.528320	1153.799194
-7442.142660	4087.088000	1599.489258	1029.056641
-7442.142660	4087.088000	1598.449219	1324.894531
-7442.142660	4087.088000	1597.408203	1071.479736
-7442.142660	4087.088000	1596.368164	1167.324341
-7442.142660	4087.088000	1595.327148	996.702515
-7442.142660	4087.088000	1594.287109	936.360718
-7442.142660	4087.088000	1593.246094	1094.133667
-7442.142660	4087.088000	1592.204102	1088.863281
-7442.142660	4087.088000	1591.163086	870.162109
-7442.142660	4087.088000	1590.121094	1112.722412
-7442.142660	4087.088000	1589.079102	1040.899414
-7442.142660	4087.088000	1588.037109	1127.352295
-7442.142660	4087.088000	1586.995117	892.726807
-7442.142660	4087.088000	1585.953125	958.523926
-7442.142660	4087.088000	1584.910156	1024.286133
-7442.142660	4087.088000	1583.867188	993.759216
-7442.142660	4087.088000	1582.824219	899.080139
-7442.142660	4087.088000	1581.781250	772.357361
-7442.142660	4087.088000	1580.737305	1094.598267
-7442.142660	4087.088000	1579.693359	1185.416748
-7442.142660	4087.088000	1578.649414	1157.138428
-7442.142660	4087.088000	1577.605469	1144.887329
-7442.142660	4087.088000	1576.561523	951.832458
-7442.142660	4087.088000	1575.516602	1070.036011
-7442.142660	4087.088000	1574.472656	970.855835
-7442.142660	4087.088000	1573.427734	1072.985229
-7442.142660	4087.088000	1572.381836	1095.027588
-7442.142660	4087.088000	1571.336914	968.441895
-7442.142660	4087.088000	1570.291016	1056.776611
-7442.142660	4087.088000	1569.246094	991.945374
-7442.142660	4087.088000	1568.200195	929.416809
-7442.142660	4087.088000	1567.153320	871.473328
-7442.142660	4087.088000	1566.107422	697.059937
-7442.142660	4087.088000	1565.060547	801.318054
-7442.142660	4087.088000	1564.013672	935.213440
-7442.142660	4087.088000	1562.966797	918.387024
-7442.142660	4087.088000	1561.919922	965.469849
-7442.142660	4087.088000	1560.872070	788.900940
-7442.142660	4087.088000	1559.825195	838.263977
-7442.142660	4087.088000	1558.777344	1115.702393
-7442.142660	4087.088000	1557.729492	1034.981812
-7442.142660	4087.088000	1556.680664	1243.861572
-7442.142660	4087.088000	1555.632813	1005.846313
-7442.142660	4087.088000	1554.583984	897.834351
-7442.142660	4087.088000	1553.535156	1268.404663
-7442.142660	4087.088000	1552.486328	1208.225708
-7442.142660	4087.088000	1551.436523	1448.744263
-7442.142660	4087.088000	1550.387695	1327.060791
-7442.142660	4087.088000	1549.337891	1549.245361
-7442.142660	4087.088000	1548.288086	1416.204346
-7442.142660	4087.088000	1547.238281	1606.417603
-7442.142660	4087.088000	1546.187500	1386.942261
-7442.142660	4087.088000	1545.136719	1492.903564
-7442.142660	4087.088000	1544.086914	1526.036743
-7442.142660	4087.088000	1543.035156	1727.449585
-7442.142660	4087.088000	1541.984375	1578.616211
-7442.142660	4087.088000	1540.933594	1736.752075
-7442.142660	4087.088000	1539.881836	1678.895874
-7442.142660	4087.088000	1538.830078	1793.775269
-7442.142660	4087.088000	1537.778320	1620.062500
-7442.142660	4087.088000	1536.725586	1721.282715
-7442.142660	4087.088000	1535.673828	1583.999268
-7442.142660	4087.088000	1534.621094	1682.924927
-7442.142660	4087.088000	1533.568359	1836.301880
-7442.142660	4087.088000	1532.515625	1642.344727
-7442.142660	4087.088000	1531.461914	1632.284302
-7442.142660	4087.088000	1530.409180	1810.556274
-7442.142660	4087.088000	1529.355469	1746.036377
-7442.142660	4087.088000	1528.301758	1457.016968
-7442.142660	4087.088000	1527.247070	1249.747681
-7442.142660	4087.088000	1526.193359	1348.631714
-7442.142660	4087.088000	1525.138672	1350.016724
-7442.142660	4087.088000	1524.083984	1267.559204
-7442.142660	4087.088000	1523.029297	1332.417603
-7442.142660	4087.088000	1521.974609	1048.402222
-7442.142660	4087.088000	1520.918945	981.933594
-7442.142660	4087.088000	1519.863281	960.790161
-7442.142660	4087.088000	1518.807617	903.443176
-7442.142660	4087.088000	1517.751953	1029.476929
-7442.142660	4087.088000	1516.696289	521.809082
-7442.142660	4087.088000	1515.639648	613.950195
-7442.142660	4087.088000	1514.583008	758.099487
-7442.142660	4087.088000	1513.526367	465.688202
-7442.142660	4087.088000	1512.469727	286.471619
-7442.142660	4087.088000	1511.412109	532.377563
-7442.142660	4087.088000	1510.355469	407.498169
-7442.142660	4087.088000	1509.297852	420.538177
-7442.142660	4087.088000	1508.240234	453.924316
-7442.142660	4087.088000	1507.181641	433.094177
-7442.142660	4087.088000	1506.124023	389.705292
-7442.142660	4087.088000	1505.065430	466.031799
-7442.142660	4087.088000	1504.006836	291.740631
-7442.142660	4087.088000	1502.948242	460.639893
-7442.142660	4087.088000	1501.888672	363.185852
-7442.142660	4087.088000	1500.830078	315.432343
-7442.142660	4087.088000	1499.770508	439.165466
-7442.142660	4087.088000	1498.710938	441.074463
-7442.142660	4087.088000	1497.650391	314.465363
-7442.142660	4087.088000	1496.590820	343.496277
-7442.142660	4087.088000	1495.530273	262.084351
-7442.142660	4087.088000	1494.469727	473.704956
-7442.142660	4087.088000	1493.409180	349.533356
-7442.142660	4087.088000	1492.348633	254.721481
-7442.142660	4087.088000	1491.287109	358.176025
-7442.142660	4087.088000	1490.225586	457.109528
-7442.142660	4087.088000	1489.164063	373.663147
-7442.142660	4087.088000	1488.102539	245.256393
-7442.142660	4087.088000	1487.041016	303.721771
-7442.142660	4087.088000	1485.978516	402.690765
-7442.142660	4087.088000	1484.916016	452.137512
-7442.142660	4087.088000	1483.853516	114.768600
-7442.142660	4087.088000	1482.791016	198.062119
-7442.142660	4087.088000	1481.727539	256.614471
-7442.142660	4087.088000	1480.664063	135.356705
-7442.142660	4087.088000	1479.600586	74.861664
-7442.142660	4087.088000	1478.537109	66.083961
-7442.142660	4087.088000	1477.473633	-50.423138
-7442.142660	4087.088000	1476.409180	-63.587463
-7442.142660	4087.088000	1475.344727	-56.475170
-7442.142660	4087.088000	1474.280273	80.806862
-7442.142660	4087.088000	1473.215820	-3.980097
-7442.142660	4087.088000	1472.151367	23.351013
-7442.142660	4087.088000	1471.085938	-5.390179
-7442.142660	4087.088000	1470.020508	80.408730
-7442.142660	4087.088000	1468.955078	168.396713
-7442.142660	4087.088000	1467.888672	209.370804
-7442.142660	4087.088000	1466.823242	223.439728
-7442.142660	4087.088000	1465.756836	118.700981
-7442.142660	4087.088000	1464.690430	325.195496
-7442.142660	4087.088000	1463.624023	216.278290
-7442.142660	4087.088000	1462.556641	273.022949
-7442.142660	4087.088000	1461.490234	300.836639
-7442.142660	4087.088000	1460.422852	290.010620
-7442.142660	4087.088000	1459.355469	154.733063
-7442.142660	4087.088000	1458.287109	379.088440
-7442.142660	4087.088000	1457.219727	210.463135
-7442.142660	4087.088000	1456.151367	164.546127
-7442.142660	4087.088000	1455.083008	214.166061
-7442.142660	4087.088000	1454.014648	306.740479
-7442.142660	4087.088000	1452.945313	358.451691
-7442.142660	4087.088000	1451.876953	515.997131
-7442.142660	4087.088000	1450.807617	335.067230
-7442.142660	4087.088000	1449.738281	442.193542
-7442.142660	4087.088000	1448.668945	412.318939
-7442.142660	4087.088000	1447.598633	418.245087
-7442.142660	4087.088000	1446.528320	362.157776
-7442.142660	4087.088000	1445.458008	465.037933
-7442.142660	4087.088000	1444.387695	338.156555
-7442.142660	4087.088000	1443.317383	398.783691
-7442.142660	4087.088000	1442.246094	365.513245
-7442.142660	4087.088000	1441.174805	367.411530
-7442.142660	4087.088000	1440.103516	319.791565
-7442.142660	4087.088000	1439.032227	207.544434
-7442.142660	4087.088000	1437.960938	94.786842
-7442.142660	4087.088000	1436.888672	-44.695709
-7442.142660	4087.088000	1435.816406	317.106262
-7442.142660	4087.088000	1434.744141	266.519379
-7442.142660	4087.088000	1433.670898	114.884018
-7442.142660	4087.088000	1432.598633	1.062882
-7442.142660	4087.088000	1431.525391	48.972588
-7442.142660	4087.088000	1430.452148	31.237566
-7442.142660	4087.088000	1429.378906	93.430534
-7442.142660	4087.088000	1428.304688	93.656723
-7442.142660	4087.088000	1427.231445	-123.250961
-7442.142660	4087.088000	1426.157227	63.481998
-7442.142660	4087.088000	1425.083008	-0.966526
-7442.142660	4087.088000	1424.007813	29.841900
-7442.142660	4087.088000	1422.933594	152.818848
-7442.142660	4087.088000	1421.858398	64.956032
-7442.142660	4087.088000	1420.783203	173.780716
-7442.142660	4087.088000	1419.708008	22.164385
-7442.142660	4087.088000	1418.631836	-47.600746
-7442.142660	4087.088000	1417.555664	213.482117
-7442.142660	4087.088000	1416.479492	249.296173
-7442.142660	4087.088000	1415.403320	121.331078
-7442.142660	4087.088000	1414.327148	-13.259463
-7442.142660	4087.088000	1413.250000	-59.305065
-7442.142660	4087.088000	1412.173828	134.099792
-7442.142660	4087.088000	1411.096680	58.722324
-7442.142660	4087.088000	1410.018555	22.672443
-7442.142660	4087.088000	1408.941406	51.719559
-7442.142660	4087.088000	1407.863281	143.951523
-7442.142660	4087.088000	1406.785156	-36.153053
-7442.142660	4087.088000	1405.707031	-178.442474
-7442.142660	4087.088000	1404.628906	-410.891022
-7442.142660	4087.088000	1403.549805	-61.706703
-7442.142660	4087.088000	1402.470703	-147.266678
-7442.142660	4087.088000	1401.391602	-181.136047
-7442.142660	4087.088000	1400.312500	-98.300835
-7442.142660	4087.088000	1399.233398	243.666016
-7442.142660	4087.088000	1398.153320	-107.845573
-7442.142660	4087.088000	1397.073242	-1.021690
-7442.142660	4087.088000	1395.993164	14.787378
-7442.142660	4087.088000	1394.913086	126.737183
-7442.142660	4087.088000	1393.832031	46.763741
-7442.142660	4087.088000	1392.750977	-88.017517
-7442.142660	4087.088000	1391.669922	100.554787
-7442.142660	4087.088000	1390.588867	-110.975136
-7442.142660	4087.088000	1389.506836	-32.775528
-7442.142660	4087.088000	1388.425781	65.565094
-7442.142660	4087.088000	1387.343750	104.678810
-7442.142660	4087.088000	1386.261719	-67.717812
-7442.142660	4087.088000	1385.178711	164.502136
-7442.142660	4087.088000	1384.096680	-28.196692
-7442.142660	4087.088000	1383.013672	-77.333092
-7442.142660	4087.088000	1381.930664	-15.859733
-7442.142660	4087.088000	1380.846680	131.859314
-7442.142660	4087.088000	1379.763672	92.721764
-7442.142660	4087.088000	1378.679688	199.695618
-7442.142660	4087.088000	1377.595703	285.605286
-7442.142660	4087.088000	1376.511719	187.824905
-7442.142660	4087.088000	1375.427734	309.089050
-7442.142660	4087.088000	1374.342773	223.314270
-7442.142660	4087.088000	1373.257813	66.772896
-7442.142660	4087.088000	1372.172852	71.459183
-7442.142660	4087.088000	1371.087891	335.919159
-7442.142660	4087.088000	1370.001953	332.246399
-7442.142660	4087.088000	1368.916992	334.007111
-7442.142660	4087.088000	1367.831055	280.205719
-7442.142660	4087.088000	1366.744141	387.973389
-7442.142660	4087.088000	1365.658203	301.133728
-7442.142660	4087.088000	1364.571289	280.300903
-7442.142660	4087.088000	1363.484375	372.046387
-7442.142660	4087.088000	1362.397461	470.356598
-7442.142660	4087.088000	1361.310547	702.489380
-7442.142660	4087.088000	1360.222656	667.483154
-7442.142660	4087.088000	1359.135742	801.817871
-7442.142660	4087.088000	1358.047852	865.547974
-7442.142660	4087.088000	1356.958984	412.913971
-7442.142660	4087.088000	1355.871094	421.554474
-7442.142660	4087.088000	1354.782227	433.064392
-7442.142660	4087.088000	1353.693359	472.033997
-7442.142660	4087.088000	1352.604492	512.633240
-7442.142660	4087.088000	1351.515625	318.998749
-7442.142660	4087.088000	1350.425781	529.999634
-7442.142660	4087.088000	1349.335938	385.086243
-7442.142660	4087.088000	1348.246094	477.686218
-7442.142660	4087.088000	1347.156250	502.278107
-7442.142660	4087.088000	1346.066406	298.644989
-7442.142660	4087.088000	1344.975586	371.932587
-7442.142660	4087.088000	1343.884766	506.641663
-7442.142660	4087.088000	1342.793945	485.115875
-7442.142660	4087.088000	1341.702148	430.137878
-7442.142660	4087.088000	1340.611328	543.052307
-7442.142660	4087.088000	1339.519531	514.927490
-7442.142660	4087.088000	1338.427734	500.296082
-7442.142660	4087.088000	1337.334961	365.813934
-7442.142660	4087.088000	1336.243164	439.326111
-7442.142660	4087.088000	1335.150391	413.239380
-7442.142660	4087.088000	1334.057617	585.177795
-7442.142660	4087.088000	1332.964844	493.827759
-7442.142660	4087.088000	1331.871094	217.984116
-7442.142660	4087.088000	1330.778320	373.486359
-7442.142660	4087.088000	1329.684570	308.505493
-7442.142660	4087.088000	1328.590820	295.822479
-7442.142660	4087.088000	1327.496094	14.990200
-7442.142660	4087.088000	1326.402344	191.415985
-7442.142660	4087.088000	1325.307617	95.554512
-7442.142660	4087.088000	1324.212891	57.068283
-7442.142660	4087.088000	1323.117188	147.705734
-7442.142660	4087.088000	1322.022461	65.929283
-7442.142660	4087.088000	1320.926758	249.324966
-7442.142660	4087.088000	1319.831055	108.375305
-7442.142660	4087.088000	1318.735352	121.622971
-7442.142660	4087.088000	1317.638672	248.734680
-7442.142660	4087.088000	1316.542969	147.457321
-7442.142660	4087.088000	1315.446289	109.089432
-7442.142660	4087.088000	1314.349609	203.489151
-7442.142660	4087.088000	1313.251953	38.887833
-7442.142660	4087.088000	1312.155273	-63.399822
-7442.142660	4087.088000	1311.057617	-31.777887
-7442.142660	4087.088000	1309.959961	92.794075
-7442.142660	4087.088000	1308.862305	50.063759
-7442.142660	4087.088000	1307.763672	-83.675659
-7442.142660	4087.088000	1306.665039	-27.965975
-7442.142660	4087.088000	1305.566406	-52.613232
-7442.142660	4087.088000	1304.467773	-148.617798
-7442.142660	4087.088000	1303.369141	113.947670
-7442.142660	4087.088000	1302.269531	-131.579437
-7442.142660	4087.088000	1301.169922	-28.633848
-7442.142660	4087.088000	1300.070313	-56.804844
-7442.142660	4087.088000	1298.970703	-2.505922
-7442.142660	4087.088000	1297.870117	24.209881
-7442.142660	4087.088000	1296.769531	-44.208649
-7442.142660	4087.088000	1295.668945	-138.367416
-7442.142660	4087.088000	1294.568359	-5.725841
-7442.142660	4087.088000	1293.466797	58.523579
-7442.142660	4087.088000	1292.366211	103.788925
-7442.142660	4087.088000	1291.264648	107.754089
-7442.142660	4087.088000	1290.162109	-20.328321
-7442.142660	4087.088000	1289.060547	38.508995
-7442.142660	4087.088000	1287.958008	76.598671
-7442.142660	4087.088000	1286.855469	102.387924
-7442.142660	4087.088000	1285.752930	118.353798
-7442.142660	4087.088000	1284.650391	120.690125
-7442.142660	4087.088000	1283.546875	99.219482
-7442.142660	4087.088000	1282.444336	140.513947
-7442.142660	4087.088000	1281.339844	210.524872
-7442.142660	4087.088000	1280.236328	26.445349
-7442.142660	4087.088000	1279.132813	212.357742
-7442.142660	4087.088000	1278.028320	122.022369
-7442.142660	4087.088000	1276.923828	-15.867012
-7442.142660	4087.088000	1275.819336	174.686096
-7442.142660	4087.088000	1274.713867	160.888443
-7442.142660	4087.088000	1273.608398	337.979492
-7442.142660	4087.088000	1272.503906	329.045227
-7442.142660	4087.088000	1271.397461	114.442589
-7442.142660	4087.088000	1270.291992	240.024368
-7442.142660	4087.088000	1269.185547	60.186356
-7442.142660	4087.088000	1268.080078	201.528519
-7442.142660	4087.088000	1266.972656	251.199387
-7442.142660	4087.088000	1265.866211	194.779678
-7442.142660	4087.088000	1264.759766	210.117935
-7442.142660	4087.088000	1263.652344	26.131279
-7442.142660	4087.088000	1262.544922	36.918015
-7442.142660	4087.088000	1261.436523	-50.422062
-7442.142660	4087.088000	1260.329102	17.807030
-7442.142660	4087.088000	1259.220703	-124.428825
-7442.142660	4087.088000	1258.112305	-4.292254
-7442.142660	4087.088000	1257.003906	-79.447983
-7442.142660	4087.088000	1255.895508	45.353321
-7442.142660	4087.088000	1254.786133	31.914783
-7442.142660	4087.088000	1253.676758	-100.518196
-7442.142660	4087.088000	1252.567383	-7.844755
-7442.142660	4087.088000	1251.458008	-70.802879
-7442.142660	4087.088000	1250.347656	-240.365677
-7442.142660	4087.088000	1249.237305	-68.480309
-7442.142660	4087.088000	1248.126953	-136.538116
-7442.142660	4087.088000	1247.016602	-215.450928
-7442.142660	4087.088000	1245.905273	-122.267914
-7442.142660	4087.088000	1244.793945	-113.838745
-7442.142660	4087.088000	1243.682617	-68.743233
-7442.142660	4087.088000	1242.571289	-143.149124
-7442.142660	4087.088000	1241.459961	-8.581533
-7442.142660	4087.088000	1240.347656	-108.691055
-7442.142660	4087.088000	1239.235352	-79.958412
-7442.142660	4087.088000	1238.123047	-38.225159
-7442.142660	4087.088000	1237.009766	-88.378120
-7442.142660	4087.088000	1235.897461	39.579704
-7442.142660	4087.088000	1234.784180	-59.664589
-7442.142660	4087.088000	1233.670898	32.629784
-7442.142660	4087.088000	1232.556641	-124.176826
-7442.142660	4087.088000	1231.443359	-74.954849
-7442.142660	4087.088000	1230.329102	20.075792
-7442.142660	4087.088000	1229.214844	-109.954597
-7442.142660	4087.088000	1228.099609	-25.480497
-7442.142660	4087.088000	1226.985352	-94.824699
-7442.142660	4087.088000	1225.870117	37.364349
-7442.142660	4087.088000	1224.754883	-75.139610
-7442.142660	4087.088000	1223.639648	-50.211372
-7442.142660	4087.088000	1222.523438	-14.844907
-7442.142660	4087.088000	1221.408203	33.333057
-7442.142660	4087.088000	1220.291992	-70.396034
-7442.142660	4087.088000	1219.174805	-8.286824
-7442.142660	4087.088000	1218.058594	-68.922226
-7442.142660	4087.088000	1216.941406	64.189270
-7442.142660	4087.088000	1215.824219	-39.808659
-7442.142660	4087.088000	1214.707031	-25.206844
-7442.142660	4087.088000	1213.589844	-46.539295
-7442.142660	4087.088000	1212.471680	-5.221706
-7442.142660	4087.088000	1211.353516	-37.292110
-7442.142660	4087.088000	1210.235352	-12.639986
-7442.142660	4087.088000	1209.117188	11.612765
-7442.142660	4087.088000	1207.998047	82.761436
-7442.142660	4087.088000	1206.878906	-28.617809
-7442.142660	4087.088000	1205.759766	-4.104886
-7442.142660	4087.088000	1204.640625	43.355061
-7442.142660	4087.088000	1203.520508	13.534903
-7442.142660	4087.088000	1202.401367	16.194094
-7442.142660	4087.088000	1201.281250	33.256145
-7442.142660	4087.088000	1200.160156	36.923389
-7442.142660	4087.088000	1199.040039	5.635904
-7442.142660	4087.088000	1197.918945	-11.846825
-7442.142660	4087.088000	1196.797852	9.779793
-7442.142660	4087.088000	1195.676758	-127.062202
-7442.142660	4087.088000	1194.555664	-85.449799
-7442.142660	4087.088000	1193.433594	41.938763
-7442.142660	4087.088000	1192.311523	98.919762
-7442.142660	4087.088000	1191.189453	160.118378
-7442.142660	4087.088000	1190.066406	16.470602
-7442.142660	4087.088000	1188.944336	40.761192
-7442.142660	4087.088000	1187.821289	-41.516914
-7442.142660	4087.088000	1186.698242	-14.656802
-7442.142660	4087.088000	1185.574219	51.467964
-7442.142660	4087.088000	1184.451172	-58.280708
-7442.142660	4087.088000	1183.327148	19.451441
-7442.142660	4087.088000	1182.203125	43.136959
-7442.142660	4087.088000	1181.078125	-6.974669
-7442.142660	4087.088000	1179.954102	-64.093781
-7442.142660	4087.088000	1178.829102	80.546959
-7442.142660	4087.088000	1177.704102	54.319527
-7442.142660	4087.088000	1176.579102	0.100095
-7442.142660	4087.088000	1175.453125	-9.824777
-7442.142660	4087.088000	1174.327148	-68.066475
-7442.142660	4087.088000	1173.201172	-7.195111
-7442.142660	4087.088000	1172.075195	-26.147013
-7442.142660	4087.088000	1170.949219	68.139549
-7442.142660	4087.088000	1169.822266	-51.169018
-7442.142660	4087.088000	1168.695313	-37.278763
-7442.142660	4087.088000	1167.568359	101.594704
-7442.142660	4087.088000	1166.440430	58.915604
-7442.142660	4087.088000	1165.313477	80.153595
-7442.142660	4087.088000	1164.185547	101.041588
-7442.142660	4087.088000	1163.057617	80.747635
-7442.142660	4087.088000	1161.928711	117.847252
-7442.142660	4087.088000	1160.800781	178.597321
-7442.142660	4087.088000	1159.671875	96.423042
-7442.142660	4087.088000	1158.541992	153.672256
-7442.142660	4087.088000	1157.413086	89.919357
-7442.142660	4087.088000	1156.283203	94.594322
-7442.142660	4087.088000	1155.154297	39.148575
-7442.142660	4087.088000	1154.023438	105.060814
-7442.142660	4087.088000	1152.893555	232.726898
-7442.142660	4087.088000	1151.763672	235.385345
-7442.142660	4087.088000	1150.632813	256.058777
-7442.142660	4087.088000	1149.501953	104.200691
-7442.142660	4087.088000	1148.370117	133.192062
-7442.142660	4087.088000	1147.239258	132.399673
-7442.142660	4087.088000	1146.107422	232.269791
-7442.142660	4087.088000	1144.975586	211.123169
-7442.142660	4087.088000	1143.843750	236.877136
-7442.142660	4087.088000	1142.710938	196.229935
-7442.142660	4087.088000	1141.578125	288.427246
-7442.142660	4087.088000	1140.445313	380.487976
-7442.142660	4087.088000	1139.312500	403.262024
-7442.142660	4087.088000	1138.178711	524.382141
-7442.142660	4087.088000	1137.045898	625.786987
-7442.142660	4087.088000	1135.912109	709.184082
-7442.142660	4087.088000	1134.777344	743.110779
-7442.142660	4087.088000	1133.643555	817.306702
-7442.142660	4087.088000	1132.508789	737.230164
-7442.142660	4087.088000	1131.374023	700.337158
-7442.142660	4087.088000	1130.239258	656.913147
-7442.142660	4087.088000	1129.104492	646.191040
-7442.142660	4087.088000	1127.968750	432.121643
-7442.142660	4087.088000	1126.833008	407.130829
-7442.142660	4087.088000	1125.697266	304.439697
-7442.142660	4087.088000	1124.560547	396.838928
-7442.142660	4087.088000	1123.424805	359.348022
-7442.142660	4087.088000	1122.288086	290.905304
-7442.142660	4087.088000	1121.151367	190.646729
-7442.142660	4087.088000	1120.013672	219.003494
-7442.142660	4087.088000	1118.876953	164.256195
-7442.142660	4087.088000	1117.739258	219.024475
-7442.142660	4087.088000	1116.601563	257.215027
-7442.142660	4087.088000	1115.462891	235.077255
-7442.142660	4087.088000	1114.324219	179.930038
-7442.142660	4087.088000	1113.186523	196.099274
-7442.142660	4087.088000	1112.046875	196.304596
-7442.142660	4087.088000	1110.908203	109.658447
-7442.142660	4087.088000	1109.769531	125.390656
-7442.142660	4087.088000	1108.629883	365.589264
-7442.142660	4087.088000	1107.490234	224.981705
-7442.142660	4087.088000	1106.349609	209.369797
-7442.142660	4087.088000	1105.209961	247.423904
-7442.142660	4087.088000	1104.069336	315.050903
-7442.142660	4087.088000	1102.928711	303.248871
-7442.142660	4087.088000	1101.787109	329.834198
-7442.142660	4087.088000	1100.646484	394.636780
-7442.142660	4087.088000	1099.504883	412.892303
-7442.142660	4087.088000	1098.363281	447.693756
-7442.142660	4087.088000	1097.221680	427.502747
-7442.142660	4087.088000	1096.079102	448.410828
-7442.142660	4087.088000	1094.936523	551.931152
-7442.142660	4087.088000	1093.793945	564.471558
-7442.142660	4087.088000	1092.651367	719.614746
-7442.142660	4087.088000	1091.507813	722.593811
-7442.142660	4087.088000	1090.364258	907.304810
-7442.142660	4087.088000	1089.220703	930.143005
-7442.142660	4087.088000	1088.077148	1018.379639
-7442.142660	4087.088000	1086.933594	861.200989
-7442.142660	4087.088000	1085.789063	836.254883
-7442.142660	4087.088000	1084.644531	664.086182
-7442.142660	4087.088000	1083.499023	580.079102
-7442.142660	4087.088000	1082.354492	483.076843
-7442.142660	4087.088000	1081.208984	488.251282
-7442.142660	4087.088000	1080.063477	485.092804
-7442.142660	4087.088000	1078.917969	513.712524
-7442.142660	4087.088000	1077.771484	401.723969
-7442.142660	4087.088000	1076.625977	318.771606
-7442.142660	4087.088000	1075.479492	341.257385
-7442.142660	4087.088000	1074.332031	343.745422
-7442.142660	4087.088000	1073.185547	428.702850
-7442.142660	4087.088000	1072.038086	377.786224
-7442.142660	4087.088000	1070.890625	342.068420
-7442.142660	4087.088000	1069.743164	404.433105
-7442.142660	4087.088000	1068.594727	498.959229
-7442.142660	4087.088000	1067.447266	401.400665
-7442.142660	4087.088000	1066.298828	500.631226
-7442.142660	4087.088000	1065.149414	477.250305
-7442.142660	4087.088000	1064.000977	530.099915
-7442.142660	4087.088000	1062.851563	426.135712
-7442.142660	4087.088000	1061.702148	392.795288
-7442.142660	4087.088000	1060.552734	301.515167
-7442.142660	4087.088000	1059.402344	395.052673
-7442.142660	4087.088000	1058.252930	442.559052
-7442.142660	4087.088000	1057.102539	324.695496
-7442.142660	4087.088000	1055.951172	263.394440
-7442.142660	4087.088000	1054.800781	189.703964
-7442.142660	4087.088000	1053.649414	298.200958
-7442.142660	4087.088000	1052.498047	494.260101
-7442.142660	4087.088000	1051.346680	459.108032
-7442.142660	4087.088000	1050.194336	395.595490
-7442.142660	4087.088000	1049.042969	320.542603
-7442.142660	4087.088000	1047.890625	293.462311
-7442.142660	4087.088000	1046.738281	290.840973
-7442.142660	4087.088000	1045.584961	368.639526
-7442.142660	4087.088000	1044.431641	338.792664
-7442.142660	4087.088000	1043.278320	421.336609
-7442.142660	4087.088000	1042.125000	468.191437
-7442.142660	4087.088000	1040.971680	382.247925
-7442.142660	4087.088000	1039.817383	528.446350
-7442.142660	4087.088000	1038.663086	668.275452
-7442.142660	4087.088000	1037.508789	603.573181
-7442.142660	4087.088000	1036.353516	805.102112
-7442.142660	4087.088000	1035.198242	942.700562
-7442.142660	4087.088000	1034.042969	1142.724243
-7442.142660	4087.088000	1032.887695	1188.184204
-7442.142660	4087.088000	1031.732422	1185.499512
-7442.142660	4087.088000	1030.576172	1325.266602
-7442.142660	4087.088000	1029.419922	1392.557373
-7442.142660	4087.088000	1028.263672	1402.187622
-7442.142660	4087.088000	1027.106445	1411.710449
-7442.142660	4087.088000	1025.949219	1350.360474
-7442.142660	4087.088000	1024.792969	1296.524414
-7442.142660	4087.088000	1023.634766	1201.495850
-7442.142660	4087.088000	1022.477539	1185.132324
-7442.142660	4087.088000	1021.319336	1082.008301
-7442.142660	4087.088000	1020.161133	841.125122
-7442.142660	4087.088000	1019.002930	765.500732
-7442.142660	4087.088000	1017.843750	774.937012
-7442.142660	4087.088000	1016.684570	599.424744
-7442.142660	4087.088000	1015.525391	511.511047
-7442.142660	4087.088000	1014.366211	558.394653
-7442.142660	4087.088000	1013.207031	458.798615
-7442.142660	4087.088000	1012.046875	279.950378
-7442.142660	4087.088000	1010.886719	211.368301
-7442.142660	4087.088000	1009.726563	293.478607
-7442.142660	4087.088000	1008.565430	154.557526
-7442.142660	4087.088000	1007.404297	274.683105
-7442.142660	4087.088000	1006.243164	346.541382
-7442.142660	4087.088000	1005.082031	321.361267
-7442.142660	4087.088000	1003.920898	268.793671
-7442.142660	4087.088000	1002.758789	324.529694
-7442.142660	4087.088000	1001.596680	364.179871
-7442.142660	4087.088000	1000.433594	387.993866
-7442.142660	4087.088000	999.271484	328.577332
-7442.142660	4087.088000	998.108398	276.489594
-7442.142660	4087.088000	996.945313	301.961517
-7442.142660	4087.088000	995.782227	268.884247
-7442.142660	4087.088000	994.618164	304.333466
-7442.142660	4087.088000	993.454102	286.152435
-7442.142660	4087.088000	992.290039	395.939423
-7442.142660	4087.088000	991.125977	243.375610
-7442.142660	4087.088000	989.960938	177.739670
-7442.142660	4087.088000	988.796875	190.215195
-7442.142660	4087.088000	987.630859	93.813751
-7442.142660	4087.088000	986.465820	217.640167
-7442.142660	4087.088000	985.300781	86.218224
-7442.142660	4087.088000	984.134766	60.670216
-7442.142660	4087.088000	982.968750	110.186531
-7442.142660	4087.088000	981.801758	204.726318
-7442.142660	4087.088000	980.635742	88.336937
-7442.142660	4087.088000	979.468750	43.925350
-7442.142660	4087.088000	978.301758	102.193802
-7442.142660	4087.088000	977.133789	156.027130
-7442.142660	4087.088000	975.966797	185.598953
-7442.142660	4087.088000	974.798828	119.171463
-7442.142660	4087.088000	973.630859	77.258591
-7442.142660	4087.088000	972.461914	80.018509
-7442.142660	4087.088000	971.293945	-46.518440
-7442.142660	4087.088000	970.125000	-88.720169
-7442.142660	4087.088000	968.956055	-12.979836
-7442.142660	4087.088000	967.786133	64.392883
-7442.142660	4087.088000	966.617188	19.005697
-7442.142660	4087.088000	965.447266	39.827435
-7442.142660	4087.088000	964.276367	27.597006
-7442.142660	4087.088000	963.106445	39.086346
-7442.142660	4087.088000	961.935547	117.885239
-7442.142660	4087.088000	960.764648	142.301910
-7442.142660	4087.088000	959.593750	154.183746
-7442.142660	4087.088000	958.422852	110.999260
-7442.142660	4087.088000	957.250977	21.572401
-7442.142660	4087.088000	956.079102	-11.949646
-7442.142660	4087.088000	954.907227	10.284443
-7442.142660	4087.088000	953.734375	19.377874
-7442.142660	4087.088000	952.562500	-58.375519
-7442.142660	4087.088000	951.389648	-81.040581
-7442.142660	4087.088000	950.215820	-93.958412
-7442.142660	4087.088000	949.042969	-126.887802
-7442.142660	4087.088000	947.869141	-7.228651
-7442.142660	4087.088000	946.695313	-54.765232
-7442.142660	4087.088000	945.521484	-12.708702
-7442.142660	4087.088000	944.346680	16.612398
-7442.142660	4087.088000	943.172852	-62.357437
-7442.142660	4087.088000	941.998047	-70.499680
-7442.142660	4087.088000	940.822266	-56.131958
-7442.142660	4087.088000	939.647461	-86.279434
-7442.142660	4087.088000	938.471680	-100.199623
-7442.142660	4087.088000	937.295898	-31.157141
-7442.142660	4087.088000	936.119141	-71.838028
-7442.142660	4087.088000	934.943359	-104.985115
-7442.142660	4087.088000	933.766602	-62.032757
-7442.142660	4087.088000	932.589844	-41.997486
-7442.142660	4087.088000	931.413086	-100.120728
-7442.142660	4087.088000	930.235352	-97.564133
-7442.142660	4087.088000	929.057617	-62.252407
-7442.142660	4087.088000	927.879883	-19.289280
-7442.142660	4087.088000	926.702148	-60.996254
-7442.142660	4087.088000	925.523438	102.328293
-7442.142660	4087.088000	924.344727	-52.940544
-7442.142660	4087.088000	923.166016	-74.428947
-7442.142660	4087.088000	921.987305	-127.642998
-7442.142660	4087.088000	920.807617	-20.200417
-7442.142660	4087.088000	919.627930	-15.881378
-7442.142660	4087.088000	919.497070	-4.635459
-7442.142660	4087.088000	918.331055	-23.253864
-7442.142660	4087.088000	917.165039	-78.390732
-7442.142660	4087.088000	915.999023	-115.242607
-7442.142660	4087.088000	914.833008	0.706858
-7442.142660	4087.088000	913.666016	34.957085
-7442.142660	4087.088000	912.499023	-5.720375
-7442.142660	4087.088000	911.332031	126.478897
-7442.142660	4087.088000	910.165039	147.258743
-7442.142660	4087.088000	908.997070	103.726006
-7442.142660	4087.088000	907.830078	171.543121
-7442.142660	4087.088000	906.661133	169.303665
-7442.142660	4087.088000	905.493164	167.069763
-7442.142660	4087.088000	904.325195	242.537109
-7442.142660	4087.088000	903.156250	117.569412
-7442.142660	4087.088000	901.987305	181.536774
-7442.142660	4087.088000	900.818359	162.096115
-7442.142660	4087.088000	899.648438	213.598450
-7442.142660	4087.088000	898.478516	32.260532
-7442.142660	4087.088000	897.308594	26.317392
-7442.142660	4087.088000	896.138672	119.042145
-7442.142660	4087.088000	894.968750	64.278206
-7442.142660	4087.088000	893.797852	-12.464193
-7442.142660	4087.088000	892.626953	83.135124
-7442.142660	4087.088000	891.456055	19.852173
-7442.142660	4087.088000	890.284180	17.852480
-7442.142660	4087.088000	889.113281	76.133041
-7442.142660	4087.088000	887.941406	36.860226
-7442.142660	4087.088000	886.768555	112.371590
-7442.142660	4087.088000	885.596680	54.027302
-7442.142660	4087.088000	884.423828	28.230124
-7442.142660	4087.088000	883.250977	74.136002
-7442.142660	4087.088000	882.078125	77.051170
-7442.142660	4087.088000	880.905273	119.151978
-7442.142660	4087.088000	879.731445	48.569839
-7442.142660	4087.088000	878.557617	129.859039
-7442.142660	4087.088000	877.383789	144.315048
-7442.142660	4087.088000	876.209961	98.660057
-7442.142660	4087.088000	875.035156	94.086090
-7442.142660	4087.088000	873.860352	78.090675
-7442.142660	4087.088000	872.685547	170.869629
-7442.142660	4087.088000	871.510742	190.204681
-7442.142660	4087.088000	870.334961	92.286926
-7442.142660	4087.088000	869.159180	157.447769
-7442.142660	4087.088000	867.983398	101.569481
-7442.142660	4087.088000	866.807617	45.742374
-7442.142660	4087.088000	865.630859	136.686874
-7442.142660	4087.088000	864.454102	83.797729
-7442.142660	4087.088000	863.277344	43.340004
-7442.142660	4087.088000	862.100586	-13.256211
-7442.142660	4087.088000	860.922852	-110.725502
-7442.142660	4087.088000	859.745117	-153.874939
-7442.142660	4087.088000	858.567383	-101.822777
-7442.142660	4087.088000	857.389648	-10.755687
-7442.142660	4087.088000	856.210938	-162.226059
-7442.142660	4087.088000	855.032227	-167.157333
-7442.142660	4087.088000	853.853516	-72.225433
-7442.142660	4087.088000	852.674805	-87.561394
-7442.142660	4087.088000	851.495117	-89.547646
-7442.142660	4087.088000	850.315430	-146.607269
-7442.142660	4087.088000	849.135742	-164.659912
-7442.142660	4087.088000	847.956055	-95.292229
-7442.142660	4087.088000	846.775391	-0.274760
-7442.142660	4087.088000	845.595703	-56.215069
-7442.142660	4087.088000	844.415039	132.795700
-7442.142660	4087.088000	843.233398	257.238312
-7442.142660	4087.088000	842.052734	212.778458
-7442.142660	4087.088000	840.871094	57.393448
-7442.142660	4087.088000	839.689453	81.355156
-7442.142660	4087.088000	838.506836	73.110909
-7442.142660	4087.088000	837.325195	52.577068
-7442.142660	4087.088000	836.142578	166.684280
-7442.142660	4087.088000	834.959961	17.344856
-7442.142660	4087.088000	833.777344	61.377247
-7442.142660	4087.088000	832.593750	148.059921
-7442.142660	4087.088000	831.410156	-35.158333
-7442.142660	4087.088000	830.226563	-1.438096
-7442.142660	4087.088000	829.042969	22.839315
-7442.142660	4087.088000	827.858398	-148.763397
-7442.142660	4087.088000	826.673828	46.886963
-7442.142660	4087.088000	825.489258	-37.536770
-7442.142660	4087.088000	824.304688	-103.916451
-7442.142660	4087.088000	823.120117	-34.055344
-7442.142660	4087.088000	821.934570	-46.435101
-7442.142660	4087.088000	820.749023	-48.373940
-7442.142660	4087.088000	819.562500	-92.797340
-7442.142660	4087.088000	818.376953	-104.098236
-7442.142660	4087.088000	817.190430	-67.172424
-7442.142660	4087.088000	816.003906	32.112389
-7442.142660	4087.088000	814.817383	-35.746883
-7442.142660	4087.088000	813.629883	10.700816
-7442.142660	4087.088000	812.442383	136.455811
-7442.142660	4087.088000	811.254883	87.608704
-7442.142660	4087.088000	810.067383	200.159775
-7442.142660	4087.088000	808.878906	344.780853
-7442.142660	4087.088000	807.690430	236.619995
-7442.142660	4087.088000	806.501953	267.150574
-7442.142660	4087.088000	805.313477	261.881104
-7442.142660	4087.088000	804.124023	191.619675
-7442.142660	4087.088000	802.934570	183.618179
-7442.142660	4087.088000	801.745117	64.481277
-7442.142660	4087.088000	800.555664	-24.429081
-7442.142660	4087.088000	799.365234	-84.067955
-7442.142660	4087.088000	798.175781	-87.159119
-7442.142660	4087.088000	796.985352	-11.133813
-7442.142660	4087.088000	795.793945	7.487106
-7442.142660	4087.088000	794.603516	-48.210278
-7442.142660	4087.088000	793.412109	-139.595596
-7442.142660	4087.088000	792.220703	-169.772781
-7442.142660	4087.088000	791.028320	-99.276443
-7442.142660	4087.088000	789.836914	-66.392830
-7442.142660	4087.088000	788.644531	-42.885483
-7442.142660	4087.088000	787.452148	20.114134
-7442.142660	4087.088000	786.258789	-83.188797
-7442.142660	4087.088000	785.066406	-52.088112
-7442.142660	4087.088000	783.873047	6.271910
-7442.142660	4087.088000	782.679688	30.830448
-7442.142660	4087.088000	781.485352	-25.327419
-7442.142660	4087.088000	780.291992	-17.613438
-7442.142660	4087.088000	779.097656	-182.545334
-7442.142660	4087.088000	777.903320	5.400908
-7442.142660	4087.088000	776.708008	-106.879097
-7442.142660	4087.088000	775.512695	-19.322367
-7442.142660	4087.088000	774.318359	79.467010
-7442.142660	4087.088000	773.122070	-37.369038
-7442.142660	4087.088000	771.926758	-21.983194
-7442.142660	4087.088000	770.730469	-73.109840
-7442.142660	4087.088000	769.534180	-136.374161
-7442.142660	4087.088000	768.337891	4.607833
-7442.142660	4087.088000	767.141602	6.948112
-7442.142660	4087.088000	765.944336	18.674631
-7442.142660	4087.088000	764.747070	21.052719
-7442.142660	4087.088000	763.549805	-53.298363
-7442.142660	4087.088000	762.351563	-90.168060
-7442.142660	4087.088000	761.154297	-47.493778
-7442.142660	4087.088000	759.956055	-3.881386
-7442.142660	4087.088000	758.757813	-91.194099
-7442.142660	4087.088000	757.558594	-84.957245
-7442.142660	4087.088000	756.359375	-4.866109
-7442.142660	4087.088000	755.160156	8.847870
-7442.142660	4087.088000	753.960938	-112.916382
-7442.142660	4087.088000	752.761719	45.627750
-7442.142660	4087.088000	751.561523	-67.665703
-7442.142660	4087.088000	750.361328	19.856489
-7442.142660	4087.088000	749.160156	47.604004
-7442.142660	4087.088000	747.959961	-71.203621
-7442.142660	4087.088000	746.758789	60.143608
-7442.142660	4087.088000	745.557617	72.014206
-7442.142660	4087.088000	744.356445	-91.485992
-7442.142660	4087.088000	743.154297	20.207409
-7442.142660	4087.088000	741.952148	-50.899433
-7442.142660	4087.088000	740.750000	55.142551
-7442.142660	4087.088000	739.547852	32.517292
-7442.142660	4087.088000	738.344727	59.290577
-7442.142660	4087.088000	737.142578	119.578850
-7442.142660	4087.088000	735.939453	122.092430
-7442.142660	4087.088000	734.735352	134.847214
-7442.142660	4087.088000	733.532227	75.889816
-7442.142660	4087.088000	732.328125	61.634106
-7442.142660	4087.088000	731.124023	227.920654
-7442.142660	4087.088000	729.918945	141.044113
-7442.142660	4087.088000	728.714844	123.953979
-7442.142660	4087.088000	727.509766	102.211441
-7442.142660	4087.088000	726.303711	81.397728
-7442.142660	4087.088000	725.098633	80.091797
-7442.142660	4087.088000	723.892578	52.747295
-7442.142660	4087.088000	722.686523	80.222397
-7442.142660	4087.088000	721.480469	126.246292
-7442.142660	4087.088000	720.274414	105.346504
-7442.142660	4087.088000	719.067383	135.516663
-7442.142660	4087.088000	717.860352	167.505112
-7442.142660	4087.088000	716.653320	67.630394
-7442.142660	4087.088000	715.445313	187.742966
-7442.142660	4087.088000	714.238281	69.289284
-7442.142660	4087.088000	713.030273	11.163457
-7442.142660	4087.088000	711.821289	36.514462
-7442.142660	4087.088000	710.613281	130.439789
-7442.142660	4087.088000	709.404297	-9.348293
-7442.142660	4087.088000	708.195313	40.913883
-7442.142660	4087.088000	706.986328	161.551620
-7442.142660	4087.088000	705.776367	55.093838
-7442.142660	4087.088000	704.566406	140.401428
-7442.142660	4087.088000	703.356445	188.583389
-7442.142660	4087.088000	702.146484	154.287781
-7442.142660	4087.088000	700.935547	-1.312136
-7442.142660	4087.088000	699.724609	180.027512
-7442.142660	4087.088000	698.513672	80.843430
-7442.142660	4087.088000	697.302734	143.564941
-7442.142660	4087.088000	696.090820	97.062401
-7442.142660	4087.088000	694.878906	27.406483
-7442.142660	4087.088000	693.666992	145.427368
-7442.142660	4087.088000	692.455078	85.851738
-7442.142660	4087.088000	691.242188	193.538544
-7442.142660	4087.088000	690.029297	35.920460
-7442.142660	4087.088000	688.816406	100.034698
-7442.142660	4087.088000	687.602539	52.303570
-7442.142660	4087.088000	686.389648	172.597137
-7442.142660	4087.088000	685.175781	51.807671
-7442.142660	4087.088000	683.960938	125.779396
-7442.142660	4087.088000	682.747070	180.268448
-7442.142660	4087.088000	681.532227	145.171188
-7442.142660	4087.088000	680.317383	120.167313
-7442.142660	4087.088000	679.102539	109.860977
-7442.142660	4087.088000	677.886719	286.679932
-7442.142660	4087.088000	676.670898	329.674683
-7442.142660	4087.088000	675.455078	227.866837
-7442.142660	4087.088000	674.239258	323.232727
-7442.142660	4087.088000	673.022461	339.252075
-7442.142660	4087.088000	671.805664	356.107483
-7442.142660	4087.088000	670.588867	377.481323
-7442.142660	4087.088000	669.372070	326.946594
-7442.142660	4087.088000	668.154297	274.514526
-7442.142660	4087.088000	666.936523	310.375885
-7442.142660	4087.088000	665.718750	298.288696
-7442.142660	4087.088000	664.500977	459.076050
-7442.142660	4087.088000	663.282227	514.857361
-7442.142660	4087.088000	662.063477	599.953064
-7442.142660	4087.088000	660.844727	633.437683
-7442.142660	4087.088000	659.625000	558.356384
-7442.142660	4087.088000	658.405273	562.248474
-7442.142660	4087.088000	657.185547	440.169067
-7442.142660	4087.088000	655.965820	441.141479
-7442.142660	4087.088000	654.745117	383.242310
-7442.142660	4087.088000	653.525391	418.926422
-7442.142660	4087.088000	652.303711	376.471893
-7442.142660	4087.088000	651.083008	375.235840
-7442.142660	4087.088000	649.861328	451.903381
-7442.142660	4087.088000	648.640625	322.008270
-7442.142660	4087.088000	647.417969	351.674377
-7442.142660	4087.088000	646.196289	353.710022
-7442.142660	4087.088000	644.973633	333.639130
-7442.142660	4087.088000	643.750977	280.471069
-7442.142660	4087.088000	642.528320	199.725006
-7442.142660	4087.088000	641.305664	218.781906
-7442.142660	4087.088000	640.082031	272.536926
-7442.142660	4087.088000	638.858398	298.682983
-7442.142660	4087.088000	637.634766	219.402893
-7442.142660	4087.088000	636.410156	366.179504
-7442.142660	4087.088000	635.185547	314.158203
-7442.142660	4087.088000	633.960938	260.217194
-7442.142660	4087.088000	632.736328	167.759155
-7442.142660	4087.088000	631.510742	183.167557
-7442.142660	4087.088000	630.285156	201.198593
-7442.142660	4087.088000	629.059570	231.908310
-7442.142660	4087.088000	627.833984	103.426559
-7442.142660	4087.088000	626.607422	249.072098
-7442.142660	4087.088000	625.380859	175.235886
-7442.142660	4087.088000	624.154297	219.164520
-7442.142660	4087.088000	622.927734	158.831238
-7442.142660	4087.088000	621.700195	191.551605
-7442.142660	4087.088000	620.472656	160.229294
-7442.142660	4087.088000	619.245117	183.569550
-7442.142660	4087.088000	618.016602	120.996162
-7442.142660	4087.088000	616.788086	65.628525
-7442.142660	4087.088000	615.559570	139.698822
-7442.142660	4087.088000	614.331055	102.349922
-7442.142660	4087.088000	613.101563	71.279808
-7442.142660	4087.088000	611.872070	-40.122585
-7442.142660	4087.088000	610.642578	132.771072
-7442.142660	4087.088000	609.413086	126.865036
-7442.142660	4087.088000	608.182617	171.859467
-7442.142660	4087.088000	606.952148	152.952454
-7442.142660	4087.088000	605.721680	14.634268
-7442.142660	4087.088000	604.491211	16.466541
-7442.142660	4087.088000	603.259766	-41.902538
-7442.142660	4087.088000	602.028320	-21.191357
-7442.142660	4087.088000	600.796875	-2.429487
-7442.142660	4087.088000	599.564453	84.429527
-7442.142660	4087.088000	598.332031	1.962149
-7442.142660	4087.088000	597.099609	81.266357
-7442.142660	4087.088000	595.867188	8.594001
-7442.142660	4087.088000	594.633789	25.814554
-7442.142660	4087.088000	593.400391	17.463028
-7442.142660	4087.088000	592.166992	-59.144650
-7442.142660	4087.088000	590.933594	-44.096317
-7442.142660	4087.088000	589.699219	-50.061764
-7442.142660	4087.088000	588.464844	-126.962959
-7442.142660	4087.088000	587.230469	-16.950109
-7442.142660	4087.088000	585.995117	62.039757
-7442.142660	4087.088000	584.760742	-50.574753
-7442.142660	4087.088000	583.525391	40.857479
-7442.142660	4087.088000	582.289063	73.179306
-7442.142660	4087.088000	581.053711	11.975534
-7442.142660	4087.088000	579.817383	19.583883
-7442.142660	4087.088000	578.581055	44.298794
-7442.142660	4087.088000	577.343750	67.076973
-7442.142660	4087.088000	576.107422	149.534851
-7442.142660	4087.088000	574.870117	22.598509
-7442.142660	4087.088000	573.631836	112.053009
-7442.142660	4087.088000	572.394531	32.951473
-7442.142660	4087.088000	571.156250	71.457878
-7442.142660	4087.088000	569.917969	102.601944
-7442.142660	4087.088000	568.679688	80.242409
-7442.142660	4087.088000	567.440430	115.685272
-7442.142660	4087.088000	566.202148	87.701981
-7442.142660	4087.088000	564.961914	66.858543
-7442.142660	4087.088000	563.722656	-24.590740
-7442.142660	4087.088000	562.482422	-27.518831
-7442.142660	4087.088000	561.243164	-112.775101
-7442.142660	4087.088000	560.001953	-48.112610
-7442.142660	4087.088000	558.761719	0.173710
-7442.142660	4087.088000	557.520508	42.022976
-7442.142660	4087.088000	556.279297	-48.062576
-7442.142660	4087.088000	555.038086	-64.172966
-7442.142660	4087.088000	553.795898	-49.678776
-7442.142660	4087.088000	552.554688	1.725681
-7442.142660	4087.088000	551.311523	-2.915935
-7442.142660	4087.088000	550.069336	-12.141488
-7442.142660	4087.088000	548.826172	-61.123333
-7442.142660	4087.088000	547.583984	44.013718
-7442.142660	4087.088000	546.339844	-92.548561
-7442.142660	4087.088000	545.096680	-20.043478
-7442.142660	4087.088000	543.852539	-11.614882
-7442.142660	4087.088000	542.608398	-42.893223
-7442.142660	4087.088000	541.364258	4.128574
-7442.142660	4087.088000	540.119141	-31.776253
-7442.142660	4087.088000	538.875000	17.798746
-7442.142660	4087.088000	537.628906	-74.021645
-7442.142660	4087.088000	536.383789	-58.774113
-7442.142660	4087.088000	535.137695	-29.197697
-7442.142660	4087.088000	533.892578	9.312270
-7442.142660	4087.088000	532.645508	-90.740402
-7442.142660	4087.088000	531.399414	-108.078835
-7442.142660	4087.088000	530.152344	-102.088730
-7442.142660	4087.088000	528.905273	-61.095531
-7442.142660	4087.088000	527.658203	-131.573318
-7442.142660	4087.088000	526.410156	-89.776291
-7442.142660	4087.088000	525.163086	-57.008831
-7442.142660	4087.088000	523.914063	-193.106979
-7442.142660	4087.088000	522.666016	-102.047455
-7442.142660	4087.088000	521.416992	-131.329514
-7442.142660	4087.088000	520.167969	-201.901337
-7442.142660	4087.088000	518.918945	-137.894089
-7442.142660	4087.088000	517.669922	-141.206070
-7442.142660	4087.088000	516.419922	-131.984589
-7442.142660	4087.088000	515.169922	-79.746544
-7442.142660	4087.088000	513.919922	-133.315994
-7442.142660	4087.088000	512.668945	-122.351479
-7442.142660	4087.088000	511.417969	-165.158463
-7442.142660	4087.088000	510.166992	-155.995560
-7442.142660	4087.088000	508.916016	-113.700981
-7442.142660	4087.088000	507.664063	-228.126175
-7442.142660	4087.088000	506.412109	-0.524343
-7442.142660	4087.088000	505.160156	-51.368519
-7442.142660	4087.088000	503.907227	-27.021378
-7442.142660	4087.088000	502.655273	-94.816780
-7442.142660	4087.088000	501.402344	-159.891357
-7442.142660	4087.088000	500.148438	-91.682045
-7442.142660	4087.088000	498.895508	-50.300663
-7442.142660	4087.088000	497.641602	-4.452211
-7442.142660	4087.088000	496.387695	-15.794958
-7442.142660	4087.088000	495.132813	-96.804443
-7442.142660	4087.088000	493.878906	21.458954
-7442.142660	4087.088000	492.624023	-54.106220
-7442.142660	4087.088000	491.368164	37.363201
-7442.142660	4087.088000	490.113281	-5.967381
-7442.142660	4087.088000	488.857422	-9.975767
-7442.142660	4087.088000	487.601563	109.198814
-7442.142660	4087.088000	486.344727	36.547985
-7442.142660	4087.088000	485.088867	63.875320
-7442.142660	4087.088000	483.832031	27.916319
-7442.142660	4087.088000	482.575195	-66.823624
-7442.142660	4087.088000	481.317383	106.825699
-7442.142660	4087.088000	480.059570	103.105286
-7442.142660	4087.088000	478.801758	9.448852
-7442.142660	4087.088000	477.543945	96.718231
-7442.142660	4087.088000	476.285156	59.316353
-7442.142660	4087.088000	475.027344	26.442955
-7442.142660	4087.088000	473.767578	-36.634010
-7442.142660	4087.088000	472.508789	-43.548878
-7442.142660	4087.088000	471.249023	45.697464
-7442.142660	4087.088000	469.989258	69.132454
-7442.142660	4087.088000	468.729492	59.708961
-7442.142660	4087.088000	467.469727	46.794777
-7442.142660	4087.088000	466.208984	113.072083
-7442.142660	4087.088000	464.948242	-11.724898
-7442.142660	4087.088000	463.686523	84.874901
-7442.142660	4087.088000	462.425781	195.715424
-7442.142660	4087.088000	461.164063	38.301350
-7442.142660	4087.088000	459.901367	119.027542
-7442.142660	4087.088000	458.639648	128.752304
-7442.142660	4087.088000	457.376953	15.137299
-7442.142660	4087.088000	456.114258	152.804428
-7442.142660	4087.088000	454.851563	26.932344
-7442.142660	4087.088000	453.587891	93.682030
-7442.142660	4087.088000	452.324219	-24.026545
-7442.142660	4087.088000	451.060547	29.517866
-7442.142660	4087.088000	449.796875	-15.316475
-7442.142660	4087.088000	448.532227	114.535507
-7442.142660	4087.088000	447.267578	26.378452
-7442.142660	4087.088000	446.002930	100.444656
-7442.142660	4087.088000	444.737305	6.217527
-7442.142660	4087.088000	443.471680	15.689786
-7442.142660	4087.088000	442.206055	-94.335747
-7442.142660	4087.088000	440.940430	72.799423
-7442.142660	4087.088000	439.673828	29.250593
-7442.142660	4087.088000	438.407227	38.838333
-7442.142660	4087.088000	437.140625	67.906784
-7442.142660	4087.088000	435.873047	34.180222
-7442.142660	4087.088000	434.605469	134.891281
-7442.142660	4087.088000	433.337891	10.123878
-7442.142660	4087.088000	432.070313	142.624664
-7442.142660	4087.088000	430.801758	39.112690
-7442.142660	4087.088000	429.533203	-18.423508
-7442.142660	4087.088000	428.264648	52.128357
-7442.142660	4087.088000	426.996094	1.636043
-7442.142660	4087.088000	425.726563	80.921028
-7442.142660	4087.088000	424.457031	43.608044
-7442.142660	4087.088000	423.186523	-4.331449
-7442.142660	4087.088000	421.916992	-46.129337
-7442.142660	4087.088000	420.646484	56.696079
-7442.142660	4087.088000	419.375977	59.735229
-7442.142660	4087.088000	418.104492	76.791069
-7442.142660	4087.088000	416.833008	78.753487
-7442.142660	4087.088000	415.561523	138.777817
-7442.142660	4087.088000	414.290039	46.204456
-7442.142660	4087.088000	413.017578	-4.176695
-7442.142660	4087.088000	411.746094	-37.063091
-7442.142660	4087.088000	410.472656	60.232773
-7442.142660	4087.088000	409.200195	38.454903
-7442.142660	4087.088000	407.926758	92.196846
-7442.142660	4087.088000	406.653320	77.066177
-7442.142660	4087.088000	405.379883	31.807186
-7442.142660	4087.088000	404.105469	-16.310843
-7442.142660	4087.088000	402.831055	99.804642
-7442.142660	4087.088000	401.556641	39.738811
-7442.142660	4087.088000	400.282227	62.047894
-7442.142660	4087.088000	399.006836	47.998726
-7442.142660	4087.088000	397.731445	56.476425
-7442.142660	4087.088000	396.456055	77.780769
-7442.142660	4087.088000	395.179688	-4.064546
-7442.142660	4087.088000	393.903320	159.619080
-7442.142660	4087.088000	392.626953	67.330910
-7442.142660	4087.088000	391.350586	15.024983
-7442.142660	4087.088000	390.073242	-10.520544
-7442.142660	4087.088000	388.795898	2.942323
-7442.142660	4087.088000	387.518555	16.766117
-7442.142660	4087.088000	386.240234	127.386475
-7442.142660	4087.088000	384.961914	-85.277702
-7442.142660	4087.088000	383.683594	3.995142
-7442.142660	4087.088000	382.405273	196.902725
-7442.142660	4087.088000	381.125977	-8.754624
-7442.142660	4087.088000	379.846680	36.422066
-7442.142660	4087.088000	378.567383	106.262466
-7442.142660	4087.088000	377.287109	-48.863388
-7442.142660	4087.088000	376.006836	90.333649
-7442.142660	4087.088000	374.726563	-15.558025
-7442.142660	4087.088000	373.446289	-1.494473
-7442.142660	4087.088000	372.165039	-30.340368
-7442.142660	4087.088000	370.883789	18.618870
-7442.142660	4087.088000	369.602539	25.482510
-7442.142660	4087.088000	368.320313	-1.911677
-7442.142660	4087.088000	367.039063	11.628059
-7442.142660	4087.088000	365.755859	75.592102
-7442.142660	4087.088000	364.473633	52.774269
-7442.142660	4087.088000	363.190430	4.298109
-7442.142660	4087.088000	361.907227	-131.858658
-7442.142660	4087.088000	360.624023	-29.108566
-7442.142660	4087.088000	359.340820	-45.592957
-7442.142660	4087.088000	358.056641	53.479816
-7442.142660	4087.088000	356.772461	64.682648
-7442.142660	4087.088000	355.487305	35.975018
-7442.142660	4087.088000	354.202148	168.844116
-7442.142660	4087.088000	352.916992	-132.491180
-7442.142660	4087.088000	351.631836	-48.245045
-7442.142660	4087.088000	350.346680	-18.928988
-7442.142660	4087.088000	349.060547	20.761257
-7442.142660	4087.088000	347.774414	-0.660274
-7442.142660	4087.088000	346.487305	9.955225
-7442.142660	4087.088000	345.200195	9.006965
-7442.142660	4087.088000	343.913086	-51.454231
-7442.142660	4087.088000	342.625977	-118.356705
-7442.142660	4087.088000	341.338867	9.285563
-7442.142660	4087.088000	340.050781	35.371632
-7442.142660	4087.088000	338.762695	-11.355454
-7442.142660	4087.088000	337.473633	-70.089813
-7442.142660	4087.088000	336.184570	-6.938334
-7442.142660	4087.088000	334.895508	-193.297119
-7442.142660	4087.088000	333.606445	-43.235050
-7442.142660	4087.088000	332.317383	-72.388290
-7442.142660	4087.088000	331.027344	-29.690218
-7442.142660	4087.088000	329.736328	-109.858810
-7442.142660	4087.088000	328.446289	-58.328320
-7442.142660	4087.088000	327.155273	-152.377533
-7442.142660	4087.088000	325.864258	-182.740219
-7442.142660	4087.088000	324.573242	-54.954639
-7442.142660	4087.088000	323.281250	-70.385452
-7442.142660	4087.088000	321.989258	-108.391960
-7442.142660	4087.088000	320.697266	5.268926
-7442.142660	4087.088000	319.405273	-121.551590
-7442.142660	4087.088000	318.112305	-106.566513
-7442.142660	4087.088000	316.819336	-204.726776
-7442.142660	4087.088000	315.526367	-73.781197
-7442.142660	4087.088000	314.232422	24.267292
-7442.142660	4087.088000	312.938477	26.176914
-7442.142660	4087.088000	311.644531	41.002796
-7442.142660	4087.088000	310.349609	147.300430
-7442.142660	4087.088000	309.054688	45.473152
-7442.142660	4087.088000	307.759766	219.302444
-7442.142660	4087.088000	306.464844	340.550537
-7442.142660	4087.088000	305.168945	242.043259
-7442.142660	4087.088000	303.873047	441.947540
-7442.142660	4087.088000	302.577148	449.658600
-7442.142660	4087.088000	301.281250	801.135254
-7442.142660	4087.088000	299.984375	821.725159
