#X		#Y		#Wave		#Intensity
-7373.834362	4230.330000	1999.946289	-10.635583
-7373.834362	4230.330000	1998.981445	-22.354492
-7373.834362	4230.330000	1998.017578	-221.868607
-7373.834362	4230.330000	1997.052734	-34.566196
-7373.834362	4230.330000	1996.088867	68.580040
-7373.834362	4230.330000	1995.124023	-43.680645
-7373.834362	4230.330000	1994.159180	322.253815
-7373.834362	4230.330000	1993.193359	103.789978
-7373.834362	4230.330000	1992.228516	-0.571110
-7373.834362	4230.330000	1991.262695	61.084377
-7373.834362	4230.330000	1990.296875	13.947112
-7373.834362	4230.330000	1989.331055	107.992180
-7373.834362	4230.330000	1988.365234	179.852936
-7373.834362	4230.330000	1987.398438	-22.762053
-7373.834362	4230.330000	1986.432617	-22.401602
-7373.834362	4230.330000	1985.465820	136.309998
-7373.834362	4230.330000	1984.499023	-144.977875
-7373.834362	4230.330000	1983.532227	-23.181280
-7373.834362	4230.330000	1982.565430	71.481064
-7373.834362	4230.330000	1981.597656	0.655254
-7373.834362	4230.330000	1980.629883	73.220047
-7373.834362	4230.330000	1979.662109	103.851463
-7373.834362	4230.330000	1978.694336	144.427734
-7373.834362	4230.330000	1977.726563	96.182625
-7373.834362	4230.330000	1976.758789	23.341206
-7373.834362	4230.330000	1975.790039	-34.595074
-7373.834362	4230.330000	1974.821289	55.607922
-7373.834362	4230.330000	1973.852539	118.700829
-7373.834362	4230.330000	1972.883789	-77.168198
-7373.834362	4230.330000	1971.915039	188.267242
-7373.834362	4230.330000	1970.945313	135.578537
-7373.834362	4230.330000	1969.975586	50.910961
-7373.834362	4230.330000	1969.005859	-21.355646
-7373.834362	4230.330000	1968.036133	39.523857
-7373.834362	4230.330000	1967.066406	73.318123
-7373.834362	4230.330000	1966.096680	-136.742249
-7373.834362	4230.330000	1965.125977	79.407936
-7373.834362	4230.330000	1964.155273	-12.305753
-7373.834362	4230.330000	1963.184570	-62.099785
-7373.834362	4230.330000	1962.213867	-175.848801
-7373.834362	4230.330000	1961.242188	25.497080
-7373.834362	4230.330000	1960.271484	-46.347073
-7373.834362	4230.330000	1959.299805	218.908615
-7373.834362	4230.330000	1958.328125	-15.250542
-7373.834362	4230.330000	1957.356445	210.585251
-7373.834362	4230.330000	1956.384766	224.888367
-7373.834362	4230.330000	1955.412109	-146.770416
-7373.834362	4230.330000	1954.439453	120.783768
-7373.834362	4230.330000	1953.467773	71.227791
-7373.834362	4230.330000	1952.495117	156.833496
-7373.834362	4230.330000	1951.521484	-123.617905
-7373.834362	4230.330000	1950.548828	143.748077
-7373.834362	4230.330000	1949.575195	25.476896
-7373.834362	4230.330000	1948.601563	-163.954575
-7373.834362	4230.330000	1947.627930	110.627594
-7373.834362	4230.330000	1946.654297	198.574173
-7373.834362	4230.330000	1945.680664	-0.618532
-7373.834362	4230.330000	1944.706055	45.592396
-7373.834362	4230.330000	1943.732422	30.449018
-7373.834362	4230.330000	1942.757813	74.159096
-7373.834362	4230.330000	1941.783203	152.165665
-7373.834362	4230.330000	1940.807617	41.359398
-7373.834362	4230.330000	1939.833008	-0.794695
-7373.834362	4230.330000	1938.857422	84.481468
-7373.834362	4230.330000	1937.881836	152.554962
-7373.834362	4230.330000	1936.906250	-66.038475
-7373.834362	4230.330000	1935.930664	70.569885
-7373.834362	4230.330000	1934.955078	175.268387
-7373.834362	4230.330000	1933.978516	-50.625420
-7373.834362	4230.330000	1933.001953	-129.588913
-7373.834362	4230.330000	1932.025391	31.297607
-7373.834362	4230.330000	1931.048828	226.351303
-7373.834362	4230.330000	1930.072266	164.415756
-7373.834362	4230.330000	1929.094727	65.781166
-7373.834362	4230.330000	1928.118164	-52.416500
-7373.834362	4230.330000	1927.140625	-38.564430
-7373.834362	4230.330000	1926.163086	-112.763573
-7373.834362	4230.330000	1925.184570	-94.087982
-7373.834362	4230.330000	1924.207031	-124.334923
-7373.834362	4230.330000	1923.228516	-144.835083
-7373.834362	4230.330000	1922.250000	42.278625
-7373.834362	4230.330000	1921.271484	-19.845272
-7373.834362	4230.330000	1920.292969	84.065811
-7373.834362	4230.330000	1919.314453	112.209305
-7373.834362	4230.330000	1918.334961	-40.338551
-7373.834362	4230.330000	1917.355469	-70.842171
-7373.834362	4230.330000	1916.375977	1.105907
-7373.834362	4230.330000	1915.396484	-34.364178
-7373.834362	4230.330000	1914.416992	139.908020
-7373.834362	4230.330000	1913.436523	79.944931
-7373.834362	4230.330000	1912.457031	107.735809
-7373.834362	4230.330000	1911.476563	-1.051752
-7373.834362	4230.330000	1910.496094	-119.597694
-7373.834362	4230.330000	1909.515625	-33.443596
-7373.834362	4230.330000	1908.534180	-81.378685
-7373.834362	4230.330000	1907.552734	-34.340496
-7373.834362	4230.330000	1906.572266	-21.470461
-7373.834362	4230.330000	1905.590820	-76.839706
-7373.834362	4230.330000	1904.608398	118.532593
-7373.834362	4230.330000	1903.626953	-46.487259
-7373.834362	4230.330000	1902.644531	221.713943
-7373.834362	4230.330000	1901.663086	83.396301
-7373.834362	4230.330000	1900.680664	105.645500
-7373.834362	4230.330000	1899.698242	47.562649
-7373.834362	4230.330000	1898.714844	40.517399
-7373.834362	4230.330000	1897.732422	-83.292145
-7373.834362	4230.330000	1896.749023	96.771111
-7373.834362	4230.330000	1895.765625	147.889618
-7373.834362	4230.330000	1894.782227	167.340424
-7373.834362	4230.330000	1893.798828	232.891861
-7373.834362	4230.330000	1892.814453	113.739510
-7373.834362	4230.330000	1891.831055	103.870331
-7373.834362	4230.330000	1890.846680	38.096630
-7373.834362	4230.330000	1889.862305	-73.840118
-7373.834362	4230.330000	1888.877930	-42.574860
-7373.834362	4230.330000	1887.892578	37.159096
-7373.834362	4230.330000	1886.908203	318.206757
-7373.834362	4230.330000	1885.922852	186.660248
-7373.834362	4230.330000	1884.937500	154.554321
-7373.834362	4230.330000	1883.952148	-30.381609
-7373.834362	4230.330000	1882.965820	-18.908419
-7373.834362	4230.330000	1881.980469	-51.132599
-7373.834362	4230.330000	1880.994141	64.444664
-7373.834362	4230.330000	1880.007813	119.338013
-7373.834362	4230.330000	1879.021484	62.697800
-7373.834362	4230.330000	1878.035156	165.900955
-7373.834362	4230.330000	1877.047852	29.229301
-7373.834362	4230.330000	1876.061523	270.307587
-7373.834362	4230.330000	1875.074219	223.129120
-7373.834362	4230.330000	1874.086914	96.028290
-7373.834362	4230.330000	1873.098633	121.384407
-7373.834362	4230.330000	1872.111328	132.154739
-7373.834362	4230.330000	1871.123047	46.090008
-7373.834362	4230.330000	1870.135742	-8.555399
-7373.834362	4230.330000	1869.147461	40.748329
-7373.834362	4230.330000	1868.158203	-47.848511
-7373.834362	4230.330000	1867.169922	141.535812
-7373.834362	4230.330000	1866.180664	89.090942
-7373.834362	4230.330000	1865.192383	65.606071
-7373.834362	4230.330000	1864.203125	-13.499872
-7373.834362	4230.330000	1863.213867	-27.414215
-7373.834362	4230.330000	1862.223633	168.735962
-7373.834362	4230.330000	1861.234375	-28.842678
-7373.834362	4230.330000	1860.244141	-202.264816
-7373.834362	4230.330000	1859.253906	-233.265381
-7373.834362	4230.330000	1858.263672	-8.498497
-7373.834362	4230.330000	1857.273438	61.701046
-7373.834362	4230.330000	1856.282227	-5.695490
-7373.834362	4230.330000	1855.291992	59.536869
-7373.834362	4230.330000	1854.300781	189.796463
-7373.834362	4230.330000	1853.309570	25.797014
-7373.834362	4230.330000	1852.317383	457.225372
-7373.834362	4230.330000	1851.326172	-56.354107
-7373.834362	4230.330000	1850.333984	223.000427
-7373.834362	4230.330000	1849.342773	44.433582
-7373.834362	4230.330000	1848.350586	70.624359
-7373.834362	4230.330000	1847.357422	255.697830
-7373.834362	4230.330000	1846.365234	-79.460815
-7373.834362	4230.330000	1845.372070	18.789988
-7373.834362	4230.330000	1844.379883	143.428436
-7373.834362	4230.330000	1843.386719	87.469910
-7373.834362	4230.330000	1842.393555	199.904144
-7373.834362	4230.330000	1841.399414	179.926315
-7373.834362	4230.330000	1840.406250	13.187888
-7373.834362	4230.330000	1839.412109	286.522217
-7373.834362	4230.330000	1838.417969	-53.396179
-7373.834362	4230.330000	1837.423828	-30.260338
-7373.834362	4230.330000	1836.429688	28.863611
-7373.834362	4230.330000	1835.434570	220.069946
-7373.834362	4230.330000	1834.440430	74.806709
-7373.834362	4230.330000	1833.445313	169.743546
-7373.834362	4230.330000	1832.450195	115.694008
-7373.834362	4230.330000	1831.454102	-58.447018
-7373.834362	4230.330000	1830.458984	-141.346329
-7373.834362	4230.330000	1829.462891	-15.450868
-7373.834362	4230.330000	1828.466797	134.343185
-7373.834362	4230.330000	1827.470703	32.100594
-7373.834362	4230.330000	1826.474609	128.951569
-7373.834362	4230.330000	1825.478516	189.738251
-7373.834362	4230.330000	1824.481445	164.121780
-7373.834362	4230.330000	1823.484375	143.257980
-7373.834362	4230.330000	1822.487305	52.838589
-7373.834362	4230.330000	1821.490234	51.077820
-7373.834362	4230.330000	1820.493164	34.891056
-7373.834362	4230.330000	1819.495117	164.793716
-7373.834362	4230.330000	1818.498047	45.498123
-7373.834362	4230.330000	1817.500000	-95.358810
-7373.834362	4230.330000	1816.500977	94.204590
-7373.834362	4230.330000	1815.502930	82.565926
-7373.834362	4230.330000	1814.504883	-39.214508
-7373.834362	4230.330000	1813.505859	6.508335
-7373.834362	4230.330000	1812.506836	-62.674629
-7373.834362	4230.330000	1811.507813	-29.018900
-7373.834362	4230.330000	1810.508789	78.719048
-7373.834362	4230.330000	1809.508789	339.399902
-7373.834362	4230.330000	1808.508789	57.242741
-7373.834362	4230.330000	1807.508789	83.491043
-7373.834362	4230.330000	1806.508789	-143.636063
-7373.834362	4230.330000	1805.508789	-138.952667
-7373.834362	4230.330000	1804.508789	42.464439
-7373.834362	4230.330000	1803.507813	-179.887543
-7373.834362	4230.330000	1802.506836	-101.308853
-7373.834362	4230.330000	1801.505859	-44.291328
-7373.834362	4230.330000	1800.504883	-80.436157
-7373.834362	4230.330000	1799.502930	-30.694548
-7373.834362	4230.330000	1798.501953	-131.340759
-7373.834362	4230.330000	1797.500000	137.796631
-7373.834362	4230.330000	1796.498047	-48.803112
-7373.834362	4230.330000	1795.496094	-8.811481
-7373.834362	4230.330000	1794.493164	76.420715
-7373.834362	4230.330000	1793.491211	-76.809105
-7373.834362	4230.330000	1792.488281	-122.768394
-7373.834362	4230.330000	1791.485352	-6.703255
-7373.834362	4230.330000	1790.482422	-43.208042
-7373.834362	4230.330000	1789.478516	32.216843
-7373.834362	4230.330000	1788.475586	81.380898
-7373.834362	4230.330000	1787.471680	-131.454376
-7373.834362	4230.330000	1786.467773	193.811752
-7373.834362	4230.330000	1785.463867	61.891594
-7373.834362	4230.330000	1784.459961	-129.514297
-7373.834362	4230.330000	1783.455078	-78.186790
-7373.834362	4230.330000	1782.450195	-129.212494
-7373.834362	4230.330000	1781.445313	79.005630
-7373.834362	4230.330000	1780.440430	-188.509567
-7373.834362	4230.330000	1779.435547	76.631927
-7373.834362	4230.330000	1778.429688	84.895172
-7373.834362	4230.330000	1777.424805	242.860901
-7373.834362	4230.330000	1776.418945	115.571136
-7373.834362	4230.330000	1775.413086	-52.093719
-7373.834362	4230.330000	1774.406250	-41.580833
-7373.834362	4230.330000	1773.400391	-14.475249
-7373.834362	4230.330000	1772.393555	280.895660
-7373.834362	4230.330000	1771.386719	84.698593
-7373.834362	4230.330000	1770.379883	28.583296
-7373.834362	4230.330000	1769.373047	245.367538
-7373.834362	4230.330000	1768.365234	144.092239
-7373.834362	4230.330000	1767.358398	-35.453259
-7373.834362	4230.330000	1766.350586	-60.803703
-7373.834362	4230.330000	1765.342773	153.328827
-7373.834362	4230.330000	1764.334961	63.878311
-7373.834362	4230.330000	1763.326172	-56.391815
-7373.834362	4230.330000	1762.318359	53.248474
-7373.834362	4230.330000	1761.309570	30.117689
-7373.834362	4230.330000	1760.300781	73.299789
-7373.834362	4230.330000	1759.291016	-32.792473
-7373.834362	4230.330000	1758.282227	83.742035
-7373.834362	4230.330000	1757.272461	-34.208069
-7373.834362	4230.330000	1756.262695	98.789894
-7373.834362	4230.330000	1755.252930	139.404266
-7373.834362	4230.330000	1754.243164	-77.959328
-7373.834362	4230.330000	1753.233398	-202.994873
-7373.834362	4230.330000	1752.222656	81.208305
-7373.834362	4230.330000	1751.211914	22.350555
-7373.834362	4230.330000	1750.201172	69.894165
-7373.834362	4230.330000	1749.190430	-62.277699
-7373.834362	4230.330000	1748.179688	65.578484
-7373.834362	4230.330000	1747.167969	75.192581
-7373.834362	4230.330000	1746.156250	188.740677
-7373.834362	4230.330000	1745.144531	-101.732948
-7373.834362	4230.330000	1744.132813	250.305283
-7373.834362	4230.330000	1743.121094	103.927971
-7373.834362	4230.330000	1742.108398	151.175446
-7373.834362	4230.330000	1741.095703	75.635986
-7373.834362	4230.330000	1740.083008	181.827515
-7373.834362	4230.330000	1739.070313	30.758192
-7373.834362	4230.330000	1738.057617	146.310211
-7373.834362	4230.330000	1737.043945	44.787468
-7373.834362	4230.330000	1736.030273	176.750992
-7373.834362	4230.330000	1735.016602	115.302673
-7373.834362	4230.330000	1734.002930	1.995615
-7373.834362	4230.330000	1732.989258	70.192459
-7373.834362	4230.330000	1731.974609	107.703857
-7373.834362	4230.330000	1730.959961	74.500084
-7373.834362	4230.330000	1729.945313	199.112747
-7373.834362	4230.330000	1728.930664	158.800980
-7373.834362	4230.330000	1727.916016	-32.211254
-7373.834362	4230.330000	1726.900391	-60.736420
-7373.834362	4230.330000	1725.885742	-65.722778
-7373.834362	4230.330000	1724.870117	119.885033
-7373.834362	4230.330000	1723.853516	-75.765228
-7373.834362	4230.330000	1722.837891	-69.042633
-7373.834362	4230.330000	1721.822266	-137.602478
-7373.834362	4230.330000	1720.805664	80.724159
-7373.834362	4230.330000	1719.789063	-1.983913
-7373.834362	4230.330000	1718.772461	143.333221
-7373.834362	4230.330000	1717.754883	6.553401
-7373.834362	4230.330000	1716.738281	27.249094
-7373.834362	4230.330000	1715.720703	-83.643700
-7373.834362	4230.330000	1714.703125	63.860149
-7373.834362	4230.330000	1713.685547	117.359619
-7373.834362	4230.330000	1712.667969	184.911667
-7373.834362	4230.330000	1711.649414	-29.276798
-7373.834362	4230.330000	1710.630859	-257.478424
-7373.834362	4230.330000	1709.612305	61.142052
-7373.834362	4230.330000	1708.593750	149.710007
-7373.834362	4230.330000	1707.575195	64.653481
-7373.834362	4230.330000	1706.555664	-118.888062
-7373.834362	4230.330000	1705.536133	-28.034872
-7373.834362	4230.330000	1704.516602	-21.621584
-7373.834362	4230.330000	1703.497070	43.374596
-7373.834362	4230.330000	1702.477539	0.538957
-7373.834362	4230.330000	1701.457031	-28.240057
-7373.834362	4230.330000	1700.437500	-68.723701
-7373.834362	4230.330000	1699.416992	52.393871
-7373.834362	4230.330000	1698.395508	44.659851
-7373.834362	4230.330000	1697.375000	90.774918
-7373.834362	4230.330000	1696.354492	5.783767
-7373.834362	4230.330000	1695.333008	86.967377
-7373.834362	4230.330000	1694.311523	39.423340
-7373.834362	4230.330000	1693.290039	-5.771852
-7373.834362	4230.330000	1692.267578	157.199890
-7373.834362	4230.330000	1691.246094	104.970955
-7373.834362	4230.330000	1690.223633	69.113701
-7373.834362	4230.330000	1689.201172	192.218903
-7373.834362	4230.330000	1688.178711	-28.284418
-7373.834362	4230.330000	1687.155273	8.316362
-7373.834362	4230.330000	1686.132813	245.819656
-7373.834362	4230.330000	1685.109375	340.737244
-7373.834362	4230.330000	1684.085938	92.323036
-7373.834362	4230.330000	1683.062500	367.009918
-7373.834362	4230.330000	1682.039063	174.703537
-7373.834362	4230.330000	1681.014648	388.570557
-7373.834362	4230.330000	1679.990234	49.308224
-7373.834362	4230.330000	1678.965820	342.434448
-7373.834362	4230.330000	1677.941406	476.827454
-7373.834362	4230.330000	1676.916992	296.323517
-7373.834362	4230.330000	1675.891602	570.564941
-7373.834362	4230.330000	1674.866211	308.506744
-7373.834362	4230.330000	1673.840820	540.682434
-7373.834362	4230.330000	1672.815430	495.452759
-7373.834362	4230.330000	1671.790039	380.343353
-7373.834362	4230.330000	1670.763672	395.719208
-7373.834362	4230.330000	1669.737305	469.315643
-7373.834362	4230.330000	1668.710938	358.925903
-7373.834362	4230.330000	1667.684570	376.626526
-7373.834362	4230.330000	1666.658203	443.202972
-7373.834362	4230.330000	1665.630859	612.144226
-7373.834362	4230.330000	1664.603516	504.135834
-7373.834362	4230.330000	1663.576172	491.551086
-7373.834362	4230.330000	1662.548828	578.985046
-7373.834362	4230.330000	1661.520508	482.671906
-7373.834362	4230.330000	1660.493164	516.604248
-7373.834362	4230.330000	1659.464844	527.274475
-7373.834362	4230.330000	1658.436523	712.250916
-7373.834362	4230.330000	1657.408203	629.940979
-7373.834362	4230.330000	1656.378906	847.350464
-7373.834362	4230.330000	1655.350586	934.613525
-7373.834362	4230.330000	1654.321289	617.763550
-7373.834362	4230.330000	1653.291992	568.052429
-7373.834362	4230.330000	1652.261719	801.567871
-7373.834362	4230.330000	1651.232422	733.283813
-7373.834362	4230.330000	1650.202148	859.945740
-7373.834362	4230.330000	1649.171875	677.999756
-7373.834362	4230.330000	1648.141602	667.781189
-7373.834362	4230.330000	1647.111328	606.552002
-7373.834362	4230.330000	1646.080078	756.347290
-7373.834362	4230.330000	1645.049805	616.319580
-7373.834362	4230.330000	1644.018555	893.549438
-7373.834362	4230.330000	1642.987305	885.647034
-7373.834362	4230.330000	1641.955078	826.777222
-7373.834362	4230.330000	1640.923828	675.288879
-7373.834362	4230.330000	1639.891602	845.785034
-7373.834362	4230.330000	1638.859375	722.150146
-7373.834362	4230.330000	1637.827148	832.397278
-7373.834362	4230.330000	1636.794922	826.880310
-7373.834362	4230.330000	1635.761719	994.934143
-7373.834362	4230.330000	1634.729492	813.563660
-7373.834362	4230.330000	1633.696289	1023.216858
-7373.834362	4230.330000	1632.662109	973.752502
-7373.834362	4230.330000	1631.628906	1125.506348
-7373.834362	4230.330000	1630.594727	812.502686
-7373.834362	4230.330000	1629.561523	1114.502075
-7373.834362	4230.330000	1628.527344	1150.617554
-7373.834362	4230.330000	1627.493164	964.914368
-7373.834362	4230.330000	1626.458008	1012.616150
-7373.834362	4230.330000	1625.423828	880.162048
-7373.834362	4230.330000	1624.388672	999.476929
-7373.834362	4230.330000	1623.353516	1003.319092
-7373.834362	4230.330000	1622.318359	979.474915
-7373.834362	4230.330000	1621.282227	964.879333
-7373.834362	4230.330000	1620.247070	1040.304199
-7373.834362	4230.330000	1619.210938	1067.260620
-7373.834362	4230.330000	1618.174805	1117.288818
-7373.834362	4230.330000	1617.137695	1121.185181
-7373.834362	4230.330000	1616.101563	1270.361206
-7373.834362	4230.330000	1615.064453	1421.794678
-7373.834362	4230.330000	1614.027344	1301.223145
-7373.834362	4230.330000	1612.990234	1371.975220
-7373.834362	4230.330000	1611.953125	1401.249390
-7373.834362	4230.330000	1610.916016	1471.992432
-7373.834362	4230.330000	1609.877930	1641.747559
-7373.834362	4230.330000	1608.839844	1436.143921
-7373.834362	4230.330000	1607.801758	1437.826538
-7373.834362	4230.330000	1606.763672	1391.194946
-7373.834362	4230.330000	1605.724609	1521.786987
-7373.834362	4230.330000	1604.685547	1495.898682
-7373.834362	4230.330000	1603.646484	1785.180664
-7373.834362	4230.330000	1602.607422	1446.514038
-7373.834362	4230.330000	1601.568359	1462.108398
-7373.834362	4230.330000	1600.528320	1535.185791
-7373.834362	4230.330000	1599.489258	1481.846558
-7373.834362	4230.330000	1598.449219	1651.455200
-7373.834362	4230.330000	1597.408203	1809.525513
-7373.834362	4230.330000	1596.368164	1579.346313
-7373.834362	4230.330000	1595.327148	1595.021118
-7373.834362	4230.330000	1594.287109	1580.868896
-7373.834362	4230.330000	1593.246094	1598.881836
-7373.834362	4230.330000	1592.204102	1561.817505
-7373.834362	4230.330000	1591.163086	1472.015869
-7373.834362	4230.330000	1590.121094	1499.286865
-7373.834362	4230.330000	1589.079102	1338.463379
-7373.834362	4230.330000	1588.037109	1397.911865
-7373.834362	4230.330000	1586.995117	1439.017456
-7373.834362	4230.330000	1585.953125	1299.014893
-7373.834362	4230.330000	1584.910156	1328.710938
-7373.834362	4230.330000	1583.867188	1287.378540
-7373.834362	4230.330000	1582.824219	1211.721191
-7373.834362	4230.330000	1581.781250	1349.171875
-7373.834362	4230.330000	1580.737305	1312.519897
-7373.834362	4230.330000	1579.693359	1296.520508
-7373.834362	4230.330000	1578.649414	1099.684937
-7373.834362	4230.330000	1577.605469	1271.496704
-7373.834362	4230.330000	1576.561523	1118.286377
-7373.834362	4230.330000	1575.516602	1168.809082
-7373.834362	4230.330000	1574.472656	1066.069092
-7373.834362	4230.330000	1573.427734	958.821655
-7373.834362	4230.330000	1572.381836	707.570190
-7373.834362	4230.330000	1571.336914	893.155518
-7373.834362	4230.330000	1570.291016	863.815613
-7373.834362	4230.330000	1569.246094	1015.079712
-7373.834362	4230.330000	1568.200195	892.105835
-7373.834362	4230.330000	1567.153320	728.085754
-7373.834362	4230.330000	1566.107422	872.528015
-7373.834362	4230.330000	1565.060547	690.374023
-7373.834362	4230.330000	1564.013672	556.274170
-7373.834362	4230.330000	1562.966797	677.934814
-7373.834362	4230.330000	1561.919922	655.793762
-7373.834362	4230.330000	1560.872070	665.639038
-7373.834362	4230.330000	1559.825195	842.066589
-7373.834362	4230.330000	1558.777344	564.535767
-7373.834362	4230.330000	1557.729492	528.889160
-7373.834362	4230.330000	1556.680664	395.243042
-7373.834362	4230.330000	1555.632813	512.454773
-7373.834362	4230.330000	1554.583984	643.327820
-7373.834362	4230.330000	1553.535156	564.540466
-7373.834362	4230.330000	1552.486328	686.314758
-7373.834362	4230.330000	1551.436523	420.835541
-7373.834362	4230.330000	1550.387695	519.892334
-7373.834362	4230.330000	1549.337891	334.323151
-7373.834362	4230.330000	1548.288086	442.537659
-7373.834362	4230.330000	1547.238281	320.865234
-7373.834362	4230.330000	1546.187500	328.986938
-7373.834362	4230.330000	1545.136719	400.851288
-7373.834362	4230.330000	1544.086914	459.083435
-7373.834362	4230.330000	1543.035156	694.719421
-7373.834362	4230.330000	1541.984375	339.110443
-7373.834362	4230.330000	1540.933594	579.311768
-7373.834362	4230.330000	1539.881836	371.686371
-7373.834362	4230.330000	1538.830078	343.711761
-7373.834362	4230.330000	1537.778320	461.201721
-7373.834362	4230.330000	1536.725586	315.179504
-7373.834362	4230.330000	1535.673828	369.123016
-7373.834362	4230.330000	1534.621094	493.476898
-7373.834362	4230.330000	1533.568359	440.745850
-7373.834362	4230.330000	1532.515625	247.352051
-7373.834362	4230.330000	1531.461914	451.212494
-7373.834362	4230.330000	1530.409180	589.243103
-7373.834362	4230.330000	1529.355469	362.038452
-7373.834362	4230.330000	1528.301758	574.963257
-7373.834362	4230.330000	1527.247070	393.290253
-7373.834362	4230.330000	1526.193359	470.190796
-7373.834362	4230.330000	1525.138672	590.169983
-7373.834362	4230.330000	1524.083984	528.851196
-7373.834362	4230.330000	1523.029297	342.986633
-7373.834362	4230.330000	1521.974609	297.692871
-7373.834362	4230.330000	1520.918945	284.169525
-7373.834362	4230.330000	1519.863281	270.700043
-7373.834362	4230.330000	1518.807617	107.861794
-7373.834362	4230.330000	1517.751953	327.673645
-7373.834362	4230.330000	1516.696289	85.778435
-7373.834362	4230.330000	1515.639648	260.349701
-7373.834362	4230.330000	1514.583008	152.129608
-7373.834362	4230.330000	1513.526367	71.141823
-7373.834362	4230.330000	1512.469727	51.291920
-7373.834362	4230.330000	1511.412109	42.802441
-7373.834362	4230.330000	1510.355469	-33.442753
-7373.834362	4230.330000	1509.297852	157.065689
-7373.834362	4230.330000	1508.240234	-72.717514
-7373.834362	4230.330000	1507.181641	-90.010033
-7373.834362	4230.330000	1506.124023	37.310837
-7373.834362	4230.330000	1505.065430	-122.155312
-7373.834362	4230.330000	1504.006836	-62.507679
-7373.834362	4230.330000	1502.948242	-305.302643
-7373.834362	4230.330000	1501.888672	43.333179
-7373.834362	4230.330000	1500.830078	69.228035
-7373.834362	4230.330000	1499.770508	-98.846115
-7373.834362	4230.330000	1498.710938	-147.258255
-7373.834362	4230.330000	1497.650391	11.862286
-7373.834362	4230.330000	1496.590820	-83.789497
-7373.834362	4230.330000	1495.530273	-73.407051
-7373.834362	4230.330000	1494.469727	121.828903
-7373.834362	4230.330000	1493.409180	-77.272804
-7373.834362	4230.330000	1492.348633	-32.938499
-7373.834362	4230.330000	1491.287109	-58.389996
-7373.834362	4230.330000	1490.225586	1.797234
-7373.834362	4230.330000	1489.164063	140.816772
-7373.834362	4230.330000	1488.102539	43.484283
-7373.834362	4230.330000	1487.041016	-107.764473
-7373.834362	4230.330000	1485.978516	-155.393219
-7373.834362	4230.330000	1484.916016	37.844536
-7373.834362	4230.330000	1483.853516	5.992967
-7373.834362	4230.330000	1482.791016	-75.171349
-7373.834362	4230.330000	1481.727539	37.099007
-7373.834362	4230.330000	1480.664063	-50.654766
-7373.834362	4230.330000	1479.600586	-142.788910
-7373.834362	4230.330000	1478.537109	30.306171
-7373.834362	4230.330000	1477.473633	61.850388
-7373.834362	4230.330000	1476.409180	97.931274
-7373.834362	4230.330000	1475.344727	73.498917
-7373.834362	4230.330000	1474.280273	-69.905464
-7373.834362	4230.330000	1473.215820	96.531799
-7373.834362	4230.330000	1472.151367	103.670258
-7373.834362	4230.330000	1471.085938	-126.860283
-7373.834362	4230.330000	1470.020508	158.616531
-7373.834362	4230.330000	1468.955078	145.884094
-7373.834362	4230.330000	1467.888672	289.716888
-7373.834362	4230.330000	1466.823242	223.507919
-7373.834362	4230.330000	1465.756836	259.983795
-7373.834362	4230.330000	1464.690430	345.780518
-7373.834362	4230.330000	1463.624023	263.788879
-7373.834362	4230.330000	1462.556641	391.982910
-7373.834362	4230.330000	1461.490234	194.181717
-7373.834362	4230.330000	1460.422852	247.029510
-7373.834362	4230.330000	1459.355469	357.260620
-7373.834362	4230.330000	1458.287109	336.243774
-7373.834362	4230.330000	1457.219727	310.795715
-7373.834362	4230.330000	1456.151367	325.620667
-7373.834362	4230.330000	1455.083008	434.109894
-7373.834362	4230.330000	1454.014648	308.713745
-7373.834362	4230.330000	1452.945313	407.372589
-7373.834362	4230.330000	1451.876953	151.265793
-7373.834362	4230.330000	1450.807617	530.998535
-7373.834362	4230.330000	1449.738281	494.410034
-7373.834362	4230.330000	1448.668945	556.064880
-7373.834362	4230.330000	1447.598633	251.721115
-7373.834362	4230.330000	1446.528320	302.587860
-7373.834362	4230.330000	1445.458008	370.924011
-7373.834362	4230.330000	1444.387695	308.485596
-7373.834362	4230.330000	1443.317383	332.621307
-7373.834362	4230.330000	1442.246094	314.503540
-7373.834362	4230.330000	1441.174805	412.222931
-7373.834362	4230.330000	1440.103516	261.066711
-7373.834362	4230.330000	1439.032227	345.655121
-7373.834362	4230.330000	1437.960938	367.223572
-7373.834362	4230.330000	1436.888672	513.341187
-7373.834362	4230.330000	1435.816406	232.553452
-7373.834362	4230.330000	1434.744141	411.832092
-7373.834362	4230.330000	1433.670898	299.845032
-7373.834362	4230.330000	1432.598633	364.088776
-7373.834362	4230.330000	1431.525391	144.672577
-7373.834362	4230.330000	1430.452148	14.222603
-7373.834362	4230.330000	1429.378906	161.068039
-7373.834362	4230.330000	1428.304688	-129.786957
-7373.834362	4230.330000	1427.231445	57.645622
-7373.834362	4230.330000	1426.157227	27.633877
-7373.834362	4230.330000	1425.083008	-115.079170
-7373.834362	4230.330000	1424.007813	155.029434
-7373.834362	4230.330000	1422.933594	5.654226
-7373.834362	4230.330000	1421.858398	225.471985
-7373.834362	4230.330000	1420.783203	217.957886
-7373.834362	4230.330000	1419.708008	183.651031
-7373.834362	4230.330000	1418.631836	233.090302
-7373.834362	4230.330000	1417.555664	72.443062
-7373.834362	4230.330000	1416.479492	207.094101
-7373.834362	4230.330000	1415.403320	325.988770
-7373.834362	4230.330000	1414.327148	347.005951
-7373.834362	4230.330000	1413.250000	492.553040
-7373.834362	4230.330000	1412.173828	370.590790
-7373.834362	4230.330000	1411.096680	243.381241
-7373.834362	4230.330000	1410.018555	579.083740
-7373.834362	4230.330000	1408.941406	357.259308
-7373.834362	4230.330000	1407.863281	340.451538
-7373.834362	4230.330000	1406.785156	267.557617
-7373.834362	4230.330000	1405.707031	413.822632
-7373.834362	4230.330000	1404.628906	418.483887
-7373.834362	4230.330000	1403.549805	259.002930
-7373.834362	4230.330000	1402.470703	119.697609
-7373.834362	4230.330000	1401.391602	260.517090
-7373.834362	4230.330000	1400.312500	63.944725
-7373.834362	4230.330000	1399.233398	136.387726
-7373.834362	4230.330000	1398.153320	-36.302364
-7373.834362	4230.330000	1397.073242	89.814941
-7373.834362	4230.330000	1395.993164	1.231785
-7373.834362	4230.330000	1394.913086	-70.432739
-7373.834362	4230.330000	1393.832031	171.536423
-7373.834362	4230.330000	1392.750977	151.774826
-7373.834362	4230.330000	1391.669922	173.760910
-7373.834362	4230.330000	1390.588867	166.554184
-7373.834362	4230.330000	1389.506836	309.766449
-7373.834362	4230.330000	1388.425781	290.475708
-7373.834362	4230.330000	1387.343750	-31.762308
-7373.834362	4230.330000	1386.261719	112.835999
-7373.834362	4230.330000	1385.178711	207.638489
-7373.834362	4230.330000	1384.096680	121.174843
-7373.834362	4230.330000	1383.013672	277.474884
-7373.834362	4230.330000	1381.930664	160.260422
-7373.834362	4230.330000	1380.846680	326.574341
-7373.834362	4230.330000	1379.763672	214.441925
-7373.834362	4230.330000	1378.679688	377.653259
-7373.834362	4230.330000	1377.595703	304.427856
-7373.834362	4230.330000	1376.511719	441.544952
-7373.834362	4230.330000	1375.427734	224.578629
-7373.834362	4230.330000	1374.342773	300.216675
-7373.834362	4230.330000	1373.257813	331.915710
-7373.834362	4230.330000	1372.172852	216.288849
-7373.834362	4230.330000	1371.087891	275.044983
-7373.834362	4230.330000	1370.001953	345.911163
-7373.834362	4230.330000	1368.916992	242.915253
-7373.834362	4230.330000	1367.831055	244.625931
-7373.834362	4230.330000	1366.744141	378.244385
-7373.834362	4230.330000	1365.658203	245.294189
-7373.834362	4230.330000	1364.571289	157.046478
-7373.834362	4230.330000	1363.484375	87.531487
-7373.834362	4230.330000	1362.397461	43.055687
-7373.834362	4230.330000	1361.310547	326.507568
-7373.834362	4230.330000	1360.222656	42.867695
-7373.834362	4230.330000	1359.135742	13.368820
-7373.834362	4230.330000	1358.047852	58.278896
-7373.834362	4230.330000	1356.958984	82.033455
-7373.834362	4230.330000	1355.871094	-95.150703
-7373.834362	4230.330000	1354.782227	204.838455
-7373.834362	4230.330000	1353.693359	58.299118
-7373.834362	4230.330000	1352.604492	-50.530624
-7373.834362	4230.330000	1351.515625	100.301163
-7373.834362	4230.330000	1350.425781	169.730591
-7373.834362	4230.330000	1349.335938	215.734314
-7373.834362	4230.330000	1348.246094	-31.745508
-7373.834362	4230.330000	1347.156250	114.461800
-7373.834362	4230.330000	1346.066406	127.841362
-7373.834362	4230.330000	1344.975586	192.826630
-7373.834362	4230.330000	1343.884766	144.891006
-7373.834362	4230.330000	1342.793945	167.832123
-7373.834362	4230.330000	1341.702148	56.613838
-7373.834362	4230.330000	1340.611328	153.103622
-7373.834362	4230.330000	1339.519531	122.304710
-7373.834362	4230.330000	1338.427734	-111.874222
-7373.834362	4230.330000	1337.334961	60.293606
-7373.834362	4230.330000	1336.243164	51.624390
-7373.834362	4230.330000	1335.150391	-108.644775
-7373.834362	4230.330000	1334.057617	-122.463875
-7373.834362	4230.330000	1332.964844	-49.271667
-7373.834362	4230.330000	1331.871094	-9.281527
-7373.834362	4230.330000	1330.778320	67.849503
-7373.834362	4230.330000	1329.684570	157.457687
-7373.834362	4230.330000	1328.590820	24.504854
-7373.834362	4230.330000	1327.496094	-108.378426
-7373.834362	4230.330000	1326.402344	204.369110
-7373.834362	4230.330000	1325.307617	277.827301
-7373.834362	4230.330000	1324.212891	88.251671
-7373.834362	4230.330000	1323.117188	409.485931
-7373.834362	4230.330000	1322.022461	319.783203
-7373.834362	4230.330000	1320.926758	403.953308
-7373.834362	4230.330000	1319.831055	274.913635
-7373.834362	4230.330000	1318.735352	211.387512
-7373.834362	4230.330000	1317.638672	333.469788
-7373.834362	4230.330000	1316.542969	312.089874
-7373.834362	4230.330000	1315.446289	333.858826
-7373.834362	4230.330000	1314.349609	176.348083
-7373.834362	4230.330000	1313.251953	319.555054
-7373.834362	4230.330000	1312.155273	499.270020
-7373.834362	4230.330000	1311.057617	254.549789
-7373.834362	4230.330000	1309.959961	494.651062
-7373.834362	4230.330000	1308.862305	332.070587
-7373.834362	4230.330000	1307.763672	370.776703
-7373.834362	4230.330000	1306.665039	560.677368
-7373.834362	4230.330000	1305.566406	350.657043
-7373.834362	4230.330000	1304.467773	380.919342
-7373.834362	4230.330000	1303.369141	281.723755
-7373.834362	4230.330000	1302.269531	448.161835
-7373.834362	4230.330000	1301.169922	571.504639
-7373.834362	4230.330000	1300.070313	470.497803
-7373.834362	4230.330000	1298.970703	569.331421
-7373.834362	4230.330000	1297.870117	550.377502
-7373.834362	4230.330000	1296.769531	768.821899
-7373.834362	4230.330000	1295.668945	690.397644
-7373.834362	4230.330000	1294.568359	366.868988
-7373.834362	4230.330000	1293.466797	653.713562
-7373.834362	4230.330000	1292.366211	512.022705
-7373.834362	4230.330000	1291.264648	634.506104
-7373.834362	4230.330000	1290.162109	583.821716
-7373.834362	4230.330000	1289.060547	620.757813
-7373.834362	4230.330000	1287.958008	465.862274
-7373.834362	4230.330000	1286.855469	566.047058
-7373.834362	4230.330000	1285.752930	646.798096
-7373.834362	4230.330000	1284.650391	683.073914
-7373.834362	4230.330000	1283.546875	674.944336
-7373.834362	4230.330000	1282.444336	734.745972
-7373.834362	4230.330000	1281.339844	760.210815
-7373.834362	4230.330000	1280.236328	740.451721
-7373.834362	4230.330000	1279.132813	712.591248
-7373.834362	4230.330000	1278.028320	943.538330
-7373.834362	4230.330000	1276.923828	605.682007
-7373.834362	4230.330000	1275.819336	659.883240
-7373.834362	4230.330000	1274.713867	747.085144
-7373.834362	4230.330000	1273.608398	462.402374
-7373.834362	4230.330000	1272.503906	486.157257
-7373.834362	4230.330000	1271.397461	492.903198
-7373.834362	4230.330000	1270.291992	424.518494
-7373.834362	4230.330000	1269.185547	439.912689
-7373.834362	4230.330000	1268.080078	513.006348
-7373.834362	4230.330000	1266.972656	396.626556
-7373.834362	4230.330000	1265.866211	433.691376
-7373.834362	4230.330000	1264.759766	345.957581
-7373.834362	4230.330000	1263.652344	414.732971
-7373.834362	4230.330000	1262.544922	306.969635
-7373.834362	4230.330000	1261.436523	437.119904
-7373.834362	4230.330000	1260.329102	234.045212
-7373.834362	4230.330000	1259.220703	383.235779
-7373.834362	4230.330000	1258.112305	314.953064
-7373.834362	4230.330000	1257.003906	364.012024
-7373.834362	4230.330000	1255.895508	392.067444
-7373.834362	4230.330000	1254.786133	262.201721
-7373.834362	4230.330000	1253.676758	313.181122
-7373.834362	4230.330000	1252.567383	270.064728
-7373.834362	4230.330000	1251.458008	328.947662
-7373.834362	4230.330000	1250.347656	116.143990
-7373.834362	4230.330000	1249.237305	182.556488
-7373.834362	4230.330000	1248.126953	379.976654
-7373.834362	4230.330000	1247.016602	417.774109
-7373.834362	4230.330000	1245.905273	392.770721
-7373.834362	4230.330000	1244.793945	364.291077
-7373.834362	4230.330000	1243.682617	368.733093
-7373.834362	4230.330000	1242.571289	423.596252
-7373.834362	4230.330000	1241.459961	364.000183
-7373.834362	4230.330000	1240.347656	469.124268
-7373.834362	4230.330000	1239.235352	580.425781
-7373.834362	4230.330000	1238.123047	650.996033
-7373.834362	4230.330000	1237.009766	724.098450
-7373.834362	4230.330000	1235.897461	599.384155
-7373.834362	4230.330000	1234.784180	709.980408
-7373.834362	4230.330000	1233.670898	576.642090
-7373.834362	4230.330000	1232.556641	493.899414
-7373.834362	4230.330000	1231.443359	468.847626
-7373.834362	4230.330000	1230.329102	509.753723
-7373.834362	4230.330000	1229.214844	548.601074
-7373.834362	4230.330000	1228.099609	520.176880
-7373.834362	4230.330000	1226.985352	483.889557
-7373.834362	4230.330000	1225.870117	396.468262
-7373.834362	4230.330000	1224.754883	355.000732
-7373.834362	4230.330000	1223.639648	424.947418
-7373.834362	4230.330000	1222.523438	380.978271
-7373.834362	4230.330000	1221.408203	422.660889
-7373.834362	4230.330000	1220.291992	242.307510
-7373.834362	4230.330000	1219.174805	321.372681
-7373.834362	4230.330000	1218.058594	276.732483
-7373.834362	4230.330000	1216.941406	220.140640
-7373.834362	4230.330000	1215.824219	161.130112
-7373.834362	4230.330000	1214.707031	216.596832
-7373.834362	4230.330000	1213.589844	103.624252
-7373.834362	4230.330000	1212.471680	184.573883
-7373.834362	4230.330000	1211.353516	78.518684
-7373.834362	4230.330000	1210.235352	59.205147
-7373.834362	4230.330000	1209.117188	132.477463
-7373.834362	4230.330000	1207.998047	138.365173
-7373.834362	4230.330000	1206.878906	117.847420
-7373.834362	4230.330000	1205.759766	68.163872
-7373.834362	4230.330000	1204.640625	76.582535
-7373.834362	4230.330000	1203.520508	216.881042
-7373.834362	4230.330000	1202.401367	144.844284
-7373.834362	4230.330000	1201.281250	237.142319
-7373.834362	4230.330000	1200.160156	91.980698
-7373.834362	4230.330000	1199.040039	56.242870
-7373.834362	4230.330000	1197.918945	194.650726
-7373.834362	4230.330000	1196.797852	245.107147
-7373.834362	4230.330000	1195.676758	256.107666
-7373.834362	4230.330000	1194.555664	321.242554
-7373.834362	4230.330000	1193.433594	145.185974
-7373.834362	4230.330000	1192.311523	135.082993
-7373.834362	4230.330000	1191.189453	-39.040604
-7373.834362	4230.330000	1190.066406	132.838028
-7373.834362	4230.330000	1188.944336	184.421570
-7373.834362	4230.330000	1187.821289	82.353905
-7373.834362	4230.330000	1186.698242	169.863037
-7373.834362	4230.330000	1185.574219	218.774551
-7373.834362	4230.330000	1184.451172	181.722748
-7373.834362	4230.330000	1183.327148	111.598595
-7373.834362	4230.330000	1182.203125	288.504120
-7373.834362	4230.330000	1181.078125	181.734650
-7373.834362	4230.330000	1179.954102	186.540695
-7373.834362	4230.330000	1178.829102	238.776093
-7373.834362	4230.330000	1177.704102	223.432541
-7373.834362	4230.330000	1176.579102	61.083725
-7373.834362	4230.330000	1175.453125	160.708527
-7373.834362	4230.330000	1174.327148	115.663872
-7373.834362	4230.330000	1173.201172	170.583023
-7373.834362	4230.330000	1172.075195	182.742767
-7373.834362	4230.330000	1170.949219	312.106445
-7373.834362	4230.330000	1169.822266	213.434174
-7373.834362	4230.330000	1168.695313	242.660065
-7373.834362	4230.330000	1167.568359	338.618530
-7373.834362	4230.330000	1166.440430	290.365601
-7373.834362	4230.330000	1165.313477	18.508352
-7373.834362	4230.330000	1164.185547	18.036266
-7373.834362	4230.330000	1163.057617	74.091499
-7373.834362	4230.330000	1161.928711	-42.550240
-7373.834362	4230.330000	1160.800781	88.081474
-7373.834362	4230.330000	1159.671875	-173.544418
-7373.834362	4230.330000	1158.541992	51.146729
-7373.834362	4230.330000	1157.413086	-107.450783
-7373.834362	4230.330000	1156.283203	-47.372940
-7373.834362	4230.330000	1155.154297	-42.868950
-7373.834362	4230.330000	1154.023438	-142.638123
-7373.834362	4230.330000	1152.893555	-223.893326
-7373.834362	4230.330000	1151.763672	-81.915497
-7373.834362	4230.330000	1150.632813	-205.770844
-7373.834362	4230.330000	1149.501953	-182.484055
-7373.834362	4230.330000	1148.370117	84.403084
-7373.834362	4230.330000	1147.239258	-117.404350
-7373.834362	4230.330000	1146.107422	-48.257984
-7373.834362	4230.330000	1144.975586	-39.508640
-7373.834362	4230.330000	1143.843750	-84.981033
-7373.834362	4230.330000	1142.710938	-122.953346
-7373.834362	4230.330000	1141.578125	-125.937469
-7373.834362	4230.330000	1140.445313	-67.008125
-7373.834362	4230.330000	1139.312500	-121.571068
-7373.834362	4230.330000	1138.178711	-47.333252
-7373.834362	4230.330000	1137.045898	-5.130297
-7373.834362	4230.330000	1135.912109	-148.650040
-7373.834362	4230.330000	1134.777344	-20.459410
-7373.834362	4230.330000	1133.643555	-15.993539
-7373.834362	4230.330000	1132.508789	64.336983
-7373.834362	4230.330000	1131.374023	155.885666
-7373.834362	4230.330000	1130.239258	32.897156
-7373.834362	4230.330000	1129.104492	145.385635
-7373.834362	4230.330000	1127.968750	-23.565943
-7373.834362	4230.330000	1126.833008	-50.435051
-7373.834362	4230.330000	1125.697266	1.892119
-7373.834362	4230.330000	1124.560547	-34.333580
-7373.834362	4230.330000	1123.424805	131.323242
-7373.834362	4230.330000	1122.288086	51.004379
-7373.834362	4230.330000	1121.151367	-31.569263
-7373.834362	4230.330000	1120.013672	-99.971130
-7373.834362	4230.330000	1118.876953	-114.454117
-7373.834362	4230.330000	1117.739258	-23.450817
-7373.834362	4230.330000	1116.601563	-58.592762
-7373.834362	4230.330000	1115.462891	-71.585320
-7373.834362	4230.330000	1114.324219	24.723240
-7373.834362	4230.330000	1113.186523	-3.507432
-7373.834362	4230.330000	1112.046875	-24.280432
-7373.834362	4230.330000	1110.908203	9.094979
-7373.834362	4230.330000	1109.769531	16.822578
-7373.834362	4230.330000	1108.629883	-61.882248
-7373.834362	4230.330000	1107.490234	11.345303
-7373.834362	4230.330000	1106.349609	-117.086075
-7373.834362	4230.330000	1105.209961	-144.639526
-7373.834362	4230.330000	1104.069336	-22.679916
-7373.834362	4230.330000	1102.928711	65.899895
-7373.834362	4230.330000	1101.787109	-10.933899
-7373.834362	4230.330000	1100.646484	59.554047
-7373.834362	4230.330000	1099.504883	-36.179066
-7373.834362	4230.330000	1098.363281	26.226936
-7373.834362	4230.330000	1097.221680	-5.262501
-7373.834362	4230.330000	1096.079102	54.816753
-7373.834362	4230.330000	1094.936523	54.011490
-7373.834362	4230.330000	1093.793945	2.222726
-7373.834362	4230.330000	1092.651367	18.537014
-7373.834362	4230.330000	1091.507813	48.508213
-7373.834362	4230.330000	1090.364258	104.790680
-7373.834362	4230.330000	1089.220703	117.970993
-7373.834362	4230.330000	1088.077148	87.065407
-7373.834362	4230.330000	1086.933594	-92.602196
-7373.834362	4230.330000	1085.789063	-20.093332
-7373.834362	4230.330000	1084.644531	40.021927
-7373.834362	4230.330000	1083.499023	-98.601204
-7373.834362	4230.330000	1082.354492	145.405548
-7373.834362	4230.330000	1081.208984	-213.718414
-7373.834362	4230.330000	1080.063477	-16.989260
-7373.834362	4230.330000	1078.917969	42.722572
-7373.834362	4230.330000	1077.771484	-18.652466
-7373.834362	4230.330000	1076.625977	207.810898
-7373.834362	4230.330000	1075.479492	126.193558
-7373.834362	4230.330000	1074.332031	-127.136719
-7373.834362	4230.330000	1073.185547	212.702606
-7373.834362	4230.330000	1072.038086	121.949448
-7373.834362	4230.330000	1070.890625	167.111359
-7373.834362	4230.330000	1069.743164	44.965424
-7373.834362	4230.330000	1068.594727	103.984779
-7373.834362	4230.330000	1067.447266	170.228149
-7373.834362	4230.330000	1066.298828	370.478027
-7373.834362	4230.330000	1065.149414	184.145142
-7373.834362	4230.330000	1064.000977	118.984772
-7373.834362	4230.330000	1062.851563	304.590698
-7373.834362	4230.330000	1061.702148	270.733521
-7373.834362	4230.330000	1060.552734	168.857300
-7373.834362	4230.330000	1059.402344	158.739639
-7373.834362	4230.330000	1058.252930	214.701630
-7373.834362	4230.330000	1057.102539	269.520264
-7373.834362	4230.330000	1055.951172	120.111229
-7373.834362	4230.330000	1054.800781	133.687469
-7373.834362	4230.330000	1053.649414	197.596069
-7373.834362	4230.330000	1052.498047	139.828690
-7373.834362	4230.330000	1051.346680	52.960331
-7373.834362	4230.330000	1050.194336	49.870796
-7373.834362	4230.330000	1049.042969	98.758820
-7373.834362	4230.330000	1047.890625	178.915451
-7373.834362	4230.330000	1046.738281	122.347198
-7373.834362	4230.330000	1045.584961	244.867340
-7373.834362	4230.330000	1044.431641	238.105545
-7373.834362	4230.330000	1043.278320	62.394630
-7373.834362	4230.330000	1042.125000	231.148514
-7373.834362	4230.330000	1040.971680	154.609222
-7373.834362	4230.330000	1039.817383	75.346649
-7373.834362	4230.330000	1038.663086	314.865723
-7373.834362	4230.330000	1037.508789	179.927002
-7373.834362	4230.330000	1036.353516	309.356171
-7373.834362	4230.330000	1035.198242	393.289124
-7373.834362	4230.330000	1034.042969	508.644653
-7373.834362	4230.330000	1032.887695	303.825012
-7373.834362	4230.330000	1031.732422	445.636688
-7373.834362	4230.330000	1030.576172	340.536041
-7373.834362	4230.330000	1029.419922	278.341766
-7373.834362	4230.330000	1028.263672	526.022583
-7373.834362	4230.330000	1027.106445	447.645935
-7373.834362	4230.330000	1025.949219	545.853088
-7373.834362	4230.330000	1024.792969	586.516724
-7373.834362	4230.330000	1023.634766	412.346313
-7373.834362	4230.330000	1022.477539	494.452576
-7373.834362	4230.330000	1021.319336	517.940125
-7373.834362	4230.330000	1020.161133	563.414246
-7373.834362	4230.330000	1019.002930	748.608215
-7373.834362	4230.330000	1017.843750	606.307068
-7373.834362	4230.330000	1016.684570	597.330139
-7373.834362	4230.330000	1015.525391	430.289581
-7373.834362	4230.330000	1014.366211	513.132690
-7373.834362	4230.330000	1013.207031	637.809570
-7373.834362	4230.330000	1012.046875	524.609924
-7373.834362	4230.330000	1010.886719	525.027039
-7373.834362	4230.330000	1009.726563	638.284607
-7373.834362	4230.330000	1008.565430	768.878174
-7373.834362	4230.330000	1007.404297	711.887268
-7373.834362	4230.330000	1006.243164	707.249268
-7373.834362	4230.330000	1005.082031	677.087280
-7373.834362	4230.330000	1003.920898	529.883667
-7373.834362	4230.330000	1002.758789	744.536194
-7373.834362	4230.330000	1001.596680	705.125610
-7373.834362	4230.330000	1000.433594	709.230103
-7373.834362	4230.330000	999.271484	517.710632
-7373.834362	4230.330000	998.108398	463.862549
-7373.834362	4230.330000	996.945313	581.997070
-7373.834362	4230.330000	995.782227	502.654388
-7373.834362	4230.330000	994.618164	545.428162
-7373.834362	4230.330000	993.454102	395.025421
-7373.834362	4230.330000	992.290039	304.180542
-7373.834362	4230.330000	991.125977	287.510803
-7373.834362	4230.330000	989.960938	324.448639
-7373.834362	4230.330000	988.796875	215.454422
-7373.834362	4230.330000	987.630859	261.046997
-7373.834362	4230.330000	986.465820	372.215424
-7373.834362	4230.330000	985.300781	412.637268
-7373.834362	4230.330000	984.134766	504.465485
-7373.834362	4230.330000	982.968750	334.252228
-7373.834362	4230.330000	981.801758	460.189453
-7373.834362	4230.330000	980.635742	258.819244
-7373.834362	4230.330000	979.468750	336.092743
-7373.834362	4230.330000	978.301758	200.544739
-7373.834362	4230.330000	977.133789	149.887512
-7373.834362	4230.330000	975.966797	234.936951
-7373.834362	4230.330000	974.798828	281.081360
-7373.834362	4230.330000	973.630859	275.141876
-7373.834362	4230.330000	972.461914	222.431198
-7373.834362	4230.330000	971.293945	325.699158
-7373.834362	4230.330000	970.125000	185.125763
-7373.834362	4230.330000	968.956055	66.822327
-7373.834362	4230.330000	967.786133	224.385590
-7373.834362	4230.330000	966.617188	14.603843
-7373.834362	4230.330000	965.447266	269.762207
-7373.834362	4230.330000	964.276367	143.889984
-7373.834362	4230.330000	963.106445	239.410492
-7373.834362	4230.330000	961.935547	169.971893
-7373.834362	4230.330000	960.764648	130.417297
-7373.834362	4230.330000	959.593750	295.003662
-7373.834362	4230.330000	958.422852	217.570053
-7373.834362	4230.330000	957.250977	190.540924
-7373.834362	4230.330000	956.079102	176.085785
-7373.834362	4230.330000	954.907227	32.722347
-7373.834362	4230.330000	953.734375	33.518570
-7373.834362	4230.330000	952.562500	36.582176
-7373.834362	4230.330000	951.389648	-5.894502
-7373.834362	4230.330000	950.215820	169.147171
-7373.834362	4230.330000	949.042969	-102.481674
-7373.834362	4230.330000	947.869141	97.871979
-7373.834362	4230.330000	946.695313	-141.558563
-7373.834362	4230.330000	945.521484	-128.204742
-7373.834362	4230.330000	944.346680	-2.511633
-7373.834362	4230.330000	943.172852	76.891891
-7373.834362	4230.330000	941.998047	-40.070053
-7373.834362	4230.330000	940.822266	71.264709
-7373.834362	4230.330000	939.647461	110.072243
-7373.834362	4230.330000	938.471680	-38.850536
-7373.834362	4230.330000	937.295898	236.282776
-7373.834362	4230.330000	936.119141	232.030777
-7373.834362	4230.330000	934.943359	119.413582
-7373.834362	4230.330000	933.766602	64.180946
-7373.834362	4230.330000	932.589844	277.119446
-7373.834362	4230.330000	931.413086	241.031021
-7373.834362	4230.330000	930.235352	241.151855
-7373.834362	4230.330000	929.057617	179.373123
-7373.834362	4230.330000	927.879883	377.181366
-7373.834362	4230.330000	926.702148	347.299469
-7373.834362	4230.330000	925.523438	291.880432
-7373.834362	4230.330000	924.344727	281.089050
-7373.834362	4230.330000	923.166016	231.999756
-7373.834362	4230.330000	921.987305	314.685089
-7373.834362	4230.330000	920.807617	229.418930
-7373.834362	4230.330000	919.627930	233.237381
-7373.834362	4230.330000	919.497070	184.940933
-7373.834362	4230.330000	918.331055	324.782074
-7373.834362	4230.330000	917.165039	5.779681
-7373.834362	4230.330000	915.999023	-130.525986
-7373.834362	4230.330000	914.833008	7.043040
-7373.834362	4230.330000	913.666016	106.310295
-7373.834362	4230.330000	912.499023	141.833542
-7373.834362	4230.330000	911.332031	302.477264
-7373.834362	4230.330000	910.165039	263.619659
-7373.834362	4230.330000	908.997070	2.055808
-7373.834362	4230.330000	907.830078	113.737282
-7373.834362	4230.330000	906.661133	159.619980
-7373.834362	4230.330000	905.493164	171.528793
-7373.834362	4230.330000	904.325195	75.320297
-7373.834362	4230.330000	903.156250	157.078430
-7373.834362	4230.330000	901.987305	128.616196
-7373.834362	4230.330000	900.818359	170.011948
-7373.834362	4230.330000	899.648438	221.940399
-7373.834362	4230.330000	898.478516	180.664795
-7373.834362	4230.330000	897.308594	336.199097
-7373.834362	4230.330000	896.138672	244.053314
-7373.834362	4230.330000	894.968750	333.848816
-7373.834362	4230.330000	893.797852	167.635132
-7373.834362	4230.330000	892.626953	234.073166
-7373.834362	4230.330000	891.456055	304.674896
-7373.834362	4230.330000	890.284180	358.301300
-7373.834362	4230.330000	889.113281	86.394302
-7373.834362	4230.330000	887.941406	222.375732
-7373.834362	4230.330000	886.768555	54.054333
-7373.834362	4230.330000	885.596680	154.007034
-7373.834362	4230.330000	884.423828	116.621284
-7373.834362	4230.330000	883.250977	178.445923
-7373.834362	4230.330000	882.078125	195.880661
-7373.834362	4230.330000	880.905273	209.051712
-7373.834362	4230.330000	879.731445	152.554184
-7373.834362	4230.330000	878.557617	142.454590
-7373.834362	4230.330000	877.383789	39.521801
-7373.834362	4230.330000	876.209961	12.509973
-7373.834362	4230.330000	875.035156	95.106827
-7373.834362	4230.330000	873.860352	-176.482285
-7373.834362	4230.330000	872.685547	45.139408
-7373.834362	4230.330000	871.510742	106.506348
-7373.834362	4230.330000	870.334961	-2.813973
-7373.834362	4230.330000	869.159180	94.276489
-7373.834362	4230.330000	867.983398	37.578785
-7373.834362	4230.330000	866.807617	-19.128481
-7373.834362	4230.330000	865.630859	-48.480087
-7373.834362	4230.330000	864.454102	33.679737
-7373.834362	4230.330000	863.277344	77.903030
-7373.834362	4230.330000	862.100586	48.452759
-7373.834362	4230.330000	860.922852	134.653992
-7373.834362	4230.330000	859.745117	155.606964
-7373.834362	4230.330000	858.567383	176.518967
-7373.834362	4230.330000	857.389648	254.141251
-7373.834362	4230.330000	856.210938	-44.444386
-7373.834362	4230.330000	855.032227	-13.088778
-7373.834362	4230.330000	853.853516	192.564774
-7373.834362	4230.330000	852.674805	87.292923
-7373.834362	4230.330000	851.495117	55.524036
-7373.834362	4230.330000	850.315430	97.211082
-7373.834362	4230.330000	849.135742	69.591629
-7373.834362	4230.330000	847.956055	251.789963
-7373.834362	4230.330000	846.775391	177.939438
-7373.834362	4230.330000	845.595703	139.746765
-7373.834362	4230.330000	844.415039	315.442230
-7373.834362	4230.330000	843.233398	241.540695
-7373.834362	4230.330000	842.052734	157.159134
-7373.834362	4230.330000	840.871094	28.774784
-7373.834362	4230.330000	839.689453	61.757793
-7373.834362	4230.330000	838.506836	329.329254
-7373.834362	4230.330000	837.325195	253.269409
-7373.834362	4230.330000	836.142578	168.839508
-7373.834362	4230.330000	834.959961	124.195885
-7373.834362	4230.330000	833.777344	171.644485
-7373.834362	4230.330000	832.593750	248.347672
-7373.834362	4230.330000	831.410156	92.745094
-7373.834362	4230.330000	830.226563	257.241272
-7373.834362	4230.330000	829.042969	126.748589
-7373.834362	4230.330000	827.858398	314.120728
-7373.834362	4230.330000	826.673828	212.889175
-7373.834362	4230.330000	825.489258	212.002426
-7373.834362	4230.330000	824.304688	209.001755
-7373.834362	4230.330000	823.120117	170.460602
-7373.834362	4230.330000	821.934570	420.175934
-7373.834362	4230.330000	820.749023	178.981125
-7373.834362	4230.330000	819.562500	73.584198
-7373.834362	4230.330000	818.376953	181.139069
-7373.834362	4230.330000	817.190430	65.302780
-7373.834362	4230.330000	816.003906	55.913654
-7373.834362	4230.330000	814.817383	-126.657005
-7373.834362	4230.330000	813.629883	-17.153404
-7373.834362	4230.330000	812.442383	13.037230
-7373.834362	4230.330000	811.254883	-6.847581
-7373.834362	4230.330000	810.067383	-41.337898
-7373.834362	4230.330000	808.878906	5.446012
-7373.834362	4230.330000	807.690430	-145.762894
-7373.834362	4230.330000	806.501953	-7.355035
-7373.834362	4230.330000	805.313477	-41.902473
-7373.834362	4230.330000	804.124023	17.253746
-7373.834362	4230.330000	802.934570	-86.031288
-7373.834362	4230.330000	801.745117	-95.623596
-7373.834362	4230.330000	800.555664	-96.907738
-7373.834362	4230.330000	799.365234	22.468519
-7373.834362	4230.330000	798.175781	-55.849133
-7373.834362	4230.330000	796.985352	-59.281425
-7373.834362	4230.330000	795.793945	43.319233
-7373.834362	4230.330000	794.603516	-136.882813
-7373.834362	4230.330000	793.412109	-80.075981
-7373.834362	4230.330000	792.220703	-21.234165
-7373.834362	4230.330000	791.028320	-72.552124
-7373.834362	4230.330000	789.836914	-74.013840
-7373.834362	4230.330000	788.644531	-58.879154
-7373.834362	4230.330000	787.452148	14.369306
-7373.834362	4230.330000	786.258789	-86.810944
-7373.834362	4230.330000	785.066406	19.584497
-7373.834362	4230.330000	783.873047	-166.669174
-7373.834362	4230.330000	782.679688	26.797998
-7373.834362	4230.330000	781.485352	-72.297745
-7373.834362	4230.330000	780.291992	-69.754631
-7373.834362	4230.330000	779.097656	-29.909897
-7373.834362	4230.330000	777.903320	-43.995094
-7373.834362	4230.330000	776.708008	128.433487
-7373.834362	4230.330000	775.512695	52.124783
-7373.834362	4230.330000	774.318359	-17.954435
-7373.834362	4230.330000	773.122070	-69.380653
-7373.834362	4230.330000	771.926758	-33.830040
-7373.834362	4230.330000	770.730469	94.856056
-7373.834362	4230.330000	769.534180	-55.967907
-7373.834362	4230.330000	768.337891	-53.602570
-7373.834362	4230.330000	767.141602	-179.537064
-7373.834362	4230.330000	765.944336	29.682917
-7373.834362	4230.330000	764.747070	-96.248268
-7373.834362	4230.330000	763.549805	-64.992615
-7373.834362	4230.330000	762.351563	-52.372219
-7373.834362	4230.330000	761.154297	142.114883
-7373.834362	4230.330000	759.956055	-37.526226
-7373.834362	4230.330000	758.757813	-169.590408
-7373.834362	4230.330000	757.558594	-2.099034
-7373.834362	4230.330000	756.359375	47.590557
-7373.834362	4230.330000	755.160156	-226.922897
-7373.834362	4230.330000	753.960938	117.961304
-7373.834362	4230.330000	752.761719	146.911209
-7373.834362	4230.330000	751.561523	64.405396
-7373.834362	4230.330000	750.361328	-26.332378
-7373.834362	4230.330000	749.160156	17.022114
-7373.834362	4230.330000	747.959961	87.151741
-7373.834362	4230.330000	746.758789	-3.578347
-7373.834362	4230.330000	745.557617	-271.559570
-7373.834362	4230.330000	744.356445	6.692500
-7373.834362	4230.330000	743.154297	-86.068253
-7373.834362	4230.330000	741.952148	-36.662918
-7373.834362	4230.330000	740.750000	33.303104
-7373.834362	4230.330000	739.547852	-150.051941
-7373.834362	4230.330000	738.344727	33.109749
-7373.834362	4230.330000	737.142578	146.199722
-7373.834362	4230.330000	735.939453	152.218643
-7373.834362	4230.330000	734.735352	228.173416
-7373.834362	4230.330000	733.532227	-92.921806
-7373.834362	4230.330000	732.328125	110.533180
-7373.834362	4230.330000	731.124023	153.509369
-7373.834362	4230.330000	729.918945	163.561264
-7373.834362	4230.330000	728.714844	11.226524
-7373.834362	4230.330000	727.509766	154.843582
-7373.834362	4230.330000	726.303711	-52.922512
-7373.834362	4230.330000	725.098633	-14.134598
-7373.834362	4230.330000	723.892578	135.517349
-7373.834362	4230.330000	722.686523	178.329559
-7373.834362	4230.330000	721.480469	116.421249
-7373.834362	4230.330000	720.274414	270.016113
-7373.834362	4230.330000	719.067383	119.856987
-7373.834362	4230.330000	717.860352	183.096634
-7373.834362	4230.330000	716.653320	22.738014
-7373.834362	4230.330000	715.445313	1.870665
-7373.834362	4230.330000	714.238281	200.365494
-7373.834362	4230.330000	713.030273	-80.869026
-7373.834362	4230.330000	711.821289	56.053833
-7373.834362	4230.330000	710.613281	221.590988
-7373.834362	4230.330000	709.404297	65.442841
-7373.834362	4230.330000	708.195313	275.937958
-7373.834362	4230.330000	706.986328	285.671143
-7373.834362	4230.330000	705.776367	19.022831
-7373.834362	4230.330000	704.566406	159.768890
-7373.834362	4230.330000	703.356445	73.305878
-7373.834362	4230.330000	702.146484	207.817413
-7373.834362	4230.330000	700.935547	270.670258
-7373.834362	4230.330000	699.724609	241.459641
-7373.834362	4230.330000	698.513672	279.718842
-7373.834362	4230.330000	697.302734	187.124634
-7373.834362	4230.330000	696.090820	-19.890827
-7373.834362	4230.330000	694.878906	167.519699
-7373.834362	4230.330000	693.666992	428.381653
-7373.834362	4230.330000	692.455078	250.002716
-7373.834362	4230.330000	691.242188	382.066925
-7373.834362	4230.330000	690.029297	254.785828
-7373.834362	4230.330000	688.816406	311.247345
-7373.834362	4230.330000	687.602539	304.409973
-7373.834362	4230.330000	686.389648	346.531708
-7373.834362	4230.330000	685.175781	331.506012
-7373.834362	4230.330000	683.960938	548.966675
-7373.834362	4230.330000	682.747070	535.920837
-7373.834362	4230.330000	681.532227	531.020630
-7373.834362	4230.330000	680.317383	513.882935
-7373.834362	4230.330000	679.102539	407.081116
-7373.834362	4230.330000	677.886719	554.969971
-7373.834362	4230.330000	676.670898	515.395935
-7373.834362	4230.330000	675.455078	162.220444
-7373.834362	4230.330000	674.239258	350.751129
-7373.834362	4230.330000	673.022461	457.768646
-7373.834362	4230.330000	671.805664	273.708313
-7373.834362	4230.330000	670.588867	57.158085
-7373.834362	4230.330000	669.372070	35.977428
-7373.834362	4230.330000	668.154297	271.055328
-7373.834362	4230.330000	666.936523	237.614273
-7373.834362	4230.330000	665.718750	169.615265
-7373.834362	4230.330000	664.500977	168.707840
-7373.834362	4230.330000	663.282227	182.013351
-7373.834362	4230.330000	662.063477	223.746536
-7373.834362	4230.330000	660.844727	76.544189
-7373.834362	4230.330000	659.625000	126.383179
-7373.834362	4230.330000	658.405273	184.311234
-7373.834362	4230.330000	657.185547	-9.511373
-7373.834362	4230.330000	655.965820	97.108826
-7373.834362	4230.330000	654.745117	79.896698
-7373.834362	4230.330000	653.525391	22.108871
-7373.834362	4230.330000	652.303711	232.064285
-7373.834362	4230.330000	651.083008	186.413956
-7373.834362	4230.330000	649.861328	167.129990
-7373.834362	4230.330000	648.640625	218.787415
-7373.834362	4230.330000	647.417969	169.085983
-7373.834362	4230.330000	646.196289	91.030319
-7373.834362	4230.330000	644.973633	294.568054
-7373.834362	4230.330000	643.750977	287.382843
-7373.834362	4230.330000	642.528320	247.795090
-7373.834362	4230.330000	641.305664	92.824509
-7373.834362	4230.330000	640.082031	180.784821
-7373.834362	4230.330000	638.858398	290.959259
-7373.834362	4230.330000	637.634766	113.796280
-7373.834362	4230.330000	636.410156	138.966980
-7373.834362	4230.330000	635.185547	265.232208
-7373.834362	4230.330000	633.960938	126.575523
-7373.834362	4230.330000	632.736328	161.810608
-7373.834362	4230.330000	631.510742	102.037300
-7373.834362	4230.330000	630.285156	117.040886
-7373.834362	4230.330000	629.059570	117.889923
-7373.834362	4230.330000	627.833984	149.027008
-7373.834362	4230.330000	626.607422	105.429886
-7373.834362	4230.330000	625.380859	47.713009
-7373.834362	4230.330000	624.154297	-40.261101
-7373.834362	4230.330000	622.927734	166.418915
-7373.834362	4230.330000	621.700195	82.477882
-7373.834362	4230.330000	620.472656	-7.484353
-7373.834362	4230.330000	619.245117	-69.181427
-7373.834362	4230.330000	618.016602	-74.402161
-7373.834362	4230.330000	616.788086	-123.974442
-7373.834362	4230.330000	615.559570	-68.730034
-7373.834362	4230.330000	614.331055	-43.738026
-7373.834362	4230.330000	613.101563	3.398327
-7373.834362	4230.330000	611.872070	86.764259
-7373.834362	4230.330000	610.642578	109.680367
-7373.834362	4230.330000	609.413086	39.973095
-7373.834362	4230.330000	608.182617	215.857559
-7373.834362	4230.330000	606.952148	-89.301674
-7373.834362	4230.330000	605.721680	62.385342
-7373.834362	4230.330000	604.491211	-156.120148
-7373.834362	4230.330000	603.259766	53.834484
-7373.834362	4230.330000	602.028320	-23.831480
-7373.834362	4230.330000	600.796875	103.581505
-7373.834362	4230.330000	599.564453	56.081543
-7373.834362	4230.330000	598.332031	153.278381
-7373.834362	4230.330000	597.099609	-135.291519
-7373.834362	4230.330000	595.867188	-22.026249
-7373.834362	4230.330000	594.633789	-69.461609
-7373.834362	4230.330000	593.400391	37.718201
-7373.834362	4230.330000	592.166992	114.744019
-7373.834362	4230.330000	590.933594	91.395508
-7373.834362	4230.330000	589.699219	-28.250813
-7373.834362	4230.330000	588.464844	-63.591999
-7373.834362	4230.330000	587.230469	115.680923
-7373.834362	4230.330000	585.995117	88.348610
-7373.834362	4230.330000	584.760742	85.089203
-7373.834362	4230.330000	583.525391	248.190201
-7373.834362	4230.330000	582.289063	240.896149
-7373.834362	4230.330000	581.053711	-86.938049
-7373.834362	4230.330000	579.817383	82.116753
-7373.834362	4230.330000	578.581055	-125.380455
-7373.834362	4230.330000	577.343750	85.665512
-7373.834362	4230.330000	576.107422	192.539215
-7373.834362	4230.330000	574.870117	141.270432
-7373.834362	4230.330000	573.631836	-16.016359
-7373.834362	4230.330000	572.394531	144.842285
-7373.834362	4230.330000	571.156250	45.637936
-7373.834362	4230.330000	569.917969	88.454956
-7373.834362	4230.330000	568.679688	69.287956
-7373.834362	4230.330000	567.440430	230.025162
-7373.834362	4230.330000	566.202148	190.871933
-7373.834362	4230.330000	564.961914	121.777283
-7373.834362	4230.330000	563.722656	210.521652
-7373.834362	4230.330000	562.482422	41.622322
-7373.834362	4230.330000	561.243164	200.250427
-7373.834362	4230.330000	560.001953	-50.394913
-7373.834362	4230.330000	558.761719	102.221519
-7373.834362	4230.330000	557.520508	147.038010
-7373.834362	4230.330000	556.279297	74.150589
-7373.834362	4230.330000	555.038086	107.014809
-7373.834362	4230.330000	553.795898	219.640152
-7373.834362	4230.330000	552.554688	5.280591
-7373.834362	4230.330000	551.311523	199.630630
-7373.834362	4230.330000	550.069336	116.920570
-7373.834362	4230.330000	548.826172	70.124008
-7373.834362	4230.330000	547.583984	7.429412
-7373.834362	4230.330000	546.339844	32.403500
-7373.834362	4230.330000	545.096680	89.242218
-7373.834362	4230.330000	543.852539	-47.016251
-7373.834362	4230.330000	542.608398	-31.941061
-7373.834362	4230.330000	541.364258	-82.516113
-7373.834362	4230.330000	540.119141	127.554344
-7373.834362	4230.330000	538.875000	178.442917
-7373.834362	4230.330000	537.628906	70.248863
-7373.834362	4230.330000	536.383789	-25.947443
-7373.834362	4230.330000	535.137695	76.683388
-7373.834362	4230.330000	533.892578	56.085289
-7373.834362	4230.330000	532.645508	-20.112978
-7373.834362	4230.330000	531.399414	30.873783
-7373.834362	4230.330000	530.152344	60.016701
-7373.834362	4230.330000	528.905273	7.764939
-7373.834362	4230.330000	527.658203	-90.096909
-7373.834362	4230.330000	526.410156	101.868668
-7373.834362	4230.330000	525.163086	63.606243
-7373.834362	4230.330000	523.914063	-226.557785
-7373.834362	4230.330000	522.666016	-147.661942
-7373.834362	4230.330000	521.416992	-42.993664
-7373.834362	4230.330000	520.167969	-253.567856
-7373.834362	4230.330000	518.918945	307.018158
-7373.834362	4230.330000	517.669922	-60.038025
-7373.834362	4230.330000	516.419922	-34.619118
-7373.834362	4230.330000	515.169922	-209.247009
-7373.834362	4230.330000	513.919922	26.174280
-7373.834362	4230.330000	512.668945	-77.054344
-7373.834362	4230.330000	511.417969	-13.926559
-7373.834362	4230.330000	510.166992	-85.376709
-7373.834362	4230.330000	508.916016	-91.469017
-7373.834362	4230.330000	507.664063	-113.354729
-7373.834362	4230.330000	506.412109	23.027990
-7373.834362	4230.330000	505.160156	-64.067787
-7373.834362	4230.330000	503.907227	-89.807915
-7373.834362	4230.330000	502.655273	99.941498
-7373.834362	4230.330000	501.402344	-85.830147
-7373.834362	4230.330000	500.148438	-156.897125
-7373.834362	4230.330000	498.895508	-99.508553
-7373.834362	4230.330000	497.641602	-81.610535
-7373.834362	4230.330000	496.387695	143.628876
-7373.834362	4230.330000	495.132813	-67.458145
-7373.834362	4230.330000	493.878906	-15.934535
-7373.834362	4230.330000	492.624023	-86.738464
-7373.834362	4230.330000	491.368164	-125.916885
-7373.834362	4230.330000	490.113281	-68.403069
-7373.834362	4230.330000	488.857422	-12.855869
-7373.834362	4230.330000	487.601563	-40.103909
-7373.834362	4230.330000	486.344727	-23.945942
-7373.834362	4230.330000	485.088867	-159.505051
-7373.834362	4230.330000	483.832031	177.874435
-7373.834362	4230.330000	482.575195	64.056961
-7373.834362	4230.330000	481.317383	46.815983
-7373.834362	4230.330000	480.059570	114.275612
-7373.834362	4230.330000	478.801758	169.922607
-7373.834362	4230.330000	477.543945	396.796448
-7373.834362	4230.330000	476.285156	289.097198
-7373.834362	4230.330000	475.027344	146.058517
-7373.834362	4230.330000	473.767578	209.624680
-7373.834362	4230.330000	472.508789	-4.073969
-7373.834362	4230.330000	471.249023	-160.643539
-7373.834362	4230.330000	469.989258	1.294390
-7373.834362	4230.330000	468.729492	-47.083424
-7373.834362	4230.330000	467.469727	55.862633
-7373.834362	4230.330000	466.208984	91.999344
-7373.834362	4230.330000	464.948242	75.114952
-7373.834362	4230.330000	463.686523	36.658169
-7373.834362	4230.330000	462.425781	-37.099266
-7373.834362	4230.330000	461.164063	89.372017
-7373.834362	4230.330000	459.901367	-98.140320
-7373.834362	4230.330000	458.639648	28.314869
-7373.834362	4230.330000	457.376953	-10.023249
-7373.834362	4230.330000	456.114258	-48.334797
-7373.834362	4230.330000	454.851563	89.816963
-7373.834362	4230.330000	453.587891	-11.207682
-7373.834362	4230.330000	452.324219	58.299541
-7373.834362	4230.330000	451.060547	-26.997335
-7373.834362	4230.330000	449.796875	-82.875786
-7373.834362	4230.330000	448.532227	64.933304
-7373.834362	4230.330000	447.267578	-18.359245
-7373.834362	4230.330000	446.002930	-127.071220
-7373.834362	4230.330000	444.737305	44.115009
-7373.834362	4230.330000	443.471680	-64.585136
-7373.834362	4230.330000	442.206055	83.011215
-7373.834362	4230.330000	440.940430	-94.136795
-7373.834362	4230.330000	439.673828	-32.672955
-7373.834362	4230.330000	438.407227	116.712486
-7373.834362	4230.330000	437.140625	174.144348
-7373.834362	4230.330000	435.873047	276.465729
-7373.834362	4230.330000	434.605469	99.332733
-7373.834362	4230.330000	433.337891	-25.022741
-7373.834362	4230.330000	432.070313	88.880066
-7373.834362	4230.330000	430.801758	81.640472
-7373.834362	4230.330000	429.533203	17.748156
-7373.834362	4230.330000	428.264648	285.595612
-7373.834362	4230.330000	426.996094	186.456024
-7373.834362	4230.330000	425.726563	202.390869
-7373.834362	4230.330000	424.457031	149.992935
-7373.834362	4230.330000	423.186523	196.991257
-7373.834362	4230.330000	421.916992	58.697021
-7373.834362	4230.330000	420.646484	101.640839
-7373.834362	4230.330000	419.375977	273.088928
-7373.834362	4230.330000	418.104492	138.508652
-7373.834362	4230.330000	416.833008	27.263697
-7373.834362	4230.330000	415.561523	-31.457201
-7373.834362	4230.330000	414.290039	71.333389
-7373.834362	4230.330000	413.017578	158.394806
-7373.834362	4230.330000	411.746094	-23.258881
-7373.834362	4230.330000	410.472656	36.299217
-7373.834362	4230.330000	409.200195	-69.644974
-7373.834362	4230.330000	407.926758	16.852768
-7373.834362	4230.330000	406.653320	58.445301
-7373.834362	4230.330000	405.379883	-7.051220
-7373.834362	4230.330000	404.105469	199.413361
-7373.834362	4230.330000	402.831055	51.973049
-7373.834362	4230.330000	401.556641	106.458961
-7373.834362	4230.330000	400.282227	112.180542
-7373.834362	4230.330000	399.006836	137.123993
-7373.834362	4230.330000	397.731445	220.096771
-7373.834362	4230.330000	396.456055	289.235718
-7373.834362	4230.330000	395.179688	30.165470
-7373.834362	4230.330000	393.903320	-85.449364
-7373.834362	4230.330000	392.626953	-26.676786
-7373.834362	4230.330000	391.350586	-65.143646
-7373.834362	4230.330000	390.073242	29.928221
-7373.834362	4230.330000	388.795898	87.859291
-7373.834362	4230.330000	387.518555	27.265085
-7373.834362	4230.330000	386.240234	-70.412674
-7373.834362	4230.330000	384.961914	-67.615479
-7373.834362	4230.330000	383.683594	2.655121
-7373.834362	4230.330000	382.405273	-8.757999
-7373.834362	4230.330000	381.125977	-90.201401
-7373.834362	4230.330000	379.846680	46.754238
-7373.834362	4230.330000	378.567383	-4.418275
-7373.834362	4230.330000	377.287109	77.544044
-7373.834362	4230.330000	376.006836	93.315445
-7373.834362	4230.330000	374.726563	68.065987
-7373.834362	4230.330000	373.446289	59.811104
-7373.834362	4230.330000	372.165039	29.857073
-7373.834362	4230.330000	370.883789	55.514668
-7373.834362	4230.330000	369.602539	119.340256
-7373.834362	4230.330000	368.320313	41.636967
-7373.834362	4230.330000	367.039063	44.594696
-7373.834362	4230.330000	365.755859	-10.902175
-7373.834362	4230.330000	364.473633	106.848618
-7373.834362	4230.330000	363.190430	36.779587
-7373.834362	4230.330000	361.907227	74.236496
-7373.834362	4230.330000	360.624023	-16.231911
-7373.834362	4230.330000	359.340820	89.477409
-7373.834362	4230.330000	358.056641	28.671759
-7373.834362	4230.330000	356.772461	27.020142
-7373.834362	4230.330000	355.487305	-52.401516
-7373.834362	4230.330000	354.202148	4.358040
-7373.834362	4230.330000	352.916992	-51.354301
-7373.834362	4230.330000	351.631836	-1.819048
-7373.834362	4230.330000	350.346680	39.250202
-7373.834362	4230.330000	349.060547	-57.183105
-7373.834362	4230.330000	347.774414	18.889151
-7373.834362	4230.330000	346.487305	-27.147987
-7373.834362	4230.330000	345.200195	-12.426907
-7373.834362	4230.330000	343.913086	-177.481125
-7373.834362	4230.330000	342.625977	-127.934502
-7373.834362	4230.330000	341.338867	-63.934868
-7373.834362	4230.330000	340.050781	-56.670555
-7373.834362	4230.330000	338.762695	-79.203125
-7373.834362	4230.330000	337.473633	-89.285057
-7373.834362	4230.330000	336.184570	-85.011864
-7373.834362	4230.330000	334.895508	-14.557687
-7373.834362	4230.330000	333.606445	68.232849
-7373.834362	4230.330000	332.317383	-159.235489
-7373.834362	4230.330000	331.027344	-23.046440
-7373.834362	4230.330000	329.736328	146.434326
-7373.834362	4230.330000	328.446289	49.884216
-7373.834362	4230.330000	327.155273	-51.717396
-7373.834362	4230.330000	325.864258	-56.728222
-7373.834362	4230.330000	324.573242	61.601261
-7373.834362	4230.330000	323.281250	-9.353557
-7373.834362	4230.330000	321.989258	156.016174
-7373.834362	4230.330000	320.697266	74.633644
-7373.834362	4230.330000	319.405273	-40.720230
-7373.834362	4230.330000	318.112305	5.271053
-7373.834362	4230.330000	316.819336	-139.855713
-7373.834362	4230.330000	315.526367	-72.045502
-7373.834362	4230.330000	314.232422	-70.976852
-7373.834362	4230.330000	312.938477	10.742542
-7373.834362	4230.330000	311.644531	21.872391
-7373.834362	4230.330000	310.349609	10.192805
-7373.834362	4230.330000	309.054688	33.092388
-7373.834362	4230.330000	307.759766	92.414314
-7373.834362	4230.330000	306.464844	184.267548
-7373.834362	4230.330000	305.168945	-31.653811
-7373.834362	4230.330000	303.873047	-20.134113
-7373.834362	4230.330000	302.577148	157.500336
-7373.834362	4230.330000	301.281250	210.780792
-7373.834362	4230.330000	299.984375	261.895599
