#X		#Y		#Wave		#Intensity
-6604.908883	4657.447500	1999.946289	-22.802813
-6604.908883	4657.447500	1998.981445	39.745857
-6604.908883	4657.447500	1998.017578	-19.465565
-6604.908883	4657.447500	1997.052734	37.789398
-6604.908883	4657.447500	1996.088867	-31.364189
-6604.908883	4657.447500	1995.124023	-3.906901
-6604.908883	4657.447500	1994.159180	-1.252345
-6604.908883	4657.447500	1993.193359	-13.480467
-6604.908883	4657.447500	1992.228516	-15.825057
-6604.908883	4657.447500	1991.262695	-0.863994
-6604.908883	4657.447500	1990.296875	-8.205055
-6604.908883	4657.447500	1989.331055	48.770084
-6604.908883	4657.447500	1988.365234	26.535572
-6604.908883	4657.447500	1987.398438	6.762348
-6604.908883	4657.447500	1986.432617	24.072153
-6604.908883	4657.447500	1985.465820	-47.657299
-6604.908883	4657.447500	1984.499023	4.228113
-6604.908883	4657.447500	1983.532227	11.585524
-6604.908883	4657.447500	1982.565430	68.347015
-6604.908883	4657.447500	1981.597656	-42.941914
-6604.908883	4657.447500	1980.629883	-8.458040
-6604.908883	4657.447500	1979.662109	6.238000
-6604.908883	4657.447500	1978.694336	48.076283
-6604.908883	4657.447500	1977.726563	75.070007
-6604.908883	4657.447500	1976.758789	25.516403
-6604.908883	4657.447500	1975.790039	20.391129
-6604.908883	4657.447500	1974.821289	-2.018956
-6604.908883	4657.447500	1973.852539	-19.499893
-6604.908883	4657.447500	1972.883789	29.612093
-6604.908883	4657.447500	1971.915039	56.497490
-6604.908883	4657.447500	1970.945313	19.252064
-6604.908883	4657.447500	1969.975586	23.918312
-6604.908883	4657.447500	1969.005859	63.078796
-6604.908883	4657.447500	1968.036133	1.175312
-6604.908883	4657.447500	1967.066406	47.695671
-6604.908883	4657.447500	1966.096680	15.358514
-6604.908883	4657.447500	1965.125977	32.283161
-6604.908883	4657.447500	1964.155273	36.879311
-6604.908883	4657.447500	1963.184570	-7.776640
-6604.908883	4657.447500	1962.213867	-27.808624
-6604.908883	4657.447500	1961.242188	-25.691498
-6604.908883	4657.447500	1960.271484	13.327062
-6604.908883	4657.447500	1959.299805	-6.722429
-6604.908883	4657.447500	1958.328125	66.699486
-6604.908883	4657.447500	1957.356445	-2.553742
-6604.908883	4657.447500	1956.384766	33.942848
-6604.908883	4657.447500	1955.412109	77.794258
-6604.908883	4657.447500	1954.439453	42.968540
-6604.908883	4657.447500	1953.467773	-4.137664
-6604.908883	4657.447500	1952.495117	10.193267
-6604.908883	4657.447500	1951.521484	-24.618515
-6604.908883	4657.447500	1950.548828	36.366020
-6604.908883	4657.447500	1949.575195	35.930836
-6604.908883	4657.447500	1948.601563	-52.896576
-6604.908883	4657.447500	1947.627930	15.408167
-6604.908883	4657.447500	1946.654297	-14.488828
-6604.908883	4657.447500	1945.680664	-14.933058
-6604.908883	4657.447500	1944.706055	-12.928179
-6604.908883	4657.447500	1943.732422	45.489269
-6604.908883	4657.447500	1942.757813	5.782467
-6604.908883	4657.447500	1941.783203	-36.365234
-6604.908883	4657.447500	1940.807617	14.657949
-6604.908883	4657.447500	1939.833008	-2.971626
-6604.908883	4657.447500	1938.857422	23.513487
-6604.908883	4657.447500	1937.881836	32.834473
-6604.908883	4657.447500	1936.906250	-14.194551
-6604.908883	4657.447500	1935.930664	-26.919149
-6604.908883	4657.447500	1934.955078	-66.578438
-6604.908883	4657.447500	1933.978516	30.882299
-6604.908883	4657.447500	1933.001953	23.044708
-6604.908883	4657.447500	1932.025391	22.550022
-6604.908883	4657.447500	1931.048828	0.030686
-6604.908883	4657.447500	1930.072266	-100.771370
-6604.908883	4657.447500	1929.094727	-30.312695
-6604.908883	4657.447500	1928.118164	-35.695988
-6604.908883	4657.447500	1927.140625	-31.298456
-6604.908883	4657.447500	1926.163086	-2.457175
-6604.908883	4657.447500	1925.184570	45.925606
-6604.908883	4657.447500	1924.207031	25.862898
-6604.908883	4657.447500	1923.228516	66.889580
-6604.908883	4657.447500	1922.250000	15.069930
-6604.908883	4657.447500	1921.271484	14.559536
-6604.908883	4657.447500	1920.292969	72.655586
-6604.908883	4657.447500	1919.314453	-1.113175
-6604.908883	4657.447500	1918.334961	30.110004
-6604.908883	4657.447500	1917.355469	-38.744282
-6604.908883	4657.447500	1916.375977	-19.728350
-6604.908883	4657.447500	1915.396484	-0.720449
-6604.908883	4657.447500	1914.416992	67.064377
-6604.908883	4657.447500	1913.436523	68.975777
-6604.908883	4657.447500	1912.457031	92.830811
-6604.908883	4657.447500	1911.476563	111.800278
-6604.908883	4657.447500	1910.496094	103.950256
-6604.908883	4657.447500	1909.515625	-40.367546
-6604.908883	4657.447500	1908.534180	76.074303
-6604.908883	4657.447500	1907.552734	26.820274
-6604.908883	4657.447500	1906.572266	-22.415745
-6604.908883	4657.447500	1905.590820	64.733925
-6604.908883	4657.447500	1904.608398	-23.447512
-6604.908883	4657.447500	1903.626953	32.023746
-6604.908883	4657.447500	1902.644531	65.569321
-6604.908883	4657.447500	1901.663086	40.702171
-6604.908883	4657.447500	1900.680664	25.575109
-6604.908883	4657.447500	1899.698242	20.182779
-6604.908883	4657.447500	1898.714844	-9.528059
-6604.908883	4657.447500	1897.732422	-17.344374
-6604.908883	4657.447500	1896.749023	42.910809
-6604.908883	4657.447500	1895.765625	8.349547
-6604.908883	4657.447500	1894.782227	36.984283
-6604.908883	4657.447500	1893.798828	72.896919
-6604.908883	4657.447500	1892.814453	48.064342
-6604.908883	4657.447500	1891.831055	108.247925
-6604.908883	4657.447500	1890.846680	32.421856
-6604.908883	4657.447500	1889.862305	-33.664963
-6604.908883	4657.447500	1888.877930	16.788227
-6604.908883	4657.447500	1887.892578	93.918098
-6604.908883	4657.447500	1886.908203	-27.955027
-6604.908883	4657.447500	1885.922852	-35.759068
-6604.908883	4657.447500	1884.937500	-41.135387
-6604.908883	4657.447500	1883.952148	-46.510540
-6604.908883	4657.447500	1882.965820	66.925125
-6604.908883	4657.447500	1881.980469	27.590675
-6604.908883	4657.447500	1880.994141	10.083817
-6604.908883	4657.447500	1880.007813	72.552483
-6604.908883	4657.447500	1879.021484	1.738458
-6604.908883	4657.447500	1878.035156	44.803814
-6604.908883	4657.447500	1877.047852	-25.980883
-6604.908883	4657.447500	1876.061523	75.187721
-6604.908883	4657.447500	1875.074219	31.053188
-6604.908883	4657.447500	1874.086914	45.028706
-6604.908883	4657.447500	1873.098633	20.274853
-6604.908883	4657.447500	1872.111328	58.441540
-6604.908883	4657.447500	1871.123047	91.753761
-6604.908883	4657.447500	1870.135742	18.625479
-6604.908883	4657.447500	1869.147461	-3.691957
-6604.908883	4657.447500	1868.158203	46.533707
-6604.908883	4657.447500	1867.169922	-12.045046
-6604.908883	4657.447500	1866.180664	67.163956
-6604.908883	4657.447500	1865.192383	3.767058
-6604.908883	4657.447500	1864.203125	-1.622460
-6604.908883	4657.447500	1863.213867	14.729033
-6604.908883	4657.447500	1862.223633	45.563263
-6604.908883	4657.447500	1861.234375	107.775536
-6604.908883	4657.447500	1860.244141	-3.864278
-6604.908883	4657.447500	1859.253906	14.881372
-6604.908883	4657.447500	1858.263672	-12.235736
-6604.908883	4657.447500	1857.273438	40.281052
-6604.908883	4657.447500	1856.282227	13.165025
-6604.908883	4657.447500	1855.291992	36.709087
-6604.908883	4657.447500	1854.300781	-26.573614
-6604.908883	4657.447500	1853.309570	-22.324316
-6604.908883	4657.447500	1852.317383	75.935387
-6604.908883	4657.447500	1851.326172	34.365719
-6604.908883	4657.447500	1850.333984	-7.191092
-6604.908883	4657.447500	1849.342773	-24.641701
-6604.908883	4657.447500	1848.350586	49.446686
-6604.908883	4657.447500	1847.357422	-1.730797
-6604.908883	4657.447500	1846.365234	45.833145
-6604.908883	4657.447500	1845.372070	6.707521
-6604.908883	4657.447500	1844.379883	-25.184830
-6604.908883	4657.447500	1843.386719	0.689205
-6604.908883	4657.447500	1842.393555	105.951965
-6604.908883	4657.447500	1841.399414	59.615894
-6604.908883	4657.447500	1840.406250	63.803909
-6604.908883	4657.447500	1839.412109	12.677771
-6604.908883	4657.447500	1838.417969	-36.027863
-6604.908883	4657.447500	1837.423828	71.531448
-6604.908883	4657.447500	1836.429688	-3.610419
-6604.908883	4657.447500	1835.434570	22.195679
-6604.908883	4657.447500	1834.440430	-33.695240
-6604.908883	4657.447500	1833.445313	40.141003
-6604.908883	4657.447500	1832.450195	-10.936039
-6604.908883	4657.447500	1831.454102	10.036117
-6604.908883	4657.447500	1830.458984	45.401409
-6604.908883	4657.447500	1829.462891	-3.258297
-6604.908883	4657.447500	1828.466797	27.289253
-6604.908883	4657.447500	1827.470703	26.630440
-6604.908883	4657.447500	1826.474609	6.777425
-6604.908883	4657.447500	1825.478516	13.310734
-6604.908883	4657.447500	1824.481445	39.021198
-6604.908883	4657.447500	1823.484375	-4.809598
-6604.908883	4657.447500	1822.487305	61.636909
-6604.908883	4657.447500	1821.490234	51.363121
-6604.908883	4657.447500	1820.493164	108.181625
-6604.908883	4657.447500	1819.495117	52.376392
-6604.908883	4657.447500	1818.498047	10.960155
-6604.908883	4657.447500	1817.500000	7.871885
-6604.908883	4657.447500	1816.500977	28.723717
-6604.908883	4657.447500	1815.502930	39.988361
-6604.908883	4657.447500	1814.504883	29.703705
-6604.908883	4657.447500	1813.505859	50.527122
-6604.908883	4657.447500	1812.506836	68.945938
-6604.908883	4657.447500	1811.507813	-13.113982
-6604.908883	4657.447500	1810.508789	-6.656695
-6604.908883	4657.447500	1809.508789	47.616886
-6604.908883	4657.447500	1808.508789	42.097298
-6604.908883	4657.447500	1807.508789	5.501923
-6604.908883	4657.447500	1806.508789	14.322550
-6604.908883	4657.447500	1805.508789	-10.315727
-6604.908883	4657.447500	1804.508789	-51.671722
-6604.908883	4657.447500	1803.507813	-11.809044
-6604.908883	4657.447500	1802.506836	28.033976
-6604.908883	4657.447500	1801.505859	63.082287
-6604.908883	4657.447500	1800.504883	9.789477
-6604.908883	4657.447500	1799.502930	35.271496
-6604.908883	4657.447500	1798.501953	46.422596
-6604.908883	4657.447500	1797.500000	28.935019
-6604.908883	4657.447500	1796.498047	-14.788915
-6604.908883	4657.447500	1795.496094	-29.882769
-6604.908883	4657.447500	1794.493164	12.249491
-6604.908883	4657.447500	1793.491211	4.298671
-6604.908883	4657.447500	1792.488281	65.466988
-6604.908883	4657.447500	1791.485352	71.797165
-6604.908883	4657.447500	1790.482422	35.233410
-6604.908883	4657.447500	1789.478516	48.703152
-6604.908883	4657.447500	1788.475586	5.002838
-6604.908883	4657.447500	1787.471680	-24.398994
-6604.908883	4657.447500	1786.467773	0.963869
-6604.908883	4657.447500	1785.463867	81.060043
-6604.908883	4657.447500	1784.459961	92.104004
-6604.908883	4657.447500	1783.455078	-8.695346
-6604.908883	4657.447500	1782.450195	-21.438906
-6604.908883	4657.447500	1781.445313	-48.453709
-6604.908883	4657.447500	1780.440430	81.490463
-6604.908883	4657.447500	1779.435547	14.036676
-6604.908883	4657.447500	1778.429688	-10.607767
-6604.908883	4657.447500	1777.424805	-47.131050
-6604.908883	4657.447500	1776.418945	-12.357452
-6604.908883	4657.447500	1775.413086	-34.621967
-6604.908883	4657.447500	1774.406250	126.020729
-6604.908883	4657.447500	1773.400391	53.854786
-6604.908883	4657.447500	1772.393555	-25.412737
-6604.908883	4657.447500	1771.386719	66.274910
-6604.908883	4657.447500	1770.379883	46.364632
-6604.908883	4657.447500	1769.373047	28.829945
-6604.908883	4657.447500	1768.365234	-0.566951
-6604.908883	4657.447500	1767.358398	3.253928
-6604.908883	4657.447500	1766.350586	-9.534466
-6604.908883	4657.447500	1765.342773	39.331318
-6604.908883	4657.447500	1764.334961	59.723110
-6604.908883	4657.447500	1763.326172	-24.197117
-6604.908883	4657.447500	1762.318359	34.108669
-6604.908883	4657.447500	1761.309570	23.670565
-6604.908883	4657.447500	1760.300781	-15.197421
-6604.908883	4657.447500	1759.291016	-35.107262
-6604.908883	4657.447500	1758.282227	34.976677
-6604.908883	4657.447500	1757.272461	76.615829
-6604.908883	4657.447500	1756.262695	30.645226
-6604.908883	4657.447500	1755.252930	93.560852
-6604.908883	4657.447500	1754.243164	-6.831603
-6604.908883	4657.447500	1753.233398	-66.969986
-6604.908883	4657.447500	1752.222656	-32.472530
-6604.908883	4657.447500	1751.211914	18.562109
-6604.908883	4657.447500	1750.201172	29.374924
-6604.908883	4657.447500	1749.190430	-0.010993
-6604.908883	4657.447500	1748.179688	3.700768
-6604.908883	4657.447500	1747.167969	47.580196
-6604.908883	4657.447500	1746.156250	37.094826
-6604.908883	4657.447500	1745.144531	33.695602
-6604.908883	4657.447500	1744.132813	-7.496713
-6604.908883	4657.447500	1743.121094	-51.039345
-6604.908883	4657.447500	1742.108398	-4.854264
-6604.908883	4657.447500	1741.095703	29.506065
-6604.908883	4657.447500	1740.083008	-37.633865
-6604.908883	4657.447500	1739.070313	6.149069
-6604.908883	4657.447500	1738.057617	35.755661
-6604.908883	4657.447500	1737.043945	29.965218
-6604.908883	4657.447500	1736.030273	-1.768233
-6604.908883	4657.447500	1735.016602	74.965012
-6604.908883	4657.447500	1734.002930	-22.779720
-6604.908883	4657.447500	1732.989258	4.424493
-6604.908883	4657.447500	1731.974609	50.464973
-6604.908883	4657.447500	1730.959961	49.363400
-6604.908883	4657.447500	1729.945313	34.124813
-6604.908883	4657.447500	1728.930664	54.214218
-6604.908883	4657.447500	1727.916016	31.908146
-6604.908883	4657.447500	1726.900391	23.730865
-6604.908883	4657.447500	1725.885742	64.982216
-6604.908883	4657.447500	1724.870117	-37.338612
-6604.908883	4657.447500	1723.853516	-24.335348
-6604.908883	4657.447500	1722.837891	-20.749760
-6604.908883	4657.447500	1721.822266	65.149086
-6604.908883	4657.447500	1720.805664	-15.946698
-6604.908883	4657.447500	1719.789063	6.431255
-6604.908883	4657.447500	1718.772461	26.446081
-6604.908883	4657.447500	1717.754883	-183.866501
-6604.908883	4657.447500	1716.738281	28.845552
-6604.908883	4657.447500	1715.720703	62.928280
-6604.908883	4657.447500	1714.703125	-18.097300
-6604.908883	4657.447500	1713.685547	13.625794
-6604.908883	4657.447500	1712.667969	68.812210
-6604.908883	4657.447500	1711.649414	-5.136991
-6604.908883	4657.447500	1710.630859	82.882103
-6604.908883	4657.447500	1709.612305	-40.326008
-6604.908883	4657.447500	1708.593750	45.313305
-6604.908883	4657.447500	1707.575195	20.670576
-6604.908883	4657.447500	1706.555664	-34.454578
-6604.908883	4657.447500	1705.536133	51.123672
-6604.908883	4657.447500	1704.516602	49.926628
-6604.908883	4657.447500	1703.497070	-30.964241
-6604.908883	4657.447500	1702.477539	-36.838188
-6604.908883	4657.447500	1701.457031	1.802628
-6604.908883	4657.447500	1700.437500	38.083897
-6604.908883	4657.447500	1699.416992	48.584873
-6604.908883	4657.447500	1698.395508	-22.878363
-6604.908883	4657.447500	1697.375000	-26.422293
-6604.908883	4657.447500	1696.354492	66.001457
-6604.908883	4657.447500	1695.333008	6.269149
-6604.908883	4657.447500	1694.311523	108.004143
-6604.908883	4657.447500	1693.290039	34.245430
-6604.908883	4657.447500	1692.267578	-4.404779
-6604.908883	4657.447500	1691.246094	62.189125
-6604.908883	4657.447500	1690.223633	60.951817
-6604.908883	4657.447500	1689.201172	17.636440
-6604.908883	4657.447500	1688.178711	-35.013054
-6604.908883	4657.447500	1687.155273	78.257629
-6604.908883	4657.447500	1686.132813	72.336563
-6604.908883	4657.447500	1685.109375	59.407440
-6604.908883	4657.447500	1684.085938	20.792871
-6604.908883	4657.447500	1683.062500	5.539667
-6604.908883	4657.447500	1682.039063	36.978699
-6604.908883	4657.447500	1681.014648	31.059435
-6604.908883	4657.447500	1679.990234	-28.530390
-6604.908883	4657.447500	1678.965820	26.221365
-6604.908883	4657.447500	1677.941406	55.291443
-6604.908883	4657.447500	1676.916992	7.387063
-6604.908883	4657.447500	1675.891602	-24.179274
-6604.908883	4657.447500	1674.866211	-67.391464
-6604.908883	4657.447500	1673.840820	-56.979424
-6604.908883	4657.447500	1672.815430	51.302631
-6604.908883	4657.447500	1671.790039	-12.872628
-6604.908883	4657.447500	1670.763672	62.742966
-6604.908883	4657.447500	1669.737305	68.457397
-6604.908883	4657.447500	1668.710938	60.197113
-6604.908883	4657.447500	1667.684570	49.610615
-6604.908883	4657.447500	1666.658203	-2.870887
-6604.908883	4657.447500	1665.630859	21.464281
-6604.908883	4657.447500	1664.603516	69.056908
-6604.908883	4657.447500	1663.576172	32.882530
-6604.908883	4657.447500	1662.548828	22.305941
-6604.908883	4657.447500	1661.520508	51.263916
-6604.908883	4657.447500	1660.493164	-29.062946
-6604.908883	4657.447500	1659.464844	4.541481
-6604.908883	4657.447500	1658.436523	-29.265942
-6604.908883	4657.447500	1657.408203	94.946121
-6604.908883	4657.447500	1656.378906	-13.209421
-6604.908883	4657.447500	1655.350586	55.205002
-6604.908883	4657.447500	1654.321289	-18.067640
-6604.908883	4657.447500	1653.291992	29.423342
-6604.908883	4657.447500	1652.261719	51.359463
-6604.908883	4657.447500	1651.232422	-12.586848
-6604.908883	4657.447500	1650.202148	44.155872
-6604.908883	4657.447500	1649.171875	-15.125261
-6604.908883	4657.447500	1648.141602	36.956894
-6604.908883	4657.447500	1647.111328	7.848929
-6604.908883	4657.447500	1646.080078	4.257143
-6604.908883	4657.447500	1645.049805	26.168533
-6604.908883	4657.447500	1644.018555	55.024078
-6604.908883	4657.447500	1642.987305	60.695354
-6604.908883	4657.447500	1641.955078	91.849602
-6604.908883	4657.447500	1640.923828	99.828796
-6604.908883	4657.447500	1639.891602	3.584528
-6604.908883	4657.447500	1638.859375	-13.893208
-6604.908883	4657.447500	1637.827148	19.568615
-6604.908883	4657.447500	1636.794922	53.018028
-6604.908883	4657.447500	1635.761719	77.197472
-6604.908883	4657.447500	1634.729492	99.055588
-6604.908883	4657.447500	1633.696289	12.179733
-6604.908883	4657.447500	1632.662109	29.416162
-6604.908883	4657.447500	1631.628906	51.272472
-6604.908883	4657.447500	1630.594727	38.441010
-6604.908883	4657.447500	1629.561523	18.682049
-6604.908883	4657.447500	1628.527344	-26.490772
-6604.908883	4657.447500	1627.493164	-6.947834
-6604.908883	4657.447500	1626.458008	-22.064491
-6604.908883	4657.447500	1625.423828	-16.385653
-6604.908883	4657.447500	1624.388672	53.950718
-6604.908883	4657.447500	1623.353516	145.040543
-6604.908883	4657.447500	1622.318359	23.726633
-6604.908883	4657.447500	1621.282227	15.548455
-6604.908883	4657.447500	1620.247070	14.298230
-6604.908883	4657.447500	1619.210938	-3.099854
-6604.908883	4657.447500	1618.174805	30.254919
-6604.908883	4657.447500	1617.137695	5.944607
-6604.908883	4657.447500	1616.101563	73.873238
-6604.908883	4657.447500	1615.064453	68.009201
-6604.908883	4657.447500	1614.027344	80.587555
-6604.908883	4657.447500	1612.990234	102.380203
-6604.908883	4657.447500	1611.953125	27.403296
-6604.908883	4657.447500	1610.916016	-24.508028
-6604.908883	4657.447500	1609.877930	-53.368134
-6604.908883	4657.447500	1608.839844	76.659821
-6604.908883	4657.447500	1607.801758	17.868378
-6604.908883	4657.447500	1606.763672	-8.675049
-6604.908883	4657.447500	1605.724609	-53.616276
-6604.908883	4657.447500	1604.685547	-24.914127
-6604.908883	4657.447500	1603.646484	26.782156
-6604.908883	4657.447500	1602.607422	57.762043
-6604.908883	4657.447500	1601.568359	38.145691
-6604.908883	4657.447500	1600.528320	2.445860
-6604.908883	4657.447500	1599.489258	17.330402
-6604.908883	4657.447500	1598.449219	18.422447
-6604.908883	4657.447500	1597.408203	90.741325
-6604.908883	4657.447500	1596.368164	48.178028
-6604.908883	4657.447500	1595.327148	51.567238
-6604.908883	4657.447500	1594.287109	114.661133
-6604.908883	4657.447500	1593.246094	23.913546
-6604.908883	4657.447500	1592.204102	25.017525
-6604.908883	4657.447500	1591.163086	101.856697
-6604.908883	4657.447500	1590.121094	132.778702
-6604.908883	4657.447500	1589.079102	113.223259
-6604.908883	4657.447500	1588.037109	63.862255
-6604.908883	4657.447500	1586.995117	67.265068
-6604.908883	4657.447500	1585.953125	47.742889
-6604.908883	4657.447500	1584.910156	87.828293
-6604.908883	4657.447500	1583.867188	109.566895
-6604.908883	4657.447500	1582.824219	60.269283
-6604.908883	4657.447500	1581.781250	31.611883
-6604.908883	4657.447500	1580.737305	0.677804
-6604.908883	4657.447500	1579.693359	77.387665
-6604.908883	4657.447500	1578.649414	76.227089
-6604.908883	4657.447500	1577.605469	107.117241
-6604.908883	4657.447500	1576.561523	96.803276
-6604.908883	4657.447500	1575.516602	79.631386
-6604.908883	4657.447500	1574.472656	19.003504
-6604.908883	4657.447500	1573.427734	52.180595
-6604.908883	4657.447500	1572.381836	76.200050
-6604.908883	4657.447500	1571.336914	40.768345
-6604.908883	4657.447500	1570.291016	30.498520
-6604.908883	4657.447500	1569.246094	47.662834
-6604.908883	4657.447500	1568.200195	53.398132
-6604.908883	4657.447500	1567.153320	-16.257706
-6604.908883	4657.447500	1566.107422	28.325466
-6604.908883	4657.447500	1565.060547	20.368990
-6604.908883	4657.447500	1564.013672	53.517780
-6604.908883	4657.447500	1562.966797	63.829105
-6604.908883	4657.447500	1561.919922	7.951915
-6604.908883	4657.447500	1560.872070	50.221573
-6604.908883	4657.447500	1559.825195	21.753899
-6604.908883	4657.447500	1558.777344	-22.666615
-6604.908883	4657.447500	1557.729492	26.437073
-6604.908883	4657.447500	1556.680664	-33.920822
-6604.908883	4657.447500	1555.632813	-7.623300
-6604.908883	4657.447500	1554.583984	-33.754974
-6604.908883	4657.447500	1553.535156	10.769205
-6604.908883	4657.447500	1552.486328	39.331577
-6604.908883	4657.447500	1551.436523	42.829308
-6604.908883	4657.447500	1550.387695	5.336632
-6604.908883	4657.447500	1549.337891	31.617111
-6604.908883	4657.447500	1548.288086	-14.957603
-6604.908883	4657.447500	1547.238281	27.256907
-6604.908883	4657.447500	1546.187500	46.701771
-6604.908883	4657.447500	1545.136719	-2.112459
-6604.908883	4657.447500	1544.086914	94.679985
-6604.908883	4657.447500	1543.035156	45.882706
-6604.908883	4657.447500	1541.984375	15.300022
-6604.908883	4657.447500	1540.933594	-8.446522
-6604.908883	4657.447500	1539.881836	108.741814
-6604.908883	4657.447500	1538.830078	48.633621
-6604.908883	4657.447500	1537.778320	-2.358634
-6604.908883	4657.447500	1536.725586	26.178379
-6604.908883	4657.447500	1535.673828	43.352951
-6604.908883	4657.447500	1534.621094	-43.927944
-6604.908883	4657.447500	1533.568359	16.395760
-6604.908883	4657.447500	1532.515625	-32.250771
-6604.908883	4657.447500	1531.461914	-46.834446
-6604.908883	4657.447500	1530.409180	61.113338
-6604.908883	4657.447500	1529.355469	1.155840
-6604.908883	4657.447500	1528.301758	-11.145801
-6604.908883	4657.447500	1527.247070	33.249947
-6604.908883	4657.447500	1526.193359	-33.455940
-6604.908883	4657.447500	1525.138672	-59.331997
-6604.908883	4657.447500	1524.083984	-3.609956
-6604.908883	4657.447500	1523.029297	-15.879181
-6604.908883	4657.447500	1521.974609	35.289516
-6604.908883	4657.447500	1520.918945	59.262882
-6604.908883	4657.447500	1519.863281	-34.519566
-6604.908883	4657.447500	1518.807617	0.785912
-6604.908883	4657.447500	1517.751953	72.297829
-6604.908883	4657.447500	1516.696289	46.472721
-6604.908883	4657.447500	1515.639648	-58.530910
-6604.908883	4657.447500	1514.583008	33.321163
-6604.908883	4657.447500	1513.526367	-24.133921
-6604.908883	4657.447500	1512.469727	-63.472225
-6604.908883	4657.447500	1511.412109	21.554857
-6604.908883	4657.447500	1510.355469	38.740837
-6604.908883	4657.447500	1509.297852	-43.514465
-6604.908883	4657.447500	1508.240234	-42.131809
-6604.908883	4657.447500	1507.181641	4.434667
-6604.908883	4657.447500	1506.124023	3.556195
-6604.908883	4657.447500	1505.065430	-40.223572
-6604.908883	4657.447500	1504.006836	6.326196
-6604.908883	4657.447500	1502.948242	-32.914764
-6604.908883	4657.447500	1501.888672	-29.257504
-6604.908883	4657.447500	1500.830078	24.042578
-6604.908883	4657.447500	1499.770508	14.158930
-6604.908883	4657.447500	1498.710938	-27.293608
-6604.908883	4657.447500	1497.650391	16.964254
-6604.908883	4657.447500	1496.590820	34.153770
-6604.908883	4657.447500	1495.530273	-20.792545
-6604.908883	4657.447500	1494.469727	0.911632
-6604.908883	4657.447500	1493.409180	-11.187700
-6604.908883	4657.447500	1492.348633	37.546391
-6604.908883	4657.447500	1491.287109	-6.081643
-6604.908883	4657.447500	1490.225586	89.928261
-6604.908883	4657.447500	1489.164063	73.331322
-6604.908883	4657.447500	1488.102539	74.752388
-6604.908883	4657.447500	1487.041016	114.435440
-6604.908883	4657.447500	1485.978516	93.353043
-6604.908883	4657.447500	1484.916016	119.524651
-6604.908883	4657.447500	1483.853516	84.961571
-6604.908883	4657.447500	1482.791016	201.080765
-6604.908883	4657.447500	1481.727539	58.605297
-6604.908883	4657.447500	1480.664063	107.249786
-6604.908883	4657.447500	1479.600586	137.905670
-6604.908883	4657.447500	1478.537109	74.196587
-6604.908883	4657.447500	1477.473633	28.484793
-6604.908883	4657.447500	1476.409180	99.565506
-6604.908883	4657.447500	1475.344727	188.579468
-6604.908883	4657.447500	1474.280273	106.963913
-6604.908883	4657.447500	1473.215820	106.182907
-6604.908883	4657.447500	1472.151367	204.104691
-6604.908883	4657.447500	1471.085938	189.837372
-6604.908883	4657.447500	1470.020508	173.327942
-6604.908883	4657.447500	1468.955078	73.989212
-6604.908883	4657.447500	1467.888672	115.848106
-6604.908883	4657.447500	1466.823242	137.394958
-6604.908883	4657.447500	1465.756836	107.691849
-6604.908883	4657.447500	1464.690430	153.884247
-6604.908883	4657.447500	1463.624023	148.579056
-6604.908883	4657.447500	1462.556641	123.228241
-6604.908883	4657.447500	1461.490234	64.305771
-6604.908883	4657.447500	1460.422852	97.185509
-6604.908883	4657.447500	1459.355469	105.301353
-6604.908883	4657.447500	1458.287109	107.035973
-6604.908883	4657.447500	1457.219727	119.625023
-6604.908883	4657.447500	1456.151367	132.144516
-6604.908883	4657.447500	1455.083008	100.312683
-6604.908883	4657.447500	1454.014648	105.910698
-6604.908883	4657.447500	1452.945313	154.331131
-6604.908883	4657.447500	1451.876953	124.669830
-6604.908883	4657.447500	1450.807617	130.651291
-6604.908883	4657.447500	1449.738281	54.254677
-6604.908883	4657.447500	1448.668945	51.038544
-6604.908883	4657.447500	1447.598633	129.999695
-6604.908883	4657.447500	1446.528320	98.554939
-6604.908883	4657.447500	1445.458008	73.266212
-6604.908883	4657.447500	1444.387695	56.921932
-6604.908883	4657.447500	1443.317383	71.287918
-6604.908883	4657.447500	1442.246094	15.110366
-6604.908883	4657.447500	1441.174805	25.612827
-6604.908883	4657.447500	1440.103516	71.462608
-6604.908883	4657.447500	1439.032227	48.513783
-6604.908883	4657.447500	1437.960938	125.646179
-6604.908883	4657.447500	1436.888672	58.132133
-6604.908883	4657.447500	1435.816406	112.447746
-6604.908883	4657.447500	1434.744141	140.623474
-6604.908883	4657.447500	1433.670898	87.269684
-6604.908883	4657.447500	1432.598633	111.114357
-6604.908883	4657.447500	1431.525391	101.177559
-6604.908883	4657.447500	1430.452148	-6.680449
-6604.908883	4657.447500	1429.378906	56.666977
-6604.908883	4657.447500	1428.304688	52.924191
-6604.908883	4657.447500	1427.231445	6.004103
-6604.908883	4657.447500	1426.157227	36.822433
-6604.908883	4657.447500	1425.083008	17.878452
-6604.908883	4657.447500	1424.007813	60.082451
-6604.908883	4657.447500	1422.933594	31.461222
-6604.908883	4657.447500	1421.858398	-14.362481
-6604.908883	4657.447500	1420.783203	77.551529
-6604.908883	4657.447500	1419.708008	29.541340
-6604.908883	4657.447500	1418.631836	43.332172
-6604.908883	4657.447500	1417.555664	-47.469154
-6604.908883	4657.447500	1416.479492	43.568695
-6604.908883	4657.447500	1415.403320	72.575058
-6604.908883	4657.447500	1414.327148	68.151199
-6604.908883	4657.447500	1413.250000	-2.970932
-6604.908883	4657.447500	1412.173828	19.972136
-6604.908883	4657.447500	1411.096680	111.423485
-6604.908883	4657.447500	1410.018555	10.490230
-6604.908883	4657.447500	1408.941406	15.518981
-6604.908883	4657.447500	1407.863281	36.828545
-6604.908883	4657.447500	1406.785156	0.776221
-6604.908883	4657.447500	1405.707031	114.467781
-6604.908883	4657.447500	1404.628906	-3.923365
-6604.908883	4657.447500	1403.549805	-22.265734
-6604.908883	4657.447500	1402.470703	19.140007
-6604.908883	4657.447500	1401.391602	21.825665
-6604.908883	4657.447500	1400.312500	-7.268392
-6604.908883	4657.447500	1399.233398	9.785762
-6604.908883	4657.447500	1398.153320	18.985699
-6604.908883	4657.447500	1397.073242	50.737293
-6604.908883	4657.447500	1395.993164	-12.731722
-6604.908883	4657.447500	1394.913086	63.217144
-6604.908883	4657.447500	1393.832031	83.622963
-6604.908883	4657.447500	1392.750977	-17.521713
-6604.908883	4657.447500	1391.669922	12.032816
-6604.908883	4657.447500	1390.588867	-23.272589
-6604.908883	4657.447500	1389.506836	27.635082
-6604.908883	4657.447500	1388.425781	33.679710
-6604.908883	4657.447500	1387.343750	54.612350
-6604.908883	4657.447500	1386.261719	42.543354
-6604.908883	4657.447500	1385.178711	41.916573
-6604.908883	4657.447500	1384.096680	37.493668
-6604.908883	4657.447500	1383.013672	45.069878
-6604.908883	4657.447500	1381.930664	76.041687
-6604.908883	4657.447500	1380.846680	51.481976
-6604.908883	4657.447500	1379.763672	-28.242481
-6604.908883	4657.447500	1378.679688	-21.688999
-6604.908883	4657.447500	1377.595703	-34.030666
-6604.908883	4657.447500	1376.511719	-28.900465
-6604.908883	4657.447500	1375.427734	17.448740
-6604.908883	4657.447500	1374.342773	-16.102318
-6604.908883	4657.447500	1373.257813	35.898041
-6604.908883	4657.447500	1372.172852	-31.115915
-6604.908883	4657.447500	1371.087891	-61.537060
-6604.908883	4657.447500	1370.001953	50.456871
-6604.908883	4657.447500	1368.916992	18.388308
-6604.908883	4657.447500	1367.831055	15.934539
-6604.908883	4657.447500	1366.744141	33.612110
-6604.908883	4657.447500	1365.658203	52.559921
-6604.908883	4657.447500	1364.571289	96.992973
-6604.908883	4657.447500	1363.484375	-55.431728
-6604.908883	4657.447500	1362.397461	-16.410639
-6604.908883	4657.447500	1361.310547	49.423500
-6604.908883	4657.447500	1360.222656	13.816883
-6604.908883	4657.447500	1359.135742	1.282586
-6604.908883	4657.447500	1358.047852	10.007382
-6604.908883	4657.447500	1356.958984	29.893440
-6604.908883	4657.447500	1355.871094	21.541250
-6604.908883	4657.447500	1354.782227	16.171877
-6604.908883	4657.447500	1353.693359	35.617771
-6604.908883	4657.447500	1352.604492	14.815895
-6604.908883	4657.447500	1351.515625	65.852264
-6604.908883	4657.447500	1350.425781	-46.104088
-6604.908883	4657.447500	1349.335938	-14.359621
-6604.908883	4657.447500	1348.246094	-3.091503
-6604.908883	4657.447500	1347.156250	79.437523
-6604.908883	4657.447500	1346.066406	44.723518
-6604.908883	4657.447500	1344.975586	-14.165948
-6604.908883	4657.447500	1343.884766	-62.070518
-6604.908883	4657.447500	1342.793945	36.779789
-6604.908883	4657.447500	1341.702148	5.653227
-6604.908883	4657.447500	1340.611328	6.470063
-6604.908883	4657.447500	1339.519531	69.507088
-6604.908883	4657.447500	1338.427734	6.527699
-6604.908883	4657.447500	1337.334961	-22.662256
-6604.908883	4657.447500	1336.243164	-3.509433
-6604.908883	4657.447500	1335.150391	-31.416624
-6604.908883	4657.447500	1334.057617	2.123109
-6604.908883	4657.447500	1332.964844	46.884022
-6604.908883	4657.447500	1331.871094	-8.080489
-6604.908883	4657.447500	1330.778320	-3.255623
-6604.908883	4657.447500	1329.684570	-23.944347
-6604.908883	4657.447500	1328.590820	42.553165
-6604.908883	4657.447500	1327.496094	-35.737648
-6604.908883	4657.447500	1326.402344	22.989540
-6604.908883	4657.447500	1325.307617	11.885111
-6604.908883	4657.447500	1324.212891	-13.117814
-6604.908883	4657.447500	1323.117188	7.205770
-6604.908883	4657.447500	1322.022461	24.879631
-6604.908883	4657.447500	1320.926758	-2.652415
-6604.908883	4657.447500	1319.831055	37.097576
-6604.908883	4657.447500	1318.735352	-12.692081
-6604.908883	4657.447500	1317.638672	60.632439
-6604.908883	4657.447500	1316.542969	26.708099
-6604.908883	4657.447500	1315.446289	7.580980
-6604.908883	4657.447500	1314.349609	-1.480069
-6604.908883	4657.447500	1313.251953	66.410698
-6604.908883	4657.447500	1312.155273	56.958271
-6604.908883	4657.447500	1311.057617	45.897297
-6604.908883	4657.447500	1309.959961	23.516670
-6604.908883	4657.447500	1308.862305	31.811968
-6604.908883	4657.447500	1307.763672	62.538551
-6604.908883	4657.447500	1306.665039	43.803314
-6604.908883	4657.447500	1305.566406	93.430817
-6604.908883	4657.447500	1304.467773	-55.650974
-6604.908883	4657.447500	1303.369141	52.766899
-6604.908883	4657.447500	1302.269531	-9.264440
-6604.908883	4657.447500	1301.169922	22.733751
-6604.908883	4657.447500	1300.070313	66.393906
-6604.908883	4657.447500	1298.970703	22.538139
-6604.908883	4657.447500	1297.870117	49.944134
-6604.908883	4657.447500	1296.769531	97.338333
-6604.908883	4657.447500	1295.668945	18.246710
-6604.908883	4657.447500	1294.568359	36.157909
-6604.908883	4657.447500	1293.466797	65.911728
-6604.908883	4657.447500	1292.366211	-32.323204
-6604.908883	4657.447500	1291.264648	-3.727026
-6604.908883	4657.447500	1290.162109	135.135910
-6604.908883	4657.447500	1289.060547	37.442326
-6604.908883	4657.447500	1287.958008	47.367161
-6604.908883	4657.447500	1286.855469	28.959400
-6604.908883	4657.447500	1285.752930	53.922779
-6604.908883	4657.447500	1284.650391	-4.239047
-6604.908883	4657.447500	1283.546875	-56.612579
-6604.908883	4657.447500	1282.444336	-38.660824
-6604.908883	4657.447500	1281.339844	-3.409269
-6604.908883	4657.447500	1280.236328	-52.978302
-6604.908883	4657.447500	1279.132813	-39.080036
-6604.908883	4657.447500	1278.028320	10.085123
-6604.908883	4657.447500	1276.923828	-2.345536
-6604.908883	4657.447500	1275.819336	-44.847843
-6604.908883	4657.447500	1274.713867	-52.997700
-6604.908883	4657.447500	1273.608398	-7.677705
-6604.908883	4657.447500	1272.503906	25.032181
-6604.908883	4657.447500	1271.397461	-11.882649
-6604.908883	4657.447500	1270.291992	-33.228745
-6604.908883	4657.447500	1269.185547	12.366591
-6604.908883	4657.447500	1268.080078	17.971357
-6604.908883	4657.447500	1266.972656	-13.098408
-6604.908883	4657.447500	1265.866211	-18.732456
-6604.908883	4657.447500	1264.759766	-11.208003
-6604.908883	4657.447500	1263.652344	23.674286
-6604.908883	4657.447500	1262.544922	-19.166134
-6604.908883	4657.447500	1261.436523	-16.079861
-6604.908883	4657.447500	1260.329102	36.074162
-6604.908883	4657.447500	1259.220703	-6.879285
-6604.908883	4657.447500	1258.112305	-4.210174
-6604.908883	4657.447500	1257.003906	45.603970
-6604.908883	4657.447500	1255.895508	66.049377
-6604.908883	4657.447500	1254.786133	39.629303
-6604.908883	4657.447500	1253.676758	36.113956
-6604.908883	4657.447500	1252.567383	31.522276
-6604.908883	4657.447500	1251.458008	-7.612634
-6604.908883	4657.447500	1250.347656	51.441242
-6604.908883	4657.447500	1249.237305	45.385639
-6604.908883	4657.447500	1248.126953	117.873177
-6604.908883	4657.447500	1247.016602	-34.182922
-6604.908883	4657.447500	1245.905273	34.614147
-6604.908883	4657.447500	1244.793945	-46.308147
-6604.908883	4657.447500	1243.682617	62.251144
-6604.908883	4657.447500	1242.571289	2.743474
-6604.908883	4657.447500	1241.459961	-45.603107
-6604.908883	4657.447500	1240.347656	28.971592
-6604.908883	4657.447500	1239.235352	12.620891
-6604.908883	4657.447500	1238.123047	26.977755
-6604.908883	4657.447500	1237.009766	15.468628
-6604.908883	4657.447500	1235.897461	58.267334
-6604.908883	4657.447500	1234.784180	20.159218
-6604.908883	4657.447500	1233.670898	48.544079
-6604.908883	4657.447500	1232.556641	53.498863
-6604.908883	4657.447500	1231.443359	20.696695
-6604.908883	4657.447500	1230.329102	16.684246
-6604.908883	4657.447500	1229.214844	84.501228
-6604.908883	4657.447500	1228.099609	47.415005
-6604.908883	4657.447500	1226.985352	27.574196
-6604.908883	4657.447500	1225.870117	55.313049
-6604.908883	4657.447500	1224.754883	-16.660254
-6604.908883	4657.447500	1223.639648	-6.026450
-6604.908883	4657.447500	1222.523438	-1.746580
-6604.908883	4657.447500	1221.408203	-14.767695
-6604.908883	4657.447500	1220.291992	23.241377
-6604.908883	4657.447500	1219.174805	-20.622396
-6604.908883	4657.447500	1218.058594	-12.482565
-6604.908883	4657.447500	1216.941406	-18.375154
-6604.908883	4657.447500	1215.824219	-3.890657
-6604.908883	4657.447500	1214.707031	-16.003263
-6604.908883	4657.447500	1213.589844	-46.638096
-6604.908883	4657.447500	1212.471680	-41.871433
-6604.908883	4657.447500	1211.353516	-30.268372
-6604.908883	4657.447500	1210.235352	-3.045161
-6604.908883	4657.447500	1209.117188	3.965126
-6604.908883	4657.447500	1207.998047	0.971108
-6604.908883	4657.447500	1206.878906	-40.105717
-6604.908883	4657.447500	1205.759766	-28.655794
-6604.908883	4657.447500	1204.640625	6.276504
-6604.908883	4657.447500	1203.520508	28.400768
-6604.908883	4657.447500	1202.401367	44.019924
-6604.908883	4657.447500	1201.281250	53.791008
-6604.908883	4657.447500	1200.160156	43.866661
-6604.908883	4657.447500	1199.040039	11.600974
-6604.908883	4657.447500	1197.918945	-6.220611
-6604.908883	4657.447500	1196.797852	11.081121
-6604.908883	4657.447500	1195.676758	16.559462
-6604.908883	4657.447500	1194.555664	18.397705
-6604.908883	4657.447500	1193.433594	55.938488
-6604.908883	4657.447500	1192.311523	56.327591
-6604.908883	4657.447500	1191.189453	52.292137
-6604.908883	4657.447500	1190.066406	137.518265
-6604.908883	4657.447500	1188.944336	157.477051
-6604.908883	4657.447500	1187.821289	96.938889
-6604.908883	4657.447500	1186.698242	222.341080
-6604.908883	4657.447500	1185.574219	258.054718
-6604.908883	4657.447500	1184.451172	275.114319
-6604.908883	4657.447500	1183.327148	272.299347
-6604.908883	4657.447500	1182.203125	328.626343
-6604.908883	4657.447500	1181.078125	279.725372
-6604.908883	4657.447500	1179.954102	429.241272
-6604.908883	4657.447500	1178.829102	399.576996
-6604.908883	4657.447500	1177.704102	463.551575
-6604.908883	4657.447500	1176.579102	426.534943
-6604.908883	4657.447500	1175.453125	460.438965
-6604.908883	4657.447500	1174.327148	421.196411
-6604.908883	4657.447500	1173.201172	384.349884
-6604.908883	4657.447500	1172.075195	304.838898
-6604.908883	4657.447500	1170.949219	237.571274
-6604.908883	4657.447500	1169.822266	283.277924
-6604.908883	4657.447500	1168.695313	230.547180
-6604.908883	4657.447500	1167.568359	159.850815
-6604.908883	4657.447500	1166.440430	120.182213
-6604.908883	4657.447500	1165.313477	112.672653
-6604.908883	4657.447500	1164.185547	13.197882
-6604.908883	4657.447500	1163.057617	65.173607
-6604.908883	4657.447500	1161.928711	-5.297391
-6604.908883	4657.447500	1160.800781	-6.927474
-6604.908883	4657.447500	1159.671875	32.236992
-6604.908883	4657.447500	1158.541992	-9.430614
-6604.908883	4657.447500	1157.413086	15.654596
-6604.908883	4657.447500	1156.283203	13.538418
-6604.908883	4657.447500	1155.154297	17.322578
-6604.908883	4657.447500	1154.023438	58.564873
-6604.908883	4657.447500	1152.893555	-19.753489
-6604.908883	4657.447500	1151.763672	-85.143730
-6604.908883	4657.447500	1150.632813	14.483993
-6604.908883	4657.447500	1149.501953	-2.765392
-6604.908883	4657.447500	1148.370117	-30.006742
-6604.908883	4657.447500	1147.239258	-17.985510
-6604.908883	4657.447500	1146.107422	5.899546
-6604.908883	4657.447500	1144.975586	10.836722
-6604.908883	4657.447500	1143.843750	34.099926
-6604.908883	4657.447500	1142.710938	8.787683
-6604.908883	4657.447500	1141.578125	2.559237
-6604.908883	4657.447500	1140.445313	44.007221
-6604.908883	4657.447500	1139.312500	50.615131
-6604.908883	4657.447500	1138.178711	74.904236
-6604.908883	4657.447500	1137.045898	121.614540
-6604.908883	4657.447500	1135.912109	86.081932
-6604.908883	4657.447500	1134.777344	69.041267
-6604.908883	4657.447500	1133.643555	114.287575
-6604.908883	4657.447500	1132.508789	130.996872
-6604.908883	4657.447500	1131.374023	165.358032
-6604.908883	4657.447500	1130.239258	117.661949
-6604.908883	4657.447500	1129.104492	139.010025
-6604.908883	4657.447500	1127.968750	183.259277
-6604.908883	4657.447500	1126.833008	172.910812
-6604.908883	4657.447500	1125.697266	199.331345
-6604.908883	4657.447500	1124.560547	132.833786
-6604.908883	4657.447500	1123.424805	150.716919
-6604.908883	4657.447500	1122.288086	137.083542
-6604.908883	4657.447500	1121.151367	90.406120
-6604.908883	4657.447500	1120.013672	21.559965
-6604.908883	4657.447500	1118.876953	36.871655
-6604.908883	4657.447500	1117.739258	24.439762
-6604.908883	4657.447500	1116.601563	58.294819
-6604.908883	4657.447500	1115.462891	44.995270
-6604.908883	4657.447500	1114.324219	81.193100
-6604.908883	4657.447500	1113.186523	21.519650
-6604.908883	4657.447500	1112.046875	66.034828
-6604.908883	4657.447500	1110.908203	47.276974
-6604.908883	4657.447500	1109.769531	32.360802
-6604.908883	4657.447500	1108.629883	88.924149
-6604.908883	4657.447500	1107.490234	-8.750061
-6604.908883	4657.447500	1106.349609	29.146669
-6604.908883	4657.447500	1105.209961	17.319601
-6604.908883	4657.447500	1104.069336	58.712872
-6604.908883	4657.447500	1102.928711	88.244049
-6604.908883	4657.447500	1101.787109	16.884714
-6604.908883	4657.447500	1100.646484	70.247086
-6604.908883	4657.447500	1099.504883	67.434761
-6604.908883	4657.447500	1098.363281	97.297783
-6604.908883	4657.447500	1097.221680	94.121910
-6604.908883	4657.447500	1096.079102	168.050751
-6604.908883	4657.447500	1094.936523	169.527954
-6604.908883	4657.447500	1093.793945	147.719910
-6604.908883	4657.447500	1092.651367	124.375237
-6604.908883	4657.447500	1091.507813	201.575958
-6604.908883	4657.447500	1090.364258	210.997375
-6604.908883	4657.447500	1089.220703	245.615921
-6604.908883	4657.447500	1088.077148	192.346512
-6604.908883	4657.447500	1086.933594	372.716583
-6604.908883	4657.447500	1085.789063	319.731262
-6604.908883	4657.447500	1084.644531	331.633972
-6604.908883	4657.447500	1083.499023	375.591187
-6604.908883	4657.447500	1082.354492	342.172852
-6604.908883	4657.447500	1081.208984	395.665955
-6604.908883	4657.447500	1080.063477	379.007751
-6604.908883	4657.447500	1078.917969	329.976624
-6604.908883	4657.447500	1077.771484	366.527008
-6604.908883	4657.447500	1076.625977	273.774109
-6604.908883	4657.447500	1075.479492	272.051453
-6604.908883	4657.447500	1074.332031	271.271210
-6604.908883	4657.447500	1073.185547	90.693413
-6604.908883	4657.447500	1072.038086	168.879578
-6604.908883	4657.447500	1070.890625	182.432648
-6604.908883	4657.447500	1069.743164	191.576370
-6604.908883	4657.447500	1068.594727	166.999084
-6604.908883	4657.447500	1067.447266	213.793427
-6604.908883	4657.447500	1066.298828	106.213058
-6604.908883	4657.447500	1065.149414	75.765053
-6604.908883	4657.447500	1064.000977	166.004303
-6604.908883	4657.447500	1062.851563	137.750916
-6604.908883	4657.447500	1061.702148	115.678787
-6604.908883	4657.447500	1060.552734	70.778023
-6604.908883	4657.447500	1059.402344	152.096146
-6604.908883	4657.447500	1058.252930	150.565781
-6604.908883	4657.447500	1057.102539	66.906021
-6604.908883	4657.447500	1055.951172	65.927162
-6604.908883	4657.447500	1054.800781	104.913223
-6604.908883	4657.447500	1053.649414	108.063087
-6604.908883	4657.447500	1052.498047	10.023742
-6604.908883	4657.447500	1051.346680	45.046261
-6604.908883	4657.447500	1050.194336	39.981346
-6604.908883	4657.447500	1049.042969	20.568708
-6604.908883	4657.447500	1047.890625	77.352539
-6604.908883	4657.447500	1046.738281	26.676079
-6604.908883	4657.447500	1045.584961	101.482208
-6604.908883	4657.447500	1044.431641	13.041510
-6604.908883	4657.447500	1043.278320	11.318681
-6604.908883	4657.447500	1042.125000	-23.600735
-6604.908883	4657.447500	1040.971680	44.236851
-6604.908883	4657.447500	1039.817383	153.331985
-6604.908883	4657.447500	1038.663086	94.356705
-6604.908883	4657.447500	1037.508789	108.348564
-6604.908883	4657.447500	1036.353516	157.742584
-6604.908883	4657.447500	1035.198242	215.507034
-6604.908883	4657.447500	1034.042969	198.199371
-6604.908883	4657.447500	1032.887695	88.984360
-6604.908883	4657.447500	1031.732422	157.230133
-6604.908883	4657.447500	1030.576172	136.910568
-6604.908883	4657.447500	1029.419922	165.527832
-6604.908883	4657.447500	1028.263672	179.093445
-6604.908883	4657.447500	1027.106445	31.506540
-6604.908883	4657.447500	1025.949219	51.718170
-6604.908883	4657.447500	1024.792969	69.439613
-6604.908883	4657.447500	1023.634766	79.188866
-6604.908883	4657.447500	1022.477539	93.436020
-6604.908883	4657.447500	1021.319336	-11.046504
-6604.908883	4657.447500	1020.161133	-25.123119
-6604.908883	4657.447500	1019.002930	50.733593
-6604.908883	4657.447500	1017.843750	-4.280915
-6604.908883	4657.447500	1016.684570	6.928980
-6604.908883	4657.447500	1015.525391	-0.309254
-6604.908883	4657.447500	1014.366211	71.586250
-6604.908883	4657.447500	1013.207031	26.142778
-6604.908883	4657.447500	1012.046875	-10.582095
-6604.908883	4657.447500	1010.886719	15.759626
-6604.908883	4657.447500	1009.726563	59.594410
-6604.908883	4657.447500	1008.565430	110.982895
-6604.908883	4657.447500	1007.404297	16.751816
-6604.908883	4657.447500	1006.243164	44.624622
-6604.908883	4657.447500	1005.082031	70.531685
-6604.908883	4657.447500	1003.920898	45.399818
-6604.908883	4657.447500	1002.758789	54.684387
-6604.908883	4657.447500	1001.596680	11.262947
-6604.908883	4657.447500	1000.433594	38.099915
-6604.908883	4657.447500	999.271484	40.835262
-6604.908883	4657.447500	998.108398	56.498234
-6604.908883	4657.447500	996.945313	16.142963
-6604.908883	4657.447500	995.782227	-23.929949
-6604.908883	4657.447500	994.618164	-22.242243
-6604.908883	4657.447500	993.454102	58.337818
-6604.908883	4657.447500	992.290039	-18.821911
-6604.908883	4657.447500	991.125977	52.132748
-6604.908883	4657.447500	989.960938	-21.662672
-6604.908883	4657.447500	988.796875	-12.306465
-6604.908883	4657.447500	987.630859	-46.054691
-6604.908883	4657.447500	986.465820	108.965988
-6604.908883	4657.447500	985.300781	77.668228
-6604.908883	4657.447500	984.134766	-17.988054
-6604.908883	4657.447500	982.968750	-71.039574
-6604.908883	4657.447500	981.801758	55.483395
-6604.908883	4657.447500	980.635742	-4.110291
-6604.908883	4657.447500	979.468750	-44.216419
-6604.908883	4657.447500	978.301758	-69.515945
-6604.908883	4657.447500	977.133789	54.039284
-6604.908883	4657.447500	975.966797	143.440018
-6604.908883	4657.447500	974.798828	150.313507
-6604.908883	4657.447500	973.630859	79.712410
-6604.908883	4657.447500	972.461914	87.922325
-6604.908883	4657.447500	971.293945	46.358452
-6604.908883	4657.447500	970.125000	23.473602
-6604.908883	4657.447500	968.956055	65.310829
-6604.908883	4657.447500	967.786133	37.663483
-6604.908883	4657.447500	966.617188	-61.981445
-6604.908883	4657.447500	965.447266	-15.454014
-6604.908883	4657.447500	964.276367	18.886099
-6604.908883	4657.447500	963.106445	53.409828
-6604.908883	4657.447500	961.935547	62.313686
-6604.908883	4657.447500	960.764648	-0.797858
-6604.908883	4657.447500	959.593750	73.279800
-6604.908883	4657.447500	958.422852	0.962453
-6604.908883	4657.447500	957.250977	18.278294
-6604.908883	4657.447500	956.079102	86.517654
-6604.908883	4657.447500	954.907227	20.862543
-6604.908883	4657.447500	953.734375	102.481216
-6604.908883	4657.447500	952.562500	-33.682156
-6604.908883	4657.447500	951.389648	-18.429745
-6604.908883	4657.447500	950.215820	18.362278
-6604.908883	4657.447500	949.042969	6.009812
-6604.908883	4657.447500	947.869141	32.109943
-6604.908883	4657.447500	946.695313	8.885131
-6604.908883	4657.447500	945.521484	16.131386
-6604.908883	4657.447500	944.346680	-22.025665
-6604.908883	4657.447500	943.172852	19.007565
-6604.908883	4657.447500	941.998047	64.382370
-6604.908883	4657.447500	940.822266	-3.358005
-6604.908883	4657.447500	939.647461	12.255913
-6604.908883	4657.447500	938.471680	1.970711
-6604.908883	4657.447500	937.295898	60.339287
-6604.908883	4657.447500	936.119141	13.951828
-6604.908883	4657.447500	934.943359	87.160995
-6604.908883	4657.447500	933.766602	77.105324
-6604.908883	4657.447500	932.589844	30.796019
-6604.908883	4657.447500	931.413086	10.185452
-6604.908883	4657.447500	930.235352	-16.857079
-6604.908883	4657.447500	929.057617	7.371609
-6604.908883	4657.447500	927.879883	20.890402
-6604.908883	4657.447500	926.702148	-8.221873
-6604.908883	4657.447500	925.523438	-43.692673
-6604.908883	4657.447500	924.344727	33.861298
-6604.908883	4657.447500	923.166016	17.617006
-6604.908883	4657.447500	921.987305	9.913030
-6604.908883	4657.447500	920.807617	-4.160288
-6604.908883	4657.447500	919.627930	-2.912462
-6604.908883	4657.447500	919.497070	35.191097
-6604.908883	4657.447500	918.331055	70.130699
-6604.908883	4657.447500	917.165039	43.312737
-6604.908883	4657.447500	915.999023	3.746430
-6604.908883	4657.447500	914.833008	8.916234
-6604.908883	4657.447500	913.666016	24.742516
-6604.908883	4657.447500	912.499023	10.787617
-6604.908883	4657.447500	911.332031	1.109101
-6604.908883	4657.447500	910.165039	80.785896
-6604.908883	4657.447500	908.997070	28.597536
-6604.908883	4657.447500	907.830078	67.870277
-6604.908883	4657.447500	906.661133	-20.399137
-6604.908883	4657.447500	905.493164	23.150455
-6604.908883	4657.447500	904.325195	-14.047218
-6604.908883	4657.447500	903.156250	-42.715366
-6604.908883	4657.447500	901.987305	58.207977
-6604.908883	4657.447500	900.818359	-38.386753
-6604.908883	4657.447500	899.648438	-64.862015
-6604.908883	4657.447500	898.478516	19.069576
-6604.908883	4657.447500	897.308594	-47.699348
-6604.908883	4657.447500	896.138672	31.981035
-6604.908883	4657.447500	894.968750	9.816339
-6604.908883	4657.447500	893.797852	17.370667
-6604.908883	4657.447500	892.626953	-38.679501
-6604.908883	4657.447500	891.456055	60.076035
-6604.908883	4657.447500	890.284180	-38.322639
-6604.908883	4657.447500	889.113281	71.018295
-6604.908883	4657.447500	887.941406	17.181801
-6604.908883	4657.447500	886.768555	-17.551296
-6604.908883	4657.447500	885.596680	-5.662372
-6604.908883	4657.447500	884.423828	23.177689
-6604.908883	4657.447500	883.250977	-28.428959
-6604.908883	4657.447500	882.078125	27.948860
-6604.908883	4657.447500	880.905273	67.387955
-6604.908883	4657.447500	879.731445	-3.194303
-6604.908883	4657.447500	878.557617	-10.273325
-6604.908883	4657.447500	877.383789	-6.760957
-6604.908883	4657.447500	876.209961	28.480881
-6604.908883	4657.447500	875.035156	19.328459
-6604.908883	4657.447500	873.860352	-29.965534
-6604.908883	4657.447500	872.685547	51.791904
-6604.908883	4657.447500	871.510742	42.680622
-6604.908883	4657.447500	870.334961	61.048000
-6604.908883	4657.447500	869.159180	119.547058
-6604.908883	4657.447500	867.983398	59.793411
-6604.908883	4657.447500	866.807617	101.406563
-6604.908883	4657.447500	865.630859	35.376637
-6604.908883	4657.447500	864.454102	-13.732145
-6604.908883	4657.447500	863.277344	38.458885
-6604.908883	4657.447500	862.100586	-42.244850
-6604.908883	4657.447500	860.922852	-9.022645
-6604.908883	4657.447500	859.745117	24.197994
-6604.908883	4657.447500	858.567383	15.257389
-6604.908883	4657.447500	857.389648	109.603043
-6604.908883	4657.447500	856.210938	37.460129
-6604.908883	4657.447500	855.032227	110.720901
-6604.908883	4657.447500	853.853516	17.567970
-6604.908883	4657.447500	852.674805	-56.582539
-6604.908883	4657.447500	851.495117	-6.470760
-6604.908883	4657.447500	850.315430	-48.986946
-6604.908883	4657.447500	849.135742	24.275019
-6604.908883	4657.447500	847.956055	36.498951
-6604.908883	4657.447500	846.775391	-5.965173
-6604.908883	4657.447500	845.595703	-18.957375
-6604.908883	4657.447500	844.415039	18.535563
-6604.908883	4657.447500	843.233398	43.410973
-6604.908883	4657.447500	842.052734	-11.589187
-6604.908883	4657.447500	840.871094	-37.133545
-6604.908883	4657.447500	839.689453	38.194576
-6604.908883	4657.447500	838.506836	39.980545
-6604.908883	4657.447500	837.325195	-61.136650
-6604.908883	4657.447500	836.142578	96.072487
-6604.908883	4657.447500	834.959961	62.185482
-6604.908883	4657.447500	833.777344	-15.755708
-6604.908883	4657.447500	832.593750	61.634377
-6604.908883	4657.447500	831.410156	61.373539
-6604.908883	4657.447500	830.226563	8.680979
-6604.908883	4657.447500	829.042969	-83.827621
-6604.908883	4657.447500	827.858398	-21.127619
-6604.908883	4657.447500	826.673828	-2.467969
-6604.908883	4657.447500	825.489258	-19.437824
-6604.908883	4657.447500	824.304688	9.707403
-6604.908883	4657.447500	823.120117	59.798965
-6604.908883	4657.447500	821.934570	15.622507
-6604.908883	4657.447500	820.749023	13.355195
-6604.908883	4657.447500	819.562500	32.035492
-6604.908883	4657.447500	818.376953	48.620262
-6604.908883	4657.447500	817.190430	0.328093
-6604.908883	4657.447500	816.003906	-52.122013
-6604.908883	4657.447500	814.817383	2.148551
-6604.908883	4657.447500	813.629883	-50.265087
-6604.908883	4657.447500	812.442383	-23.187151
-6604.908883	4657.447500	811.254883	47.790749
-6604.908883	4657.447500	810.067383	-23.393574
-6604.908883	4657.447500	808.878906	-6.767053
-6604.908883	4657.447500	807.690430	-34.019291
-6604.908883	4657.447500	806.501953	13.948529
-6604.908883	4657.447500	805.313477	-32.082764
-6604.908883	4657.447500	804.124023	22.141766
-6604.908883	4657.447500	802.934570	13.718387
-6604.908883	4657.447500	801.745117	19.914127
-6604.908883	4657.447500	800.555664	15.677781
-6604.908883	4657.447500	799.365234	-88.697128
-6604.908883	4657.447500	798.175781	-34.493519
-6604.908883	4657.447500	796.985352	36.377808
-6604.908883	4657.447500	795.793945	80.119545
-6604.908883	4657.447500	794.603516	36.289227
-6604.908883	4657.447500	793.412109	2.903656
-6604.908883	4657.447500	792.220703	52.887199
-6604.908883	4657.447500	791.028320	9.103823
-6604.908883	4657.447500	789.836914	21.578810
-6604.908883	4657.447500	788.644531	-82.566650
-6604.908883	4657.447500	787.452148	44.443611
-6604.908883	4657.447500	786.258789	-13.860308
-6604.908883	4657.447500	785.066406	54.813957
-6604.908883	4657.447500	783.873047	36.071129
-6604.908883	4657.447500	782.679688	4.855936
-6604.908883	4657.447500	781.485352	15.255622
-6604.908883	4657.447500	780.291992	-40.892788
-6604.908883	4657.447500	779.097656	96.336967
-6604.908883	4657.447500	777.903320	60.985569
-6604.908883	4657.447500	776.708008	150.343002
-6604.908883	4657.447500	775.512695	117.076538
-6604.908883	4657.447500	774.318359	67.203896
-6604.908883	4657.447500	773.122070	-30.412243
-6604.908883	4657.447500	771.926758	75.503479
-6604.908883	4657.447500	770.730469	-40.757927
-6604.908883	4657.447500	769.534180	-28.284216
-6604.908883	4657.447500	768.337891	23.612045
-6604.908883	4657.447500	767.141602	21.543091
-6604.908883	4657.447500	765.944336	27.773401
-6604.908883	4657.447500	764.747070	100.364037
-6604.908883	4657.447500	763.549805	48.516956
-6604.908883	4657.447500	762.351563	19.495047
-6604.908883	4657.447500	761.154297	27.788067
-6604.908883	4657.447500	759.956055	71.304428
-6604.908883	4657.447500	758.757813	11.214952
-6604.908883	4657.447500	757.558594	34.001625
-6604.908883	4657.447500	756.359375	44.351379
-6604.908883	4657.447500	755.160156	50.553455
-6604.908883	4657.447500	753.960938	73.310173
-6604.908883	4657.447500	752.761719	23.620010
-6604.908883	4657.447500	751.561523	2.917091
-6604.908883	4657.447500	750.361328	67.036072
-6604.908883	4657.447500	749.160156	64.942322
-6604.908883	4657.447500	747.959961	19.419489
-6604.908883	4657.447500	746.758789	93.822838
-6604.908883	4657.447500	745.557617	60.708698
-6604.908883	4657.447500	744.356445	13.138423
-6604.908883	4657.447500	743.154297	56.494232
-6604.908883	4657.447500	741.952148	62.645115
-6604.908883	4657.447500	740.750000	35.744686
-6604.908883	4657.447500	739.547852	116.220871
-6604.908883	4657.447500	738.344727	54.217850
-6604.908883	4657.447500	737.142578	4.617125
-6604.908883	4657.447500	735.939453	-32.585373
-6604.908883	4657.447500	734.735352	25.125914
-6604.908883	4657.447500	733.532227	31.238844
-6604.908883	4657.447500	732.328125	64.153984
-6604.908883	4657.447500	731.124023	97.049088
-6604.908883	4657.447500	729.918945	94.882614
-6604.908883	4657.447500	728.714844	-10.337971
-6604.908883	4657.447500	727.509766	109.075195
-6604.908883	4657.447500	726.303711	61.567486
-6604.908883	4657.447500	725.098633	40.845970
-6604.908883	4657.447500	723.892578	13.950049
-6604.908883	4657.447500	722.686523	65.291412
-6604.908883	4657.447500	721.480469	-60.414173
-6604.908883	4657.447500	720.274414	-33.789303
-6604.908883	4657.447500	719.067383	-7.181698
-6604.908883	4657.447500	717.860352	0.893107
-6604.908883	4657.447500	716.653320	52.145279
-6604.908883	4657.447500	715.445313	35.514919
-6604.908883	4657.447500	714.238281	55.884769
-6604.908883	4657.447500	713.030273	22.800348
-6604.908883	4657.447500	711.821289	47.259769
-6604.908883	4657.447500	710.613281	61.425732
-6604.908883	4657.447500	709.404297	55.037682
-6604.908883	4657.447500	708.195313	13.731648
-6604.908883	4657.447500	706.986328	40.188026
-6604.908883	4657.447500	705.776367	9.148378
-6604.908883	4657.447500	704.566406	13.001082
-6604.908883	4657.447500	703.356445	80.450584
-6604.908883	4657.447500	702.146484	-22.409132
-6604.908883	4657.447500	700.935547	-22.683222
-6604.908883	4657.447500	699.724609	13.942886
-6604.908883	4657.447500	698.513672	36.191837
-6604.908883	4657.447500	697.302734	11.276756
-6604.908883	4657.447500	696.090820	-30.031559
-6604.908883	4657.447500	694.878906	47.500938
-6604.908883	4657.447500	693.666992	-6.110613
-6604.908883	4657.447500	692.455078	22.209339
-6604.908883	4657.447500	691.242188	-37.538334
-6604.908883	4657.447500	690.029297	52.169289
-6604.908883	4657.447500	688.816406	0.603931
-6604.908883	4657.447500	687.602539	37.040249
-6604.908883	4657.447500	686.389648	-18.615973
-6604.908883	4657.447500	685.175781	1.421617
-6604.908883	4657.447500	683.960938	-29.685011
-6604.908883	4657.447500	682.747070	80.282738
-6604.908883	4657.447500	681.532227	73.677452
-6604.908883	4657.447500	680.317383	28.231974
-6604.908883	4657.447500	679.102539	33.874676
-6604.908883	4657.447500	677.886719	25.203876
-6604.908883	4657.447500	676.670898	0.184396
-6604.908883	4657.447500	675.455078	34.380108
-6604.908883	4657.447500	674.239258	17.509310
-6604.908883	4657.447500	673.022461	29.209709
-6604.908883	4657.447500	671.805664	26.606833
-6604.908883	4657.447500	670.588867	30.112583
-6604.908883	4657.447500	669.372070	-21.472214
-6604.908883	4657.447500	668.154297	79.907845
-6604.908883	4657.447500	666.936523	40.542274
-6604.908883	4657.447500	665.718750	58.258762
-6604.908883	4657.447500	664.500977	25.001095
-6604.908883	4657.447500	663.282227	8.046435
-6604.908883	4657.447500	662.063477	42.016148
-6604.908883	4657.447500	660.844727	23.000137
-6604.908883	4657.447500	659.625000	42.670933
-6604.908883	4657.447500	658.405273	-8.939659
-6604.908883	4657.447500	657.185547	75.838112
-6604.908883	4657.447500	655.965820	-8.347857
-6604.908883	4657.447500	654.745117	1.083620
-6604.908883	4657.447500	653.525391	2.358463
-6604.908883	4657.447500	652.303711	-20.785093
-6604.908883	4657.447500	651.083008	57.734711
-6604.908883	4657.447500	649.861328	34.560337
-6604.908883	4657.447500	648.640625	-61.791172
-6604.908883	4657.447500	647.417969	79.641068
-6604.908883	4657.447500	646.196289	70.654434
-6604.908883	4657.447500	644.973633	-5.372871
-6604.908883	4657.447500	643.750977	60.773769
-6604.908883	4657.447500	642.528320	41.601784
-6604.908883	4657.447500	641.305664	-10.055951
-6604.908883	4657.447500	640.082031	13.386519
-6604.908883	4657.447500	638.858398	8.397038
-6604.908883	4657.447500	637.634766	9.480852
-6604.908883	4657.447500	636.410156	-3.647204
-6604.908883	4657.447500	635.185547	54.188400
-6604.908883	4657.447500	633.960938	51.163574
-6604.908883	4657.447500	632.736328	40.017345
-6604.908883	4657.447500	631.510742	32.915077
-6604.908883	4657.447500	630.285156	-32.955437
-6604.908883	4657.447500	629.059570	30.828802
-6604.908883	4657.447500	627.833984	-20.866459
-6604.908883	4657.447500	626.607422	24.636435
-6604.908883	4657.447500	625.380859	80.227127
-6604.908883	4657.447500	624.154297	44.702278
-6604.908883	4657.447500	622.927734	45.600876
-6604.908883	4657.447500	621.700195	52.554516
-6604.908883	4657.447500	620.472656	45.332050
-6604.908883	4657.447500	619.245117	-2.346376
-6604.908883	4657.447500	618.016602	4.569999
-6604.908883	4657.447500	616.788086	-75.449608
-6604.908883	4657.447500	615.559570	-3.879989
-6604.908883	4657.447500	614.331055	-5.093276
-6604.908883	4657.447500	613.101563	50.242512
-6604.908883	4657.447500	611.872070	24.754610
-6604.908883	4657.447500	610.642578	-10.832909
-6604.908883	4657.447500	609.413086	-32.287910
-6604.908883	4657.447500	608.182617	-41.637096
-6604.908883	4657.447500	606.952148	-50.996452
-6604.908883	4657.447500	605.721680	-20.015795
-6604.908883	4657.447500	604.491211	35.142490
-6604.908883	4657.447500	603.259766	13.631972
-6604.908883	4657.447500	602.028320	10.262625
-6604.908883	4657.447500	600.796875	12.928345
-6604.908883	4657.447500	599.564453	1.472621
-6604.908883	4657.447500	598.332031	12.172512
-6604.908883	4657.447500	597.099609	36.955738
-6604.908883	4657.447500	595.867188	-24.889746
-6604.908883	4657.447500	594.633789	-26.312233
-6604.908883	4657.447500	593.400391	18.556580
-6604.908883	4657.447500	592.166992	-43.284161
-6604.908883	4657.447500	590.933594	-2.481429
-6604.908883	4657.447500	589.699219	-9.994286
-6604.908883	4657.447500	588.464844	14.667209
-6604.908883	4657.447500	587.230469	-2.926744
-6604.908883	4657.447500	585.995117	17.677246
-6604.908883	4657.447500	584.760742	66.402390
-6604.908883	4657.447500	583.525391	-19.560003
-6604.908883	4657.447500	582.289063	-17.085793
-6604.908883	4657.447500	581.053711	-36.723141
-6604.908883	4657.447500	579.817383	-44.312397
-6604.908883	4657.447500	578.581055	32.428959
-6604.908883	4657.447500	577.343750	60.943405
-6604.908883	4657.447500	576.107422	11.152477
-6604.908883	4657.447500	574.870117	15.555354
-6604.908883	4657.447500	573.631836	11.920363
-6604.908883	4657.447500	572.394531	82.495026
-6604.908883	4657.447500	571.156250	90.858917
-6604.908883	4657.447500	569.917969	61.112400
-6604.908883	4657.447500	568.679688	-22.757174
-6604.908883	4657.447500	567.440430	33.694462
-6604.908883	4657.447500	566.202148	-14.085494
-6604.908883	4657.447500	564.961914	4.256987
-6604.908883	4657.447500	563.722656	-57.535812
-6604.908883	4657.447500	562.482422	10.851555
-6604.908883	4657.447500	561.243164	-30.914158
-6604.908883	4657.447500	560.001953	23.408813
-6604.908883	4657.447500	558.761719	17.662580
-6604.908883	4657.447500	557.520508	-10.098203
-6604.908883	4657.447500	556.279297	42.158813
-6604.908883	4657.447500	555.038086	-11.611340
-6604.908883	4657.447500	553.795898	-55.368874
-6604.908883	4657.447500	552.554688	16.830658
-6604.908883	4657.447500	551.311523	7.047496
-6604.908883	4657.447500	550.069336	5.253424
-6604.908883	4657.447500	548.826172	1.455406
-6604.908883	4657.447500	547.583984	-4.346022
-6604.908883	4657.447500	546.339844	11.815195
-6604.908883	4657.447500	545.096680	43.934475
-6604.908883	4657.447500	543.852539	-13.790215
-6604.908883	4657.447500	542.608398	4.338470
-6604.908883	4657.447500	541.364258	-11.465635
-6604.908883	4657.447500	540.119141	12.627371
-6604.908883	4657.447500	538.875000	-9.166687
-6604.908883	4657.447500	537.628906	-56.877583
-6604.908883	4657.447500	536.383789	-2.904197
-6604.908883	4657.447500	535.137695	17.158770
-6604.908883	4657.447500	533.892578	23.259111
-6604.908883	4657.447500	532.645508	19.391420
-6604.908883	4657.447500	531.399414	-36.266476
-6604.908883	4657.447500	530.152344	15.630388
-6604.908883	4657.447500	528.905273	-10.146611
-6604.908883	4657.447500	527.658203	-21.982763
-6604.908883	4657.447500	526.410156	-35.807362
-6604.908883	4657.447500	525.163086	-3.867149
-6604.908883	4657.447500	523.914063	-45.545654
-6604.908883	4657.447500	522.666016	-21.578316
-6604.908883	4657.447500	521.416992	-35.403545
-6604.908883	4657.447500	520.167969	62.100883
-6604.908883	4657.447500	518.918945	16.457754
-6604.908883	4657.447500	517.669922	8.587188
-6604.908883	4657.447500	516.419922	-11.201857
-6604.908883	4657.447500	515.169922	36.548660
-6604.908883	4657.447500	513.919922	88.248596
-6604.908883	4657.447500	512.668945	36.683712
-6604.908883	4657.447500	511.417969	30.794338
-6604.908883	4657.447500	510.166992	11.014501
-6604.908883	4657.447500	508.916016	-10.741917
-6604.908883	4657.447500	507.664063	25.037874
-6604.908883	4657.447500	506.412109	9.236587
-6604.908883	4657.447500	505.160156	-0.609840
-6604.908883	4657.447500	503.907227	-8.469460
-6604.908883	4657.447500	502.655273	7.457874
-6604.908883	4657.447500	501.402344	-45.976288
-6604.908883	4657.447500	500.148438	-30.046804
-6604.908883	4657.447500	498.895508	-69.584282
-6604.908883	4657.447500	497.641602	25.556152
-6604.908883	4657.447500	496.387695	-6.055075
-6604.908883	4657.447500	495.132813	15.793274
-6604.908883	4657.447500	493.878906	47.527897
-6604.908883	4657.447500	492.624023	-1.871751
-6604.908883	4657.447500	491.368164	57.550266
-6604.908883	4657.447500	490.113281	69.482224
-6604.908883	4657.447500	488.857422	16.159424
-6604.908883	4657.447500	487.601563	59.728661
-6604.908883	4657.447500	486.344727	-3.447862
-6604.908883	4657.447500	485.088867	10.469829
-6604.908883	4657.447500	483.832031	-44.762718
-6604.908883	4657.447500	482.575195	50.144447
-6604.908883	4657.447500	481.317383	-5.068564
-6604.908883	4657.447500	480.059570	-4.974366
-6604.908883	4657.447500	478.801758	22.756565
-6604.908883	4657.447500	477.543945	-10.700065
-6604.908883	4657.447500	476.285156	28.863237
-6604.908883	4657.447500	475.027344	52.630470
-6604.908883	4657.447500	473.767578	25.113058
-6604.908883	4657.447500	472.508789	-8.305737
-6604.908883	4657.447500	471.249023	-4.251893
-6604.908883	4657.447500	469.989258	47.104721
-6604.908883	4657.447500	468.729492	-51.316601
-6604.908883	4657.447500	467.469727	39.434059
-6604.908883	4657.447500	466.208984	71.058632
-6604.908883	4657.447500	464.948242	6.179688
-6604.908883	4657.447500	463.686523	43.708725
-6604.908883	4657.447500	462.425781	-25.068949
-6604.908883	4657.447500	461.164063	12.454632
-6604.908883	4657.447500	459.901367	18.483717
-6604.908883	4657.447500	458.639648	57.952362
-6604.908883	4657.447500	457.376953	87.572517
-6604.908883	4657.447500	456.114258	7.071368
-6604.908883	4657.447500	454.851563	-12.453210
-6604.908883	4657.447500	453.587891	40.751991
-6604.908883	4657.447500	452.324219	31.055967
-6604.908883	4657.447500	451.060547	-19.890726
-6604.908883	4657.447500	449.796875	-27.603928
-6604.908883	4657.447500	448.532227	60.908035
-6604.908883	4657.447500	447.267578	49.254696
-6604.908883	4657.447500	446.002930	14.052118
-6604.908883	4657.447500	444.737305	14.188171
-6604.908883	4657.447500	443.471680	53.563469
-6604.908883	4657.447500	442.206055	34.073326
-6604.908883	4657.447500	440.940430	-5.021365
-6604.908883	4657.447500	439.673828	44.132149
-6604.908883	4657.447500	438.407227	34.453091
-6604.908883	4657.447500	437.140625	38.494900
-6604.908883	4657.447500	435.873047	-26.048672
-6604.908883	4657.447500	434.605469	15.219934
-6604.908883	4657.447500	433.337891	-2.291412
-6604.908883	4657.447500	432.070313	5.656925
-6604.908883	4657.447500	430.801758	52.752373
-6604.908883	4657.447500	429.533203	-3.916543
-6604.908883	4657.447500	428.264648	19.666355
-6604.908883	4657.447500	426.996094	60.840958
-6604.908883	4657.447500	425.726563	37.440811
-6604.908883	4657.447500	424.457031	64.889702
-6604.908883	4657.447500	423.186523	127.512566
-6604.908883	4657.447500	421.916992	64.992279
-6604.908883	4657.447500	420.646484	6.398378
-6604.908883	4657.447500	419.375977	20.115259
-6604.908883	4657.447500	418.104492	20.140701
-6604.908883	4657.447500	416.833008	98.277878
-6604.908883	4657.447500	415.561523	14.296614
-6604.908883	4657.447500	414.290039	-26.712484
-6604.908883	4657.447500	413.017578	-56.007164
-6604.908883	4657.447500	411.746094	2.508459
-6604.908883	4657.447500	410.472656	-1.448705
-6604.908883	4657.447500	409.200195	58.946751
-6604.908883	4657.447500	407.926758	-5.510537
-6604.908883	4657.447500	406.653320	-36.814308
-6604.908883	4657.447500	405.379883	-5.747593
-6604.908883	4657.447500	404.105469	40.875027
-6604.908883	4657.447500	402.831055	48.486031
-6604.908883	4657.447500	401.556641	3.473423
-6604.908883	4657.447500	400.282227	86.996674
-6604.908883	4657.447500	399.006836	47.785530
-6604.908883	4657.447500	397.731445	-55.678650
-6604.908883	4657.447500	396.456055	25.774109
-6604.908883	4657.447500	395.179688	25.433313
-6604.908883	4657.447500	393.903320	-17.739384
-6604.908883	4657.447500	392.626953	-18.135166
-6604.908883	4657.447500	391.350586	53.386124
-6604.908883	4657.447500	390.073242	45.127647
-6604.908883	4657.447500	388.795898	17.397182
-6604.908883	4657.447500	387.518555	32.393719
-6604.908883	4657.447500	386.240234	22.084385
-6604.908883	4657.447500	384.961914	-29.055971
-6604.908883	4657.447500	383.683594	1.349852
-6604.908883	4657.447500	382.405273	0.629451
-6604.908883	4657.447500	381.125977	25.097544
-6604.908883	4657.447500	379.846680	20.392736
-6604.908883	4657.447500	378.567383	110.718224
-6604.908883	4657.447500	377.287109	34.111477
-6604.908883	4657.447500	376.006836	15.669205
-6604.908883	4657.447500	374.726563	35.960049
-6604.908883	4657.447500	373.446289	-34.937878
-6604.908883	4657.447500	372.165039	-39.965378
-6604.908883	4657.447500	370.883789	47.962978
-6604.908883	4657.447500	369.602539	-26.959854
-6604.908883	4657.447500	368.320313	-3.131180
-6604.908883	4657.447500	367.039063	14.806805
-6604.908883	4657.447500	365.755859	50.086914
-6604.908883	4657.447500	364.473633	29.138824
-6604.908883	4657.447500	363.190430	17.796669
-6604.908883	4657.447500	361.907227	25.726910
-6604.908883	4657.447500	360.624023	21.962431
-6604.908883	4657.447500	359.340820	-37.975903
-6604.908883	4657.447500	358.056641	-16.765648
-6604.908883	4657.447500	356.772461	19.808372
-6604.908883	4657.447500	355.487305	-5.580962
-6604.908883	4657.447500	354.202148	9.522252
-6604.908883	4657.447500	352.916992	10.992929
-6604.908883	4657.447500	351.631836	-14.683977
-6604.908883	4657.447500	350.346680	27.131824
-6604.908883	4657.447500	349.060547	14.755918
-6604.908883	4657.447500	347.774414	60.179039
-6604.908883	4657.447500	346.487305	-46.998020
-6604.908883	4657.447500	345.200195	21.329512
-6604.908883	4657.447500	343.913086	-24.311224
-6604.908883	4657.447500	342.625977	10.940337
-6604.908883	4657.447500	341.338867	-42.653336
-6604.908883	4657.447500	340.050781	30.869751
-6604.908883	4657.447500	338.762695	21.343960
-6604.908883	4657.447500	337.473633	55.994091
-6604.908883	4657.447500	336.184570	-46.301861
-6604.908883	4657.447500	334.895508	-19.658537
-6604.908883	4657.447500	333.606445	-104.872772
-6604.908883	4657.447500	332.317383	-26.565582
-6604.908883	4657.447500	331.027344	-13.905990
-6604.908883	4657.447500	329.736328	64.003853
-6604.908883	4657.447500	328.446289	53.204556
-6604.908883	4657.447500	327.155273	19.143688
-6604.908883	4657.447500	325.864258	2.221239
-6604.908883	4657.447500	324.573242	-7.192509
-6604.908883	4657.447500	323.281250	-28.334463
-6604.908883	4657.447500	321.989258	-38.135674
-6604.908883	4657.447500	320.697266	38.328552
-6604.908883	4657.447500	319.405273	-27.607878
-6604.908883	4657.447500	318.112305	-20.751724
-6604.908883	4657.447500	316.819336	5.082516
-6604.908883	4657.447500	315.526367	-30.754093
-6604.908883	4657.447500	314.232422	0.365454
-6604.908883	4657.447500	312.938477	29.314466
-6604.908883	4657.447500	311.644531	2.369728
-6604.908883	4657.447500	310.349609	61.496132
-6604.908883	4657.447500	309.054688	12.950004
-6604.908883	4657.447500	307.759766	4.425541
-6604.908883	4657.447500	306.464844	14.805062
-6604.908883	4657.447500	305.168945	45.979233
-6604.908883	4657.447500	303.873047	34.705933
-6604.908883	4657.447500	302.577148	15.487020
-6604.908883	4657.447500	301.281250	55.352196
-6604.908883	4657.447500	299.984375	37.447876
