#X		#Y		#Wave		#Intensity
-6470.737128	4752.464000	1999.946289	66.227699
-6470.737128	4752.464000	1998.981445	-11.272571
-6470.737128	4752.464000	1998.017578	-12.109973
-6470.737128	4752.464000	1997.052734	24.243294
-6470.737128	4752.464000	1996.088867	23.437672
-6470.737128	4752.464000	1995.124023	5.309775
-6470.737128	4752.464000	1994.159180	-40.037445
-6470.737128	4752.464000	1993.193359	6.271271
-6470.737128	4752.464000	1992.228516	22.870615
-6470.737128	4752.464000	1991.262695	-34.780548
-6470.737128	4752.464000	1990.296875	4.126982
-6470.737128	4752.464000	1989.331055	-11.401700
-6470.737128	4752.464000	1988.365234	-21.960983
-6470.737128	4752.464000	1987.398438	-52.289852
-6470.737128	4752.464000	1986.432617	-45.496197
-6470.737128	4752.464000	1985.465820	45.377361
-6470.737128	4752.464000	1984.499023	-17.041658
-6470.737128	4752.464000	1983.532227	12.028722
-6470.737128	4752.464000	1982.565430	-35.506454
-6470.737128	4752.464000	1981.597656	-11.358949
-6470.737128	4752.464000	1980.629883	62.198448
-6470.737128	4752.464000	1979.662109	7.308704
-6470.737128	4752.464000	1978.694336	-20.385199
-6470.737128	4752.464000	1977.726563	1.321494
-6470.737128	4752.464000	1976.758789	111.896721
-6470.737128	4752.464000	1975.790039	39.808517
-6470.737128	4752.464000	1974.821289	34.381950
-6470.737128	4752.464000	1973.852539	-32.709454
-6470.737128	4752.464000	1972.883789	23.566355
-6470.737128	4752.464000	1971.915039	32.973610
-6470.737128	4752.464000	1970.945313	-6.927537
-6470.737128	4752.464000	1969.975586	39.479828
-6470.737128	4752.464000	1969.005859	43.977406
-6470.737128	4752.464000	1968.036133	-0.804946
-6470.737128	4752.464000	1967.066406	45.602112
-6470.737128	4752.464000	1966.096680	-33.634941
-6470.737128	4752.464000	1965.125977	-9.389574
-6470.737128	4752.464000	1964.155273	-41.783314
-6470.737128	4752.464000	1963.184570	-37.226566
-6470.737128	4752.464000	1962.213867	-25.279140
-6470.737128	4752.464000	1961.242188	6.359971
-6470.737128	4752.464000	1960.271484	-21.062223
-6470.737128	4752.464000	1959.299805	-1.723238
-6470.737128	4752.464000	1958.328125	-29.120590
-6470.737128	4752.464000	1957.356445	22.196550
-6470.737128	4752.464000	1956.384766	-29.771425
-6470.737128	4752.464000	1955.412109	-25.171076
-6470.737128	4752.464000	1954.439453	38.423897
-6470.737128	4752.464000	1953.467773	3.701253
-6470.737128	4752.464000	1952.495117	30.422312
-6470.737128	4752.464000	1951.521484	-16.558741
-6470.737128	4752.464000	1950.548828	51.920067
-6470.737128	4752.464000	1949.575195	31.974224
-6470.737128	4752.464000	1948.601563	34.137196
-6470.737128	4752.464000	1947.627930	33.848866
-6470.737128	4752.464000	1946.654297	109.647743
-6470.737128	4752.464000	1945.680664	33.284641
-6470.737128	4752.464000	1944.706055	23.194872
-6470.737128	4752.464000	1943.732422	47.453453
-6470.737128	4752.464000	1942.757813	-6.772527
-6470.737128	4752.464000	1941.783203	2.777197
-6470.737128	4752.464000	1940.807617	9.875009
-6470.737128	4752.464000	1939.833008	78.250450
-6470.737128	4752.464000	1938.857422	55.929661
-6470.737128	4752.464000	1937.881836	-20.284130
-6470.737128	4752.464000	1936.906250	-37.673660
-6470.737128	4752.464000	1935.930664	42.916443
-6470.737128	4752.464000	1934.955078	27.975174
-6470.737128	4752.464000	1933.978516	-75.099312
-6470.737128	4752.464000	1933.001953	59.312862
-6470.737128	4752.464000	1932.025391	-4.566133
-6470.737128	4752.464000	1931.048828	-83.101547
-6470.737128	4752.464000	1930.072266	-2.581478
-6470.737128	4752.464000	1929.094727	24.096237
-6470.737128	4752.464000	1928.118164	-32.385635
-6470.737128	4752.464000	1927.140625	-5.709618
-6470.737128	4752.464000	1926.163086	-13.268391
-6470.737128	4752.464000	1925.184570	-20.823433
-6470.737128	4752.464000	1924.207031	66.933388
-6470.737128	4752.464000	1923.228516	86.244743
-6470.737128	4752.464000	1922.250000	-28.809265
-6470.737128	4752.464000	1921.271484	-33.910389
-6470.737128	4752.464000	1920.292969	4.946395
-6470.737128	4752.464000	1919.314453	58.437988
-6470.737128	4752.464000	1918.334961	-58.964405
-6470.737128	4752.464000	1917.355469	23.806999
-6470.737128	4752.464000	1916.375977	38.223167
-6470.737128	4752.464000	1915.396484	28.237013
-6470.737128	4752.464000	1914.416992	18.254448
-6470.737128	4752.464000	1913.436523	22.908188
-6470.737128	4752.464000	1912.457031	47.066441
-6470.737128	4752.464000	1911.476563	54.150131
-6470.737128	4752.464000	1910.496094	-31.391359
-6470.737128	4752.464000	1909.515625	41.501335
-6470.737128	4752.464000	1908.534180	-46.443485
-6470.737128	4752.464000	1907.552734	36.167667
-6470.737128	4752.464000	1906.572266	28.629885
-6470.737128	4752.464000	1905.590820	18.658894
-6470.737128	4752.464000	1904.608398	54.949684
-6470.737128	4752.464000	1903.626953	-18.314564
-6470.737128	4752.464000	1902.644531	-25.840618
-6470.737128	4752.464000	1901.663086	-77.164772
-6470.737128	4752.464000	1900.680664	-31.156267
-6470.737128	4752.464000	1899.698242	44.022858
-6470.737128	4752.464000	1898.714844	-38.905197
-6470.737128	4752.464000	1897.732422	26.518286
-6470.737128	4752.464000	1896.749023	36.001572
-6470.737128	4752.464000	1895.765625	43.049141
-6470.737128	4752.464000	1894.782227	-0.940635
-6470.737128	4752.464000	1893.798828	6.107869
-6470.737128	4752.464000	1892.814453	30.156603
-6470.737128	4752.464000	1891.831055	68.767090
-6470.737128	4752.464000	1890.846680	53.938107
-6470.737128	4752.464000	1889.862305	46.396446
-6470.737128	4752.464000	1888.877930	-60.668621
-6470.737128	4752.464000	1887.892578	31.315329
-6470.737128	4752.464000	1886.908203	-5.342239
-6470.737128	4752.464000	1885.922852	8.958892
-6470.737128	4752.464000	1884.937500	45.082844
-6470.737128	4752.464000	1883.952148	122.418488
-6470.737128	4752.464000	1882.965820	-13.649997
-6470.737128	4752.464000	1881.980469	29.723629
-6470.737128	4752.464000	1880.994141	12.484046
-6470.737128	4752.464000	1880.007813	140.648346
-6470.737128	4752.464000	1879.021484	9.514218
-6470.737128	4752.464000	1878.035156	-2.874437
-6470.737128	4752.464000	1877.047852	-15.261254
-6470.737128	4752.464000	1876.061523	127.331024
-6470.737128	4752.464000	1875.074219	-8.554930
-6470.737128	4752.464000	1874.086914	-30.624043
-6470.737128	4752.464000	1873.098633	-18.805628
-6470.737128	4752.464000	1872.111328	-6.994231
-6470.737128	4752.464000	1871.123047	-19.382788
-6470.737128	4752.464000	1870.135742	11.768930
-6470.737128	4752.464000	1869.147461	42.905800
-6470.737128	4752.464000	1868.158203	-42.030453
-6470.737128	4752.464000	1867.169922	-3.648575
-6470.737128	4752.464000	1866.180664	78.221268
-6470.737128	4752.464000	1865.192383	19.899044
-6470.737128	4752.464000	1864.203125	34.077656
-6470.737128	4752.464000	1863.213867	38.585285
-6470.737128	4752.464000	1862.223633	11.690964
-6470.737128	4752.464000	1861.234375	-49.002472
-6470.737128	4752.464000	1860.244141	20.693703
-6470.737128	4752.464000	1859.253906	30.015158
-6470.737128	4752.464000	1858.263672	80.356880
-6470.737128	4752.464000	1857.273438	34.160503
-6470.737128	4752.464000	1856.282227	84.475792
-6470.737128	4752.464000	1855.291992	-0.302616
-6470.737128	4752.464000	1854.300781	-3.060382
-6470.737128	4752.464000	1853.309570	25.523640
-6470.737128	4752.464000	1852.317383	136.054886
-6470.737128	4752.464000	1851.326172	89.879402
-6470.737128	4752.464000	1850.333984	14.800995
-6470.737128	4752.464000	1849.342773	26.481287
-6470.737128	4752.464000	1848.350586	69.468185
-6470.737128	4752.464000	1847.357422	18.508846
-6470.737128	4752.464000	1846.365234	54.250038
-6470.737128	4752.464000	1845.372070	15.342797
-6470.737128	4752.464000	1844.379883	-21.146297
-6470.737128	4752.464000	1843.386719	14.571104
-6470.737128	4752.464000	1842.393555	50.271511
-6470.737128	4752.464000	1841.399414	23.407488
-6470.737128	4752.464000	1840.406250	20.602160
-6470.737128	4752.464000	1839.412109	12.984308
-6470.737128	4752.464000	1838.417969	17.387096
-6470.737128	4752.464000	1837.423828	19.380451
-6470.737128	4752.464000	1836.429688	67.033691
-6470.737128	4752.464000	1835.434570	56.994549
-6470.737128	4752.464000	1834.440430	-8.301662
-6470.737128	4752.464000	1833.445313	-61.567276
-6470.737128	4752.464000	1832.450195	-13.950421
-6470.737128	4752.464000	1831.454102	-14.378089
-6470.737128	4752.464000	1830.458984	-2.806052
-6470.737128	4752.464000	1829.462891	-41.647228
-6470.737128	4752.464000	1828.466797	-42.081348
-6470.737128	4752.464000	1827.470703	-13.727576
-6470.737128	4752.464000	1826.474609	-52.556625
-6470.737128	4752.464000	1825.478516	-5.032378
-6470.737128	4752.464000	1824.481445	42.469791
-6470.737128	4752.464000	1823.484375	56.384792
-6470.737128	4752.464000	1822.487305	39.128750
-6470.737128	4752.464000	1821.490234	-9.280773
-6470.737128	4752.464000	1820.493164	-0.168498
-6470.737128	4752.464000	1819.495117	-17.416649
-6470.737128	4752.464000	1818.498047	46.776051
-6470.737128	4752.464000	1817.500000	41.491100
-6470.737128	4752.464000	1816.500977	-28.443516
-6470.737128	4752.464000	1815.502930	4.581605
-6470.737128	4752.464000	1814.504883	-27.032808
-6470.737128	4752.464000	1813.505859	-44.281921
-6470.737128	4752.464000	1812.506836	-37.603340
-6470.737128	4752.464000	1811.507813	-33.323612
-6470.737128	4752.464000	1810.508789	28.349367
-6470.737128	4752.464000	1809.508789	-48.693962
-6470.737128	4752.464000	1808.508789	29.684860
-6470.737128	4752.464000	1807.508789	-11.484145
-6470.737128	4752.464000	1806.508789	45.341007
-6470.737128	4752.464000	1805.508789	40.016624
-6470.737128	4752.464000	1804.508789	25.134136
-6470.737128	4752.464000	1803.507813	17.418062
-6470.737128	4752.464000	1802.506836	26.416679
-6470.737128	4752.464000	1801.505859	18.694559
-6470.737128	4752.464000	1800.504883	-15.287374
-6470.737128	4752.464000	1799.502930	39.045368
-6470.737128	4752.464000	1798.501953	59.946495
-6470.737128	4752.464000	1797.500000	-12.209673
-6470.737128	4752.464000	1796.498047	34.922527
-6470.737128	4752.464000	1795.496094	27.180613
-6470.737128	4752.464000	1794.493164	-23.482409
-6470.737128	4752.464000	1793.491211	-24.067299
-6470.737128	4752.464000	1792.488281	-31.807451
-6470.737128	4752.464000	1791.485352	36.708622
-6470.737128	4752.464000	1790.482422	14.655353
-6470.737128	4752.464000	1789.478516	37.866463
-6470.737128	4752.464000	1788.475586	18.194138
-6470.737128	4752.464000	1787.471680	39.005413
-6470.737128	4752.464000	1786.467773	-61.616207
-6470.737128	4752.464000	1785.463867	-43.187092
-6470.737128	4752.464000	1784.459961	58.526772
-6470.737128	4752.464000	1783.455078	-1.604911
-6470.737128	4752.464000	1782.450195	45.336220
-6470.737128	4752.464000	1781.445313	11.384707
-6470.737128	4752.464000	1780.440430	-3.533915
-6470.737128	4752.464000	1779.435547	-13.696139
-6470.737128	4752.464000	1778.429688	-11.973611
-6470.737128	4752.464000	1777.424805	1.627801
-6470.737128	4752.464000	1776.418945	10.466491
-6470.737128	4752.464000	1775.413086	-11.588587
-6470.737128	4752.464000	1774.406250	-81.148102
-6470.737128	4752.464000	1773.400391	-31.938728
-6470.737128	4752.464000	1772.393555	-51.613075
-6470.737128	4752.464000	1771.386719	-11.933771
-6470.737128	4752.464000	1770.379883	11.110660
-6470.737128	4752.464000	1769.373047	27.022413
-6470.737128	4752.464000	1768.365234	-51.984135
-6470.737128	4752.464000	1767.358398	-7.608982
-6470.737128	4752.464000	1766.350586	-32.037395
-6470.737128	4752.464000	1765.342773	-13.777327
-6470.737128	4752.464000	1764.334961	-71.396652
-6470.737128	4752.464000	1763.326172	-3.367043
-6470.737128	4752.464000	1762.318359	5.383389
-6470.737128	4752.464000	1761.309570	47.298615
-6470.737128	4752.464000	1760.300781	1.537566
-6470.737128	4752.464000	1759.291016	-48.948353
-6470.737128	4752.464000	1758.282227	-35.478809
-6470.737128	4752.464000	1757.272461	37.173450
-6470.737128	4752.464000	1756.262695	36.408104
-6470.737128	4752.464000	1755.252930	14.336971
-6470.737128	4752.464000	1754.243164	-26.661404
-6470.737128	4752.464000	1753.233398	41.183365
-6470.737128	4752.464000	1752.222656	35.667625
-6470.737128	4752.464000	1751.211914	82.179718
-6470.737128	4752.464000	1750.201172	22.263968
-6470.737128	4752.464000	1749.190430	7.284506
-6470.737128	4752.464000	1748.179688	-43.148796
-6470.737128	4752.464000	1747.167969	3.323493
-6470.737128	4752.464000	1746.156250	-23.472143
-6470.737128	4752.464000	1745.144531	25.331730
-6470.737128	4752.464000	1744.132813	-1.467152
-6470.737128	4752.464000	1743.121094	7.160635
-6470.737128	4752.464000	1742.108398	53.555222
-6470.737128	4752.464000	1741.095703	-22.819078
-6470.737128	4752.464000	1740.083008	21.194117
-6470.737128	4752.464000	1739.070313	43.949429
-6470.737128	4752.464000	1738.057617	36.022305
-6470.737128	4752.464000	1737.043945	32.810471
-6470.737128	4752.464000	1736.030273	-48.227352
-6470.737128	4752.464000	1735.016602	9.871741
-6470.737128	4752.464000	1734.002930	-40.494297
-6470.737128	4752.464000	1732.989258	-24.852430
-6470.737128	4752.464000	1731.974609	-18.647608
-6470.737128	4752.464000	1730.959961	39.382385
-6470.737128	4752.464000	1729.945313	-43.947739
-6470.737128	4752.464000	1728.930664	-4.785072
-6470.737128	4752.464000	1727.916016	97.933632
-6470.737128	4752.464000	1726.900391	33.459332
-6470.737128	4752.464000	1725.885742	-40.409447
-6470.737128	4752.464000	1724.870117	15.176728
-6470.737128	4752.464000	1723.853516	-11.613437
-6470.737128	4752.464000	1722.837891	36.879570
-6470.737128	4752.464000	1721.822266	3.031086
-6470.737128	4752.464000	1720.805664	-4.943105
-6470.737128	4752.464000	1719.789063	-38.780373
-6470.737128	4752.464000	1718.772461	-16.194698
-6470.737128	4752.464000	1717.754883	11.077544
-6470.737128	4752.464000	1716.738281	-34.505379
-6470.737128	4752.464000	1715.720703	-2.550643
-6470.737128	4752.464000	1714.703125	-62.216129
-6470.737128	4752.464000	1713.685547	-16.187124
-6470.737128	4752.464000	1712.667969	-19.486197
-6470.737128	4752.464000	1711.649414	21.812483
-6470.737128	4752.464000	1710.630859	-33.136330
-6470.737128	4752.464000	1709.612305	-27.058075
-6470.737128	4752.464000	1708.593750	35.319962
-6470.737128	4752.464000	1707.575195	48.410885
-6470.737128	4752.464000	1706.555664	2.861575
-6470.737128	4752.464000	1705.536133	-7.503387
-6470.737128	4752.464000	1704.516602	3.230200
-6470.737128	4752.464000	1703.497070	37.393776
-6470.737128	4752.464000	1702.477539	57.479546
-6470.737128	4752.464000	1701.457031	-46.624298
-6470.737128	4752.464000	1700.437500	-52.306396
-6470.737128	4752.464000	1699.416992	59.111599
-6470.737128	4752.464000	1698.395508	22.960505
-6470.737128	4752.464000	1697.375000	35.984146
-6470.737128	4752.464000	1696.354492	30.272736
-6470.737128	4752.464000	1695.333008	36.259987
-6470.737128	4752.464000	1694.311523	28.201801
-6470.737128	4752.464000	1693.290039	-3.251048
-6470.737128	4752.464000	1692.267578	-4.290959
-6470.737128	4752.464000	1691.246094	13.373910
-6470.737128	4752.464000	1690.223633	9.984958
-6470.737128	4752.464000	1689.201172	53.344490
-6470.737128	4752.464000	1688.178711	3.198622
-6470.737128	4752.464000	1687.155273	37.187214
-6470.737128	4752.464000	1686.132813	8.081517
-6470.737128	4752.464000	1685.109375	37.376434
-6470.737128	4752.464000	1684.085938	40.967670
-6470.737128	4752.464000	1683.062500	-20.822842
-6470.737128	4752.464000	1682.039063	10.783237
-6470.737128	4752.464000	1681.014648	-8.975010
-6470.737128	4752.464000	1679.990234	34.275440
-6470.737128	4752.464000	1678.965820	44.842472
-6470.737128	4752.464000	1677.941406	-91.553429
-6470.737128	4752.464000	1676.916992	-29.666260
-6470.737128	4752.464000	1675.891602	-16.773804
-6470.737128	4752.464000	1674.866211	-24.871429
-6470.737128	4752.464000	1673.840820	25.300781
-6470.737128	4752.464000	1672.815430	45.154961
-6470.737128	4752.464000	1671.790039	-16.549335
-6470.737128	4752.464000	1670.763672	-6.020811
-6470.737128	4752.464000	1669.737305	-18.790216
-6470.737128	4752.464000	1668.710938	17.341574
-6470.737128	4752.464000	1667.684570	2.237137
-6470.737128	4752.464000	1666.658203	38.343891
-6470.737128	4752.464000	1665.630859	-37.274658
-6470.737128	4752.464000	1664.603516	-17.469805
-6470.737128	4752.464000	1663.576172	32.566345
-6470.737128	4752.464000	1662.548828	38.387897
-6470.737128	4752.464000	1661.520508	65.131706
-6470.737128	4752.464000	1660.493164	-38.336193
-6470.737128	4752.464000	1659.464844	-48.787167
-6470.737128	4752.464000	1658.436523	-31.348616
-6470.737128	4752.464000	1657.408203	20.934452
-6470.737128	4752.464000	1656.378906	1.174472
-6470.737128	4752.464000	1655.350586	53.424503
-6470.737128	4752.464000	1654.321289	5.791825
-6470.737128	4752.464000	1653.291992	88.197273
-6470.737128	4752.464000	1652.261719	19.676613
-6470.737128	4752.464000	1651.232422	16.166471
-6470.737128	4752.464000	1650.202148	-61.601990
-6470.737128	4752.464000	1649.171875	20.739218
-6470.737128	4752.464000	1648.141602	5.622751
-6470.737128	4752.464000	1647.111328	-35.001404
-6470.737128	4752.464000	1646.080078	12.496494
-6470.737128	4752.464000	1645.049805	-16.527943
-6470.737128	4752.464000	1644.018555	-61.769611
-6470.737128	4752.464000	1642.987305	13.505339
-6470.737128	4752.464000	1641.955078	42.409439
-6470.737128	4752.464000	1640.923828	24.971527
-6470.737128	4752.464000	1639.891602	-45.731331
-6470.737128	4752.464000	1638.859375	10.945740
-6470.737128	4752.464000	1637.827148	76.858490
-6470.737128	4752.464000	1636.794922	43.213009
-6470.737128	4752.464000	1635.761719	92.888290
-6470.737128	4752.464000	1634.729492	-0.910026
-6470.737128	4752.464000	1633.696289	-9.083184
-6470.737128	4752.464000	1632.662109	52.128983
-6470.737128	4752.464000	1631.628906	-2.304450
-6470.737128	4752.464000	1630.594727	8.014707
-6470.737128	4752.464000	1629.561523	66.870110
-6470.737128	4752.464000	1628.527344	51.745392
-6470.737128	4752.464000	1627.493164	18.139336
-6470.737128	4752.464000	1626.458008	58.468277
-6470.737128	4752.464000	1625.423828	29.488905
-6470.737128	4752.464000	1624.388672	74.413971
-6470.737128	4752.464000	1623.353516	112.393013
-6470.737128	4752.464000	1622.318359	30.320251
-6470.737128	4752.464000	1621.282227	112.138374
-6470.737128	4752.464000	1620.247070	-20.670938
-6470.737128	4752.464000	1619.210938	26.515942
-6470.737128	4752.464000	1618.174805	41.390560
-6470.737128	4752.464000	1617.137695	83.929909
-6470.737128	4752.464000	1616.101563	43.447594
-6470.737128	4752.464000	1615.064453	-10.853059
-6470.737128	4752.464000	1614.027344	45.494774
-6470.737128	4752.464000	1612.990234	41.906536
-6470.737128	4752.464000	1611.953125	40.621784
-6470.737128	4752.464000	1610.916016	94.618217
-6470.737128	4752.464000	1609.877930	88.713516
-6470.737128	4752.464000	1608.839844	66.691902
-6470.737128	4752.464000	1607.801758	-49.708183
-6470.737128	4752.464000	1606.763672	6.558231
-6470.737128	4752.464000	1605.724609	72.005112
-6470.737128	4752.464000	1604.685547	59.200005
-6470.737128	4752.464000	1603.646484	92.404305
-6470.737128	4752.464000	1602.607422	3.702899
-6470.737128	4752.464000	1601.568359	25.405529
-6470.737128	4752.464000	1600.528320	86.179596
-6470.737128	4752.464000	1599.489258	4.423102
-6470.737128	4752.464000	1598.449219	16.916241
-6470.737128	4752.464000	1597.408203	77.652100
-6470.737128	4752.464000	1596.368164	7.426752
-6470.737128	4752.464000	1595.327148	45.171635
-6470.737128	4752.464000	1594.287109	39.273155
-6470.737128	4752.464000	1593.246094	81.587074
-6470.737128	4752.464000	1592.204102	119.291771
-6470.737128	4752.464000	1591.163086	67.480698
-6470.737128	4752.464000	1590.121094	82.227371
-6470.737128	4752.464000	1589.079102	39.617428
-6470.737128	4752.464000	1588.037109	56.656029
-6470.737128	4752.464000	1586.995117	36.997528
-6470.737128	4752.464000	1585.953125	17.346197
-6470.737128	4752.464000	1584.910156	4.577813
-6470.737128	4752.464000	1583.867188	26.190477
-6470.737128	4752.464000	1582.824219	95.911896
-6470.737128	4752.464000	1581.781250	14.408263
-6470.737128	4752.464000	1580.737305	29.133114
-6470.737128	4752.464000	1579.693359	57.591625
-6470.737128	4752.464000	1578.649414	49.406528
-6470.737128	4752.464000	1577.605469	22.911741
-6470.737128	4752.464000	1576.561523	35.333988
-6470.737128	4752.464000	1575.516602	56.903187
-6470.737128	4752.464000	1574.472656	48.724243
-6470.737128	4752.464000	1573.427734	-16.634436
-6470.737128	4752.464000	1572.381836	16.365536
-6470.737128	4752.464000	1571.336914	49.353722
-6470.737128	4752.464000	1570.291016	6.892183
-6470.737128	4752.464000	1569.246094	39.869644
-6470.737128	4752.464000	1568.200195	-39.133400
-6470.737128	4752.464000	1567.153320	53.238335
-6470.737128	4752.464000	1566.107422	45.072895
-6470.737128	4752.464000	1565.060547	52.896103
-6470.737128	4752.464000	1564.013672	-3.214360
-6470.737128	4752.464000	1562.966797	-9.080462
-6470.737128	4752.464000	1561.919922	69.503166
-6470.737128	4752.464000	1560.872070	47.652065
-6470.737128	4752.464000	1559.825195	-24.380926
-6470.737128	4752.464000	1558.777344	-50.765533
-6470.737128	4752.464000	1557.729492	4.961050
-6470.737128	4752.464000	1556.680664	-3.177427
-6470.737128	4752.464000	1555.632813	52.519737
-6470.737128	4752.464000	1554.583984	-12.603251
-6470.737128	4752.464000	1553.535156	-36.681862
-6470.737128	4752.464000	1552.486328	18.991110
-6470.737128	4752.464000	1551.436523	13.139983
-6470.737128	4752.464000	1550.387695	-38.255135
-6470.737128	4752.464000	1549.337891	21.941839
-6470.737128	4752.464000	1548.288086	-22.603659
-6470.737128	4752.464000	1547.238281	-39.817364
-6470.737128	4752.464000	1546.187500	-50.196991
-6470.737128	4752.464000	1545.136719	16.785061
-6470.737128	4752.464000	1544.086914	-16.345062
-6470.737128	4752.464000	1543.035156	-3.976734
-6470.737128	4752.464000	1541.984375	28.853735
-6470.737128	4752.464000	1540.933594	27.572088
-6470.737128	4752.464000	1539.881836	53.566971
-6470.737128	4752.464000	1538.830078	-36.343735
-6470.737128	4752.464000	1537.778320	14.649586
-6470.737128	4752.464000	1536.725586	-22.968588
-6470.737128	4752.464000	1535.673828	7.565365
-6470.737128	4752.464000	1534.621094	33.546886
-6470.737128	4752.464000	1533.568359	32.277122
-6470.737128	4752.464000	1532.515625	-5.306870
-6470.737128	4752.464000	1531.461914	-4.295794
-6470.737128	4752.464000	1530.409180	42.096039
-6470.737128	4752.464000	1529.355469	72.591583
-6470.737128	4752.464000	1528.301758	59.985264
-6470.737128	4752.464000	1527.247070	65.525734
-6470.737128	4752.464000	1526.193359	16.656498
-6470.737128	4752.464000	1525.138672	26.741404
-6470.737128	4752.464000	1524.083984	5.097810
-6470.737128	4752.464000	1523.029297	26.514826
-6470.737128	4752.464000	1521.974609	34.334053
-6470.737128	4752.464000	1520.918945	-43.913372
-6470.737128	4752.464000	1519.863281	4.680725
-6470.737128	4752.464000	1518.807617	50.994316
-6470.737128	4752.464000	1517.751953	9.014635
-6470.737128	4752.464000	1516.696289	-1.262427
-6470.737128	4752.464000	1515.639648	-20.584030
-6470.737128	4752.464000	1514.583008	27.970547
-6470.737128	4752.464000	1513.526367	31.274035
-6470.737128	4752.464000	1512.469727	5.182432
-6470.737128	4752.464000	1511.412109	-48.026875
-6470.737128	4752.464000	1510.355469	-42.440742
-6470.737128	4752.464000	1509.297852	-34.594654
-6470.737128	4752.464000	1508.240234	-8.672396
-6470.737128	4752.464000	1507.181641	-46.011566
-6470.737128	4752.464000	1506.124023	-65.262886
-6470.737128	4752.464000	1505.065430	-37.082909
-6470.737128	4752.464000	1504.006836	-92.445847
-6470.737128	4752.464000	1502.948242	-50.721275
-6470.737128	4752.464000	1501.888672	-106.053543
-6470.737128	4752.464000	1500.830078	-10.183011
-6470.737128	4752.464000	1499.770508	-51.958698
-6470.737128	4752.464000	1498.710938	-19.283791
-6470.737128	4752.464000	1497.650391	-117.410278
-6470.737128	4752.464000	1496.590820	-23.854549
-6470.737128	4752.464000	1495.530273	-110.662994
-6470.737128	4752.464000	1494.469727	-73.480995
-6470.737128	4752.464000	1493.409180	-36.309853
-6470.737128	4752.464000	1492.348633	-35.194080
-6470.737128	4752.464000	1491.287109	10.970913
-6470.737128	4752.464000	1490.225586	-1.427434
-6470.737128	4752.464000	1489.164063	46.972004
-6470.737128	4752.464000	1488.102539	14.320506
-6470.737128	4752.464000	1487.041016	-61.074268
-6470.737128	4752.464000	1485.978516	34.571621
-6470.737128	4752.464000	1484.916016	-22.785934
-6470.737128	4752.464000	1483.853516	-17.151417
-6470.737128	4752.464000	1482.791016	24.472042
-6470.737128	4752.464000	1481.727539	3.131579
-6470.737128	4752.464000	1480.664063	8.779772
-6470.737128	4752.464000	1479.600586	93.079132
-6470.737128	4752.464000	1478.537109	-18.125818
-6470.737128	4752.464000	1477.473633	32.459877
-6470.737128	4752.464000	1476.409180	35.874218
-6470.737128	4752.464000	1475.344727	-10.110415
-6470.737128	4752.464000	1474.280273	-13.431119
-6470.737128	4752.464000	1473.215820	-50.413544
-6470.737128	4752.464000	1472.151367	-24.514322
-6470.737128	4752.464000	1471.085938	-115.306389
-6470.737128	4752.464000	1470.020508	-46.805969
-6470.737128	4752.464000	1468.955078	53.062534
-6470.737128	4752.464000	1467.888672	18.390995
-6470.737128	4752.464000	1466.823242	26.221600
-6470.737128	4752.464000	1465.756836	83.461449
-6470.737128	4752.464000	1464.690430	77.952087
-6470.737128	4752.464000	1463.624023	-10.300963
-6470.737128	4752.464000	1462.556641	8.798585
-6470.737128	4752.464000	1461.490234	63.704372
-6470.737128	4752.464000	1460.422852	13.389830
-6470.737128	4752.464000	1459.355469	43.601746
-6470.737128	4752.464000	1458.287109	29.312769
-6470.737128	4752.464000	1457.219727	48.466610
-6470.737128	4752.464000	1456.151367	76.626823
-6470.737128	4752.464000	1455.083008	8.580102
-6470.737128	4752.464000	1454.014648	5.511767
-6470.737128	4752.464000	1452.945313	89.213951
-6470.737128	4752.464000	1451.876953	76.879700
-6470.737128	4752.464000	1450.807617	4.802843
-6470.737128	4752.464000	1449.738281	21.747822
-6470.737128	4752.464000	1448.668945	69.602844
-6470.737128	4752.464000	1447.598633	39.729404
-6470.737128	4752.464000	1446.528320	45.488110
-6470.737128	4752.464000	1445.458008	62.285721
-6470.737128	4752.464000	1444.387695	72.223099
-6470.737128	4752.464000	1443.317383	91.561729
-6470.737128	4752.464000	1442.246094	70.967087
-6470.737128	4752.464000	1441.174805	34.334789
-6470.737128	4752.464000	1440.103516	69.149597
-6470.737128	4752.464000	1439.032227	86.048500
-6470.737128	4752.464000	1437.960938	89.436172
-6470.737128	4752.464000	1436.888672	90.353233
-6470.737128	4752.464000	1435.816406	95.977379
-6470.737128	4752.464000	1434.744141	44.169216
-6470.737128	4752.464000	1433.670898	7.840840
-6470.737128	4752.464000	1432.598633	51.493446
-6470.737128	4752.464000	1431.525391	72.631615
-6470.737128	4752.464000	1430.452148	23.287149
-6470.737128	4752.464000	1429.378906	104.363129
-6470.737128	4752.464000	1428.304688	65.034248
-6470.737128	4752.464000	1427.231445	65.493172
-6470.737128	4752.464000	1426.157227	53.662014
-6470.737128	4752.464000	1425.083008	94.137848
-6470.737128	4752.464000	1424.007813	52.397022
-6470.737128	4752.464000	1422.933594	82.820259
-6470.737128	4752.464000	1421.858398	156.607559
-6470.737128	4752.464000	1420.783203	48.876099
-6470.737128	4752.464000	1419.708008	19.364784
-6470.737128	4752.464000	1418.631836	43.446842
-6470.737128	4752.464000	1417.555664	-6.091014
-6470.737128	4752.464000	1416.479492	-19.738882
-6470.737128	4752.464000	1415.403320	-9.810966
-6470.737128	4752.464000	1414.327148	-20.157475
-6470.737128	4752.464000	1413.250000	39.660633
-6470.737128	4752.464000	1412.173828	10.131999
-6470.737128	4752.464000	1411.096680	49.685486
-6470.737128	4752.464000	1410.018555	27.917309
-6470.737128	4752.464000	1408.941406	-22.667814
-6470.737128	4752.464000	1407.863281	93.130379
-6470.737128	4752.464000	1406.785156	-23.123997
-6470.737128	4752.464000	1405.707031	17.872540
-6470.737128	4752.464000	1404.628906	36.561272
-6470.737128	4752.464000	1403.549805	45.428043
-6470.737128	4752.464000	1402.470703	-1.703039
-6470.737128	4752.464000	1401.391602	0.451598
-6470.737128	4752.464000	1400.312500	-25.558363
-6470.737128	4752.464000	1399.233398	15.397449
-6470.737128	4752.464000	1398.153320	45.154144
-6470.737128	4752.464000	1397.073242	-15.444541
-6470.737128	4752.464000	1395.993164	64.143501
-6470.737128	4752.464000	1394.913086	73.499565
-6470.737128	4752.464000	1393.832031	28.245539
-6470.737128	4752.464000	1392.750977	-20.442486
-6470.737128	4752.464000	1391.669922	4.686711
-6470.737128	4752.464000	1390.588867	68.257515
-6470.737128	4752.464000	1389.506836	28.838724
-6470.737128	4752.464000	1388.425781	44.792854
-6470.737128	4752.464000	1387.343750	-25.276787
-6470.737128	4752.464000	1386.261719	58.688793
-6470.737128	4752.464000	1385.178711	125.293938
-6470.737128	4752.464000	1384.096680	83.176384
-6470.737128	4752.464000	1383.013672	100.991486
-6470.737128	4752.464000	1381.930664	106.194084
-6470.737128	4752.464000	1380.846680	134.599976
-6470.737128	4752.464000	1379.763672	45.633694
-6470.737128	4752.464000	1378.679688	64.672211
-6470.737128	4752.464000	1377.595703	142.761169
-6470.737128	4752.464000	1376.511719	115.728050
-6470.737128	4752.464000	1375.427734	55.252548
-6470.737128	4752.464000	1374.342773	97.248383
-6470.737128	4752.464000	1373.257813	143.494919
-6470.737128	4752.464000	1372.172852	121.556984
-6470.737128	4752.464000	1371.087891	102.156723
-6470.737128	4752.464000	1370.001953	58.305523
-6470.737128	4752.464000	1368.916992	73.556374
-6470.737128	4752.464000	1367.831055	117.787422
-6470.737128	4752.464000	1366.744141	-6.381093
-6470.737128	4752.464000	1365.658203	37.701431
-6470.737128	4752.464000	1364.571289	70.299416
-6470.737128	4752.464000	1363.484375	113.883827
-6470.737128	4752.464000	1362.397461	11.020696
-6470.737128	4752.464000	1361.310547	42.265785
-6470.737128	4752.464000	1360.222656	66.855637
-6470.737128	4752.464000	1359.135742	40.261574
-6470.737128	4752.464000	1358.047852	9.261633
-6470.737128	4752.464000	1356.958984	6.219820
-6470.737128	4752.464000	1355.871094	125.035164
-6470.737128	4752.464000	1354.782227	21.904428
-6470.737128	4752.464000	1353.693359	23.741041
-6470.737128	4752.464000	1352.604492	105.482849
-6470.737128	4752.464000	1351.515625	130.503723
-6470.737128	4752.464000	1350.425781	101.622276
-6470.737128	4752.464000	1349.335938	50.546112
-6470.737128	4752.464000	1348.246094	161.134079
-6470.737128	4752.464000	1347.156250	30.166805
-6470.737128	4752.464000	1346.066406	69.168671
-6470.737128	4752.464000	1344.975586	71.569267
-6470.737128	4752.464000	1343.884766	132.736328
-6470.737128	4752.464000	1342.793945	42.685204
-6470.737128	4752.464000	1341.702148	106.512009
-6470.737128	4752.464000	1340.611328	109.627579
-6470.737128	4752.464000	1339.519531	99.832581
-6470.737128	4752.464000	1338.427734	117.352974
-6470.737128	4752.464000	1337.334961	63.685909
-6470.737128	4752.464000	1336.243164	91.412827
-6470.737128	4752.464000	1335.150391	112.043289
-6470.737128	4752.464000	1334.057617	128.503815
-6470.737128	4752.464000	1332.964844	69.448654
-6470.737128	4752.464000	1331.871094	161.421112
-6470.737128	4752.464000	1330.778320	126.600990
-6470.737128	4752.464000	1329.684570	78.766808
-6470.737128	4752.464000	1328.590820	161.261414
-6470.737128	4752.464000	1327.496094	75.898422
-6470.737128	4752.464000	1326.402344	49.194107
-6470.737128	4752.464000	1325.307617	118.338654
-6470.737128	4752.464000	1324.212891	110.229607
-6470.737128	4752.464000	1323.117188	87.224991
-6470.737128	4752.464000	1322.022461	84.740219
-6470.737128	4752.464000	1320.926758	117.749352
-6470.737128	4752.464000	1319.831055	128.639877
-6470.737128	4752.464000	1318.735352	92.835098
-6470.737128	4752.464000	1317.638672	68.058792
-6470.737128	4752.464000	1316.542969	120.008072
-6470.737128	4752.464000	1315.446289	109.461708
-6470.737128	4752.464000	1314.349609	76.389328
-6470.737128	4752.464000	1313.251953	110.284378
-6470.737128	4752.464000	1312.155273	117.216736
-6470.737128	4752.464000	1311.057617	113.849251
-6470.737128	4752.464000	1309.959961	136.828156
-6470.737128	4752.464000	1308.862305	132.532425
-6470.737128	4752.464000	1307.763672	162.240707
-6470.737128	4752.464000	1306.665039	189.636826
-6470.737128	4752.464000	1305.566406	153.843887
-6470.737128	4752.464000	1304.467773	249.994080
-6470.737128	4752.464000	1303.369141	223.623962
-6470.737128	4752.464000	1302.269531	248.090057
-6470.737128	4752.464000	1301.169922	221.502197
-6470.737128	4752.464000	1300.070313	349.866943
-6470.737128	4752.464000	1298.970703	318.472656
-6470.737128	4752.464000	1297.870117	333.858673
-6470.737128	4752.464000	1296.769531	299.513092
-6470.737128	4752.464000	1295.668945	346.539734
-6470.737128	4752.464000	1294.568359	294.127136
-6470.737128	4752.464000	1293.466797	285.965729
-6470.737128	4752.464000	1292.366211	282.265381
-6470.737128	4752.464000	1291.264648	274.342133
-6470.737128	4752.464000	1290.162109	268.365997
-6470.737128	4752.464000	1289.060547	244.717987
-6470.737128	4752.464000	1287.958008	244.223160
-6470.737128	4752.464000	1286.855469	190.513168
-6470.737128	4752.464000	1285.752930	205.906204
-6470.737128	4752.464000	1284.650391	165.188950
-6470.737128	4752.464000	1283.546875	123.400490
-6470.737128	4752.464000	1282.444336	90.796402
-6470.737128	4752.464000	1281.339844	116.210922
-6470.737128	4752.464000	1280.236328	101.749168
-6470.737128	4752.464000	1279.132813	87.840836
-6470.737128	4752.464000	1278.028320	41.609974
-6470.737128	4752.464000	1276.923828	69.327835
-6470.737128	4752.464000	1275.819336	113.331154
-6470.737128	4752.464000	1274.713867	61.836521
-6470.737128	4752.464000	1273.608398	74.040100
-6470.737128	4752.464000	1272.503906	48.582489
-6470.737128	4752.464000	1271.397461	29.948172
-6470.737128	4752.464000	1270.291992	16.867897
-6470.737128	4752.464000	1269.185547	101.507584
-6470.737128	4752.464000	1268.080078	10.964146
-6470.737128	4752.464000	1266.972656	25.942924
-6470.737128	4752.464000	1265.866211	11.740186
-6470.737128	4752.464000	1264.759766	-19.106295
-6470.737128	4752.464000	1263.652344	17.368021
-6470.737128	4752.464000	1262.544922	2.708017
-6470.737128	4752.464000	1261.436523	40.994083
-6470.737128	4752.464000	1260.329102	19.093489
-6470.737128	4752.464000	1259.220703	10.539256
-6470.737128	4752.464000	1258.112305	-1.461142
-6470.737128	4752.464000	1257.003906	5.247392
-6470.737128	4752.464000	1255.895508	56.032482
-6470.737128	4752.464000	1254.786133	-32.891918
-6470.737128	4752.464000	1253.676758	8.901858
-6470.737128	4752.464000	1252.567383	-25.180962
-6470.737128	4752.464000	1251.458008	66.138985
-6470.737128	4752.464000	1250.347656	51.083233
-6470.737128	4752.464000	1249.237305	35.424286
-6470.737128	4752.464000	1248.126953	83.282944
-6470.737128	4752.464000	1247.016602	51.315285
-6470.737128	4752.464000	1245.905273	69.881638
-6470.737128	4752.464000	1244.793945	-16.282972
-6470.737128	4752.464000	1243.682617	42.923698
-6470.737128	4752.464000	1242.571289	16.958757
-6470.737128	4752.464000	1241.459961	22.561647
-6470.737128	4752.464000	1240.347656	-43.734322
-6470.737128	4752.464000	1239.235352	-25.506626
-6470.737128	4752.464000	1238.123047	51.369438
-6470.737128	4752.464000	1237.009766	18.211851
-6470.737128	4752.464000	1235.897461	18.113132
-6470.737128	4752.464000	1234.784180	3.086740
-6470.737128	4752.464000	1233.670898	14.373427
-6470.737128	4752.464000	1232.556641	-25.443928
-6470.737128	4752.464000	1231.443359	27.277479
-6470.737128	4752.464000	1230.329102	-17.810093
-6470.737128	4752.464000	1229.214844	51.160816
-6470.737128	4752.464000	1228.099609	68.160294
-6470.737128	4752.464000	1226.985352	7.832232
-6470.737128	4752.464000	1225.870117	35.299732
-6470.737128	4752.464000	1224.754883	19.986759
-6470.737128	4752.464000	1223.639648	-11.449997
-6470.737128	4752.464000	1222.523438	-49.075596
-6470.737128	4752.464000	1221.408203	-10.648865
-6470.737128	4752.464000	1220.291992	-31.447210
-6470.737128	4752.464000	1219.174805	13.448509
-6470.737128	4752.464000	1218.058594	-28.019367
-6470.737128	4752.464000	1216.941406	-31.858097
-6470.737128	4752.464000	1215.824219	-54.758953
-6470.737128	4752.464000	1214.707031	-10.837704
-6470.737128	4752.464000	1213.589844	1.523273
-6470.737128	4752.464000	1212.471680	16.460953
-6470.737128	4752.464000	1211.353516	2.086919
-6470.737128	4752.464000	1210.235352	-1.767821
-6470.737128	4752.464000	1209.117188	-55.216721
-6470.737128	4752.464000	1207.998047	-27.542360
-6470.737128	4752.464000	1206.878906	5.475611
-6470.737128	4752.464000	1205.759766	40.934921
-6470.737128	4752.464000	1204.640625	0.432201
-6470.737128	4752.464000	1203.520508	1.509704
-6470.737128	4752.464000	1202.401367	18.244402
-6470.737128	4752.464000	1201.281250	-26.251928
-6470.737128	4752.464000	1200.160156	-35.303066
-6470.737128	4752.464000	1199.040039	-9.562997
-6470.737128	4752.464000	1197.918945	-45.435078
-6470.737128	4752.464000	1196.797852	-7.628651
-6470.737128	4752.464000	1195.676758	-30.366295
-6470.737128	4752.464000	1194.555664	-2.178329
-6470.737128	4752.464000	1193.433594	-11.663126
-6470.737128	4752.464000	1192.311523	1.370491
-6470.737128	4752.464000	1191.189453	-11.874276
-6470.737128	4752.464000	1190.066406	8.820120
-6470.737128	4752.464000	1188.944336	44.573013
-6470.737128	4752.464000	1187.821289	7.785492
-6470.737128	4752.464000	1186.698242	16.073046
-6470.737128	4752.464000	1185.574219	-55.210426
-6470.737128	4752.464000	1184.451172	-36.048241
-6470.737128	4752.464000	1183.327148	36.692001
-6470.737128	4752.464000	1182.203125	3.793159
-6470.737128	4752.464000	1181.078125	1.856933
-6470.737128	4752.464000	1179.954102	-0.719986
-6470.737128	4752.464000	1178.829102	2.904886
-6470.737128	4752.464000	1177.704102	-2.155393
-6470.737128	4752.464000	1176.579102	-8.013412
-6470.737128	4752.464000	1175.453125	-22.132898
-6470.737128	4752.464000	1174.327148	-27.933018
-6470.737128	4752.464000	1173.201172	-5.881462
-6470.737128	4752.464000	1172.075195	-4.296138
-6470.737128	4752.464000	1170.949219	-39.135460
-6470.737128	4752.464000	1169.822266	-76.139893
-6470.737128	4752.464000	1168.695313	-44.830887
-6470.737128	4752.464000	1167.568359	-44.796619
-6470.737128	4752.464000	1166.440430	5.857216
-6470.737128	4752.464000	1165.313477	-2.912610
-6470.737128	4752.464000	1164.185547	1.035442
-6470.737128	4752.464000	1163.057617	-43.615116
-6470.737128	4752.464000	1161.928711	-39.097553
-6470.737128	4752.464000	1160.800781	-10.430544
-6470.737128	4752.464000	1159.671875	12.580420
-6470.737128	4752.464000	1158.541992	-52.143799
-6470.737128	4752.464000	1157.413086	-62.140793
-6470.737128	4752.464000	1156.283203	-22.107777
-6470.737128	4752.464000	1155.154297	16.652285
-6470.737128	4752.464000	1154.023438	-83.579407
-6470.737128	4752.464000	1152.893555	6.733022
-6470.737128	4752.464000	1151.763672	-15.666281
-6470.737128	4752.464000	1150.632813	5.160184
-6470.737128	4752.464000	1149.501953	-25.394579
-6470.737128	4752.464000	1148.370117	-26.013065
-6470.737128	4752.464000	1147.239258	-40.430714
-6470.737128	4752.464000	1146.107422	-4.057894
-6470.737128	4752.464000	1144.975586	2.922353
-6470.737128	4752.464000	1143.843750	-37.460701
-6470.737128	4752.464000	1142.710938	-56.636021
-6470.737128	4752.464000	1141.578125	-49.052261
-6470.737128	4752.464000	1140.445313	-0.464814
-6470.737128	4752.464000	1139.312500	-16.234058
-6470.737128	4752.464000	1138.178711	-15.461203
-6470.737128	4752.464000	1137.045898	5.387764
-6470.737128	4752.464000	1135.912109	6.091528
-6470.737128	4752.464000	1134.777344	-19.266932
-6470.737128	4752.464000	1133.643555	4.213228
-6470.737128	4752.464000	1132.508789	37.028580
-6470.737128	4752.464000	1131.374023	52.720604
-6470.737128	4752.464000	1130.239258	-24.497345
-6470.737128	4752.464000	1129.104492	38.441368
-6470.737128	4752.464000	1127.968750	20.402565
-6470.737128	4752.464000	1126.833008	20.228634
-6470.737128	4752.464000	1125.697266	33.316166
-6470.737128	4752.464000	1124.560547	9.013034
-6470.737128	4752.464000	1123.424805	-17.084568
-6470.737128	4752.464000	1122.288086	48.258797
-6470.737128	4752.464000	1121.151367	-14.097988
-6470.737128	4752.464000	1120.013672	67.747879
-6470.737128	4752.464000	1118.876953	32.014061
-6470.737128	4752.464000	1117.739258	-48.791794
-6470.737128	4752.464000	1116.601563	11.282590
-6470.737128	4752.464000	1115.462891	2.570182
-6470.737128	4752.464000	1114.324219	93.205635
-6470.737128	4752.464000	1113.186523	49.388191
-6470.737128	4752.464000	1112.046875	43.195751
-6470.737128	4752.464000	1110.908203	50.424908
-6470.737128	4752.464000	1109.769531	52.205502
-6470.737128	4752.464000	1108.629883	17.485243
-6470.737128	4752.464000	1107.490234	30.015503
-6470.737128	4752.464000	1106.349609	24.967253
-6470.737128	4752.464000	1105.209961	2.480949
-6470.737128	4752.464000	1104.069336	-43.343037
-6470.737128	4752.464000	1102.928711	50.188210
-6470.737128	4752.464000	1101.787109	15.034225
-6470.737128	4752.464000	1100.646484	26.128088
-6470.737128	4752.464000	1099.504883	8.129119
-6470.737128	4752.464000	1098.363281	53.194225
-6470.737128	4752.464000	1097.221680	66.050095
-6470.737128	4752.464000	1096.079102	73.843880
-6470.737128	4752.464000	1094.936523	59.675732
-6470.737128	4752.464000	1093.793945	49.650146
-6470.737128	4752.464000	1092.651367	54.041668
-6470.737128	4752.464000	1091.507813	39.626831
-6470.737128	4752.464000	1090.364258	59.278881
-6470.737128	4752.464000	1089.220703	35.218395
-6470.737128	4752.464000	1088.077148	97.633858
-6470.737128	4752.464000	1086.933594	36.973034
-6470.737128	4752.464000	1085.789063	26.014282
-6470.737128	4752.464000	1084.644531	36.681152
-6470.737128	4752.464000	1083.499023	73.069878
-6470.737128	4752.464000	1082.354492	64.960297
-6470.737128	4752.464000	1081.208984	21.560499
-6470.737128	4752.464000	1080.063477	-0.775906
-6470.737128	4752.464000	1078.917969	24.675701
-6470.737128	4752.464000	1077.771484	32.989941
-6470.737128	4752.464000	1076.625977	6.928857
-6470.737128	4752.464000	1075.479492	-6.959272
-6470.737128	4752.464000	1074.332031	-31.878054
-6470.737128	4752.464000	1073.185547	-42.720947
-6470.737128	4752.464000	1072.038086	9.823617
-6470.737128	4752.464000	1070.890625	40.873924
-6470.737128	4752.464000	1069.743164	27.647884
-6470.737128	4752.464000	1068.594727	77.658218
-6470.737128	4752.464000	1067.447266	88.805435
-6470.737128	4752.464000	1066.298828	-0.100624
-6470.737128	4752.464000	1065.149414	30.073975
-6470.737128	4752.464000	1064.000977	-5.672356
-6470.737128	4752.464000	1062.851563	4.830215
-6470.737128	4752.464000	1061.702148	5.318515
-6470.737128	4752.464000	1060.552734	59.165493
-6470.737128	4752.464000	1059.402344	18.555975
-6470.737128	4752.464000	1058.252930	41.724735
-6470.737128	4752.464000	1057.102539	51.364407
-6470.737128	4752.464000	1055.951172	4.615883
-6470.737128	4752.464000	1054.800781	42.214916
-6470.737128	4752.464000	1053.649414	2.991837
-6470.737128	4752.464000	1052.498047	-13.729349
-6470.737128	4752.464000	1051.346680	23.827995
-6470.737128	4752.464000	1050.194336	39.272030
-6470.737128	4752.464000	1049.042969	37.197914
-6470.737128	4752.464000	1047.890625	31.283119
-6470.737128	4752.464000	1046.738281	12.072254
-6470.737128	4752.464000	1045.584961	38.337536
-6470.737128	4752.464000	1044.431641	58.824986
-6470.737128	4752.464000	1043.278320	95.347748
-6470.737128	4752.464000	1042.125000	119.430504
-6470.737128	4752.464000	1040.971680	11.548016
-6470.737128	4752.464000	1039.817383	38.495575
-6470.737128	4752.464000	1038.663086	29.263113
-6470.737128	4752.464000	1037.508789	137.032181
-6470.737128	4752.464000	1036.353516	110.586205
-6470.737128	4752.464000	1035.198242	97.603134
-6470.737128	4752.464000	1034.042969	65.074806
-6470.737128	4752.464000	1032.887695	171.795807
-6470.737128	4752.464000	1031.732422	179.527176
-6470.737128	4752.464000	1030.576172	180.261948
-6470.737128	4752.464000	1029.419922	205.677917
-6470.737128	4752.464000	1028.263672	155.934677
-6470.737128	4752.464000	1027.106445	174.710312
-6470.737128	4752.464000	1025.949219	120.372948
-6470.737128	4752.464000	1024.792969	132.098694
-6470.737128	4752.464000	1023.634766	73.148201
-6470.737128	4752.464000	1022.477539	130.143707
-6470.737128	4752.464000	1021.319336	193.487625
-6470.737128	4752.464000	1020.161133	222.104111
-6470.737128	4752.464000	1019.002930	213.437668
-6470.737128	4752.464000	1017.843750	145.844986
-6470.737128	4752.464000	1016.684570	134.766922
-6470.737128	4752.464000	1015.525391	223.428513
-6470.737128	4752.464000	1014.366211	158.301620
-6470.737128	4752.464000	1013.207031	147.888687
-6470.737128	4752.464000	1012.046875	222.915680
-6470.737128	4752.464000	1010.886719	176.341202
-6470.737128	4752.464000	1009.726563	168.238144
-6470.737128	4752.464000	1008.565430	131.574295
-6470.737128	4752.464000	1007.404297	160.057861
-6470.737128	4752.464000	1006.243164	104.462708
-6470.737128	4752.464000	1005.082031	116.697929
-6470.737128	4752.464000	1003.920898	34.367828
-6470.737128	4752.464000	1002.758789	108.495461
-6470.737128	4752.464000	1001.596680	-11.690439
-6470.737128	4752.464000	1000.433594	61.446354
-6470.737128	4752.464000	999.271484	94.596924
-6470.737128	4752.464000	998.108398	82.951149
-6470.737128	4752.464000	996.945313	61.943199
-6470.737128	4752.464000	995.782227	4.917377
-6470.737128	4752.464000	994.618164	-0.137933
-6470.737128	4752.464000	993.454102	17.437172
-6470.737128	4752.464000	992.290039	14.547279
-6470.737128	4752.464000	991.125977	18.513121
-6470.737128	4752.464000	989.960938	35.197720
-6470.737128	4752.464000	988.796875	9.787285
-6470.737128	4752.464000	987.630859	-33.637753
-6470.737128	4752.464000	986.465820	72.451897
-6470.737128	4752.464000	985.300781	-1.075609
-6470.737128	4752.464000	984.134766	68.814377
-6470.737128	4752.464000	982.968750	57.724155
-6470.737128	4752.464000	981.801758	69.525894
-6470.737128	4752.464000	980.635742	13.907520
-6470.737128	4752.464000	979.468750	49.038639
-6470.737128	4752.464000	978.301758	4.086357
-6470.737128	4752.464000	977.133789	12.813240
-6470.737128	4752.464000	975.966797	-22.144188
-6470.737128	4752.464000	974.798828	30.476946
-6470.737128	4752.464000	973.630859	1.664183
-6470.737128	4752.464000	972.461914	51.437782
-6470.737128	4752.464000	971.293945	51.380795
-6470.737128	4752.464000	970.125000	-32.527958
-6470.737128	4752.464000	968.956055	15.418793
-6470.737128	4752.464000	967.786133	47.918308
-6470.737128	4752.464000	966.617188	82.953659
-6470.737128	4752.464000	965.447266	30.657850
-6470.737128	4752.464000	964.276367	-50.929508
-6470.737128	4752.464000	963.106445	6.302209
-6470.737128	4752.464000	961.935547	-16.290720
-6470.737128	4752.464000	960.764648	7.341371
-6470.737128	4752.464000	959.593750	24.958908
-6470.737128	4752.464000	958.422852	0.990047
-6470.737128	4752.464000	957.250977	44.155014
-6470.737128	4752.464000	956.079102	-0.122019
-6470.737128	4752.464000	954.907227	44.028141
-6470.737128	4752.464000	953.734375	-6.844201
-6470.737128	4752.464000	952.562500	-40.350727
-6470.737128	4752.464000	951.389648	19.071653
-6470.737128	4752.464000	950.215820	-51.588112
-6470.737128	4752.464000	949.042969	-5.490062
-6470.737128	4752.464000	947.869141	-27.675219
-6470.737128	4752.464000	946.695313	58.036678
-6470.737128	4752.464000	945.521484	51.060478
-6470.737128	4752.464000	944.346680	62.021568
-6470.737128	4752.464000	943.172852	-1.860090
-6470.737128	4752.464000	941.998047	-8.673732
-6470.737128	4752.464000	940.822266	-37.447250
-6470.737128	4752.464000	939.647461	19.537828
-6470.737128	4752.464000	938.471680	63.406033
-6470.737128	4752.464000	937.295898	-20.298620
-6470.737128	4752.464000	936.119141	-20.540083
-6470.737128	4752.464000	934.943359	29.973104
-6470.737128	4752.464000	933.766602	23.169928
-6470.737128	4752.464000	932.589844	1.024201
-6470.737128	4752.464000	931.413086	33.892544
-6470.737128	4752.464000	930.235352	0.757429
-6470.737128	4752.464000	929.057617	-43.329578
-6470.737128	4752.464000	927.879883	68.605942
-6470.737128	4752.464000	926.702148	31.112494
-6470.737128	4752.464000	925.523438	19.997267
-6470.737128	4752.464000	924.344727	57.205376
-6470.737128	4752.464000	923.166016	109.783981
-6470.737128	4752.464000	921.987305	-19.906261
-6470.737128	4752.464000	920.807617	63.406067
-6470.737128	4752.464000	919.627930	63.580009
-6470.737128	4752.464000	919.497070	129.148697
-6470.737128	4752.464000	918.331055	45.622410
-6470.737128	4752.464000	917.165039	98.162956
-6470.737128	4752.464000	915.999023	62.942135
-6470.737128	4752.464000	914.833008	14.580106
-6470.737128	4752.464000	913.666016	38.600021
-6470.737128	4752.464000	912.499023	42.883366
-6470.737128	4752.464000	911.332031	38.401123
-6470.737128	4752.464000	910.165039	-49.347275
-6470.737128	4752.464000	908.997070	44.789143
-6470.737128	4752.464000	907.830078	-5.679912
-6470.737128	4752.464000	906.661133	-12.324069
-6470.737128	4752.464000	905.493164	29.208364
-6470.737128	4752.464000	904.325195	-64.998055
-6470.737128	4752.464000	903.156250	-34.407566
-6470.737128	4752.464000	901.987305	-58.531555
-6470.737128	4752.464000	900.818359	-34.510601
-6470.737128	4752.464000	899.648438	-32.368767
-6470.737128	4752.464000	898.478516	-58.653568
-6470.737128	4752.464000	897.308594	24.398703
-6470.737128	4752.464000	896.138672	6.864985
-6470.737128	4752.464000	894.968750	-21.585375
-6470.737128	4752.464000	893.797852	-25.983746
-6470.737128	4752.464000	892.626953	-19.452860
-6470.737128	4752.464000	891.456055	-8.552012
-6470.737128	4752.464000	890.284180	-8.570251
-6470.737128	4752.464000	889.113281	11.065618
-6470.737128	4752.464000	887.941406	56.892330
-6470.737128	4752.464000	886.768555	21.954729
-6470.737128	4752.464000	885.596680	-36.966496
-6470.737128	4752.464000	884.423828	-12.960320
-6470.737128	4752.464000	883.250977	-4.227269
-6470.737128	4752.464000	882.078125	-26.022686
-6470.737128	4752.464000	880.905273	2.340102
-6470.737128	4752.464000	879.731445	-47.775467
-6470.737128	4752.464000	878.557617	19.816912
-6470.737128	4752.464000	877.383789	-32.451591
-6470.737128	4752.464000	876.209961	-25.876846
-6470.737128	4752.464000	875.035156	-97.707100
-6470.737128	4752.464000	873.860352	11.231728
-6470.737128	4752.464000	872.685547	-45.327923
-6470.737128	4752.464000	871.510742	57.034863
-6470.737128	4752.464000	870.334961	-60.434975
-6470.737128	4752.464000	869.159180	-8.143583
-6470.737128	4752.464000	867.983398	35.429932
-6470.737128	4752.464000	866.807617	-3.654480
-6470.737128	4752.464000	865.630859	15.991442
-6470.737128	4752.464000	864.454102	-16.541275
-6470.737128	4752.464000	863.277344	11.802803
-6470.737128	4752.464000	862.100586	46.659309
-6470.737128	4752.464000	860.922852	159.721329
-6470.737128	4752.464000	859.745117	142.410553
-6470.737128	4752.464000	858.567383	253.244446
-6470.737128	4752.464000	857.389648	379.236816
-6470.737128	4752.464000	856.210938	279.414246
-6470.737128	4752.464000	855.032227	136.229431
-6470.737128	4752.464000	853.853516	69.056763
-6470.737128	4752.464000	852.674805	47.476318
-6470.737128	4752.464000	851.495117	-43.500187
-6470.737128	4752.464000	850.315430	88.933670
-6470.737128	4752.464000	849.135742	13.173152
-6470.737128	4752.464000	847.956055	-12.693601
-6470.737128	4752.464000	846.775391	-14.704309
-6470.737128	4752.464000	845.595703	52.629314
-6470.737128	4752.464000	844.415039	26.785540
-6470.737128	4752.464000	843.233398	-66.186790
-6470.737128	4752.464000	842.052734	5.462055
-6470.737128	4752.464000	840.871094	-29.001177
-6470.737128	4752.464000	839.689453	23.139194
-6470.737128	4752.464000	838.506836	-32.944931
-6470.737128	4752.464000	837.325195	12.693526
-6470.737128	4752.464000	836.142578	103.747368
-6470.737128	4752.464000	834.959961	41.207531
-6470.737128	4752.464000	833.777344	15.459004
-6470.737128	4752.464000	832.593750	13.507689
-6470.737128	4752.464000	831.410156	2.916032
-6470.737128	4752.464000	830.226563	22.588438
-6470.737128	4752.464000	829.042969	87.630241
-6470.737128	4752.464000	827.858398	59.763657
-6470.737128	4752.464000	826.673828	92.385338
-6470.737128	4752.464000	825.489258	32.149929
-6470.737128	4752.464000	824.304688	164.079514
-6470.737128	4752.464000	823.120117	254.950317
-6470.737128	4752.464000	821.934570	250.839645
-6470.737128	4752.464000	820.749023	158.278442
-6470.737128	4752.464000	819.562500	132.628952
-6470.737128	4752.464000	818.376953	124.247032
-6470.737128	4752.464000	817.190430	118.029953
-6470.737128	4752.464000	816.003906	16.969044
-6470.737128	4752.464000	814.817383	2.164869
-6470.737128	4752.464000	813.629883	45.552074
-6470.737128	4752.464000	812.442383	50.147259
-6470.737128	4752.464000	811.254883	28.898016
-6470.737128	4752.464000	810.067383	-41.868046
-6470.737128	4752.464000	808.878906	-15.713094
-6470.737128	4752.464000	807.690430	40.571831
-6470.737128	4752.464000	806.501953	-27.986700
-6470.737128	4752.464000	805.313477	-49.174854
-6470.737128	4752.464000	804.124023	11.398340
-6470.737128	4752.464000	802.934570	-85.058426
-6470.737128	4752.464000	801.745117	-7.291166
-6470.737128	4752.464000	800.555664	33.899422
-6470.737128	4752.464000	799.365234	38.536640
-6470.737128	4752.464000	798.175781	-16.997284
-6470.737128	4752.464000	796.985352	-61.760563
-6470.737128	4752.464000	795.793945	-44.204525
-6470.737128	4752.464000	794.603516	-54.572212
-6470.737128	4752.464000	793.412109	40.284241
-6470.737128	4752.464000	792.220703	2.003412
-6470.737128	4752.464000	791.028320	-16.939962
-6470.737128	4752.464000	789.836914	15.630116
-6470.737128	4752.464000	788.644531	16.008865
-6470.737128	4752.464000	787.452148	95.757339
-6470.737128	4752.464000	786.258789	85.404480
-6470.737128	4752.464000	785.066406	120.086090
-6470.737128	4752.464000	783.873047	180.481812
-6470.737128	4752.464000	782.679688	238.712738
-6470.737128	4752.464000	781.485352	89.071487
-6470.737128	4752.464000	780.291992	110.884155
-6470.737128	4752.464000	779.097656	74.859940
-6470.737128	4752.464000	777.903320	75.259071
-6470.737128	4752.464000	776.708008	67.097809
-6470.737128	4752.464000	775.512695	65.364914
-6470.737128	4752.464000	774.318359	50.794594
-6470.737128	4752.464000	773.122070	-0.140285
-6470.737128	4752.464000	771.926758	21.682989
-6470.737128	4752.464000	770.730469	-46.328972
-6470.737128	4752.464000	769.534180	-13.806945
-6470.737128	4752.464000	768.337891	35.807842
-6470.737128	4752.464000	767.141602	31.967955
-6470.737128	4752.464000	765.944336	40.955162
-6470.737128	4752.464000	764.747070	9.346325
-6470.737128	4752.464000	763.549805	97.376717
-6470.737128	4752.464000	762.351563	-0.431531
-6470.737128	4752.464000	761.154297	2.159449
-6470.737128	4752.464000	759.956055	51.717918
-6470.737128	4752.464000	758.757813	-5.459921
-6470.737128	4752.464000	757.558594	24.879387
-6470.737128	4752.464000	756.359375	38.140556
-6470.737128	4752.464000	755.160156	70.595360
-6470.737128	4752.464000	753.960938	-7.855523
-6470.737128	4752.464000	752.761719	48.052719
-6470.737128	4752.464000	751.561523	8.013972
-6470.737128	4752.464000	750.361328	34.062340
-6470.737128	4752.464000	749.160156	43.055771
-6470.737128	4752.464000	747.959961	45.655312
-6470.737128	4752.464000	746.758789	37.606251
-6470.737128	4752.464000	745.557617	14.655683
-6470.737128	4752.464000	744.356445	-44.477356
-6470.737128	4752.464000	743.154297	56.059715
-6470.737128	4752.464000	741.952148	65.046104
-6470.737128	4752.464000	740.750000	133.605255
-6470.737128	4752.464000	739.547852	117.046768
-6470.737128	4752.464000	738.344727	66.467735
-6470.737128	4752.464000	737.142578	52.058231
-6470.737128	4752.464000	735.939453	143.951981
-6470.737128	4752.464000	734.735352	48.766937
-6470.737128	4752.464000	733.532227	38.622726
-6470.737128	4752.464000	732.328125	43.355839
-6470.737128	4752.464000	731.124023	60.832256
-6470.737128	4752.464000	729.918945	-13.016709
-6470.737128	4752.464000	728.714844	2.341298
-6470.737128	4752.464000	727.509766	9.202351
-6470.737128	4752.464000	726.303711	18.183542
-6470.737128	4752.464000	725.098633	27.160242
-6470.737128	4752.464000	723.892578	0.068534
-6470.737128	4752.464000	722.686523	55.707996
-6470.737128	4752.464000	721.480469	-9.549645
-6470.737128	4752.464000	720.274414	14.265487
-6470.737128	4752.464000	719.067383	-12.802017
-6470.737128	4752.464000	717.860352	13.122492
-6470.737128	4752.464000	716.653320	19.966040
-6470.737128	4752.464000	715.445313	-40.981304
-6470.737128	4752.464000	714.238281	23.052691
-6470.737128	4752.464000	713.030273	-6.109675
-6470.737128	4752.464000	711.821289	102.347046
-6470.737128	4752.464000	710.613281	30.845974
-6470.737128	4752.464000	709.404297	77.878464
-6470.737128	4752.464000	708.195313	116.426964
-6470.737128	4752.464000	706.986328	176.110260
-6470.737128	4752.464000	705.776367	134.256149
-6470.737128	4752.464000	704.566406	117.790421
-6470.737128	4752.464000	703.356445	111.899261
-6470.737128	4752.464000	702.146484	21.469172
-6470.737128	4752.464000	700.935547	57.858074
-6470.737128	4752.464000	699.724609	-45.201946
-6470.737128	4752.464000	698.513672	10.190626
-6470.737128	4752.464000	697.302734	74.004440
-6470.737128	4752.464000	696.090820	19.558596
-6470.737128	4752.464000	694.878906	91.782455
-6470.737128	4752.464000	693.666992	43.681526
-6470.737128	4752.464000	692.455078	14.587510
-6470.737128	4752.464000	691.242188	-27.153532
-6470.737128	4752.464000	690.029297	13.373001
-6470.737128	4752.464000	688.816406	77.074120
-6470.737128	4752.464000	687.602539	-32.123680
-6470.737128	4752.464000	686.389648	-16.923788
-6470.737128	4752.464000	685.175781	55.163250
-6470.737128	4752.464000	683.960938	66.119019
-6470.737128	4752.464000	682.747070	-0.870449
-6470.737128	4752.464000	681.532227	79.581497
-6470.737128	4752.464000	680.317383	6.294017
-6470.737128	4752.464000	679.102539	27.761290
-6470.737128	4752.464000	677.886719	17.646854
-6470.737128	4752.464000	676.670898	98.012077
-6470.737128	4752.464000	675.455078	26.870783
-6470.737128	4752.464000	674.239258	65.126205
-6470.737128	4752.464000	673.022461	6.630709
-6470.737128	4752.464000	671.805664	93.221321
-6470.737128	4752.464000	670.588867	-11.507327
-6470.737128	4752.464000	669.372070	-34.237324
-6470.737128	4752.464000	668.154297	14.474387
-6470.737128	4752.464000	666.936523	42.154663
-6470.737128	4752.464000	665.718750	-20.489553
-6470.737128	4752.464000	664.500977	0.877351
-6470.737128	4752.464000	663.282227	55.819397
-6470.737128	4752.464000	662.063477	-101.251167
-6470.737128	4752.464000	660.844727	-52.616287
-6470.737128	4752.464000	659.625000	16.973110
-6470.737128	4752.464000	658.405273	67.649872
-6470.737128	4752.464000	657.185547	-5.428123
-6470.737128	4752.464000	655.965820	28.447912
-6470.737128	4752.464000	654.745117	3.611019
-6470.737128	4752.464000	653.525391	-21.221687
-6470.737128	4752.464000	652.303711	-12.523606
-6470.737128	4752.464000	651.083008	4.543875
-6470.737128	4752.464000	649.861328	-14.006428
-6470.737128	4752.464000	648.640625	-34.649494
-6470.737128	4752.464000	647.417969	-19.698620
-6470.737128	4752.464000	646.196289	16.170223
-6470.737128	4752.464000	644.973633	1.794401
-6470.737128	4752.464000	643.750977	-41.872612
-6470.737128	4752.464000	642.528320	-31.141302
-6470.737128	4752.464000	641.305664	-20.421030
-6470.737128	4752.464000	640.082031	11.197495
-6470.737128	4752.464000	638.858398	-1.103223
-6470.737128	4752.464000	637.634766	-17.585203
-6470.737128	4752.464000	636.410156	-82.126396
-6470.737128	4752.464000	635.185547	-21.299889
-6470.737128	4752.464000	633.960938	20.695900
-6470.737128	4752.464000	632.736328	8.373131
-6470.737128	4752.464000	631.510742	6.488115
-6470.737128	4752.464000	630.285156	-3.752424
-6470.737128	4752.464000	629.059570	19.394880
-6470.737128	4752.464000	627.833984	-1.290352
-6470.737128	4752.464000	626.607422	28.091000
-6470.737128	4752.464000	625.380859	32.425865
-6470.737128	4752.464000	624.154297	-19.546902
-6470.737128	4752.464000	622.927734	20.221741
-6470.737128	4752.464000	621.700195	-35.908901
-6470.737128	4752.464000	620.472656	37.173111
-6470.737128	4752.464000	619.245117	-8.534940
-6470.737128	4752.464000	618.016602	33.252151
-6470.737128	4752.464000	616.788086	243.695160
-6470.737128	4752.464000	615.559570	283.314240
-6470.737128	4752.464000	614.331055	258.379578
-6470.737128	4752.464000	613.101563	154.364410
-6470.737128	4752.464000	611.872070	121.130333
-6470.737128	4752.464000	610.642578	81.662071
-6470.737128	4752.464000	609.413086	50.522488
-6470.737128	4752.464000	608.182617	44.341602
-6470.737128	4752.464000	606.952148	9.050531
-6470.737128	4752.464000	605.721680	27.808084
-6470.737128	4752.464000	604.491211	56.940434
-6470.737128	4752.464000	603.259766	19.569403
-6470.737128	4752.464000	602.028320	32.059006
-6470.737128	4752.464000	600.796875	-11.536067
-6470.737128	4752.464000	599.564453	7.168942
-6470.737128	4752.464000	598.332031	27.934307
-6470.737128	4752.464000	597.099609	25.853914
-6470.737128	4752.464000	595.867188	40.366745
-6470.737128	4752.464000	594.633789	-50.934937
-6470.737128	4752.464000	593.400391	-9.463558
-6470.737128	4752.464000	592.166992	-32.300266
-6470.737128	4752.464000	590.933594	-15.743744
-6470.737128	4752.464000	589.699219	27.744303
-6470.737128	4752.464000	588.464844	-1.324566
-6470.737128	4752.464000	587.230469	-40.747921
-6470.737128	4752.464000	585.995117	-82.232964
-6470.737128	4752.464000	584.760742	-16.015938
-6470.737128	4752.464000	583.525391	54.306824
-6470.737128	4752.464000	582.289063	6.596194
-6470.737128	4752.464000	581.053711	-41.101318
-6470.737128	4752.464000	579.817383	12.606707
-6470.737128	4752.464000	578.581055	16.633873
-6470.737128	4752.464000	577.343750	-4.167717
-6470.737128	4752.464000	576.107422	3.983124
-6470.737128	4752.464000	574.870117	34.865864
-6470.737128	4752.464000	573.631836	-23.153246
-6470.737128	4752.464000	572.394531	-15.023930
-6470.737128	4752.464000	571.156250	63.344044
-6470.737128	4752.464000	569.917969	-21.518356
-6470.737128	4752.464000	568.679688	-11.349213
-6470.737128	4752.464000	567.440430	13.262879
-6470.737128	4752.464000	566.202148	6.892302
-6470.737128	4752.464000	564.961914	47.988689
-6470.737128	4752.464000	563.722656	93.188141
-6470.737128	4752.464000	562.482422	241.514908
-6470.737128	4752.464000	561.243164	214.449814
-6470.737128	4752.464000	560.001953	127.587440
-6470.737128	4752.464000	558.761719	32.509155
-6470.737128	4752.464000	557.520508	21.978571
-6470.737128	4752.464000	556.279297	17.629280
-6470.737128	4752.464000	555.038086	46.242748
-6470.737128	4752.464000	553.795898	-9.620346
-6470.737128	4752.464000	552.554688	-3.679198
-6470.737128	4752.464000	551.311523	-43.045944
-6470.737128	4752.464000	550.069336	41.117718
-6470.737128	4752.464000	548.826172	42.911774
-6470.737128	4752.464000	547.583984	-10.859603
-6470.737128	4752.464000	546.339844	67.055908
-6470.737128	4752.464000	545.096680	66.771568
-6470.737128	4752.464000	543.852539	52.087292
-6470.737128	4752.464000	542.608398	49.740871
-6470.737128	4752.464000	541.364258	20.668457
-6470.737128	4752.464000	540.119141	40.927166
-6470.737128	4752.464000	538.875000	42.680599
-6470.737128	4752.464000	537.628906	71.134384
-6470.737128	4752.464000	536.383789	130.378922
-6470.737128	4752.464000	535.137695	146.473373
-6470.737128	4752.464000	533.892578	242.621292
-6470.737128	4752.464000	532.645508	264.834778
-6470.737128	4752.464000	531.399414	190.589203
-6470.737128	4752.464000	530.152344	229.210129
-6470.737128	4752.464000	528.905273	91.411148
-6470.737128	4752.464000	527.658203	15.189924
-6470.737128	4752.464000	526.410156	82.517998
-6470.737128	4752.464000	525.163086	18.624464
-6470.737128	4752.464000	523.914063	-22.701128
-6470.737128	4752.464000	522.666016	-10.738524
-6470.737128	4752.464000	521.416992	-37.705589
-6470.737128	4752.464000	520.167969	43.885170
-6470.737128	4752.464000	518.918945	10.770460
-6470.737128	4752.464000	517.669922	10.423203
-6470.737128	4752.464000	516.419922	-37.001499
-6470.737128	4752.464000	515.169922	-8.693639
-6470.737128	4752.464000	513.919922	-43.822018
-6470.737128	4752.464000	512.668945	27.426172
-6470.737128	4752.464000	511.417969	47.517200
-6470.737128	4752.464000	510.166992	-6.005955
-6470.737128	4752.464000	508.916016	20.213531
-6470.737128	4752.464000	507.664063	-86.418877
-6470.737128	4752.464000	506.412109	11.318448
-6470.737128	4752.464000	505.160156	35.471909
-6470.737128	4752.464000	503.907227	45.317684
-6470.737128	4752.464000	502.655273	16.362144
-6470.737128	4752.464000	501.402344	-24.830391
-6470.737128	4752.464000	500.148438	11.554534
-6470.737128	4752.464000	498.895508	21.395720
-6470.737128	4752.464000	497.641602	-1.410125
-6470.737128	4752.464000	496.387695	-16.047018
-6470.737128	4752.464000	495.132813	36.619122
-6470.737128	4752.464000	493.878906	-20.835041
-6470.737128	4752.464000	492.624023	-10.996449
-6470.737128	4752.464000	491.368164	37.560055
-6470.737128	4752.464000	490.113281	-40.231094
-6470.737128	4752.464000	488.857422	-58.912159
-6470.737128	4752.464000	487.601563	3.882250
-6470.737128	4752.464000	486.344727	-90.138733
-6470.737128	4752.464000	485.088867	-53.827919
-6470.737128	4752.464000	483.832031	-50.097221
-6470.737128	4752.464000	482.575195	-32.122528
-6470.737128	4752.464000	481.317383	-36.533581
-6470.737128	4752.464000	480.059570	3.807313
-6470.737128	4752.464000	478.801758	-49.413013
-6470.737128	4752.464000	477.543945	43.778027
-6470.737128	4752.464000	476.285156	10.902030
-6470.737128	4752.464000	475.027344	6.493699
-6470.737128	4752.464000	473.767578	-40.579784
-6470.737128	4752.464000	472.508789	74.880493
-6470.737128	4752.464000	471.249023	25.784861
-6470.737128	4752.464000	469.989258	35.597118
-6470.737128	4752.464000	468.729492	16.985611
-6470.737128	4752.464000	467.469727	79.569717
-6470.737128	4752.464000	466.208984	117.777725
-6470.737128	4752.464000	464.948242	155.970993
-6470.737128	4752.464000	463.686523	267.169220
-6470.737128	4752.464000	462.425781	390.488403
-6470.737128	4752.464000	461.164063	558.359741
-6470.737128	4752.464000	459.901367	703.862793
-6470.737128	4752.464000	458.639648	705.417053
-6470.737128	4752.464000	457.376953	678.605896
-6470.737128	4752.464000	456.114258	532.290894
-6470.737128	4752.464000	454.851563	373.888611
-6470.737128	4752.464000	453.587891	235.804047
-6470.737128	4752.464000	452.324219	138.267792
-6470.737128	4752.464000	451.060547	152.091843
-6470.737128	4752.464000	449.796875	103.181320
-6470.737128	4752.464000	448.532227	80.592422
-6470.737128	4752.464000	447.267578	49.923012
-6470.737128	4752.464000	446.002930	110.265907
-6470.737128	4752.464000	444.737305	140.255875
-6470.737128	4752.464000	443.471680	79.272705
-6470.737128	4752.464000	442.206055	93.088142
-6470.737128	4752.464000	440.940430	169.530762
-6470.737128	4752.464000	439.673828	197.458542
-6470.737128	4752.464000	438.407227	170.844086
-6470.737128	4752.464000	437.140625	233.081512
-6470.737128	4752.464000	435.873047	269.046539
-6470.737128	4752.464000	434.605469	214.171204
-6470.737128	4752.464000	433.337891	98.781921
-6470.737128	4752.464000	432.070313	66.152344
-6470.737128	4752.464000	430.801758	31.516006
-6470.737128	4752.464000	429.533203	2.940146
-6470.737128	4752.464000	428.264648	42.918804
-6470.737128	4752.464000	426.996094	28.452473
-6470.737128	4752.464000	425.726563	-10.195870
-6470.737128	4752.464000	424.457031	3.550569
-6470.737128	4752.464000	423.186523	81.742798
-6470.737128	4752.464000	421.916992	71.282341
-6470.737128	4752.464000	420.646484	38.670166
-6470.737128	4752.464000	419.375977	88.597588
-6470.737128	4752.464000	418.104492	72.078506
-6470.737128	4752.464000	416.833008	73.666016
-6470.737128	4752.464000	415.561523	32.995998
-6470.737128	4752.464000	414.290039	-1.633957
-6470.737128	4752.464000	413.017578	14.009737
-6470.737128	4752.464000	411.746094	5.508805
-6470.737128	4752.464000	410.472656	-53.251923
-6470.737128	4752.464000	409.200195	-9.515561
-6470.737128	4752.464000	407.926758	2.040391
-6470.737128	4752.464000	406.653320	3.531235
-6470.737128	4752.464000	405.379883	-5.037412
-6470.737128	4752.464000	404.105469	98.815147
-6470.737128	4752.464000	402.831055	78.146660
-6470.737128	4752.464000	401.556641	65.493866
-6470.737128	4752.464000	400.282227	86.934883
-6470.737128	4752.464000	399.006836	16.064804
-6470.737128	4752.464000	397.731445	29.436886
-6470.737128	4752.464000	396.456055	-15.372727
-6470.737128	4752.464000	395.179688	74.127495
-6470.737128	4752.464000	393.903320	55.327896
-6470.737128	4752.464000	392.626953	44.522141
-6470.737128	4752.464000	391.350586	71.755196
-6470.737128	4752.464000	390.073242	151.021255
-6470.737128	4752.464000	388.795898	108.062248
-6470.737128	4752.464000	387.518555	77.098778
-6470.737128	4752.464000	386.240234	140.190491
-6470.737128	4752.464000	384.961914	91.145142
-6470.737128	4752.464000	383.683594	26.073593
-6470.737128	4752.464000	382.405273	77.010208
-6470.737128	4752.464000	381.125977	53.881241
-6470.737128	4752.464000	379.846680	42.712994
-6470.737128	4752.464000	378.567383	13.509408
-6470.737128	4752.464000	377.287109	6.252605
-6470.737128	4752.464000	376.006836	26.921341
-6470.737128	4752.464000	374.726563	-10.409085
-6470.737128	4752.464000	373.446289	-39.790630
-6470.737128	4752.464000	372.165039	-33.275028
-6470.737128	4752.464000	370.883789	-32.813175
-6470.737128	4752.464000	369.602539	-50.379700
-6470.737128	4752.464000	368.320313	-44.058533
-6470.737128	4752.464000	367.039063	-11.870655
-6470.737128	4752.464000	365.755859	-9.691533
-6470.737128	4752.464000	364.473633	16.345367
-6470.737128	4752.464000	363.190430	-9.547672
-6470.737128	4752.464000	361.907227	26.287336
-6470.737128	4752.464000	360.624023	40.101231
-6470.737128	4752.464000	359.340820	21.942629
-6470.737128	4752.464000	358.056641	15.654651
-6470.737128	4752.464000	356.772461	31.186359
-6470.737128	4752.464000	355.487305	-42.991985
-6470.737128	4752.464000	354.202148	-17.694897
-6470.737128	4752.464000	352.916992	7.489733
-6470.737128	4752.464000	351.631836	14.648618
-6470.737128	4752.464000	350.346680	-6.157495
-6470.737128	4752.464000	349.060547	-9.166924
-6470.737128	4752.464000	347.774414	-8.313738
-6470.737128	4752.464000	346.487305	-17.523998
-6470.737128	4752.464000	345.200195	88.438011
-6470.737128	4752.464000	343.913086	23.313005
-6470.737128	4752.464000	342.625977	47.496391
-6470.737128	4752.464000	341.338867	41.735779
-6470.737128	4752.464000	340.050781	17.960091
-6470.737128	4752.464000	338.762695	53.618774
-6470.737128	4752.464000	337.473633	1.761177
-6470.737128	4752.464000	336.184570	27.177689
-6470.737128	4752.464000	334.895508	-19.011305
-6470.737128	4752.464000	333.606445	14.011982
-6470.737128	4752.464000	332.317383	-4.717606
-6470.737128	4752.464000	331.027344	-27.582182
-6470.737128	4752.464000	329.736328	56.440754
-6470.737128	4752.464000	328.446289	-32.201488
-6470.737128	4752.464000	327.155273	-13.985271
-6470.737128	4752.464000	325.864258	51.578854
-6470.737128	4752.464000	324.573242	5.985108
-6470.737128	4752.464000	323.281250	9.710876
-6470.737128	4752.464000	321.989258	-26.377628
-6470.737128	4752.464000	320.697266	-38.914490
-6470.737128	4752.464000	319.405273	3.745010
-6470.737128	4752.464000	318.112305	-38.934780
-6470.737128	4752.464000	316.819336	7.188228
-6470.737128	4752.464000	315.526367	-24.088949
-6470.737128	4752.464000	314.232422	-10.129218
-6470.737128	4752.464000	312.938477	-32.019398
-6470.737128	4752.464000	311.644531	24.896116
-6470.737128	4752.464000	310.349609	-11.369306
-6470.737128	4752.464000	309.054688	17.298330
-6470.737128	4752.464000	307.759766	-13.591700
-6470.737128	4752.464000	306.464844	-34.889397
-6470.737128	4752.464000	305.168945	26.435917
-6470.737128	4752.464000	303.873047	57.813759
-6470.737128	4752.464000	302.577148	25.705782
-6470.737128	4752.464000	301.281250	68.261337
-6470.737128	4752.464000	299.984375	72.973465
