#X		#Y		#Wave		#Intensity
-7354.071489	4245.754500	1999.946289	-49.864758
-7354.071489	4245.754500	1998.981445	186.493301
-7354.071489	4245.754500	1998.017578	16.646696
-7354.071489	4245.754500	1997.052734	283.292358
-7354.071489	4245.754500	1996.088867	17.428638
-7354.071489	4245.754500	1995.124023	46.713886
-7354.071489	4245.754500	1994.159180	-10.432752
-7354.071489	4245.754500	1993.193359	-22.733637
-7354.071489	4245.754500	1992.228516	160.812790
-7354.071489	4245.754500	1991.262695	77.189789
-7354.071489	4245.754500	1990.296875	68.080574
-7354.071489	4245.754500	1989.331055	-17.504320
-7354.071489	4245.754500	1988.365234	-149.842331
-7354.071489	4245.754500	1987.398438	17.376619
-7354.071489	4245.754500	1986.432617	-107.076530
-7354.071489	4245.754500	1985.465820	273.125763
-7354.071489	4245.754500	1984.499023	-43.761642
-7354.071489	4245.754500	1983.532227	148.825195
-7354.071489	4245.754500	1982.565430	-48.930489
-7354.071489	4245.754500	1981.597656	114.294960
-7354.071489	4245.754500	1980.629883	-211.491074
-7354.071489	4245.754500	1979.662109	95.292427
-7354.071489	4245.754500	1978.694336	-136.205032
-7354.071489	4245.754500	1977.726563	86.820427
-7354.071489	4245.754500	1976.758789	43.317352
-7354.071489	4245.754500	1975.790039	-61.727894
-7354.071489	4245.754500	1974.821289	70.290329
-7354.071489	4245.754500	1973.852539	7.491751
-7354.071489	4245.754500	1972.883789	-30.489132
-7354.071489	4245.754500	1971.915039	141.292816
-7354.071489	4245.754500	1970.945313	152.856323
-7354.071489	4245.754500	1969.975586	162.064667
-7354.071489	4245.754500	1969.005859	-33.202190
-7354.071489	4245.754500	1968.036133	-85.359070
-7354.071489	4245.754500	1967.066406	175.518143
-7354.071489	4245.754500	1966.096680	89.048965
-7354.071489	4245.754500	1965.125977	34.721085
-7354.071489	4245.754500	1964.155273	-105.688293
-7354.071489	4245.754500	1963.184570	-76.079887
-7354.071489	4245.754500	1962.213867	-85.789894
-7354.071489	4245.754500	1961.242188	194.993286
-7354.071489	4245.754500	1960.271484	-50.845058
-7354.071489	4245.754500	1959.299805	62.669224
-7354.071489	4245.754500	1958.328125	-55.014786
-7354.071489	4245.754500	1957.356445	-25.037548
-7354.071489	4245.754500	1956.384766	184.482040
-7354.071489	4245.754500	1955.412109	-73.121132
-7354.071489	4245.754500	1954.439453	109.392120
-7354.071489	4245.754500	1953.467773	-98.858292
-7354.071489	4245.754500	1952.495117	-31.801189
-7354.071489	4245.754500	1951.521484	-8.947539
-7354.071489	4245.754500	1950.548828	225.157944
-7354.071489	4245.754500	1949.575195	81.038063
-7354.071489	4245.754500	1948.601563	-94.917450
-7354.071489	4245.754500	1947.627930	-10.577807
-7354.071489	4245.754500	1946.654297	5.033545
-7354.071489	4245.754500	1945.680664	-16.147778
-7354.071489	4245.754500	1944.706055	11.765021
-7354.071489	4245.754500	1943.732422	186.857224
-7354.071489	4245.754500	1942.757813	141.174896
-7354.071489	4245.754500	1941.783203	-127.612656
-7354.071489	4245.754500	1940.807617	-234.490387
-7354.071489	4245.754500	1939.833008	-275.144348
-7354.071489	4245.754500	1938.857422	-82.969597
-7354.071489	4245.754500	1937.881836	-55.028999
-7354.071489	4245.754500	1936.906250	119.883133
-7354.071489	4245.754500	1935.930664	17.956944
-7354.071489	4245.754500	1934.955078	21.361132
-7354.071489	4245.754500	1933.978516	-43.797092
-7354.071489	4245.754500	1933.001953	-145.661392
-7354.071489	4245.754500	1932.025391	-32.125401
-7354.071489	4245.754500	1931.048828	-43.443047
-7354.071489	4245.754500	1930.072266	21.068329
-7354.071489	4245.754500	1929.094727	220.071777
-7354.071489	4245.754500	1928.118164	30.126242
-7354.071489	4245.754500	1927.140625	-52.182407
-7354.071489	4245.754500	1926.163086	183.326843
-7354.071489	4245.754500	1925.184570	108.302505
-7354.071489	4245.754500	1924.207031	113.924011
-7354.071489	4245.754500	1923.228516	-46.632927
-7354.071489	4245.754500	1922.250000	22.471186
-7354.071489	4245.754500	1921.271484	-348.120605
-7354.071489	4245.754500	1920.292969	143.409607
-7354.071489	4245.754500	1919.314453	38.990093
-7354.071489	4245.754500	1918.334961	-92.278374
-7354.071489	4245.754500	1917.355469	-123.469994
-7354.071489	4245.754500	1916.375977	140.569229
-7354.071489	4245.754500	1915.396484	-29.796680
-7354.071489	4245.754500	1914.416992	12.072674
-7354.071489	4245.754500	1913.436523	70.956764
-7354.071489	4245.754500	1912.457031	95.636963
-7354.071489	4245.754500	1911.476563	61.754433
-7354.071489	4245.754500	1910.496094	108.273621
-7354.071489	4245.754500	1909.515625	32.879082
-7354.071489	4245.754500	1908.534180	-5.986683
-7354.071489	4245.754500	1907.552734	-307.982025
-7354.071489	4245.754500	1906.572266	76.925346
-7354.071489	4245.754500	1905.590820	218.123322
-7354.071489	4245.754500	1904.608398	25.664648
-7354.071489	4245.754500	1903.626953	42.568184
-7354.071489	4245.754500	1902.644531	37.508728
-7354.071489	4245.754500	1901.663086	44.564011
-7354.071489	4245.754500	1900.680664	207.265121
-7354.071489	4245.754500	1899.698242	34.176048
-7354.071489	4245.754500	1898.714844	-5.147614
-7354.071489	4245.754500	1897.732422	198.638046
-7354.071489	4245.754500	1896.749023	441.186859
-7354.071489	4245.754500	1895.765625	17.602167
-7354.071489	4245.754500	1894.782227	75.285835
-7354.071489	4245.754500	1893.798828	-0.744092
-7354.071489	4245.754500	1892.814453	-115.674377
-7354.071489	4245.754500	1891.831055	0.113182
-7354.071489	4245.754500	1890.846680	-73.612892
-7354.071489	4245.754500	1889.862305	260.509094
-7354.071489	4245.754500	1888.877930	55.557880
-7354.071489	4245.754500	1887.892578	107.878754
-7354.071489	4245.754500	1886.908203	111.588684
-7354.071489	4245.754500	1885.922852	-15.773780
-7354.071489	4245.754500	1884.937500	36.342930
-7354.071489	4245.754500	1883.952148	-100.784088
-7354.071489	4245.754500	1882.965820	70.010567
-7354.071489	4245.754500	1881.980469	-64.774551
-7354.071489	4245.754500	1880.994141	-22.638502
-7354.071489	4245.754500	1880.007813	89.693344
-7354.071489	4245.754500	1879.021484	109.849762
-7354.071489	4245.754500	1878.035156	-121.997513
-7354.071489	4245.754500	1877.047852	-80.142303
-7354.071489	4245.754500	1876.061523	87.553490
-7354.071489	4245.754500	1875.074219	296.276672
-7354.071489	4245.754500	1874.086914	-44.620464
-7354.071489	4245.754500	1873.098633	-3.073543
-7354.071489	4245.754500	1872.111328	16.617626
-7354.071489	4245.754500	1871.123047	41.073032
-7354.071489	4245.754500	1870.135742	244.446274
-7354.071489	4245.754500	1869.147461	65.577805
-7354.071489	4245.754500	1868.158203	-168.901642
-7354.071489	4245.754500	1867.169922	-91.507957
-7354.071489	4245.754500	1866.180664	58.298203
-7354.071489	4245.754500	1865.192383	207.985596
-7354.071489	4245.754500	1864.203125	161.847260
-7354.071489	4245.754500	1863.213867	166.388687
-7354.071489	4245.754500	1862.223633	105.652237
-7354.071489	4245.754500	1861.234375	56.949028
-7354.071489	4245.754500	1860.244141	99.938843
-7354.071489	4245.754500	1859.253906	39.054211
-7354.071489	4245.754500	1858.263672	142.235764
-7354.071489	4245.754500	1857.273438	-56.298550
-7354.071489	4245.754500	1856.282227	234.900604
-7354.071489	4245.754500	1855.291992	91.771095
-7354.071489	4245.754500	1854.300781	158.432999
-7354.071489	4245.754500	1853.309570	102.039963
-7354.071489	4245.754500	1852.317383	129.973740
-7354.071489	4245.754500	1851.326172	37.328026
-7354.071489	4245.754500	1850.333984	147.067139
-7354.071489	4245.754500	1849.342773	-13.131946
-7354.071489	4245.754500	1848.350586	4.915578
-7354.071489	4245.754500	1847.357422	210.742050
-7354.071489	4245.754500	1846.365234	267.143005
-7354.071489	4245.754500	1845.372070	212.714050
-7354.071489	4245.754500	1844.379883	206.386673
-7354.071489	4245.754500	1843.386719	106.142036
-7354.071489	4245.754500	1842.393555	5.873822
-7354.071489	4245.754500	1841.399414	-34.279961
-7354.071489	4245.754500	1840.406250	-146.630463
-7354.071489	4245.754500	1839.412109	7.924091
-7354.071489	4245.754500	1838.417969	75.805016
-7354.071489	4245.754500	1837.423828	-19.859386
-7354.071489	4245.754500	1836.429688	-31.428118
-7354.071489	4245.754500	1835.434570	158.791214
-7354.071489	4245.754500	1834.440430	-131.612411
-7354.071489	4245.754500	1833.445313	135.302979
-7354.071489	4245.754500	1832.450195	-44.633724
-7354.071489	4245.754500	1831.454102	92.383949
-7354.071489	4245.754500	1830.458984	-121.201073
-7354.071489	4245.754500	1829.462891	-236.357376
-7354.071489	4245.754500	1828.466797	-15.558551
-7354.071489	4245.754500	1827.470703	-267.563965
-7354.071489	4245.754500	1826.474609	46.601463
-7354.071489	4245.754500	1825.478516	-51.932972
-7354.071489	4245.754500	1824.481445	60.530472
-7354.071489	4245.754500	1823.484375	33.842693
-7354.071489	4245.754500	1822.487305	-52.816181
-7354.071489	4245.754500	1821.490234	-48.425198
-7354.071489	4245.754500	1820.493164	-72.841331
-7354.071489	4245.754500	1819.495117	89.557716
-7354.071489	4245.754500	1818.498047	120.109718
-7354.071489	4245.754500	1817.500000	-155.940262
-7354.071489	4245.754500	1816.500977	106.784081
-7354.071489	4245.754500	1815.502930	108.430367
-7354.071489	4245.754500	1814.504883	138.745819
-7354.071489	4245.754500	1813.505859	1.486253
-7354.071489	4245.754500	1812.506836	41.275593
-7354.071489	4245.754500	1811.507813	-7.505811
-7354.071489	4245.754500	1810.508789	60.872005
-7354.071489	4245.754500	1809.508789	19.176407
-7354.071489	4245.754500	1808.508789	-218.591537
-7354.071489	4245.754500	1807.508789	-150.362030
-7354.071489	4245.754500	1806.508789	-263.831848
-7354.071489	4245.754500	1805.508789	-21.288588
-7354.071489	4245.754500	1804.508789	6.113900
-7354.071489	4245.754500	1803.507813	83.612465
-7354.071489	4245.754500	1802.506836	17.755327
-7354.071489	4245.754500	1801.505859	-177.050797
-7354.071489	4245.754500	1800.504883	-130.728271
-7354.071489	4245.754500	1799.502930	-55.834377
-7354.071489	4245.754500	1798.501953	83.422607
-7354.071489	4245.754500	1797.500000	-32.699322
-7354.071489	4245.754500	1796.498047	-29.554054
-7354.071489	4245.754500	1795.496094	161.951660
-7354.071489	4245.754500	1794.493164	-52.012089
-7354.071489	4245.754500	1793.491211	129.805756
-7354.071489	4245.754500	1792.488281	54.090572
-7354.071489	4245.754500	1791.485352	54.620480
-7354.071489	4245.754500	1790.482422	-11.602091
-7354.071489	4245.754500	1789.478516	79.375969
-7354.071489	4245.754500	1788.475586	58.348080
-7354.071489	4245.754500	1787.471680	137.294159
-7354.071489	4245.754500	1786.467773	47.137051
-7354.071489	4245.754500	1785.463867	73.612579
-7354.071489	4245.754500	1784.459961	7.225112
-7354.071489	4245.754500	1783.455078	-28.248224
-7354.071489	4245.754500	1782.450195	119.437805
-7354.071489	4245.754500	1781.445313	-89.748550
-7354.071489	4245.754500	1780.440430	-65.839066
-7354.071489	4245.754500	1779.435547	-241.694595
-7354.071489	4245.754500	1778.429688	-3.894626
-7354.071489	4245.754500	1777.424805	-39.536644
-7354.071489	4245.754500	1776.418945	-22.927582
-7354.071489	4245.754500	1775.413086	-172.666718
-7354.071489	4245.754500	1774.406250	-46.844402
-7354.071489	4245.754500	1773.400391	97.905006
-7354.071489	4245.754500	1772.393555	-56.625088
-7354.071489	4245.754500	1771.386719	-222.997711
-7354.071489	4245.754500	1770.379883	61.641106
-7354.071489	4245.754500	1769.373047	-358.677917
-7354.071489	4245.754500	1768.365234	82.407791
-7354.071489	4245.754500	1767.358398	-100.593201
-7354.071489	4245.754500	1766.350586	-25.037241
-7354.071489	4245.754500	1765.342773	-229.355377
-7354.071489	4245.754500	1764.334961	78.484077
-7354.071489	4245.754500	1763.326172	30.608240
-7354.071489	4245.754500	1762.318359	46.718258
-7354.071489	4245.754500	1761.309570	231.023956
-7354.071489	4245.754500	1760.300781	130.944000
-7354.071489	4245.754500	1759.291016	-132.566452
-7354.071489	4245.754500	1758.282227	-40.769970
-7354.071489	4245.754500	1757.272461	84.106575
-7354.071489	4245.754500	1756.262695	-84.631348
-7354.071489	4245.754500	1755.252930	127.727615
-7354.071489	4245.754500	1754.243164	110.443642
-7354.071489	4245.754500	1753.233398	-100.863708
-7354.071489	4245.754500	1752.222656	2.486125
-7354.071489	4245.754500	1751.211914	-0.653440
-7354.071489	4245.754500	1750.201172	-74.750748
-7354.071489	4245.754500	1749.190430	-115.745827
-7354.071489	4245.754500	1748.179688	-52.745693
-7354.071489	4245.754500	1747.167969	-46.516174
-7354.071489	4245.754500	1746.156250	-35.585613
-7354.071489	4245.754500	1745.144531	109.972168
-7354.071489	4245.754500	1744.132813	64.142914
-7354.071489	4245.754500	1743.121094	-123.374748
-7354.071489	4245.754500	1742.108398	62.183540
-7354.071489	4245.754500	1741.095703	72.974083
-7354.071489	4245.754500	1740.083008	-72.022270
-7354.071489	4245.754500	1739.070313	-254.736786
-7354.071489	4245.754500	1738.057617	-312.364410
-7354.071489	4245.754500	1737.043945	33.343533
-7354.071489	4245.754500	1736.030273	93.552177
-7354.071489	4245.754500	1735.016602	-110.354317
-7354.071489	4245.754500	1734.002930	72.406639
-7354.071489	4245.754500	1732.989258	94.811981
-7354.071489	4245.754500	1731.974609	-151.452225
-7354.071489	4245.754500	1730.959961	-48.949280
-7354.071489	4245.754500	1729.945313	32.298702
-7354.071489	4245.754500	1728.930664	132.341888
-7354.071489	4245.754500	1727.916016	-52.582085
-7354.071489	4245.754500	1726.900391	23.858320
-7354.071489	4245.754500	1725.885742	-153.942261
-7354.071489	4245.754500	1724.870117	4.826288
-7354.071489	4245.754500	1723.853516	83.514877
-7354.071489	4245.754500	1722.837891	206.864883
-7354.071489	4245.754500	1721.822266	-34.399647
-7354.071489	4245.754500	1720.805664	74.782234
-7354.071489	4245.754500	1719.789063	-131.132187
-7354.071489	4245.754500	1718.772461	133.141602
-7354.071489	4245.754500	1717.754883	174.030716
-7354.071489	4245.754500	1716.738281	-31.819096
-7354.071489	4245.754500	1715.720703	16.110138
-7354.071489	4245.754500	1714.703125	202.590179
-7354.071489	4245.754500	1713.685547	-47.806381
-7354.071489	4245.754500	1712.667969	65.808464
-7354.071489	4245.754500	1711.649414	85.463333
-7354.071489	4245.754500	1710.630859	-38.066067
-7354.071489	4245.754500	1709.612305	354.685425
-7354.071489	4245.754500	1708.593750	245.210251
-7354.071489	4245.754500	1707.575195	121.694328
-7354.071489	4245.754500	1706.555664	-128.432419
-7354.071489	4245.754500	1705.536133	34.207275
-7354.071489	4245.754500	1704.516602	86.593216
-7354.071489	4245.754500	1703.497070	157.702255
-7354.071489	4245.754500	1702.477539	111.606956
-7354.071489	4245.754500	1701.457031	264.665955
-7354.071489	4245.754500	1700.437500	316.939178
-7354.071489	4245.754500	1699.416992	153.709091
-7354.071489	4245.754500	1698.395508	93.557983
-7354.071489	4245.754500	1697.375000	-8.709098
-7354.071489	4245.754500	1696.354492	78.656143
-7354.071489	4245.754500	1695.333008	84.064087
-7354.071489	4245.754500	1694.311523	-74.320877
-7354.071489	4245.754500	1693.290039	260.954651
-7354.071489	4245.754500	1692.267578	4.344974
-7354.071489	4245.754500	1691.246094	185.129791
-7354.071489	4245.754500	1690.223633	150.735992
-7354.071489	4245.754500	1689.201172	193.491074
-7354.071489	4245.754500	1688.178711	-18.518778
-7354.071489	4245.754500	1687.155273	148.081650
-7354.071489	4245.754500	1686.132813	366.019287
-7354.071489	4245.754500	1685.109375	270.870453
-7354.071489	4245.754500	1684.085938	287.850311
-7354.071489	4245.754500	1683.062500	272.133942
-7354.071489	4245.754500	1682.039063	291.437347
-7354.071489	4245.754500	1681.014648	296.719818
-7354.071489	4245.754500	1679.990234	453.677856
-7354.071489	4245.754500	1678.965820	204.621338
-7354.071489	4245.754500	1677.941406	275.227234
-7354.071489	4245.754500	1676.916992	280.504578
-7354.071489	4245.754500	1675.891602	465.314941
-7354.071489	4245.754500	1674.866211	461.220093
-7354.071489	4245.754500	1673.840820	340.586517
-7354.071489	4245.754500	1672.815430	247.963257
-7354.071489	4245.754500	1671.790039	502.535126
-7354.071489	4245.754500	1670.763672	274.801361
-7354.071489	4245.754500	1669.737305	443.090363
-7354.071489	4245.754500	1668.710938	408.728546
-7354.071489	4245.754500	1667.684570	395.336212
-7354.071489	4245.754500	1666.658203	381.949768
-7354.071489	4245.754500	1665.630859	508.196381
-7354.071489	4245.754500	1664.603516	778.656372
-7354.071489	4245.754500	1663.576172	634.927612
-7354.071489	4245.754500	1662.548828	437.762299
-7354.071489	4245.754500	1661.520508	584.831604
-7354.071489	4245.754500	1660.493164	545.856323
-7354.071489	4245.754500	1659.464844	834.650269
-7354.071489	4245.754500	1658.436523	823.530029
-7354.071489	4245.754500	1657.408203	714.825928
-7354.071489	4245.754500	1656.378906	822.214966
-7354.071489	4245.754500	1655.350586	783.242188
-7354.071489	4245.754500	1654.321289	848.783875
-7354.071489	4245.754500	1653.291992	795.892029
-7354.071489	4245.754500	1652.261719	717.480896
-7354.071489	4245.754500	1651.232422	975.650208
-7354.071489	4245.754500	1650.202148	1222.114258
-7354.071489	4245.754500	1649.171875	1108.881836
-7354.071489	4245.754500	1648.141602	1322.761841
-7354.071489	4245.754500	1647.111328	1109.842407
-7354.071489	4245.754500	1646.080078	1191.477295
-7354.071489	4245.754500	1645.049805	1375.098145
-7354.071489	4245.754500	1644.018555	1380.176025
-7354.071489	4245.754500	1642.987305	1712.004272
-7354.071489	4245.754500	1641.955078	1584.957886
-7354.071489	4245.754500	1640.923828	1800.808472
-7354.071489	4245.754500	1639.891602	1866.036011
-7354.071489	4245.754500	1638.859375	1815.468750
-7354.071489	4245.754500	1637.827148	1639.913330
-7354.071489	4245.754500	1636.794922	1899.588745
-7354.071489	4245.754500	1635.761719	2098.993652
-7354.071489	4245.754500	1634.729492	1812.449829
-7354.071489	4245.754500	1633.696289	1724.960083
-7354.071489	4245.754500	1632.662109	1713.831177
-7354.071489	4245.754500	1631.628906	1642.601929
-7354.071489	4245.754500	1630.594727	1305.525024
-7354.071489	4245.754500	1629.561523	1527.981812
-7354.071489	4245.754500	1628.527344	1694.888184
-7354.071489	4245.754500	1627.493164	1626.057617
-7354.071489	4245.754500	1626.458008	1481.019897
-7354.071489	4245.754500	1625.423828	1509.285034
-7354.071489	4245.754500	1624.388672	1463.646362
-7354.071489	4245.754500	1623.353516	1702.020264
-7354.071489	4245.754500	1622.318359	1679.465942
-7354.071489	4245.754500	1621.282227	1532.296143
-7354.071489	4245.754500	1620.247070	1422.122803
-7354.071489	4245.754500	1619.210938	1445.802246
-7354.071489	4245.754500	1618.174805	1612.492554
-7354.071489	4245.754500	1617.137695	1663.815430
-7354.071489	4245.754500	1616.101563	1556.046509
-7354.071489	4245.754500	1615.064453	1517.480957
-7354.071489	4245.754500	1614.027344	1571.133057
-7354.071489	4245.754500	1612.990234	1878.253906
-7354.071489	4245.754500	1611.953125	1768.264648
-7354.071489	4245.754500	1610.916016	1685.974121
-7354.071489	4245.754500	1609.877930	1859.351929
-7354.071489	4245.754500	1608.839844	1818.538086
-7354.071489	4245.754500	1607.801758	1819.192993
-7354.071489	4245.754500	1606.763672	1665.650879
-7354.071489	4245.754500	1605.724609	1728.486816
-7354.071489	4245.754500	1604.685547	1588.846924
-7354.071489	4245.754500	1603.646484	2019.748657
-7354.071489	4245.754500	1602.607422	2206.714111
-7354.071489	4245.754500	1601.568359	2030.315308
-7354.071489	4245.754500	1600.528320	2042.508545
-7354.071489	4245.754500	1599.489258	2105.284668
-7354.071489	4245.754500	1598.449219	1917.557251
-7354.071489	4245.754500	1597.408203	1888.446045
-7354.071489	4245.754500	1596.368164	2259.072510
-7354.071489	4245.754500	1595.327148	2298.838623
-7354.071489	4245.754500	1594.287109	2492.459961
-7354.071489	4245.754500	1593.246094	2314.094727
-7354.071489	4245.754500	1592.204102	2312.551514
-7354.071489	4245.754500	1591.163086	2255.955811
-7354.071489	4245.754500	1590.121094	2215.452148
-7354.071489	4245.754500	1589.079102	2174.981201
-7354.071489	4245.754500	1588.037109	2207.935791
-7354.071489	4245.754500	1586.995117	2201.913574
-7354.071489	4245.754500	1585.953125	2163.813477
-7354.071489	4245.754500	1584.910156	1907.978271
-7354.071489	4245.754500	1583.867188	2149.575195
-7354.071489	4245.754500	1582.824219	1969.493042
-7354.071489	4245.754500	1581.781250	1885.716309
-7354.071489	4245.754500	1580.737305	1815.726929
-7354.071489	4245.754500	1579.693359	1697.691895
-7354.071489	4245.754500	1578.649414	1792.650391
-7354.071489	4245.754500	1577.605469	1935.659302
-7354.071489	4245.754500	1576.561523	1588.867065
-7354.071489	4245.754500	1575.516602	1770.791016
-7354.071489	4245.754500	1574.472656	1872.600586
-7354.071489	4245.754500	1573.427734	1750.229980
-7354.071489	4245.754500	1572.381836	2078.425781
-7354.071489	4245.754500	1571.336914	1871.505737
-7354.071489	4245.754500	1570.291016	1751.546875
-7354.071489	4245.754500	1569.246094	1720.796753
-7354.071489	4245.754500	1568.200195	1927.715210
-7354.071489	4245.754500	1567.153320	1963.224487
-7354.071489	4245.754500	1566.107422	1980.474121
-7354.071489	4245.754500	1565.060547	2132.469238
-7354.071489	4245.754500	1564.013672	2069.800293
-7354.071489	4245.754500	1562.966797	2171.541748
-7354.071489	4245.754500	1561.919922	1971.992554
-7354.071489	4245.754500	1560.872070	1895.760010
-7354.071489	4245.754500	1559.825195	2095.643799
-7354.071489	4245.754500	1558.777344	1909.973511
-7354.071489	4245.754500	1557.729492	1708.435181
-7354.071489	4245.754500	1556.680664	1894.612793
-7354.071489	4245.754500	1555.632813	1638.491211
-7354.071489	4245.754500	1554.583984	1813.257935
-7354.071489	4245.754500	1553.535156	1637.049927
-7354.071489	4245.754500	1552.486328	1527.005981
-7354.071489	4245.754500	1551.436523	1555.973877
-7354.071489	4245.754500	1550.387695	1389.102539
-7354.071489	4245.754500	1549.337891	1436.348877
-7354.071489	4245.754500	1548.288086	1301.480713
-7354.071489	4245.754500	1547.238281	1068.818726
-7354.071489	4245.754500	1546.187500	1355.109009
-7354.071489	4245.754500	1545.136719	1015.637878
-7354.071489	4245.754500	1544.086914	1179.047241
-7354.071489	4245.754500	1543.035156	1019.458313
-7354.071489	4245.754500	1541.984375	837.224792
-7354.071489	4245.754500	1540.933594	1027.923950
-7354.071489	4245.754500	1539.881836	902.630249
-7354.071489	4245.754500	1538.830078	811.499207
-7354.071489	4245.754500	1537.778320	740.878601
-7354.071489	4245.754500	1536.725586	842.947449
-7354.071489	4245.754500	1535.673828	847.350037
-7354.071489	4245.754500	1534.621094	1092.466064
-7354.071489	4245.754500	1533.568359	872.110657
-7354.071489	4245.754500	1532.515625	946.943359
-7354.071489	4245.754500	1531.461914	819.796692
-7354.071489	4245.754500	1530.409180	640.547913
-7354.071489	4245.754500	1529.355469	844.762573
-7354.071489	4245.754500	1528.301758	924.183594
-7354.071489	4245.754500	1527.247070	897.020508
-7354.071489	4245.754500	1526.193359	1012.730652
-7354.071489	4245.754500	1525.138672	908.550476
-7354.071489	4245.754500	1524.083984	761.382996
-7354.071489	4245.754500	1523.029297	700.401184
-7354.071489	4245.754500	1521.974609	770.862122
-7354.071489	4245.754500	1520.918945	809.610291
-7354.071489	4245.754500	1519.863281	809.877747
-7354.071489	4245.754500	1518.807617	767.158752
-7354.071489	4245.754500	1517.751953	545.668274
-7354.071489	4245.754500	1516.696289	328.821533
-7354.071489	4245.754500	1515.639648	385.863708
-7354.071489	4245.754500	1514.583008	503.993317
-7354.071489	4245.754500	1513.526367	289.631470
-7354.071489	4245.754500	1512.469727	215.584946
-7354.071489	4245.754500	1511.412109	356.374390
-7354.071489	4245.754500	1510.355469	350.217773
-7354.071489	4245.754500	1509.297852	129.394592
-7354.071489	4245.754500	1508.240234	182.090515
-7354.071489	4245.754500	1507.181641	223.497238
-7354.071489	4245.754500	1506.124023	194.907669
-7354.071489	4245.754500	1505.065430	85.062462
-7354.071489	4245.754500	1504.006836	18.190159
-7354.071489	4245.754500	1502.948242	-82.482521
-7354.071489	4245.754500	1501.888672	-124.410233
-7354.071489	4245.754500	1500.830078	-21.876572
-7354.071489	4245.754500	1499.770508	265.629974
-7354.071489	4245.754500	1498.710938	-263.424957
-7354.071489	4245.754500	1497.650391	37.607674
-7354.071489	4245.754500	1496.590820	54.482075
-7354.071489	4245.754500	1495.530273	211.134811
-7354.071489	4245.754500	1494.469727	-55.932457
-7354.071489	4245.754500	1493.409180	-111.056488
-7354.071489	4245.754500	1492.348633	77.175941
-7354.071489	4245.754500	1491.287109	-11.672888
-7354.071489	4245.754500	1490.225586	226.071411
-7354.071489	4245.754500	1489.164063	105.776169
-7354.071489	4245.754500	1488.102539	134.129990
-7354.071489	4245.754500	1487.041016	-80.551544
-7354.071489	4245.754500	1485.978516	13.146537
-7354.071489	4245.754500	1484.916016	66.358414
-7354.071489	4245.754500	1483.853516	-64.868904
-7354.071489	4245.754500	1482.791016	-56.578255
-7354.071489	4245.754500	1481.727539	75.398415
-7354.071489	4245.754500	1480.664063	117.434402
-7354.071489	4245.754500	1479.600586	-121.409630
-7354.071489	4245.754500	1478.537109	217.291245
-7354.071489	4245.754500	1477.473633	189.763733
-7354.071489	4245.754500	1476.409180	357.656525
-7354.071489	4245.754500	1475.344727	323.409119
-7354.071489	4245.754500	1474.280273	248.883972
-7354.071489	4245.754500	1473.215820	266.415161
-7354.071489	4245.754500	1472.151367	550.894409
-7354.071489	4245.754500	1471.085938	308.209869
-7354.071489	4245.754500	1470.020508	651.192444
-7354.071489	4245.754500	1468.955078	579.053223
-7354.071489	4245.754500	1467.888672	993.242920
-7354.071489	4245.754500	1466.823242	663.816406
-7354.071489	4245.754500	1465.756836	1102.085449
-7354.071489	4245.754500	1464.690430	940.587585
-7354.071489	4245.754500	1463.624023	1186.866943
-7354.071489	4245.754500	1462.556641	1251.651001
-7354.071489	4245.754500	1461.490234	976.328979
-7354.071489	4245.754500	1460.422852	931.427856
-7354.071489	4245.754500	1459.355469	1111.800537
-7354.071489	4245.754500	1458.287109	942.297607
-7354.071489	4245.754500	1457.219727	1094.444946
-7354.071489	4245.754500	1456.151367	1230.853516
-7354.071489	4245.754500	1455.083008	1350.975952
-7354.071489	4245.754500	1454.014648	1246.167603
-7354.071489	4245.754500	1452.945313	1155.371094
-7354.071489	4245.754500	1451.876953	1271.934326
-7354.071489	4245.754500	1450.807617	1110.407959
-7354.071489	4245.754500	1449.738281	1457.945557
-7354.071489	4245.754500	1448.668945	1382.842041
-7354.071489	4245.754500	1447.598633	1436.587036
-7354.071489	4245.754500	1446.528320	1507.964600
-7354.071489	4245.754500	1445.458008	1666.199463
-7354.071489	4245.754500	1444.387695	1597.487061
-7354.071489	4245.754500	1443.317383	1575.140015
-7354.071489	4245.754500	1442.246094	1576.036621
-7354.071489	4245.754500	1441.174805	1703.259766
-7354.071489	4245.754500	1440.103516	1531.494873
-7354.071489	4245.754500	1439.032227	1805.253906
-7354.071489	4245.754500	1437.960938	1552.337769
-7354.071489	4245.754500	1436.888672	1457.517456
-7354.071489	4245.754500	1435.816406	1568.047485
-7354.071489	4245.754500	1434.744141	1447.668213
-7354.071489	4245.754500	1433.670898	1424.211304
-7354.071489	4245.754500	1432.598633	1285.870972
-7354.071489	4245.754500	1431.525391	1120.289307
-7354.071489	4245.754500	1430.452148	1197.212646
-7354.071489	4245.754500	1429.378906	1058.373413
-7354.071489	4245.754500	1428.304688	1171.828491
-7354.071489	4245.754500	1427.231445	885.831787
-7354.071489	4245.754500	1426.157227	903.404785
-7354.071489	4245.754500	1425.083008	445.312347
-7354.071489	4245.754500	1424.007813	639.385620
-7354.071489	4245.754500	1422.933594	867.578552
-7354.071489	4245.754500	1421.858398	581.464783
-7354.071489	4245.754500	1420.783203	760.522644
-7354.071489	4245.754500	1419.708008	748.971008
-7354.071489	4245.754500	1418.631836	987.052368
-7354.071489	4245.754500	1417.555664	716.409119
-7354.071489	4245.754500	1416.479492	952.283508
-7354.071489	4245.754500	1415.403320	609.132629
-7354.071489	4245.754500	1414.327148	500.337311
-7354.071489	4245.754500	1413.250000	611.710632
-7354.071489	4245.754500	1412.173828	421.045593
-7354.071489	4245.754500	1411.096680	795.799316
-7354.071489	4245.754500	1410.018555	621.097900
-7354.071489	4245.754500	1408.941406	822.454895
-7354.071489	4245.754500	1407.863281	1010.566833
-7354.071489	4245.754500	1406.785156	687.880371
-7354.071489	4245.754500	1405.707031	652.887756
-7354.071489	4245.754500	1404.628906	720.661316
-7354.071489	4245.754500	1403.549805	754.836609
-7354.071489	4245.754500	1402.470703	716.172607
-7354.071489	4245.754500	1401.391602	923.183105
-7354.071489	4245.754500	1400.312500	914.998901
-7354.071489	4245.754500	1399.233398	871.280151
-7354.071489	4245.754500	1398.153320	992.818970
-7354.071489	4245.754500	1397.073242	1180.333130
-7354.071489	4245.754500	1395.993164	1078.138916
-7354.071489	4245.754500	1394.913086	1358.933838
-7354.071489	4245.754500	1393.832031	1074.498169
-7354.071489	4245.754500	1392.750977	1025.754639
-7354.071489	4245.754500	1391.669922	1131.017822
-7354.071489	4245.754500	1390.588867	1233.404785
-7354.071489	4245.754500	1389.506836	1270.729492
-7354.071489	4245.754500	1388.425781	1337.311279
-7354.071489	4245.754500	1387.343750	1386.920654
-7354.071489	4245.754500	1386.261719	1310.860962
-7354.071489	4245.754500	1385.178711	1394.297607
-7354.071489	4245.754500	1384.096680	1366.085083
-7354.071489	4245.754500	1383.013672	1425.740112
-7354.071489	4245.754500	1381.930664	1223.925171
-7354.071489	4245.754500	1380.846680	1495.378296
-7354.071489	4245.754500	1379.763672	1472.648804
-7354.071489	4245.754500	1378.679688	1375.189331
-7354.071489	4245.754500	1377.595703	1308.214966
-7354.071489	4245.754500	1376.511719	1302.264648
-7354.071489	4245.754500	1375.427734	1367.971313
-7354.071489	4245.754500	1374.342773	1258.264404
-7354.071489	4245.754500	1373.257813	1291.294434
-7354.071489	4245.754500	1372.172852	1450.168701
-7354.071489	4245.754500	1371.087891	1386.238892
-7354.071489	4245.754500	1370.001953	1537.061646
-7354.071489	4245.754500	1368.916992	1611.261597
-7354.071489	4245.754500	1367.831055	1601.370361
-7354.071489	4245.754500	1366.744141	1629.643921
-7354.071489	4245.754500	1365.658203	1550.995605
-7354.071489	4245.754500	1364.571289	1671.109619
-7354.071489	4245.754500	1363.484375	1518.864624
-7354.071489	4245.754500	1362.397461	1828.848267
-7354.071489	4245.754500	1361.310547	1844.599487
-7354.071489	4245.754500	1360.222656	1879.744019
-7354.071489	4245.754500	1359.135742	2026.237671
-7354.071489	4245.754500	1358.047852	2120.552002
-7354.071489	4245.754500	1356.958984	2049.458984
-7354.071489	4245.754500	1355.871094	2067.034912
-7354.071489	4245.754500	1354.782227	2312.113281
-7354.071489	4245.754500	1353.693359	2346.244141
-7354.071489	4245.754500	1352.604492	2474.298584
-7354.071489	4245.754500	1351.515625	2469.600586
-7354.071489	4245.754500	1350.425781	2558.898926
-7354.071489	4245.754500	1349.335938	2514.776855
-7354.071489	4245.754500	1348.246094	2823.757813
-7354.071489	4245.754500	1347.156250	3166.044678
-7354.071489	4245.754500	1346.066406	3197.420410
-7354.071489	4245.754500	1344.975586	3298.149902
-7354.071489	4245.754500	1343.884766	3483.866699
-7354.071489	4245.754500	1342.793945	3685.588379
-7354.071489	4245.754500	1341.702148	3857.540527
-7354.071489	4245.754500	1340.611328	3706.574219
-7354.071489	4245.754500	1339.519531	3710.752441
-7354.071489	4245.754500	1338.427734	3811.671387
-7354.071489	4245.754500	1337.334961	3502.269775
-7354.071489	4245.754500	1336.243164	3282.373047
-7354.071489	4245.754500	1335.150391	3387.294434
-7354.071489	4245.754500	1334.057617	3227.858398
-7354.071489	4245.754500	1332.964844	3012.824951
-7354.071489	4245.754500	1331.871094	2695.450928
-7354.071489	4245.754500	1330.778320	2539.870361
-7354.071489	4245.754500	1329.684570	2428.398193
-7354.071489	4245.754500	1328.590820	2440.898438
-7354.071489	4245.754500	1327.496094	2092.249512
-7354.071489	4245.754500	1326.402344	1966.398804
-7354.071489	4245.754500	1325.307617	2177.275635
-7354.071489	4245.754500	1324.212891	1792.329590
-7354.071489	4245.754500	1323.117188	1922.891968
-7354.071489	4245.754500	1322.022461	1672.357788
-7354.071489	4245.754500	1320.926758	1601.064331
-7354.071489	4245.754500	1319.831055	1674.556641
-7354.071489	4245.754500	1318.735352	1667.621704
-7354.071489	4245.754500	1317.638672	1813.495728
-7354.071489	4245.754500	1316.542969	1595.777954
-7354.071489	4245.754500	1315.446289	1667.599365
-7354.071489	4245.754500	1314.349609	1544.645386
-7354.071489	4245.754500	1313.251953	1732.847656
-7354.071489	4245.754500	1312.155273	1509.750366
-7354.071489	4245.754500	1311.057617	1438.572876
-7354.071489	4245.754500	1309.959961	1606.599609
-7354.071489	4245.754500	1308.862305	1552.336548
-7354.071489	4245.754500	1307.763672	1740.815186
-7354.071489	4245.754500	1306.665039	1727.093384
-7354.071489	4245.754500	1305.566406	1739.960205
-7354.071489	4245.754500	1304.467773	1953.479980
-7354.071489	4245.754500	1303.369141	1822.318359
-7354.071489	4245.754500	1302.269531	1804.163452
-7354.071489	4245.754500	1301.169922	2038.668701
-7354.071489	4245.754500	1300.070313	1981.652466
-7354.071489	4245.754500	1298.970703	1833.255005
-7354.071489	4245.754500	1297.870117	1676.465332
-7354.071489	4245.754500	1296.769531	1809.032349
-7354.071489	4245.754500	1295.668945	1617.463989
-7354.071489	4245.754500	1294.568359	1551.976685
-7354.071489	4245.754500	1293.466797	1660.846680
-7354.071489	4245.754500	1292.366211	1596.583496
-7354.071489	4245.754500	1291.264648	1351.786621
-7354.071489	4245.754500	1290.162109	1539.088745
-7354.071489	4245.754500	1289.060547	1665.677124
-7354.071489	4245.754500	1287.958008	1478.241211
-7354.071489	4245.754500	1286.855469	1595.916382
-7354.071489	4245.754500	1285.752930	1571.538452
-7354.071489	4245.754500	1284.650391	1368.452881
-7354.071489	4245.754500	1283.546875	1611.858032
-7354.071489	4245.754500	1282.444336	1366.757202
-7354.071489	4245.754500	1281.339844	1362.946777
-7354.071489	4245.754500	1280.236328	1179.196289
-7354.071489	4245.754500	1279.132813	1050.375854
-7354.071489	4245.754500	1278.028320	1080.180176
-7354.071489	4245.754500	1276.923828	1066.459229
-7354.071489	4245.754500	1275.819336	964.285034
-7354.071489	4245.754500	1274.713867	973.069031
-7354.071489	4245.754500	1273.608398	930.950256
-7354.071489	4245.754500	1272.503906	903.737488
-7354.071489	4245.754500	1271.397461	848.267090
-7354.071489	4245.754500	1270.291992	950.926941
-7354.071489	4245.754500	1269.185547	1085.526611
-7354.071489	4245.754500	1268.080078	1143.593872
-7354.071489	4245.754500	1266.972656	1020.397095
-7354.071489	4245.754500	1265.866211	1039.854980
-7354.071489	4245.754500	1264.759766	991.281616
-7354.071489	4245.754500	1263.652344	1076.428345
-7354.071489	4245.754500	1262.544922	1132.533569
-7354.071489	4245.754500	1261.436523	1152.495361
-7354.071489	4245.754500	1260.329102	1138.973999
-7354.071489	4245.754500	1259.220703	1216.900513
-7354.071489	4245.754500	1258.112305	1334.189087
-7354.071489	4245.754500	1257.003906	1511.274902
-7354.071489	4245.754500	1255.895508	1363.415527
-7354.071489	4245.754500	1254.786133	1180.800415
-7354.071489	4245.754500	1253.676758	1343.938965
-7354.071489	4245.754500	1252.567383	1403.600586
-7354.071489	4245.754500	1251.458008	1411.038818
-7354.071489	4245.754500	1250.347656	1170.407959
-7354.071489	4245.754500	1249.237305	1240.856201
-7354.071489	4245.754500	1248.126953	1296.400879
-7354.071489	4245.754500	1247.016602	928.578796
-7354.071489	4245.754500	1245.905273	971.938782
-7354.071489	4245.754500	1244.793945	890.605530
-7354.071489	4245.754500	1243.682617	924.606079
-7354.071489	4245.754500	1242.571289	1031.780151
-7354.071489	4245.754500	1241.459961	993.174255
-7354.071489	4245.754500	1240.347656	1204.612793
-7354.071489	4245.754500	1239.235352	1266.895996
-7354.071489	4245.754500	1238.123047	1271.248291
-7354.071489	4245.754500	1237.009766	1391.082031
-7354.071489	4245.754500	1235.897461	1457.374512
-7354.071489	4245.754500	1234.784180	1561.155762
-7354.071489	4245.754500	1233.670898	1462.390015
-7354.071489	4245.754500	1232.556641	1417.122437
-7354.071489	4245.754500	1231.443359	1418.990601
-7354.071489	4245.754500	1230.329102	1302.196167
-7354.071489	4245.754500	1229.214844	1251.803223
-7354.071489	4245.754500	1228.099609	1097.854858
-7354.071489	4245.754500	1226.985352	970.882935
-7354.071489	4245.754500	1225.870117	868.898254
-7354.071489	4245.754500	1224.754883	677.405823
-7354.071489	4245.754500	1223.639648	713.652527
-7354.071489	4245.754500	1222.523438	501.453186
-7354.071489	4245.754500	1221.408203	423.738892
-7354.071489	4245.754500	1220.291992	367.276428
-7354.071489	4245.754500	1219.174805	256.631073
-7354.071489	4245.754500	1218.058594	296.921204
-7354.071489	4245.754500	1216.941406	55.639378
-7354.071489	4245.754500	1215.824219	217.247452
-7354.071489	4245.754500	1214.707031	235.491318
-7354.071489	4245.754500	1213.589844	65.051414
-7354.071489	4245.754500	1212.471680	159.809250
-7354.071489	4245.754500	1211.353516	112.084068
-7354.071489	4245.754500	1210.235352	-22.509129
-7354.071489	4245.754500	1209.117188	75.307762
-7354.071489	4245.754500	1207.998047	232.046219
-7354.071489	4245.754500	1206.878906	212.898453
-7354.071489	4245.754500	1205.759766	164.599594
-7354.071489	4245.754500	1204.640625	-1.006846
-7354.071489	4245.754500	1203.520508	7.626843
-7354.071489	4245.754500	1202.401367	28.986641
-7354.071489	4245.754500	1201.281250	-85.048607
-7354.071489	4245.754500	1200.160156	-163.617737
-7354.071489	4245.754500	1199.040039	-61.324734
-7354.071489	4245.754500	1197.918945	-65.377541
-7354.071489	4245.754500	1196.797852	-188.820450
-7354.071489	4245.754500	1195.676758	80.576782
-7354.071489	4245.754500	1194.555664	-11.011251
-7354.071489	4245.754500	1193.433594	46.374443
-7354.071489	4245.754500	1192.311523	28.713923
-7354.071489	4245.754500	1191.189453	-60.280136
-7354.071489	4245.754500	1190.066406	144.003662
-7354.071489	4245.754500	1188.944336	79.963959
-7354.071489	4245.754500	1187.821289	159.486877
-7354.071489	4245.754500	1186.698242	176.123672
-7354.071489	4245.754500	1185.574219	201.193817
-7354.071489	4245.754500	1184.451172	327.063629
-7354.071489	4245.754500	1183.327148	282.471832
-7354.071489	4245.754500	1182.203125	415.472626
-7354.071489	4245.754500	1181.078125	316.664825
-7354.071489	4245.754500	1179.954102	403.490753
-7354.071489	4245.754500	1178.829102	463.122955
-7354.071489	4245.754500	1177.704102	710.285400
-7354.071489	4245.754500	1176.579102	436.976898
-7354.071489	4245.754500	1175.453125	355.364716
-7354.071489	4245.754500	1174.327148	206.187500
-7354.071489	4245.754500	1173.201172	246.785843
-7354.071489	4245.754500	1172.075195	316.565796
-7354.071489	4245.754500	1170.949219	360.571136
-7354.071489	4245.754500	1169.822266	349.370514
-7354.071489	4245.754500	1168.695313	347.963257
-7354.071489	4245.754500	1167.568359	258.166565
-7354.071489	4245.754500	1166.440430	83.076500
-7354.071489	4245.754500	1165.313477	88.603844
-7354.071489	4245.754500	1164.185547	121.332588
-7354.071489	4245.754500	1163.057617	141.386978
-7354.071489	4245.754500	1161.928711	-44.352688
-7354.071489	4245.754500	1160.800781	-105.987434
-7354.071489	4245.754500	1159.671875	-103.380432
-7354.071489	4245.754500	1158.541992	-103.814064
-7354.071489	4245.754500	1157.413086	-71.956810
-7354.071489	4245.754500	1156.283203	-104.752838
-7354.071489	4245.754500	1155.154297	-178.899963
-7354.071489	4245.754500	1154.023438	-112.056427
-7354.071489	4245.754500	1152.893555	-142.260635
-7354.071489	4245.754500	1151.763672	12.975230
-7354.071489	4245.754500	1150.632813	-259.481049
-7354.071489	4245.754500	1149.501953	-80.158714
-7354.071489	4245.754500	1148.370117	-257.909698
-7354.071489	4245.754500	1147.239258	-396.106750
-7354.071489	4245.754500	1146.107422	-247.349136
-7354.071489	4245.754500	1144.975586	-45.374088
-7354.071489	4245.754500	1143.843750	-148.936646
-7354.071489	4245.754500	1142.710938	-29.630898
-7354.071489	4245.754500	1141.578125	-126.267357
-7354.071489	4245.754500	1140.445313	-138.276855
-7354.071489	4245.754500	1139.312500	-252.360718
-7354.071489	4245.754500	1138.178711	-3.603203
-7354.071489	4245.754500	1137.045898	49.542664
-7354.071489	4245.754500	1135.912109	396.147766
-7354.071489	4245.754500	1134.777344	80.432716
-7354.071489	4245.754500	1133.643555	106.808670
-7354.071489	4245.754500	1132.508789	300.092682
-7354.071489	4245.754500	1131.374023	146.357971
-7354.071489	4245.754500	1130.239258	232.461792
-7354.071489	4245.754500	1129.104492	271.287811
-7354.071489	4245.754500	1127.968750	4.534050
-7354.071489	4245.754500	1126.833008	121.418236
-7354.071489	4245.754500	1125.697266	204.555450
-7354.071489	4245.754500	1124.560547	215.725830
-7354.071489	4245.754500	1123.424805	359.365814
-7354.071489	4245.754500	1122.288086	198.287689
-7354.071489	4245.754500	1121.151367	56.841019
-7354.071489	4245.754500	1120.013672	279.123291
-7354.071489	4245.754500	1118.876953	316.526031
-7354.071489	4245.754500	1117.739258	487.613525
-7354.071489	4245.754500	1116.601563	195.847595
-7354.071489	4245.754500	1115.462891	10.495708
-7354.071489	4245.754500	1114.324219	155.738403
-7354.071489	4245.754500	1113.186523	90.356796
-7354.071489	4245.754500	1112.046875	126.614525
-7354.071489	4245.754500	1110.908203	268.119781
-7354.071489	4245.754500	1109.769531	288.825592
-7354.071489	4245.754500	1108.629883	289.772949
-7354.071489	4245.754500	1107.490234	113.844505
-7354.071489	4245.754500	1106.349609	149.961105
-7354.071489	4245.754500	1105.209961	249.513153
-7354.071489	4245.754500	1104.069336	287.970398
-7354.071489	4245.754500	1102.928711	205.387390
-7354.071489	4245.754500	1101.787109	25.475031
-7354.071489	4245.754500	1100.646484	86.556282
-7354.071489	4245.754500	1099.504883	36.764069
-7354.071489	4245.754500	1098.363281	161.022995
-7354.071489	4245.754500	1097.221680	253.979462
-7354.071489	4245.754500	1096.079102	56.414738
-7354.071489	4245.754500	1094.936523	227.963394
-7354.071489	4245.754500	1093.793945	245.423203
-7354.071489	4245.754500	1092.651367	180.323349
-7354.071489	4245.754500	1091.507813	230.946152
-7354.071489	4245.754500	1090.364258	411.061859
-7354.071489	4245.754500	1089.220703	293.811066
-7354.071489	4245.754500	1088.077148	348.804016
-7354.071489	4245.754500	1086.933594	178.603134
-7354.071489	4245.754500	1085.789063	288.060059
-7354.071489	4245.754500	1084.644531	250.112091
-7354.071489	4245.754500	1083.499023	402.440948
-7354.071489	4245.754500	1082.354492	475.075500
-7354.071489	4245.754500	1081.208984	425.275848
-7354.071489	4245.754500	1080.063477	401.176453
-7354.071489	4245.754500	1078.917969	318.228455
-7354.071489	4245.754500	1077.771484	142.998383
-7354.071489	4245.754500	1076.625977	255.669373
-7354.071489	4245.754500	1075.479492	377.987854
-7354.071489	4245.754500	1074.332031	325.091492
-7354.071489	4245.754500	1073.185547	310.762024
-7354.071489	4245.754500	1072.038086	473.002716
-7354.071489	4245.754500	1070.890625	545.593628
-7354.071489	4245.754500	1069.743164	576.942871
-7354.071489	4245.754500	1068.594727	357.162018
-7354.071489	4245.754500	1067.447266	601.708435
-7354.071489	4245.754500	1066.298828	614.374695
-7354.071489	4245.754500	1065.149414	752.616638
-7354.071489	4245.754500	1064.000977	861.098877
-7354.071489	4245.754500	1062.851563	943.187134
-7354.071489	4245.754500	1061.702148	976.069458
-7354.071489	4245.754500	1060.552734	1062.951904
-7354.071489	4245.754500	1059.402344	1080.375854
-7354.071489	4245.754500	1058.252930	1011.319092
-7354.071489	4245.754500	1057.102539	872.266541
-7354.071489	4245.754500	1055.951172	790.776733
-7354.071489	4245.754500	1054.800781	691.049316
-7354.071489	4245.754500	1053.649414	434.963684
-7354.071489	4245.754500	1052.498047	668.808594
-7354.071489	4245.754500	1051.346680	448.169006
-7354.071489	4245.754500	1050.194336	312.231659
-7354.071489	4245.754500	1049.042969	308.001831
-7354.071489	4245.754500	1047.890625	383.942932
-7354.071489	4245.754500	1046.738281	115.086876
-7354.071489	4245.754500	1045.584961	307.948578
-7354.071489	4245.754500	1044.431641	339.726959
-7354.071489	4245.754500	1043.278320	310.607544
-7354.071489	4245.754500	1042.125000	216.316803
-7354.071489	4245.754500	1040.971680	354.787384
-7354.071489	4245.754500	1039.817383	363.777374
-7354.071489	4245.754500	1038.663086	363.147736
-7354.071489	4245.754500	1037.508789	280.428772
-7354.071489	4245.754500	1036.353516	314.597290
-7354.071489	4245.754500	1035.198242	288.859039
-7354.071489	4245.754500	1034.042969	350.533295
-7354.071489	4245.754500	1032.887695	325.105438
-7354.071489	4245.754500	1031.732422	232.166229
-7354.071489	4245.754500	1030.576172	318.483582
-7354.071489	4245.754500	1029.419922	507.885223
-7354.071489	4245.754500	1028.263672	318.274506
-7354.071489	4245.754500	1027.106445	438.273804
-7354.071489	4245.754500	1025.949219	336.213806
-7354.071489	4245.754500	1024.792969	414.069733
-7354.071489	4245.754500	1023.634766	286.190277
-7354.071489	4245.754500	1022.477539	45.285297
-7354.071489	4245.754500	1021.319336	39.166027
-7354.071489	4245.754500	1020.161133	157.082092
-7354.071489	4245.754500	1019.002930	-69.321983
-7354.071489	4245.754500	1017.843750	308.413116
-7354.071489	4245.754500	1016.684570	151.199142
-7354.071489	4245.754500	1015.525391	163.897369
-7354.071489	4245.754500	1014.366211	154.374023
-7354.071489	4245.754500	1013.207031	17.191565
-7354.071489	4245.754500	1012.046875	-59.235584
-7354.071489	4245.754500	1010.886719	29.923239
-7354.071489	4245.754500	1009.726563	-88.278267
-7354.071489	4245.754500	1008.565430	83.024498
-7354.071489	4245.754500	1007.404297	55.203228
-7354.071489	4245.754500	1006.243164	201.672928
-7354.071489	4245.754500	1005.082031	241.064438
-7354.071489	4245.754500	1003.920898	342.399231
-7354.071489	4245.754500	1002.758789	407.289948
-7354.071489	4245.754500	1001.596680	354.614166
-7354.071489	4245.754500	1000.433594	80.968872
-7354.071489	4245.754500	999.271484	303.173615
-7354.071489	4245.754500	998.108398	241.853149
-7354.071489	4245.754500	996.945313	264.351807
-7354.071489	4245.754500	995.782227	142.096283
-7354.071489	4245.754500	994.618164	130.061615
-7354.071489	4245.754500	993.454102	190.660416
-7354.071489	4245.754500	992.290039	-32.552628
-7354.071489	4245.754500	991.125977	280.166565
-7354.071489	4245.754500	989.960938	286.994202
-7354.071489	4245.754500	988.796875	32.246765
-7354.071489	4245.754500	987.630859	226.675491
-7354.071489	4245.754500	986.465820	161.137482
-7354.071489	4245.754500	985.300781	171.877258
-7354.071489	4245.754500	984.134766	113.298538
-7354.071489	4245.754500	982.968750	-25.702660
-7354.071489	4245.754500	981.801758	-18.503874
-7354.071489	4245.754500	980.635742	-83.353073
-7354.071489	4245.754500	979.468750	-56.463314
-7354.071489	4245.754500	978.301758	-83.561630
-7354.071489	4245.754500	977.133789	-164.451340
-7354.071489	4245.754500	975.966797	-20.468313
-7354.071489	4245.754500	974.798828	-10.029713
-7354.071489	4245.754500	973.630859	-84.828400
-7354.071489	4245.754500	972.461914	-33.015350
-7354.071489	4245.754500	971.293945	-18.141315
-7354.071489	4245.754500	970.125000	42.810169
-7354.071489	4245.754500	968.956055	102.579803
-7354.071489	4245.754500	967.786133	29.042988
-7354.071489	4245.754500	966.617188	10.628442
-7354.071489	4245.754500	965.447266	107.016685
-7354.071489	4245.754500	964.276367	63.728172
-7354.071489	4245.754500	963.106445	7.012899
-7354.071489	4245.754500	961.935547	-82.228882
-7354.071489	4245.754500	960.764648	94.894875
-7354.071489	4245.754500	959.593750	140.652649
-7354.071489	4245.754500	958.422852	275.520935
-7354.071489	4245.754500	957.250977	-70.638557
-7354.071489	4245.754500	956.079102	95.265404
-7354.071489	4245.754500	954.907227	43.974941
-7354.071489	4245.754500	953.734375	-189.429504
-7354.071489	4245.754500	952.562500	29.254192
-7354.071489	4245.754500	951.389648	90.167473
-7354.071489	4245.754500	950.215820	-147.331360
-7354.071489	4245.754500	949.042969	45.042816
-7354.071489	4245.754500	947.869141	4.023234
-7354.071489	4245.754500	946.695313	-60.859417
-7354.071489	4245.754500	945.521484	75.764870
-7354.071489	4245.754500	944.346680	-31.588907
-7354.071489	4245.754500	943.172852	-72.986237
-7354.071489	4245.754500	941.998047	-143.969269
-7354.071489	4245.754500	940.822266	161.828064
-7354.071489	4245.754500	939.647461	-74.006401
-7354.071489	4245.754500	938.471680	-211.630066
-7354.071489	4245.754500	937.295898	41.861729
-7354.071489	4245.754500	936.119141	-85.764069
-7354.071489	4245.754500	934.943359	-6.587616
-7354.071489	4245.754500	933.766602	-9.651111
-7354.071489	4245.754500	932.589844	-95.026443
-7354.071489	4245.754500	931.413086	38.043083
-7354.071489	4245.754500	930.235352	26.867338
-7354.071489	4245.754500	929.057617	252.204498
-7354.071489	4245.754500	927.879883	-17.507111
-7354.071489	4245.754500	926.702148	-42.725658
-7354.071489	4245.754500	925.523438	-210.188171
-7354.071489	4245.754500	924.344727	-65.086670
-7354.071489	4245.754500	923.166016	128.024963
-7354.071489	4245.754500	921.987305	34.721745
-7354.071489	4245.754500	920.807617	67.584015
-7354.071489	4245.754500	919.627930	75.192207
-7354.071489	4245.754500	919.497070	73.247658
-7354.071489	4245.754500	918.331055	-72.117752
-7354.071489	4245.754500	917.165039	66.691154
-7354.071489	4245.754500	915.999023	45.408558
-7354.071489	4245.754500	914.833008	-83.868080
-7354.071489	4245.754500	913.666016	-149.099457
-7354.071489	4245.754500	912.499023	-56.371189
-7354.071489	4245.754500	911.332031	-53.627792
-7354.071489	4245.754500	910.165039	-232.741547
-7354.071489	4245.754500	908.997070	-0.195671
-7354.071489	4245.754500	907.830078	-73.381805
-7354.071489	4245.754500	906.661133	131.076996
-7354.071489	4245.754500	905.493164	-195.694702
-7354.071489	4245.754500	904.325195	-53.194782
-7354.071489	4245.754500	903.156250	-116.333252
-7354.071489	4245.754500	901.987305	-29.784559
-7354.071489	4245.754500	900.818359	-140.793091
-7354.071489	4245.754500	899.648438	23.516270
-7354.071489	4245.754500	898.478516	58.123371
-7354.071489	4245.754500	897.308594	74.766243
-7354.071489	4245.754500	896.138672	31.591106
-7354.071489	4245.754500	894.968750	80.110405
-7354.071489	4245.754500	893.797852	-204.168976
-7354.071489	4245.754500	892.626953	39.616627
-7354.071489	4245.754500	891.456055	-21.460810
-7354.071489	4245.754500	890.284180	32.990353
-7354.071489	4245.754500	889.113281	-30.065958
-7354.071489	4245.754500	887.941406	-132.911636
-7354.071489	4245.754500	886.768555	36.948109
-7354.071489	4245.754500	885.596680	25.648149
-7354.071489	4245.754500	884.423828	70.054955
-7354.071489	4245.754500	883.250977	22.939425
-7354.071489	4245.754500	882.078125	121.004364
-7354.071489	4245.754500	880.905273	-23.543501
-7354.071489	4245.754500	879.731445	-62.681801
-7354.071489	4245.754500	878.557617	98.914085
-7354.071489	4245.754500	877.383789	-41.590160
-7354.071489	4245.754500	876.209961	-58.879433
-7354.071489	4245.754500	875.035156	50.950417
-7354.071489	4245.754500	873.860352	144.837311
-7354.071489	4245.754500	872.685547	228.746719
-7354.071489	4245.754500	871.510742	-50.639088
-7354.071489	4245.754500	870.334961	160.270493
-7354.071489	4245.754500	869.159180	178.616562
-7354.071489	4245.754500	867.983398	8.486609
-7354.071489	4245.754500	866.807617	-62.420494
-7354.071489	4245.754500	865.630859	104.645943
-7354.071489	4245.754500	864.454102	61.482300
-7354.071489	4245.754500	863.277344	202.658508
-7354.071489	4245.754500	862.100586	139.644882
-7354.071489	4245.754500	860.922852	183.637360
-7354.071489	4245.754500	859.745117	98.837616
-7354.071489	4245.754500	858.567383	172.497223
-7354.071489	4245.754500	857.389648	-5.362750
-7354.071489	4245.754500	856.210938	181.101013
-7354.071489	4245.754500	855.032227	70.578529
-7354.071489	4245.754500	853.853516	130.266647
-7354.071489	4245.754500	852.674805	-45.525497
-7354.071489	4245.754500	851.495117	83.362717
-7354.071489	4245.754500	850.315430	-56.782944
-7354.071489	4245.754500	849.135742	-1.142605
-7354.071489	4245.754500	847.956055	76.200287
-7354.071489	4245.754500	846.775391	-146.922852
-7354.071489	4245.754500	845.595703	-85.432068
-7354.071489	4245.754500	844.415039	-8.178757
-7354.071489	4245.754500	843.233398	108.531883
-7354.071489	4245.754500	842.052734	171.846313
-7354.071489	4245.754500	840.871094	-195.303787
-7354.071489	4245.754500	839.689453	-11.580781
-7354.071489	4245.754500	838.506836	256.913971
-7354.071489	4245.754500	837.325195	95.112251
-7354.071489	4245.754500	836.142578	158.254120
-7354.071489	4245.754500	834.959961	-35.063892
-7354.071489	4245.754500	833.777344	18.168453
-7354.071489	4245.754500	832.593750	-111.997993
-7354.071489	4245.754500	831.410156	-147.522324
-7354.071489	4245.754500	830.226563	10.073455
-7354.071489	4245.754500	829.042969	120.287888
-7354.071489	4245.754500	827.858398	236.344543
-7354.071489	4245.754500	826.673828	11.593985
-7354.071489	4245.754500	825.489258	60.614792
-7354.071489	4245.754500	824.304688	-12.475387
-7354.071489	4245.754500	823.120117	-10.769839
-7354.071489	4245.754500	821.934570	130.629669
-7354.071489	4245.754500	820.749023	0.424398
-7354.071489	4245.754500	819.562500	-74.675964
-7354.071489	4245.754500	818.376953	-47.516258
-7354.071489	4245.754500	817.190430	89.715988
-7354.071489	4245.754500	816.003906	-30.672415
-7354.071489	4245.754500	814.817383	-58.668327
-7354.071489	4245.754500	813.629883	198.251266
-7354.071489	4245.754500	812.442383	225.163757
-7354.071489	4245.754500	811.254883	-231.178467
-7354.071489	4245.754500	810.067383	13.725014
-7354.071489	4245.754500	808.878906	95.528931
-7354.071489	4245.754500	807.690430	-219.272232
-7354.071489	4245.754500	806.501953	-9.960256
-7354.071489	4245.754500	805.313477	-81.371658
-7354.071489	4245.754500	804.124023	-97.857712
-7354.071489	4245.754500	802.934570	-261.484344
-7354.071489	4245.754500	801.745117	-13.272625
-7354.071489	4245.754500	800.555664	-131.837372
-7354.071489	4245.754500	799.365234	188.693588
-7354.071489	4245.754500	798.175781	-0.502017
-7354.071489	4245.754500	796.985352	-79.933189
-7354.071489	4245.754500	795.793945	54.158180
-7354.071489	4245.754500	794.603516	-89.972847
-7354.071489	4245.754500	793.412109	-265.415558
-7354.071489	4245.754500	792.220703	211.103287
-7354.071489	4245.754500	791.028320	-75.986748
-7354.071489	4245.754500	789.836914	-30.327774
-7354.071489	4245.754500	788.644531	19.182013
-7354.071489	4245.754500	787.452148	-13.535541
-7354.071489	4245.754500	786.258789	86.705780
-7354.071489	4245.754500	785.066406	149.700714
-7354.071489	4245.754500	783.873047	-57.156288
-7354.071489	4245.754500	782.679688	-4.027206
-7354.071489	4245.754500	781.485352	2.133377
-7354.071489	4245.754500	780.291992	-206.673401
-7354.071489	4245.754500	779.097656	18.191689
-7354.071489	4245.754500	777.903320	-124.234924
-7354.071489	4245.754500	776.708008	-145.598434
-7354.071489	4245.754500	775.512695	-8.888676
-7354.071489	4245.754500	774.318359	-53.800388
-7354.071489	4245.754500	773.122070	-202.159851
-7354.071489	4245.754500	771.926758	-223.711273
-7354.071489	4245.754500	770.730469	-22.954729
-7354.071489	4245.754500	769.534180	-68.045837
-7354.071489	4245.754500	768.337891	-85.882629
-7354.071489	4245.754500	767.141602	-78.430504
-7354.071489	4245.754500	765.944336	32.251831
-7354.071489	4245.754500	764.747070	-3.305485
-7354.071489	4245.754500	763.549805	-7.739737
-7354.071489	4245.754500	762.351563	124.103134
-7354.071489	4245.754500	761.154297	154.570526
-7354.071489	4245.754500	759.956055	33.113640
-7354.071489	4245.754500	758.757813	55.678875
-7354.071489	4245.754500	757.558594	33.416195
-7354.071489	4245.754500	756.359375	129.778931
-7354.071489	4245.754500	755.160156	-19.056673
-7354.071489	4245.754500	753.960938	84.925430
-7354.071489	4245.754500	752.761719	159.632919
-7354.071489	4245.754500	751.561523	150.654968
-7354.071489	4245.754500	750.361328	248.508652
-7354.071489	4245.754500	749.160156	-59.864403
-7354.071489	4245.754500	747.959961	47.569942
-7354.071489	4245.754500	746.758789	34.467808
-7354.071489	4245.754500	745.557617	25.184437
-7354.071489	4245.754500	744.356445	-160.845123
-7354.071489	4245.754500	743.154297	0.598776
-7354.071489	4245.754500	741.952148	8.585433
-7354.071489	4245.754500	740.750000	55.304794
-7354.071489	4245.754500	739.547852	-55.202599
-7354.071489	4245.754500	738.344727	-156.036636
-7354.071489	4245.754500	737.142578	223.996124
-7354.071489	4245.754500	735.939453	109.427757
-7354.071489	4245.754500	734.735352	89.811348
-7354.071489	4245.754500	733.532227	85.629791
-7354.071489	4245.754500	732.328125	137.564224
-7354.071489	4245.754500	731.124023	135.162094
-7354.071489	4245.754500	729.918945	134.622910
-7354.071489	4245.754500	728.714844	13.955471
-7354.071489	4245.754500	727.509766	197.195953
-7354.071489	4245.754500	726.303711	93.833984
-7354.071489	4245.754500	725.098633	31.072142
-7354.071489	4245.754500	723.892578	126.901299
-7354.071489	4245.754500	722.686523	75.607658
-7354.071489	4245.754500	721.480469	161.559006
-7354.071489	4245.754500	720.274414	63.717899
-7354.071489	4245.754500	719.067383	93.418129
-7354.071489	4245.754500	717.860352	39.922749
-7354.071489	4245.754500	716.653320	59.792953
-7354.071489	4245.754500	715.445313	-121.334885
-7354.071489	4245.754500	714.238281	72.225471
-7354.071489	4245.754500	713.030273	-78.097717
-7354.071489	4245.754500	711.821289	-122.256088
-7354.071489	4245.754500	710.613281	-112.434082
-7354.071489	4245.754500	709.404297	-114.277031
-7354.071489	4245.754500	708.195313	-112.343536
-7354.071489	4245.754500	706.986328	-96.992233
-7354.071489	4245.754500	705.776367	-183.946579
-7354.071489	4245.754500	704.566406	97.334671
-7354.071489	4245.754500	703.356445	50.690182
-7354.071489	4245.754500	702.146484	-177.192734
-7354.071489	4245.754500	700.935547	-4.255526
-7354.071489	4245.754500	699.724609	-106.975189
-7354.071489	4245.754500	698.513672	-186.623352
-7354.071489	4245.754500	697.302734	14.836947
-7354.071489	4245.754500	696.090820	-12.991028
-7354.071489	4245.754500	694.878906	-194.889618
-7354.071489	4245.754500	693.666992	-26.530777
-7354.071489	4245.754500	692.455078	149.366653
-7354.071489	4245.754500	691.242188	125.035583
-7354.071489	4245.754500	690.029297	56.390312
-7354.071489	4245.754500	688.816406	131.906387
-7354.071489	4245.754500	687.602539	322.655426
-7354.071489	4245.754500	686.389648	330.635681
-7354.071489	4245.754500	685.175781	426.923950
-7354.071489	4245.754500	683.960938	252.178268
-7354.071489	4245.754500	682.747070	171.544800
-7354.071489	4245.754500	681.532227	106.221077
-7354.071489	4245.754500	680.317383	198.285172
-7354.071489	4245.754500	679.102539	57.940285
-7354.071489	4245.754500	677.886719	410.823059
-7354.071489	4245.754500	676.670898	124.482475
-7354.071489	4245.754500	675.455078	248.729248
-7354.071489	4245.754500	674.239258	296.113342
-7354.071489	4245.754500	673.022461	149.704727
-7354.071489	4245.754500	671.805664	141.314545
-7354.071489	4245.754500	670.588867	219.099197
-7354.071489	4245.754500	669.372070	131.949585
-7354.071489	4245.754500	668.154297	83.070251
-7354.071489	4245.754500	666.936523	237.183777
-7354.071489	4245.754500	665.718750	383.484741
-7354.071489	4245.754500	664.500977	349.644409
-7354.071489	4245.754500	663.282227	294.670807
-7354.071489	4245.754500	662.063477	216.667755
-7354.071489	4245.754500	660.844727	207.502762
-7354.071489	4245.754500	659.625000	156.164261
-7354.071489	4245.754500	658.405273	410.814850
-7354.071489	4245.754500	657.185547	192.906158
-7354.071489	4245.754500	655.965820	215.920029
-7354.071489	4245.754500	654.745117	82.086899
-7354.071489	4245.754500	653.525391	53.345692
-7354.071489	4245.754500	652.303711	282.488190
-7354.071489	4245.754500	651.083008	116.000938
-7354.071489	4245.754500	649.861328	153.870499
-7354.071489	4245.754500	648.640625	145.815659
-7354.071489	4245.754500	647.417969	433.602142
-7354.071489	4245.754500	646.196289	112.287643
-7354.071489	4245.754500	644.973633	172.702072
-7354.071489	4245.754500	643.750977	68.927002
-7354.071489	4245.754500	642.528320	41.421104
-7354.071489	4245.754500	641.305664	238.895035
-7354.071489	4245.754500	640.082031	262.689056
-7354.071489	4245.754500	638.858398	429.374390
-7354.071489	4245.754500	637.634766	239.499603
-7354.071489	4245.754500	636.410156	562.221313
-7354.071489	4245.754500	635.185547	362.720276
-7354.071489	4245.754500	633.960938	464.180939
-7354.071489	4245.754500	632.736328	348.430267
-7354.071489	4245.754500	631.510742	310.714600
-7354.071489	4245.754500	630.285156	484.237488
-7354.071489	4245.754500	629.059570	552.944153
-7354.071489	4245.754500	627.833984	534.026978
-7354.071489	4245.754500	626.607422	381.882416
-7354.071489	4245.754500	625.380859	454.161713
-7354.071489	4245.754500	624.154297	298.161682
-7354.071489	4245.754500	622.927734	461.549408
-7354.071489	4245.754500	621.700195	525.962524
-7354.071489	4245.754500	620.472656	500.970398
-7354.071489	4245.754500	619.245117	392.329987
-7354.071489	4245.754500	618.016602	266.574371
-7354.071489	4245.754500	616.788086	230.070068
-7354.071489	4245.754500	615.559570	146.053528
-7354.071489	4245.754500	614.331055	223.369675
-7354.071489	4245.754500	613.101563	36.784897
-7354.071489	4245.754500	611.872070	335.980408
-7354.071489	4245.754500	610.642578	128.472061
-7354.071489	4245.754500	609.413086	-96.071907
-7354.071489	4245.754500	608.182617	151.596268
-7354.071489	4245.754500	606.952148	97.662933
-7354.071489	4245.754500	605.721680	-128.784698
-7354.071489	4245.754500	604.491211	33.304523
-7354.071489	4245.754500	603.259766	-60.507271
-7354.071489	4245.754500	602.028320	36.995792
-7354.071489	4245.754500	600.796875	81.384422
-7354.071489	4245.754500	599.564453	49.967796
-7354.071489	4245.754500	598.332031	228.652374
-7354.071489	4245.754500	597.099609	45.722797
-7354.071489	4245.754500	595.867188	154.239105
-7354.071489	4245.754500	594.633789	39.428394
-7354.071489	4245.754500	593.400391	100.534241
-7354.071489	4245.754500	592.166992	-31.306116
-7354.071489	4245.754500	590.933594	-193.374359
-7354.071489	4245.754500	589.699219	75.563423
-7354.071489	4245.754500	588.464844	102.457993
-7354.071489	4245.754500	587.230469	-91.750603
-7354.071489	4245.754500	585.995117	23.891264
-7354.071489	4245.754500	584.760742	139.463486
-7354.071489	4245.754500	583.525391	-186.886063
-7354.071489	4245.754500	582.289063	-241.278824
-7354.071489	4245.754500	581.053711	-120.132858
-7354.071489	4245.754500	579.817383	-219.844238
-7354.071489	4245.754500	578.581055	6.853456
-7354.071489	4245.754500	577.343750	-87.222839
-7354.071489	4245.754500	576.107422	-211.440247
-7354.071489	4245.754500	574.870117	60.312927
-7354.071489	4245.754500	573.631836	241.454361
-7354.071489	4245.754500	572.394531	102.131676
-7354.071489	4245.754500	571.156250	234.181137
-7354.071489	4245.754500	569.917969	45.923035
-7354.071489	4245.754500	568.679688	121.415741
-7354.071489	4245.754500	567.440430	-15.908555
-7354.071489	4245.754500	566.202148	112.275543
-7354.071489	4245.754500	564.961914	136.876404
-7354.071489	4245.754500	563.722656	135.128815
-7354.071489	4245.754500	562.482422	-47.230530
-7354.071489	4245.754500	561.243164	176.791718
-7354.071489	4245.754500	560.001953	73.495613
-7354.071489	4245.754500	558.761719	-67.345078
-7354.071489	4245.754500	557.520508	-129.168381
-7354.071489	4245.754500	556.279297	214.993454
-7354.071489	4245.754500	555.038086	-8.426196
-7354.071489	4245.754500	553.795898	-51.395405
-7354.071489	4245.754500	552.554688	42.785027
-7354.071489	4245.754500	551.311523	-133.464432
-7354.071489	4245.754500	550.069336	-131.260025
-7354.071489	4245.754500	548.826172	51.150879
-7354.071489	4245.754500	547.583984	137.809082
-7354.071489	4245.754500	546.339844	68.728027
-7354.071489	4245.754500	545.096680	-124.090630
-7354.071489	4245.754500	543.852539	-26.119740
-7354.071489	4245.754500	542.608398	53.092518
-7354.071489	4245.754500	541.364258	-64.523514
-7354.071489	4245.754500	540.119141	-163.316620
-7354.071489	4245.754500	538.875000	-117.745499
-7354.071489	4245.754500	537.628906	-113.378235
-7354.071489	4245.754500	536.383789	14.647409
-7354.071489	4245.754500	535.137695	-254.323730
-7354.071489	4245.754500	533.892578	-116.875702
-7354.071489	4245.754500	532.645508	-125.446388
-7354.071489	4245.754500	531.399414	-236.886002
-7354.071489	4245.754500	530.152344	42.794044
-7354.071489	4245.754500	528.905273	-40.482410
-7354.071489	4245.754500	527.658203	-99.358536
-7354.071489	4245.754500	526.410156	4.504505
-7354.071489	4245.754500	525.163086	20.523808
-7354.071489	4245.754500	523.914063	-58.733940
-7354.071489	4245.754500	522.666016	-29.521461
-7354.071489	4245.754500	521.416992	-125.432823
-7354.071489	4245.754500	520.167969	-185.757660
-7354.071489	4245.754500	518.918945	-48.058388
-7354.071489	4245.754500	517.669922	-145.591797
-7354.071489	4245.754500	516.419922	-201.961411
-7354.071489	4245.754500	515.169922	-135.078339
-7354.071489	4245.754500	513.919922	-137.192719
-7354.071489	4245.754500	512.668945	-148.572128
-7354.071489	4245.754500	511.417969	-167.339935
-7354.071489	4245.754500	510.166992	-55.516956
-7354.071489	4245.754500	508.916016	-66.708061
-7354.071489	4245.754500	507.664063	-113.240456
-7354.071489	4245.754500	506.412109	19.193661
-7354.071489	4245.754500	505.160156	52.905216
-7354.071489	4245.754500	503.907227	149.992737
-7354.071489	4245.754500	502.655273	-4.275084
-7354.071489	4245.754500	501.402344	236.274963
-7354.071489	4245.754500	500.148438	290.654816
-7354.071489	4245.754500	498.895508	225.985107
-7354.071489	4245.754500	497.641602	299.088531
-7354.071489	4245.754500	496.387695	359.208313
-7354.071489	4245.754500	495.132813	121.813820
-7354.071489	4245.754500	493.878906	-28.019085
-7354.071489	4245.754500	492.624023	58.360470
-7354.071489	4245.754500	491.368164	94.587769
-7354.071489	4245.754500	490.113281	91.848366
-7354.071489	4245.754500	488.857422	74.311691
-7354.071489	4245.754500	487.601563	-52.733326
-7354.071489	4245.754500	486.344727	22.741877
-7354.071489	4245.754500	485.088867	5.424887
-7354.071489	4245.754500	483.832031	-203.005173
-7354.071489	4245.754500	482.575195	-45.709324
-7354.071489	4245.754500	481.317383	24.375853
-7354.071489	4245.754500	480.059570	-66.890526
-7354.071489	4245.754500	478.801758	-39.372654
-7354.071489	4245.754500	477.543945	-32.208302
-7354.071489	4245.754500	476.285156	78.810043
-7354.071489	4245.754500	475.027344	143.497971
-7354.071489	4245.754500	473.767578	65.526176
-7354.071489	4245.754500	472.508789	-69.793915
-7354.071489	4245.754500	471.249023	111.695686
-7354.071489	4245.754500	469.989258	74.641556
-7354.071489	4245.754500	468.729492	-45.670441
-7354.071489	4245.754500	467.469727	61.764141
-7354.071489	4245.754500	466.208984	34.090172
-7354.071489	4245.754500	464.948242	56.406490
-7354.071489	4245.754500	463.686523	1.042182
-7354.071489	4245.754500	462.425781	117.707886
-7354.071489	4245.754500	461.164063	23.555569
-7354.071489	4245.754500	459.901367	151.272079
-7354.071489	4245.754500	458.639648	314.052704
-7354.071489	4245.754500	457.376953	203.294891
-7354.071489	4245.754500	456.114258	3.905446
-7354.071489	4245.754500	454.851563	-7.023474
-7354.071489	4245.754500	453.587891	33.732910
-7354.071489	4245.754500	452.324219	148.292587
-7354.071489	4245.754500	451.060547	46.821228
-7354.071489	4245.754500	449.796875	200.011551
-7354.071489	4245.754500	448.532227	61.590145
-7354.071489	4245.754500	447.267578	28.315620
-7354.071489	4245.754500	446.002930	55.852566
-7354.071489	4245.754500	444.737305	238.182434
-7354.071489	4245.754500	443.471680	125.425423
-7354.071489	4245.754500	442.206055	189.556747
-7354.071489	4245.754500	440.940430	183.553314
-7354.071489	4245.754500	439.673828	273.240784
-7354.071489	4245.754500	438.407227	217.282318
-7354.071489	4245.754500	437.140625	221.994644
-7354.071489	4245.754500	435.873047	59.046928
-7354.071489	4245.754500	434.605469	-24.825212
-7354.071489	4245.754500	433.337891	242.657822
-7354.071489	4245.754500	432.070313	298.292847
-7354.071489	4245.754500	430.801758	138.526474
-7354.071489	4245.754500	429.533203	98.177269
-7354.071489	4245.754500	428.264648	234.151306
-7354.071489	4245.754500	426.996094	551.835754
-7354.071489	4245.754500	425.726563	358.262848
-7354.071489	4245.754500	424.457031	408.908478
-7354.071489	4245.754500	423.186523	330.693390
-7354.071489	4245.754500	421.916992	312.861908
-7354.071489	4245.754500	420.646484	461.847137
-7354.071489	4245.754500	419.375977	414.050659
-7354.071489	4245.754500	418.104492	470.579071
-7354.071489	4245.754500	416.833008	635.023926
-7354.071489	4245.754500	415.561523	457.828064
-7354.071489	4245.754500	414.290039	463.769836
-7354.071489	4245.754500	413.017578	326.295654
-7354.071489	4245.754500	411.746094	287.499725
-7354.071489	4245.754500	410.472656	110.823959
-7354.071489	4245.754500	409.200195	311.314209
-7354.071489	4245.754500	407.926758	410.493042
-7354.071489	4245.754500	406.653320	448.711914
-7354.071489	4245.754500	405.379883	208.055145
-7354.071489	4245.754500	404.105469	318.534424
-7354.071489	4245.754500	402.831055	393.652863
-7354.071489	4245.754500	401.556641	376.675720
-7354.071489	4245.754500	400.282227	388.405792
-7354.071489	4245.754500	399.006836	447.085022
-7354.071489	4245.754500	397.731445	466.706085
-7354.071489	4245.754500	396.456055	399.724182
-7354.071489	4245.754500	395.179688	460.060577
-7354.071489	4245.754500	393.903320	380.755249
-7354.071489	4245.754500	392.626953	406.747803
-7354.071489	4245.754500	391.350586	528.805359
-7354.071489	4245.754500	390.073242	291.995575
-7354.071489	4245.754500	388.795898	399.633301
-7354.071489	4245.754500	387.518555	334.754028
-7354.071489	4245.754500	386.240234	345.684082
-7354.071489	4245.754500	384.961914	275.403961
-7354.071489	4245.754500	383.683594	390.331696
-7354.071489	4245.754500	382.405273	436.745056
-7354.071489	4245.754500	381.125977	458.408722
-7354.071489	4245.754500	379.846680	407.912231
-7354.071489	4245.754500	378.567383	292.561218
-7354.071489	4245.754500	377.287109	332.880188
-7354.071489	4245.754500	376.006836	286.391113
-7354.071489	4245.754500	374.726563	346.230194
-7354.071489	4245.754500	373.446289	166.213287
-7354.071489	4245.754500	372.165039	458.467285
-7354.071489	4245.754500	370.883789	314.153778
-7354.071489	4245.754500	369.602539	232.271652
-7354.071489	4245.754500	368.320313	432.914581
-7354.071489	4245.754500	367.039063	100.783409
-7354.071489	4245.754500	365.755859	498.539063
-7354.071489	4245.754500	364.473633	478.155243
-7354.071489	4245.754500	363.190430	387.090271
-7354.071489	4245.754500	361.907227	118.118629
-7354.071489	4245.754500	360.624023	352.871033
-7354.071489	4245.754500	359.340820	82.476196
-7354.071489	4245.754500	358.056641	200.995575
-7354.071489	4245.754500	356.772461	152.369354
-7354.071489	4245.754500	355.487305	241.686203
-7354.071489	4245.754500	354.202148	214.667953
-7354.071489	4245.754500	352.916992	65.890007
-7354.071489	4245.754500	351.631836	356.126801
-7354.071489	4245.754500	350.346680	201.455383
-7354.071489	4245.754500	349.060547	133.542801
-7354.071489	4245.754500	347.774414	-12.713701
-7354.071489	4245.754500	346.487305	11.023800
-7354.071489	4245.754500	345.200195	144.811417
-7354.071489	4245.754500	343.913086	180.092087
-7354.071489	4245.754500	342.625977	-142.245239
-7354.071489	4245.754500	341.338867	-30.378323
-7354.071489	4245.754500	340.050781	-6.336446
-7354.071489	4245.754500	338.762695	-162.423416
-7354.071489	4245.754500	337.473633	104.198624
-7354.071489	4245.754500	336.184570	4.090199
-7354.071489	4245.754500	334.895508	-120.569099
-7354.071489	4245.754500	333.606445	-21.979969
-7354.071489	4245.754500	332.317383	212.814636
-7354.071489	4245.754500	331.027344	-186.810013
-7354.071489	4245.754500	329.736328	-27.238050
-7354.071489	4245.754500	328.446289	-78.803986
-7354.071489	4245.754500	327.155273	-68.724014
-7354.071489	4245.754500	325.864258	-101.839058
-7354.071489	4245.754500	324.573242	-322.719879
-7354.071489	4245.754500	323.281250	16.276869
-7354.071489	4245.754500	321.989258	-51.239742
-7354.071489	4245.754500	320.697266	9.260969
-7354.071489	4245.754500	319.405273	-44.248600
-7354.071489	4245.754500	318.112305	-284.069153
-7354.071489	4245.754500	316.819336	-255.452682
-7354.071489	4245.754500	315.526367	-218.402786
-7354.071489	4245.754500	314.232422	169.485718
-7354.071489	4245.754500	312.938477	-139.486786
-7354.071489	4245.754500	311.644531	-133.772797
-7354.071489	4245.754500	310.349609	52.837429
-7354.071489	4245.754500	309.054688	50.884544
-7354.071489	4245.754500	307.759766	9.894628
-7354.071489	4245.754500	306.464844	225.128174
-7354.071489	4245.754500	305.168945	408.081024
-7354.071489	4245.754500	303.873047	443.585083
-7354.071489	4245.754500	302.577148	374.806763
-7354.071489	4245.754500	301.281250	691.119446
-7354.071489	4245.754500	299.984375	1016.012268
