#X		#Y		#Wave		#Intensity
-7395.043298	4184.791000	1999.946289	-220.067230
-7395.043298	4184.791000	1998.981445	128.144913
-7395.043298	4184.791000	1998.017578	-34.456772
-7395.043298	4184.791000	1997.052734	43.460190
-7395.043298	4184.791000	1996.088867	210.630890
-7395.043298	4184.791000	1995.124023	87.987816
-7395.043298	4184.791000	1994.159180	27.388342
-7395.043298	4184.791000	1993.193359	-52.922539
-7395.043298	4184.791000	1992.228516	-34.090218
-7395.043298	4184.791000	1991.262695	83.821449
-7395.043298	4184.791000	1990.296875	191.864883
-7395.043298	4184.791000	1989.331055	-1.941021
-7395.043298	4184.791000	1988.365234	190.336670
-7395.043298	4184.791000	1987.398438	-23.047680
-7395.043298	4184.791000	1986.432617	169.300720
-7395.043298	4184.791000	1985.465820	40.201851
-7395.043298	4184.791000	1984.499023	59.545666
-7395.043298	4184.791000	1983.532227	-99.016037
-7395.043298	4184.791000	1982.565430	-114.125404
-7395.043298	4184.791000	1981.597656	24.016361
-7395.043298	4184.791000	1980.629883	43.591980
-7395.043298	4184.791000	1979.662109	-38.046494
-7395.043298	4184.791000	1978.694336	-3.537233
-7395.043298	4184.791000	1977.726563	127.302895
-7395.043298	4184.791000	1976.758789	142.129700
-7395.043298	4184.791000	1975.790039	31.132036
-7395.043298	4184.791000	1974.821289	-0.811328
-7395.043298	4184.791000	1973.852539	56.121464
-7395.043298	4184.791000	1972.883789	-37.383446
-7395.043298	4184.791000	1971.915039	-61.753197
-7395.043298	4184.791000	1970.945313	-61.413830
-7395.043298	4184.791000	1969.975586	37.581577
-7395.043298	4184.791000	1969.005859	-50.743877
-7395.043298	4184.791000	1968.036133	16.260857
-7395.043298	4184.791000	1967.066406	-76.873276
-7395.043298	4184.791000	1966.096680	-98.493240
-7395.043298	4184.791000	1965.125977	-19.086279
-7395.043298	4184.791000	1964.155273	-25.860935
-7395.043298	4184.791000	1963.184570	161.906174
-7395.043298	4184.791000	1962.213867	-14.680708
-7395.043298	4184.791000	1961.242188	13.105247
-7395.043298	4184.791000	1960.271484	173.792175
-7395.043298	4184.791000	1959.299805	-209.262665
-7395.043298	4184.791000	1958.328125	-31.316816
-7395.043298	4184.791000	1957.356445	-37.857742
-7395.043298	4184.791000	1956.384766	93.328247
-7395.043298	4184.791000	1955.412109	84.360802
-7395.043298	4184.791000	1954.439453	11.515525
-7395.043298	4184.791000	1953.467773	-73.564873
-7395.043298	4184.791000	1952.495117	37.971470
-7395.043298	4184.791000	1951.521484	149.486816
-7395.043298	4184.791000	1950.548828	120.983475
-7395.043298	4184.791000	1949.575195	16.384769
-7395.043298	4184.791000	1948.601563	12.506258
-7395.043298	4184.791000	1947.627930	70.016815
-7395.043298	4184.791000	1946.654297	169.244507
-7395.043298	4184.791000	1945.680664	189.929520
-7395.043298	4184.791000	1944.706055	134.564880
-7395.043298	4184.791000	1943.732422	265.657593
-7395.043298	4184.791000	1942.757813	85.250458
-7395.043298	4184.791000	1941.783203	272.723419
-7395.043298	4184.791000	1940.807617	188.014923
-7395.043298	4184.791000	1939.833008	-68.228462
-7395.043298	4184.791000	1938.857422	-3.334898
-7395.043298	4184.791000	1937.881836	-247.180298
-7395.043298	4184.791000	1936.906250	23.514668
-7395.043298	4184.791000	1935.930664	147.158249
-7395.043298	4184.791000	1934.955078	143.422379
-7395.043298	4184.791000	1933.978516	-56.176250
-7395.043298	4184.791000	1933.001953	-50.074108
-7395.043298	4184.791000	1932.025391	4.976941
-7395.043298	4184.791000	1931.048828	8.622492
-7395.043298	4184.791000	1930.072266	29.393896
-7395.043298	4184.791000	1929.094727	74.616493
-7395.043298	4184.791000	1928.118164	-51.371773
-7395.043298	4184.791000	1927.140625	-106.404694
-7395.043298	4184.791000	1926.163086	-105.193115
-7395.043298	4184.791000	1925.184570	-30.657751
-7395.043298	4184.791000	1924.207031	78.058907
-7395.043298	4184.791000	1923.228516	54.789097
-7395.043298	4184.791000	1922.250000	168.322998
-7395.043298	4184.791000	1921.271484	-238.429047
-7395.043298	4184.791000	1920.292969	153.488205
-7395.043298	4184.791000	1919.314453	108.218513
-7395.043298	4184.791000	1918.334961	31.222029
-7395.043298	4184.791000	1917.355469	142.171799
-7395.043298	4184.791000	1916.375977	-66.591141
-7395.043298	4184.791000	1915.396484	-138.665192
-7395.043298	4184.791000	1914.416992	-64.369476
-7395.043298	4184.791000	1913.436523	-36.452827
-7395.043298	4184.791000	1912.457031	-57.325039
-7395.043298	4184.791000	1911.476563	43.687820
-7395.043298	4184.791000	1910.496094	266.519684
-7395.043298	4184.791000	1909.515625	-27.384874
-7395.043298	4184.791000	1908.534180	29.660839
-7395.043298	4184.791000	1907.552734	-44.879910
-7395.043298	4184.791000	1906.572266	226.445496
-7395.043298	4184.791000	1905.590820	54.453426
-7395.043298	4184.791000	1904.608398	-151.580475
-7395.043298	4184.791000	1903.626953	58.698025
-7395.043298	4184.791000	1902.644531	71.739967
-7395.043298	4184.791000	1901.663086	-83.143288
-7395.043298	4184.791000	1900.680664	29.624247
-7395.043298	4184.791000	1899.698242	198.272644
-7395.043298	4184.791000	1898.714844	-168.199051
-7395.043298	4184.791000	1897.732422	204.622269
-7395.043298	4184.791000	1896.749023	-142.313538
-7395.043298	4184.791000	1895.765625	40.725685
-7395.043298	4184.791000	1894.782227	-7.193290
-7395.043298	4184.791000	1893.798828	190.277573
-7395.043298	4184.791000	1892.814453	-137.067856
-7395.043298	4184.791000	1891.831055	-22.280022
-7395.043298	4184.791000	1890.846680	-75.119270
-7395.043298	4184.791000	1889.862305	71.118408
-7395.043298	4184.791000	1888.877930	93.472496
-7395.043298	4184.791000	1887.892578	-221.560135
-7395.043298	4184.791000	1886.908203	-17.231758
-7395.043298	4184.791000	1885.922852	123.909920
-7395.043298	4184.791000	1884.937500	97.600342
-7395.043298	4184.791000	1883.952148	27.616314
-7395.043298	4184.791000	1882.965820	88.556152
-7395.043298	4184.791000	1881.980469	45.200150
-7395.043298	4184.791000	1880.994141	-160.569016
-7395.043298	4184.791000	1880.007813	-51.262779
-7395.043298	4184.791000	1879.021484	57.966976
-7395.043298	4184.791000	1878.035156	9.663708
-7395.043298	4184.791000	1877.047852	-191.243362
-7395.043298	4184.791000	1876.061523	-9.511615
-7395.043298	4184.791000	1875.074219	34.113358
-7395.043298	4184.791000	1874.086914	77.684784
-7395.043298	4184.791000	1873.098633	179.283127
-7395.043298	4184.791000	1872.111328	55.774387
-7395.043298	4184.791000	1871.123047	70.168541
-7395.043298	4184.791000	1870.135742	7.117877
-7395.043298	4184.791000	1869.147461	72.221115
-7395.043298	4184.791000	1868.158203	86.481621
-7395.043298	4184.791000	1867.169922	11.254070
-7395.043298	4184.791000	1866.180664	107.615486
-7395.043298	4184.791000	1865.192383	-28.085138
-7395.043298	4184.791000	1864.203125	-163.778748
-7395.043298	4184.791000	1863.213867	-36.161606
-7395.043298	4184.791000	1862.223633	16.491875
-7395.043298	4184.791000	1861.234375	15.960723
-7395.043298	4184.791000	1860.244141	-160.856216
-7395.043298	4184.791000	1859.253906	270.626221
-7395.043298	4184.791000	1858.263672	120.284576
-7395.043298	4184.791000	1857.273438	-63.825798
-7395.043298	4184.791000	1856.282227	-40.444374
-7395.043298	4184.791000	1855.291992	72.128334
-7395.043298	4184.791000	1854.300781	49.563164
-7395.043298	4184.791000	1853.309570	-30.906012
-7395.043298	4184.791000	1852.317383	62.171638
-7395.043298	4184.791000	1851.326172	-146.103653
-7395.043298	4184.791000	1850.333984	14.337084
-7395.043298	4184.791000	1849.342773	-27.705540
-7395.043298	4184.791000	1848.350586	79.562843
-7395.043298	4184.791000	1847.357422	150.612503
-7395.043298	4184.791000	1846.365234	-31.240013
-7395.043298	4184.791000	1845.372070	-18.073652
-7395.043298	4184.791000	1844.379883	103.358025
-7395.043298	4184.791000	1843.386719	152.493484
-7395.043298	4184.791000	1842.393555	153.438232
-7395.043298	4184.791000	1841.399414	226.498169
-7395.043298	4184.791000	1840.406250	-157.504715
-7395.043298	4184.791000	1839.412109	172.792496
-7395.043298	4184.791000	1838.417969	-14.010296
-7395.043298	4184.791000	1837.423828	154.975327
-7395.043298	4184.791000	1836.429688	249.338989
-7395.043298	4184.791000	1835.434570	300.358917
-7395.043298	4184.791000	1834.440430	168.722061
-7395.043298	4184.791000	1833.445313	22.665745
-7395.043298	4184.791000	1832.450195	80.746246
-7395.043298	4184.791000	1831.454102	13.889108
-7395.043298	4184.791000	1830.458984	-180.229095
-7395.043298	4184.791000	1829.462891	165.718491
-7395.043298	4184.791000	1828.466797	295.503174
-7395.043298	4184.791000	1827.470703	22.098415
-7395.043298	4184.791000	1826.474609	175.741348
-7395.043298	4184.791000	1825.478516	-126.427574
-7395.043298	4184.791000	1824.481445	-191.143280
-7395.043298	4184.791000	1823.484375	-148.001343
-7395.043298	4184.791000	1822.487305	-184.034134
-7395.043298	4184.791000	1821.490234	-33.174423
-7395.043298	4184.791000	1820.493164	45.688976
-7395.043298	4184.791000	1819.495117	-124.689827
-7395.043298	4184.791000	1818.498047	69.021332
-7395.043298	4184.791000	1817.500000	75.805359
-7395.043298	4184.791000	1816.500977	1.117056
-7395.043298	4184.791000	1815.502930	132.280151
-7395.043298	4184.791000	1814.504883	148.452942
-7395.043298	4184.791000	1813.505859	183.701782
-7395.043298	4184.791000	1812.506836	123.178780
-7395.043298	4184.791000	1811.507813	136.775452
-7395.043298	4184.791000	1810.508789	143.136261
-7395.043298	4184.791000	1809.508789	58.567562
-7395.043298	4184.791000	1808.508789	107.853561
-7395.043298	4184.791000	1807.508789	178.576233
-7395.043298	4184.791000	1806.508789	-157.055496
-7395.043298	4184.791000	1805.508789	4.371402
-7395.043298	4184.791000	1804.508789	-178.324753
-7395.043298	4184.791000	1803.507813	2.032230
-7395.043298	4184.791000	1802.506836	70.026718
-7395.043298	4184.791000	1801.505859	-291.824707
-7395.043298	4184.791000	1800.504883	24.343153
-7395.043298	4184.791000	1799.502930	13.354749
-7395.043298	4184.791000	1798.501953	281.505432
-7395.043298	4184.791000	1797.500000	265.584686
-7395.043298	4184.791000	1796.498047	37.319820
-7395.043298	4184.791000	1795.496094	71.417862
-7395.043298	4184.791000	1794.493164	43.443249
-7395.043298	4184.791000	1793.491211	27.347179
-7395.043298	4184.791000	1792.488281	56.479172
-7395.043298	4184.791000	1791.485352	149.884216
-7395.043298	4184.791000	1790.482422	23.996902
-7395.043298	4184.791000	1789.478516	71.988861
-7395.043298	4184.791000	1788.475586	-182.564133
-7395.043298	4184.791000	1787.471680	-51.323788
-7395.043298	4184.791000	1786.467773	10.764921
-7395.043298	4184.791000	1785.463867	18.024326
-7395.043298	4184.791000	1784.459961	-17.615810
-7395.043298	4184.791000	1783.455078	-19.993923
-7395.043298	4184.791000	1782.450195	13.254838
-7395.043298	4184.791000	1781.445313	105.896187
-7395.043298	4184.791000	1780.440430	200.822800
-7395.043298	4184.791000	1779.435547	22.227137
-7395.043298	4184.791000	1778.429688	-113.576126
-7395.043298	4184.791000	1777.424805	302.023224
-7395.043298	4184.791000	1776.418945	109.071327
-7395.043298	4184.791000	1775.413086	122.832863
-7395.043298	4184.791000	1774.406250	91.391838
-7395.043298	4184.791000	1773.400391	14.788590
-7395.043298	4184.791000	1772.393555	-109.339325
-7395.043298	4184.791000	1771.386719	125.000534
-7395.043298	4184.791000	1770.379883	67.243874
-7395.043298	4184.791000	1769.373047	182.690643
-7395.043298	4184.791000	1768.365234	158.040771
-7395.043298	4184.791000	1767.358398	-151.316101
-7395.043298	4184.791000	1766.350586	-100.109215
-7395.043298	4184.791000	1765.342773	143.097565
-7395.043298	4184.791000	1764.334961	13.929438
-7395.043298	4184.791000	1763.326172	-266.960785
-7395.043298	4184.791000	1762.318359	44.698917
-7395.043298	4184.791000	1761.309570	214.005966
-7395.043298	4184.791000	1760.300781	172.345993
-7395.043298	4184.791000	1759.291016	57.210541
-7395.043298	4184.791000	1758.282227	105.474571
-7395.043298	4184.791000	1757.272461	189.173599
-7395.043298	4184.791000	1756.262695	130.748184
-7395.043298	4184.791000	1755.252930	133.828430
-7395.043298	4184.791000	1754.243164	139.218323
-7395.043298	4184.791000	1753.233398	-158.285065
-7395.043298	4184.791000	1752.222656	142.724533
-7395.043298	4184.791000	1751.211914	199.968231
-7395.043298	4184.791000	1750.201172	-21.881847
-7395.043298	4184.791000	1749.190430	-104.218018
-7395.043298	4184.791000	1748.179688	92.334991
-7395.043298	4184.791000	1747.167969	201.313080
-7395.043298	4184.791000	1746.156250	-15.864102
-7395.043298	4184.791000	1745.144531	50.464836
-7395.043298	4184.791000	1744.132813	55.308006
-7395.043298	4184.791000	1743.121094	-102.840164
-7395.043298	4184.791000	1742.108398	-204.324814
-7395.043298	4184.791000	1741.095703	-171.274902
-7395.043298	4184.791000	1740.083008	185.039368
-7395.043298	4184.791000	1739.070313	-51.094570
-7395.043298	4184.791000	1738.057617	80.838249
-7395.043298	4184.791000	1737.043945	-20.850300
-7395.043298	4184.791000	1736.030273	56.677883
-7395.043298	4184.791000	1735.016602	-212.472366
-7395.043298	4184.791000	1734.002930	-97.320259
-7395.043298	4184.791000	1732.989258	137.940231
-7395.043298	4184.791000	1731.974609	31.366865
-7395.043298	4184.791000	1730.959961	139.182770
-7395.043298	4184.791000	1729.945313	-165.314835
-7395.043298	4184.791000	1728.930664	-76.441010
-7395.043298	4184.791000	1727.916016	-211.340897
-7395.043298	4184.791000	1726.900391	119.885880
-7395.043298	4184.791000	1725.885742	-12.741005
-7395.043298	4184.791000	1724.870117	148.789703
-7395.043298	4184.791000	1723.853516	-183.896698
-7395.043298	4184.791000	1722.837891	-86.002960
-7395.043298	4184.791000	1721.822266	89.422028
-7395.043298	4184.791000	1720.805664	-290.230377
-7395.043298	4184.791000	1719.789063	37.885513
-7395.043298	4184.791000	1718.772461	29.694920
-7395.043298	4184.791000	1717.754883	-39.651134
-7395.043298	4184.791000	1716.738281	90.720329
-7395.043298	4184.791000	1715.720703	-77.366608
-7395.043298	4184.791000	1714.703125	-191.409790
-7395.043298	4184.791000	1713.685547	-176.292587
-7395.043298	4184.791000	1712.667969	303.662201
-7395.043298	4184.791000	1711.649414	198.864197
-7395.043298	4184.791000	1710.630859	33.043278
-7395.043298	4184.791000	1709.612305	31.502602
-7395.043298	4184.791000	1708.593750	-24.037642
-7395.043298	4184.791000	1707.575195	2.501128
-7395.043298	4184.791000	1706.555664	-48.412045
-7395.043298	4184.791000	1705.536133	64.787865
-7395.043298	4184.791000	1704.516602	-56.525646
-7395.043298	4184.791000	1703.497070	-189.549362
-7395.043298	4184.791000	1702.477539	115.656662
-7395.043298	4184.791000	1701.457031	123.141396
-7395.043298	4184.791000	1700.437500	196.187180
-7395.043298	4184.791000	1699.416992	53.688374
-7395.043298	4184.791000	1698.395508	344.396362
-7395.043298	4184.791000	1697.375000	162.051666
-7395.043298	4184.791000	1696.354492	258.287231
-7395.043298	4184.791000	1695.333008	43.185097
-7395.043298	4184.791000	1694.311523	-71.255745
-7395.043298	4184.791000	1693.290039	167.556030
-7395.043298	4184.791000	1692.267578	-150.427475
-7395.043298	4184.791000	1691.246094	41.473095
-7395.043298	4184.791000	1690.223633	144.412369
-7395.043298	4184.791000	1689.201172	256.629730
-7395.043298	4184.791000	1688.178711	25.218475
-7395.043298	4184.791000	1687.155273	214.452850
-7395.043298	4184.791000	1686.132813	106.896294
-7395.043298	4184.791000	1685.109375	204.887756
-7395.043298	4184.791000	1684.085938	13.233175
-7395.043298	4184.791000	1683.062500	178.857895
-7395.043298	4184.791000	1682.039063	384.076935
-7395.043298	4184.791000	1681.014648	423.464172
-7395.043298	4184.791000	1679.990234	91.782738
-7395.043298	4184.791000	1678.965820	343.468719
-7395.043298	4184.791000	1677.941406	504.057800
-7395.043298	4184.791000	1676.916992	405.689270
-7395.043298	4184.791000	1675.891602	125.449608
-7395.043298	4184.791000	1674.866211	267.253418
-7395.043298	4184.791000	1673.840820	374.016296
-7395.043298	4184.791000	1672.815430	194.077682
-7395.043298	4184.791000	1671.790039	265.819031
-7395.043298	4184.791000	1670.763672	421.359009
-7395.043298	4184.791000	1669.737305	318.296844
-7395.043298	4184.791000	1668.710938	264.152679
-7395.043298	4184.791000	1667.684570	207.681015
-7395.043298	4184.791000	1666.658203	351.392181
-7395.043298	4184.791000	1665.630859	278.584503
-7395.043298	4184.791000	1664.603516	282.568268
-7395.043298	4184.791000	1663.576172	593.609680
-7395.043298	4184.791000	1662.548828	504.461273
-7395.043298	4184.791000	1661.520508	580.425293
-7395.043298	4184.791000	1660.493164	747.029907
-7395.043298	4184.791000	1659.464844	729.904419
-7395.043298	4184.791000	1658.436523	603.536865
-7395.043298	4184.791000	1657.408203	763.011719
-7395.043298	4184.791000	1656.378906	813.209473
-7395.043298	4184.791000	1655.350586	573.045044
-7395.043298	4184.791000	1654.321289	600.010925
-7395.043298	4184.791000	1653.291992	861.460388
-7395.043298	4184.791000	1652.261719	646.902649
-7395.043298	4184.791000	1651.232422	669.161133
-7395.043298	4184.791000	1650.202148	524.315918
-7395.043298	4184.791000	1649.171875	565.118958
-7395.043298	4184.791000	1648.141602	983.992737
-7395.043298	4184.791000	1647.111328	934.226929
-7395.043298	4184.791000	1646.080078	1127.924438
-7395.043298	4184.791000	1645.049805	1073.498535
-7395.043298	4184.791000	1644.018555	954.179810
-7395.043298	4184.791000	1642.987305	1045.776733
-7395.043298	4184.791000	1641.955078	1058.548584
-7395.043298	4184.791000	1640.923828	1140.814697
-7395.043298	4184.791000	1639.891602	1220.719849
-7395.043298	4184.791000	1638.859375	1365.424072
-7395.043298	4184.791000	1637.827148	1144.283569
-7395.043298	4184.791000	1636.794922	1256.535156
-7395.043298	4184.791000	1635.761719	1088.713623
-7395.043298	4184.791000	1634.729492	1268.030762
-7395.043298	4184.791000	1633.696289	986.918640
-7395.043298	4184.791000	1632.662109	1251.737183
-7395.043298	4184.791000	1631.628906	1236.665161
-7395.043298	4184.791000	1630.594727	1332.564209
-7395.043298	4184.791000	1629.561523	1278.191162
-7395.043298	4184.791000	1628.527344	1309.339355
-7395.043298	4184.791000	1627.493164	1349.723511
-7395.043298	4184.791000	1626.458008	1295.366455
-7395.043298	4184.791000	1625.423828	1400.417725
-7395.043298	4184.791000	1624.388672	1419.979126
-7395.043298	4184.791000	1623.353516	1236.363037
-7395.043298	4184.791000	1622.318359	1502.956787
-7395.043298	4184.791000	1621.282227	1324.017822
-7395.043298	4184.791000	1620.247070	1380.527466
-7395.043298	4184.791000	1619.210938	1570.820190
-7395.043298	4184.791000	1618.174805	1493.485596
-7395.043298	4184.791000	1617.137695	1570.691284
-7395.043298	4184.791000	1616.101563	1440.377441
-7395.043298	4184.791000	1615.064453	1434.597412
-7395.043298	4184.791000	1614.027344	1525.632080
-7395.043298	4184.791000	1612.990234	1524.472534
-7395.043298	4184.791000	1611.953125	1659.254028
-7395.043298	4184.791000	1610.916016	1503.764282
-7395.043298	4184.791000	1609.877930	1502.641846
-7395.043298	4184.791000	1608.839844	1575.214478
-7395.043298	4184.791000	1607.801758	1537.273682
-7395.043298	4184.791000	1606.763672	1520.082031
-7395.043298	4184.791000	1605.724609	1567.334595
-7395.043298	4184.791000	1604.685547	1683.610962
-7395.043298	4184.791000	1603.646484	1574.431396
-7395.043298	4184.791000	1602.607422	1525.109009
-7395.043298	4184.791000	1601.568359	1549.408081
-7395.043298	4184.791000	1600.528320	1851.879272
-7395.043298	4184.791000	1599.489258	1455.520996
-7395.043298	4184.791000	1598.449219	1615.457275
-7395.043298	4184.791000	1597.408203	1651.272949
-7395.043298	4184.791000	1596.368164	1677.919189
-7395.043298	4184.791000	1595.327148	1709.162842
-7395.043298	4184.791000	1594.287109	1588.876953
-7395.043298	4184.791000	1593.246094	1746.445679
-7395.043298	4184.791000	1592.204102	1630.821045
-7395.043298	4184.791000	1591.163086	1616.254639
-7395.043298	4184.791000	1590.121094	1319.492310
-7395.043298	4184.791000	1589.079102	1906.066284
-7395.043298	4184.791000	1588.037109	1710.336670
-7395.043298	4184.791000	1586.995117	1583.507202
-7395.043298	4184.791000	1585.953125	1491.146851
-7395.043298	4184.791000	1584.910156	1460.732544
-7395.043298	4184.791000	1583.867188	1423.486084
-7395.043298	4184.791000	1582.824219	1583.339478
-7395.043298	4184.791000	1581.781250	1431.604126
-7395.043298	4184.791000	1580.737305	1538.770752
-7395.043298	4184.791000	1579.693359	1371.130981
-7395.043298	4184.791000	1578.649414	1503.519653
-7395.043298	4184.791000	1577.605469	1379.515259
-7395.043298	4184.791000	1576.561523	1392.913574
-7395.043298	4184.791000	1575.516602	1051.664429
-7395.043298	4184.791000	1574.472656	1534.180298
-7395.043298	4184.791000	1573.427734	1339.497314
-7395.043298	4184.791000	1572.381836	1414.768555
-7395.043298	4184.791000	1571.336914	1229.410156
-7395.043298	4184.791000	1570.291016	1121.874390
-7395.043298	4184.791000	1569.246094	984.721802
-7395.043298	4184.791000	1568.200195	1389.207642
-7395.043298	4184.791000	1567.153320	1233.842285
-7395.043298	4184.791000	1566.107422	1434.916626
-7395.043298	4184.791000	1565.060547	1033.049316
-7395.043298	4184.791000	1564.013672	1058.349854
-7395.043298	4184.791000	1562.966797	1099.664551
-7395.043298	4184.791000	1561.919922	1191.220459
-7395.043298	4184.791000	1560.872070	1134.452637
-7395.043298	4184.791000	1559.825195	1219.209839
-7395.043298	4184.791000	1558.777344	1094.120850
-7395.043298	4184.791000	1557.729492	1213.148804
-7395.043298	4184.791000	1556.680664	825.982300
-7395.043298	4184.791000	1555.632813	1113.805908
-7395.043298	4184.791000	1554.583984	1191.868042
-7395.043298	4184.791000	1553.535156	1071.697754
-7395.043298	4184.791000	1552.486328	974.406799
-7395.043298	4184.791000	1551.436523	1157.375854
-7395.043298	4184.791000	1550.387695	864.349365
-7395.043298	4184.791000	1549.337891	1056.478638
-7395.043298	4184.791000	1548.288086	788.725830
-7395.043298	4184.791000	1547.238281	971.794678
-7395.043298	4184.791000	1546.187500	781.634460
-7395.043298	4184.791000	1545.136719	764.515869
-7395.043298	4184.791000	1544.086914	524.545288
-7395.043298	4184.791000	1543.035156	459.825470
-7395.043298	4184.791000	1541.984375	570.282043
-7395.043298	4184.791000	1540.933594	669.385864
-7395.043298	4184.791000	1539.881836	725.311035
-7395.043298	4184.791000	1538.830078	679.011414
-7395.043298	4184.791000	1537.778320	782.743530
-7395.043298	4184.791000	1536.725586	582.089783
-7395.043298	4184.791000	1535.673828	422.464813
-7395.043298	4184.791000	1534.621094	406.007904
-7395.043298	4184.791000	1533.568359	459.996826
-7395.043298	4184.791000	1532.515625	450.469208
-7395.043298	4184.791000	1531.461914	638.433594
-7395.043298	4184.791000	1530.409180	379.419342
-7395.043298	4184.791000	1529.355469	517.542664
-7395.043298	4184.791000	1528.301758	685.157349
-7395.043298	4184.791000	1527.247070	503.557343
-7395.043298	4184.791000	1526.193359	476.265533
-7395.043298	4184.791000	1525.138672	426.373322
-7395.043298	4184.791000	1524.083984	111.419724
-7395.043298	4184.791000	1523.029297	222.620026
-7395.043298	4184.791000	1521.974609	338.375061
-7395.043298	4184.791000	1520.918945	297.865845
-7395.043298	4184.791000	1519.863281	169.127228
-7395.043298	4184.791000	1518.807617	255.585373
-7395.043298	4184.791000	1517.751953	27.445824
-7395.043298	4184.791000	1516.696289	299.607422
-7395.043298	4184.791000	1515.639648	35.478065
-7395.043298	4184.791000	1514.583008	104.064880
-7395.043298	4184.791000	1513.526367	211.143661
-7395.043298	4184.791000	1512.469727	187.095657
-7395.043298	4184.791000	1511.412109	246.772415
-7395.043298	4184.791000	1510.355469	313.282654
-7395.043298	4184.791000	1509.297852	-58.594707
-7395.043298	4184.791000	1508.240234	229.520035
-7395.043298	4184.791000	1507.181641	-130.761566
-7395.043298	4184.791000	1506.124023	33.174496
-7395.043298	4184.791000	1505.065430	-49.025127
-7395.043298	4184.791000	1504.006836	-74.676346
-7395.043298	4184.791000	1502.948242	152.570816
-7395.043298	4184.791000	1501.888672	-173.122940
-7395.043298	4184.791000	1500.830078	38.408405
-7395.043298	4184.791000	1499.770508	19.823893
-7395.043298	4184.791000	1498.710938	-149.796280
-7395.043298	4184.791000	1497.650391	12.210842
-7395.043298	4184.791000	1496.590820	-37.694427
-7395.043298	4184.791000	1495.530273	70.280334
-7395.043298	4184.791000	1494.469727	254.914230
-7395.043298	4184.791000	1493.409180	22.705631
-7395.043298	4184.791000	1492.348633	-29.108849
-7395.043298	4184.791000	1491.287109	34.038460
-7395.043298	4184.791000	1490.225586	-76.155693
-7395.043298	4184.791000	1489.164063	198.767960
-7395.043298	4184.791000	1488.102539	147.270645
-7395.043298	4184.791000	1487.041016	572.987366
-7395.043298	4184.791000	1485.978516	-63.435638
-7395.043298	4184.791000	1484.916016	204.842407
-7395.043298	4184.791000	1483.853516	288.646027
-7395.043298	4184.791000	1482.791016	314.039917
-7395.043298	4184.791000	1481.727539	65.209572
-7395.043298	4184.791000	1480.664063	421.202576
-7395.043298	4184.791000	1479.600586	280.493744
-7395.043298	4184.791000	1478.537109	382.563812
-7395.043298	4184.791000	1477.473633	392.610260
-7395.043298	4184.791000	1476.409180	339.779877
-7395.043298	4184.791000	1475.344727	235.471359
-7395.043298	4184.791000	1474.280273	443.323639
-7395.043298	4184.791000	1473.215820	642.147400
-7395.043298	4184.791000	1472.151367	342.790588
-7395.043298	4184.791000	1471.085938	416.142456
-7395.043298	4184.791000	1470.020508	263.279083
-7395.043298	4184.791000	1468.955078	314.251404
-7395.043298	4184.791000	1467.888672	365.230286
-7395.043298	4184.791000	1466.823242	376.362915
-7395.043298	4184.791000	1465.756836	541.881470
-7395.043298	4184.791000	1464.690430	572.867371
-7395.043298	4184.791000	1463.624023	735.893127
-7395.043298	4184.791000	1462.556641	861.106445
-7395.043298	4184.791000	1461.490234	583.936829
-7395.043298	4184.791000	1460.422852	1053.338135
-7395.043298	4184.791000	1459.355469	711.672424
-7395.043298	4184.791000	1458.287109	812.564453
-7395.043298	4184.791000	1457.219727	895.048523
-7395.043298	4184.791000	1456.151367	853.397339
-7395.043298	4184.791000	1455.083008	703.709167
-7395.043298	4184.791000	1454.014648	854.140259
-7395.043298	4184.791000	1452.945313	738.913391
-7395.043298	4184.791000	1451.876953	1020.497559
-7395.043298	4184.791000	1450.807617	856.541199
-7395.043298	4184.791000	1449.738281	996.235901
-7395.043298	4184.791000	1448.668945	1141.091431
-7395.043298	4184.791000	1447.598633	1098.459839
-7395.043298	4184.791000	1446.528320	984.288269
-7395.043298	4184.791000	1445.458008	991.326660
-7395.043298	4184.791000	1444.387695	918.245117
-7395.043298	4184.791000	1443.317383	1129.133301
-7395.043298	4184.791000	1442.246094	996.654358
-7395.043298	4184.791000	1441.174805	1215.934570
-7395.043298	4184.791000	1440.103516	1182.887939
-7395.043298	4184.791000	1439.032227	1130.606323
-7395.043298	4184.791000	1437.960938	1095.615112
-7395.043298	4184.791000	1436.888672	1081.804199
-7395.043298	4184.791000	1435.816406	965.703735
-7395.043298	4184.791000	1434.744141	1001.259094
-7395.043298	4184.791000	1433.670898	1002.389587
-7395.043298	4184.791000	1432.598633	1063.262329
-7395.043298	4184.791000	1431.525391	921.597107
-7395.043298	4184.791000	1430.452148	666.564209
-7395.043298	4184.791000	1429.378906	820.970337
-7395.043298	4184.791000	1428.304688	584.504700
-7395.043298	4184.791000	1427.231445	734.962524
-7395.043298	4184.791000	1426.157227	399.355255
-7395.043298	4184.791000	1425.083008	605.042358
-7395.043298	4184.791000	1424.007813	604.490784
-7395.043298	4184.791000	1422.933594	495.264526
-7395.043298	4184.791000	1421.858398	473.192108
-7395.043298	4184.791000	1420.783203	410.052551
-7395.043298	4184.791000	1419.708008	451.207062
-7395.043298	4184.791000	1418.631836	426.044861
-7395.043298	4184.791000	1417.555664	334.366119
-7395.043298	4184.791000	1416.479492	426.465637
-7395.043298	4184.791000	1415.403320	490.778839
-7395.043298	4184.791000	1414.327148	396.432556
-7395.043298	4184.791000	1413.250000	356.650360
-7395.043298	4184.791000	1412.173828	427.836304
-7395.043298	4184.791000	1411.096680	810.885010
-7395.043298	4184.791000	1410.018555	446.675507
-7395.043298	4184.791000	1408.941406	388.369141
-7395.043298	4184.791000	1407.863281	340.935242
-7395.043298	4184.791000	1406.785156	493.870331
-7395.043298	4184.791000	1405.707031	537.615723
-7395.043298	4184.791000	1404.628906	581.391846
-7395.043298	4184.791000	1403.549805	417.583130
-7395.043298	4184.791000	1402.470703	548.459290
-7395.043298	4184.791000	1401.391602	670.035645
-7395.043298	4184.791000	1400.312500	605.382385
-7395.043298	4184.791000	1399.233398	285.352783
-7395.043298	4184.791000	1398.153320	542.060120
-7395.043298	4184.791000	1397.073242	599.744324
-7395.043298	4184.791000	1395.993164	447.116058
-7395.043298	4184.791000	1394.913086	395.575562
-7395.043298	4184.791000	1393.832031	460.007843
-7395.043298	4184.791000	1392.750977	559.509949
-7395.043298	4184.791000	1391.669922	587.862854
-7395.043298	4184.791000	1390.588867	453.595581
-7395.043298	4184.791000	1389.506836	385.376678
-7395.043298	4184.791000	1388.425781	271.555847
-7395.043298	4184.791000	1387.343750	276.107208
-7395.043298	4184.791000	1386.261719	364.492523
-7395.043298	4184.791000	1385.178711	365.419678
-7395.043298	4184.791000	1384.096680	320.811951
-7395.043298	4184.791000	1383.013672	248.140152
-7395.043298	4184.791000	1381.930664	323.521973
-7395.043298	4184.791000	1380.846680	604.595276
-7395.043298	4184.791000	1379.763672	422.048248
-7395.043298	4184.791000	1378.679688	782.721558
-7395.043298	4184.791000	1377.595703	579.798828
-7395.043298	4184.791000	1376.511719	668.729065
-7395.043298	4184.791000	1375.427734	771.013855
-7395.043298	4184.791000	1374.342773	758.517944
-7395.043298	4184.791000	1373.257813	670.590881
-7395.043298	4184.791000	1372.172852	887.486206
-7395.043298	4184.791000	1371.087891	723.406677
-7395.043298	4184.791000	1370.001953	970.898987
-7395.043298	4184.791000	1368.916992	712.770996
-7395.043298	4184.791000	1367.831055	774.642029
-7395.043298	4184.791000	1366.744141	707.211121
-7395.043298	4184.791000	1365.658203	604.744629
-7395.043298	4184.791000	1364.571289	634.823181
-7395.043298	4184.791000	1363.484375	548.328796
-7395.043298	4184.791000	1362.397461	374.876282
-7395.043298	4184.791000	1361.310547	779.615601
-7395.043298	4184.791000	1360.222656	575.096069
-7395.043298	4184.791000	1359.135742	405.170990
-7395.043298	4184.791000	1358.047852	163.513718
-7395.043298	4184.791000	1356.958984	287.219727
-7395.043298	4184.791000	1355.871094	343.016907
-7395.043298	4184.791000	1354.782227	263.959808
-7395.043298	4184.791000	1353.693359	140.078186
-7395.043298	4184.791000	1352.604492	214.480942
-7395.043298	4184.791000	1351.515625	194.366821
-7395.043298	4184.791000	1350.425781	423.320892
-7395.043298	4184.791000	1349.335938	482.392090
-7395.043298	4184.791000	1348.246094	445.792816
-7395.043298	4184.791000	1347.156250	320.831238
-7395.043298	4184.791000	1346.066406	492.036133
-7395.043298	4184.791000	1344.975586	264.582703
-7395.043298	4184.791000	1343.884766	328.390656
-7395.043298	4184.791000	1342.793945	511.555176
-7395.043298	4184.791000	1341.702148	496.321960
-7395.043298	4184.791000	1340.611328	518.221680
-7395.043298	4184.791000	1339.519531	402.759888
-7395.043298	4184.791000	1338.427734	587.514099
-7395.043298	4184.791000	1337.334961	453.238129
-7395.043298	4184.791000	1336.243164	401.522583
-7395.043298	4184.791000	1335.150391	367.732941
-7395.043298	4184.791000	1334.057617	434.587097
-7395.043298	4184.791000	1332.964844	344.027863
-7395.043298	4184.791000	1331.871094	95.320999
-7395.043298	4184.791000	1330.778320	215.218658
-7395.043298	4184.791000	1329.684570	263.993103
-7395.043298	4184.791000	1328.590820	329.551392
-7395.043298	4184.791000	1327.496094	228.600845
-7395.043298	4184.791000	1326.402344	587.522095
-7395.043298	4184.791000	1325.307617	429.361237
-7395.043298	4184.791000	1324.212891	98.892319
-7395.043298	4184.791000	1323.117188	443.750580
-7395.043298	4184.791000	1322.022461	417.052521
-7395.043298	4184.791000	1320.926758	467.166962
-7395.043298	4184.791000	1319.831055	408.359863
-7395.043298	4184.791000	1318.735352	148.476318
-7395.043298	4184.791000	1317.638672	395.079620
-7395.043298	4184.791000	1316.542969	348.109924
-7395.043298	4184.791000	1315.446289	317.428741
-7395.043298	4184.791000	1314.349609	402.323212
-7395.043298	4184.791000	1313.251953	416.434967
-7395.043298	4184.791000	1312.155273	330.133362
-7395.043298	4184.791000	1311.057617	387.090881
-7395.043298	4184.791000	1309.959961	272.049561
-7395.043298	4184.791000	1308.862305	281.309540
-7395.043298	4184.791000	1307.763672	413.211914
-7395.043298	4184.791000	1306.665039	543.330505
-7395.043298	4184.791000	1305.566406	401.627594
-7395.043298	4184.791000	1304.467773	347.928741
-7395.043298	4184.791000	1303.369141	300.563477
-7395.043298	4184.791000	1302.269531	348.552673
-7395.043298	4184.791000	1301.169922	396.636017
-7395.043298	4184.791000	1300.070313	485.973022
-7395.043298	4184.791000	1298.970703	518.273987
-7395.043298	4184.791000	1297.870117	447.134308
-7395.043298	4184.791000	1296.769531	483.775787
-7395.043298	4184.791000	1295.668945	288.049408
-7395.043298	4184.791000	1294.568359	366.782623
-7395.043298	4184.791000	1293.466797	382.662750
-7395.043298	4184.791000	1292.366211	227.192245
-7395.043298	4184.791000	1291.264648	222.637009
-7395.043298	4184.791000	1290.162109	507.428162
-7395.043298	4184.791000	1289.060547	153.116714
-7395.043298	4184.791000	1287.958008	221.367264
-7395.043298	4184.791000	1286.855469	200.825089
-7395.043298	4184.791000	1285.752930	285.778595
-7395.043298	4184.791000	1284.650391	262.643158
-7395.043298	4184.791000	1283.546875	82.415024
-7395.043298	4184.791000	1282.444336	208.674042
-7395.043298	4184.791000	1281.339844	-55.277214
-7395.043298	4184.791000	1280.236328	369.679260
-7395.043298	4184.791000	1279.132813	113.645187
-7395.043298	4184.791000	1278.028320	211.017349
-7395.043298	4184.791000	1276.923828	195.315704
-7395.043298	4184.791000	1275.819336	211.459503
-7395.043298	4184.791000	1274.713867	75.494072
-7395.043298	4184.791000	1273.608398	55.722450
-7395.043298	4184.791000	1272.503906	217.713181
-7395.043298	4184.791000	1271.397461	208.357620
-7395.043298	4184.791000	1270.291992	82.563881
-7395.043298	4184.791000	1269.185547	63.185169
-7395.043298	4184.791000	1268.080078	209.286819
-7395.043298	4184.791000	1266.972656	-145.628143
-7395.043298	4184.791000	1265.866211	-80.814072
-7395.043298	4184.791000	1264.759766	41.883900
-7395.043298	4184.791000	1263.652344	-39.717144
-7395.043298	4184.791000	1262.544922	-171.437515
-7395.043298	4184.791000	1261.436523	-191.801880
-7395.043298	4184.791000	1260.329102	-62.202309
-7395.043298	4184.791000	1259.220703	61.224644
-7395.043298	4184.791000	1258.112305	174.734741
-7395.043298	4184.791000	1257.003906	1.034363
-7395.043298	4184.791000	1255.895508	-36.353729
-7395.043298	4184.791000	1254.786133	83.049843
-7395.043298	4184.791000	1253.676758	64.336693
-7395.043298	4184.791000	1252.567383	-3.058308
-7395.043298	4184.791000	1251.458008	-87.420967
-7395.043298	4184.791000	1250.347656	-18.127306
-7395.043298	4184.791000	1249.237305	182.765762
-7395.043298	4184.791000	1248.126953	4.781026
-7395.043298	4184.791000	1247.016602	-49.562656
-7395.043298	4184.791000	1245.905273	-57.725212
-7395.043298	4184.791000	1244.793945	150.341843
-7395.043298	4184.791000	1243.682617	-104.438316
-7395.043298	4184.791000	1242.571289	-24.330025
-7395.043298	4184.791000	1241.459961	20.478559
-7395.043298	4184.791000	1240.347656	-12.281003
-7395.043298	4184.791000	1239.235352	-59.286869
-7395.043298	4184.791000	1238.123047	-76.838524
-7395.043298	4184.791000	1237.009766	61.149155
-7395.043298	4184.791000	1235.897461	-27.496014
-7395.043298	4184.791000	1234.784180	-68.681259
-7395.043298	4184.791000	1233.670898	-48.151207
-7395.043298	4184.791000	1232.556641	-149.062881
-7395.043298	4184.791000	1231.443359	-113.197906
-7395.043298	4184.791000	1230.329102	-18.133358
-7395.043298	4184.791000	1229.214844	-97.354118
-7395.043298	4184.791000	1228.099609	8.271879
-7395.043298	4184.791000	1226.985352	-27.218699
-7395.043298	4184.791000	1225.870117	-69.641121
-7395.043298	4184.791000	1224.754883	-19.322115
-7395.043298	4184.791000	1223.639648	-122.906837
-7395.043298	4184.791000	1222.523438	132.482910
-7395.043298	4184.791000	1221.408203	0.311476
-7395.043298	4184.791000	1220.291992	-42.263687
-7395.043298	4184.791000	1219.174805	-73.079140
-7395.043298	4184.791000	1218.058594	-64.133446
-7395.043298	4184.791000	1216.941406	-207.558197
-7395.043298	4184.791000	1215.824219	-71.703560
-7395.043298	4184.791000	1214.707031	-18.716652
-7395.043298	4184.791000	1213.589844	15.538633
-7395.043298	4184.791000	1212.471680	-20.922741
-7395.043298	4184.791000	1211.353516	-48.062279
-7395.043298	4184.791000	1210.235352	134.103775
-7395.043298	4184.791000	1209.117188	-74.649773
-7395.043298	4184.791000	1207.998047	-1.296263
-7395.043298	4184.791000	1206.878906	35.511417
-7395.043298	4184.791000	1205.759766	-117.469521
-7395.043298	4184.791000	1204.640625	128.379471
-7395.043298	4184.791000	1203.520508	4.087014
-7395.043298	4184.791000	1202.401367	-10.892265
-7395.043298	4184.791000	1201.281250	18.958483
-7395.043298	4184.791000	1200.160156	-29.857435
-7395.043298	4184.791000	1199.040039	-121.643188
-7395.043298	4184.791000	1197.918945	40.243065
-7395.043298	4184.791000	1196.797852	-71.031212
-7395.043298	4184.791000	1195.676758	8.574423
-7395.043298	4184.791000	1194.555664	115.110184
-7395.043298	4184.791000	1193.433594	-119.270332
-7395.043298	4184.791000	1192.311523	-118.223824
-7395.043298	4184.791000	1191.189453	66.618294
-7395.043298	4184.791000	1190.066406	-27.543537
-7395.043298	4184.791000	1188.944336	43.808022
-7395.043298	4184.791000	1187.821289	80.840065
-7395.043298	4184.791000	1186.698242	-47.293507
-7395.043298	4184.791000	1185.574219	-79.395195
-7395.043298	4184.791000	1184.451172	37.401070
-7395.043298	4184.791000	1183.327148	-1.793370
-7395.043298	4184.791000	1182.203125	150.475266
-7395.043298	4184.791000	1181.078125	95.378052
-7395.043298	4184.791000	1179.954102	63.541935
-7395.043298	4184.791000	1178.829102	85.961952
-7395.043298	4184.791000	1177.704102	-43.027199
-7395.043298	4184.791000	1176.579102	46.489014
-7395.043298	4184.791000	1175.453125	-33.142605
-7395.043298	4184.791000	1174.327148	-10.167367
-7395.043298	4184.791000	1173.201172	45.089027
-7395.043298	4184.791000	1172.075195	-39.628799
-7395.043298	4184.791000	1170.949219	-28.587946
-7395.043298	4184.791000	1169.822266	132.382553
-7395.043298	4184.791000	1168.695313	228.666397
-7395.043298	4184.791000	1167.568359	119.285568
-7395.043298	4184.791000	1166.440430	199.567215
-7395.043298	4184.791000	1165.313477	118.148552
-7395.043298	4184.791000	1164.185547	22.119915
-7395.043298	4184.791000	1163.057617	89.500854
-7395.043298	4184.791000	1161.928711	-16.229177
-7395.043298	4184.791000	1160.800781	135.261520
-7395.043298	4184.791000	1159.671875	52.550461
-7395.043298	4184.791000	1158.541992	13.004315
-7395.043298	4184.791000	1157.413086	-60.511860
-7395.043298	4184.791000	1156.283203	-55.929470
-7395.043298	4184.791000	1155.154297	8.892034
-7395.043298	4184.791000	1154.023438	-40.743233
-7395.043298	4184.791000	1152.893555	53.645905
-7395.043298	4184.791000	1151.763672	8.276098
-7395.043298	4184.791000	1150.632813	-60.783543
-7395.043298	4184.791000	1149.501953	77.799355
-7395.043298	4184.791000	1148.370117	14.436628
-7395.043298	4184.791000	1147.239258	-69.350914
-7395.043298	4184.791000	1146.107422	-110.299774
-7395.043298	4184.791000	1144.975586	-117.601852
-7395.043298	4184.791000	1143.843750	-122.058327
-7395.043298	4184.791000	1142.710938	4.153671
-7395.043298	4184.791000	1141.578125	41.208523
-7395.043298	4184.791000	1140.445313	18.419342
-7395.043298	4184.791000	1139.312500	-225.934937
-7395.043298	4184.791000	1138.178711	-30.092091
-7395.043298	4184.791000	1137.045898	-113.835464
-7395.043298	4184.791000	1135.912109	-281.624664
-7395.043298	4184.791000	1134.777344	-54.985481
-7395.043298	4184.791000	1133.643555	22.629963
-7395.043298	4184.791000	1132.508789	120.130081
-7395.043298	4184.791000	1131.374023	-9.456928
-7395.043298	4184.791000	1130.239258	32.373505
-7395.043298	4184.791000	1129.104492	32.668922
-7395.043298	4184.791000	1127.968750	111.318268
-7395.043298	4184.791000	1126.833008	193.505157
-7395.043298	4184.791000	1125.697266	218.715637
-7395.043298	4184.791000	1124.560547	106.530945
-7395.043298	4184.791000	1123.424805	-4.152750
-7395.043298	4184.791000	1122.288086	-22.390444
-7395.043298	4184.791000	1121.151367	-68.053993
-7395.043298	4184.791000	1120.013672	-23.421640
-7395.043298	4184.791000	1118.876953	39.218506
-7395.043298	4184.791000	1117.739258	63.785805
-7395.043298	4184.791000	1116.601563	110.833359
-7395.043298	4184.791000	1115.462891	-66.268738
-7395.043298	4184.791000	1114.324219	-128.577652
-7395.043298	4184.791000	1113.186523	-80.776405
-7395.043298	4184.791000	1112.046875	-55.941910
-7395.043298	4184.791000	1110.908203	-18.903954
-7395.043298	4184.791000	1109.769531	9.442868
-7395.043298	4184.791000	1108.629883	15.184292
-7395.043298	4184.791000	1107.490234	-112.303024
-7395.043298	4184.791000	1106.349609	10.183790
-7395.043298	4184.791000	1105.209961	-15.329998
-7395.043298	4184.791000	1104.069336	65.234375
-7395.043298	4184.791000	1102.928711	62.148254
-7395.043298	4184.791000	1101.787109	295.355621
-7395.043298	4184.791000	1100.646484	171.863464
-7395.043298	4184.791000	1099.504883	149.172165
-7395.043298	4184.791000	1098.363281	144.551315
-7395.043298	4184.791000	1097.221680	251.652100
-7395.043298	4184.791000	1096.079102	402.772827
-7395.043298	4184.791000	1094.936523	293.039612
-7395.043298	4184.791000	1093.793945	188.088074
-7395.043298	4184.791000	1092.651367	193.335083
-7395.043298	4184.791000	1091.507813	295.146149
-7395.043298	4184.791000	1090.364258	294.079254
-7395.043298	4184.791000	1089.220703	271.925293
-7395.043298	4184.791000	1088.077148	252.695862
-7395.043298	4184.791000	1086.933594	130.566635
-7395.043298	4184.791000	1085.789063	199.002609
-7395.043298	4184.791000	1084.644531	213.910599
-7395.043298	4184.791000	1083.499023	145.342422
-7395.043298	4184.791000	1082.354492	243.428467
-7395.043298	4184.791000	1081.208984	-22.718710
-7395.043298	4184.791000	1080.063477	211.382080
-7395.043298	4184.791000	1078.917969	124.722939
-7395.043298	4184.791000	1077.771484	134.507919
-7395.043298	4184.791000	1076.625977	209.485947
-7395.043298	4184.791000	1075.479492	109.578796
-7395.043298	4184.791000	1074.332031	203.279465
-7395.043298	4184.791000	1073.185547	100.828369
-7395.043298	4184.791000	1072.038086	-107.328545
-7395.043298	4184.791000	1070.890625	49.467037
-7395.043298	4184.791000	1069.743164	169.447495
-7395.043298	4184.791000	1068.594727	63.530479
-7395.043298	4184.791000	1067.447266	186.234146
-7395.043298	4184.791000	1066.298828	196.269699
-7395.043298	4184.791000	1065.149414	192.128265
-7395.043298	4184.791000	1064.000977	214.145615
-7395.043298	4184.791000	1062.851563	341.339417
-7395.043298	4184.791000	1061.702148	400.923950
-7395.043298	4184.791000	1060.552734	279.075073
-7395.043298	4184.791000	1059.402344	338.033325
-7395.043298	4184.791000	1058.252930	49.261913
-7395.043298	4184.791000	1057.102539	207.412872
-7395.043298	4184.791000	1055.951172	223.906052
-7395.043298	4184.791000	1054.800781	77.539818
-7395.043298	4184.791000	1053.649414	65.332222
-7395.043298	4184.791000	1052.498047	73.210823
-7395.043298	4184.791000	1051.346680	218.915909
-7395.043298	4184.791000	1050.194336	145.121414
-7395.043298	4184.791000	1049.042969	145.175919
-7395.043298	4184.791000	1047.890625	78.045349
-7395.043298	4184.791000	1046.738281	70.367447
-7395.043298	4184.791000	1045.584961	40.968342
-7395.043298	4184.791000	1044.431641	5.297385
-7395.043298	4184.791000	1043.278320	40.755062
-7395.043298	4184.791000	1042.125000	-53.506191
-7395.043298	4184.791000	1040.971680	266.684631
-7395.043298	4184.791000	1039.817383	-35.082848
-7395.043298	4184.791000	1038.663086	-78.089523
-7395.043298	4184.791000	1037.508789	56.471367
-7395.043298	4184.791000	1036.353516	73.780167
-7395.043298	4184.791000	1035.198242	67.922318
-7395.043298	4184.791000	1034.042969	467.159668
-7395.043298	4184.791000	1032.887695	340.717926
-7395.043298	4184.791000	1031.732422	388.212494
-7395.043298	4184.791000	1030.576172	396.191681
-7395.043298	4184.791000	1029.419922	412.656189
-7395.043298	4184.791000	1028.263672	332.469452
-7395.043298	4184.791000	1027.106445	355.047913
-7395.043298	4184.791000	1025.949219	307.175568
-7395.043298	4184.791000	1024.792969	224.722488
-7395.043298	4184.791000	1023.634766	299.300720
-7395.043298	4184.791000	1022.477539	169.659927
-7395.043298	4184.791000	1021.319336	337.114960
-7395.043298	4184.791000	1020.161133	260.764465
-7395.043298	4184.791000	1019.002930	428.488525
-7395.043298	4184.791000	1017.843750	-9.919714
-7395.043298	4184.791000	1016.684570	267.712708
-7395.043298	4184.791000	1015.525391	162.831314
-7395.043298	4184.791000	1014.366211	193.590607
-7395.043298	4184.791000	1013.207031	286.236847
-7395.043298	4184.791000	1012.046875	196.284714
-7395.043298	4184.791000	1010.886719	418.047028
-7395.043298	4184.791000	1009.726563	357.004456
-7395.043298	4184.791000	1008.565430	-20.242477
-7395.043298	4184.791000	1007.404297	107.868179
-7395.043298	4184.791000	1006.243164	242.151108
-7395.043298	4184.791000	1005.082031	357.622162
-7395.043298	4184.791000	1003.920898	135.963196
-7395.043298	4184.791000	1002.758789	190.421021
-7395.043298	4184.791000	1001.596680	392.321503
-7395.043298	4184.791000	1000.433594	84.312729
-7395.043298	4184.791000	999.271484	74.241737
-7395.043298	4184.791000	998.108398	-54.674610
-7395.043298	4184.791000	996.945313	-110.065399
-7395.043298	4184.791000	995.782227	79.095985
-7395.043298	4184.791000	994.618164	360.770996
-7395.043298	4184.791000	993.454102	19.885302
-7395.043298	4184.791000	992.290039	103.703842
-7395.043298	4184.791000	991.125977	-163.082718
-7395.043298	4184.791000	989.960938	-173.809906
-7395.043298	4184.791000	988.796875	-208.865479
-7395.043298	4184.791000	987.630859	-224.859207
-7395.043298	4184.791000	986.465820	-206.048965
-7395.043298	4184.791000	985.300781	-174.714630
-7395.043298	4184.791000	984.134766	-193.233902
-7395.043298	4184.791000	982.968750	-125.636833
-7395.043298	4184.791000	981.801758	57.615841
-7395.043298	4184.791000	980.635742	-58.205952
-7395.043298	4184.791000	979.468750	61.505302
-7395.043298	4184.791000	978.301758	-9.530323
-7395.043298	4184.791000	977.133789	-52.770752
-7395.043298	4184.791000	975.966797	-254.776855
-7395.043298	4184.791000	974.798828	15.763703
-7395.043298	4184.791000	973.630859	-7.123190
-7395.043298	4184.791000	972.461914	-137.086975
-7395.043298	4184.791000	971.293945	86.324379
-7395.043298	4184.791000	970.125000	18.543137
-7395.043298	4184.791000	968.956055	-20.683033
-7395.043298	4184.791000	967.786133	-196.259537
-7395.043298	4184.791000	966.617188	31.734636
-7395.043298	4184.791000	965.447266	22.028412
-7395.043298	4184.791000	964.276367	-52.183666
-7395.043298	4184.791000	963.106445	132.513718
-7395.043298	4184.791000	961.935547	57.614964
-7395.043298	4184.791000	960.764648	114.696045
-7395.043298	4184.791000	959.593750	174.525803
-7395.043298	4184.791000	958.422852	42.610401
-7395.043298	4184.791000	957.250977	-168.436279
-7395.043298	4184.791000	956.079102	162.432571
-7395.043298	4184.791000	954.907227	87.877396
-7395.043298	4184.791000	953.734375	80.684868
-7395.043298	4184.791000	952.562500	-14.352277
-7395.043298	4184.791000	951.389648	12.952274
-7395.043298	4184.791000	950.215820	-174.679581
-7395.043298	4184.791000	949.042969	235.872208
-7395.043298	4184.791000	947.869141	77.492996
-7395.043298	4184.791000	946.695313	66.443665
-7395.043298	4184.791000	945.521484	259.555542
-7395.043298	4184.791000	944.346680	117.337791
-7395.043298	4184.791000	943.172852	-15.690918
-7395.043298	4184.791000	941.998047	-60.541897
-7395.043298	4184.791000	940.822266	203.699142
-7395.043298	4184.791000	939.647461	203.823471
-7395.043298	4184.791000	938.471680	148.131165
-7395.043298	4184.791000	937.295898	23.172306
-7395.043298	4184.791000	936.119141	2.077960
-7395.043298	4184.791000	934.943359	-47.183670
-7395.043298	4184.791000	933.766602	136.685349
-7395.043298	4184.791000	932.589844	70.099464
-7395.043298	4184.791000	931.413086	94.074562
-7395.043298	4184.791000	930.235352	109.470116
-7395.043298	4184.791000	929.057617	224.067795
-7395.043298	4184.791000	927.879883	-58.430965
-7395.043298	4184.791000	926.702148	71.290527
-7395.043298	4184.791000	925.523438	-4.048972
-7395.043298	4184.791000	924.344727	-49.161865
-7395.043298	4184.791000	923.166016	13.560513
-7395.043298	4184.791000	921.987305	15.863544
-7395.043298	4184.791000	920.807617	-68.101479
-7395.043298	4184.791000	919.627930	-64.977547
-7395.043298	4184.791000	919.497070	-54.692764
-7395.043298	4184.791000	918.331055	-106.353714
-7395.043298	4184.791000	917.165039	-101.985245
-7395.043298	4184.791000	915.999023	-157.966019
-7395.043298	4184.791000	914.833008	-2.842661
-7395.043298	4184.791000	913.666016	-7.169090
-7395.043298	4184.791000	912.499023	33.703777
-7395.043298	4184.791000	911.332031	-9.417191
-7395.043298	4184.791000	910.165039	-91.281761
-7395.043298	4184.791000	908.997070	59.274837
-7395.043298	4184.791000	907.830078	29.027250
-7395.043298	4184.791000	906.661133	91.272980
-7395.043298	4184.791000	905.493164	-40.079960
-7395.043298	4184.791000	904.325195	-61.739872
-7395.043298	4184.791000	903.156250	-193.042084
-7395.043298	4184.791000	901.987305	-133.022934
-7395.043298	4184.791000	900.818359	-83.789658
-7395.043298	4184.791000	899.648438	1.931756
-7395.043298	4184.791000	898.478516	106.933113
-7395.043298	4184.791000	897.308594	123.825935
-7395.043298	4184.791000	896.138672	275.960999
-7395.043298	4184.791000	894.968750	-37.803085
-7395.043298	4184.791000	893.797852	152.905228
-7395.043298	4184.791000	892.626953	73.152222
-7395.043298	4184.791000	891.456055	-2.293366
-7395.043298	4184.791000	890.284180	-13.374476
-7395.043298	4184.791000	889.113281	-22.324844
-7395.043298	4184.791000	887.941406	50.188217
-7395.043298	4184.791000	886.768555	19.766394
-7395.043298	4184.791000	885.596680	32.202385
-7395.043298	4184.791000	884.423828	63.904957
-7395.043298	4184.791000	883.250977	-7.248021
-7395.043298	4184.791000	882.078125	137.936966
-7395.043298	4184.791000	880.905273	11.091888
-7395.043298	4184.791000	879.731445	57.703362
-7395.043298	4184.791000	878.557617	155.653183
-7395.043298	4184.791000	877.383789	-120.963768
-7395.043298	4184.791000	876.209961	13.328207
-7395.043298	4184.791000	875.035156	38.455105
-7395.043298	4184.791000	873.860352	18.643492
-7395.043298	4184.791000	872.685547	189.136642
-7395.043298	4184.791000	871.510742	387.338989
-7395.043298	4184.791000	870.334961	27.574854
-7395.043298	4184.791000	869.159180	91.072823
-7395.043298	4184.791000	867.983398	-67.672890
-7395.043298	4184.791000	866.807617	264.944275
-7395.043298	4184.791000	865.630859	180.953674
-7395.043298	4184.791000	864.454102	299.833923
-7395.043298	4184.791000	863.277344	354.606506
-7395.043298	4184.791000	862.100586	219.384872
-7395.043298	4184.791000	860.922852	248.520538
-7395.043298	4184.791000	859.745117	386.440369
-7395.043298	4184.791000	858.567383	430.435455
-7395.043298	4184.791000	857.389648	389.094666
-7395.043298	4184.791000	856.210938	196.374069
-7395.043298	4184.791000	855.032227	242.476868
-7395.043298	4184.791000	853.853516	476.103302
-7395.043298	4184.791000	852.674805	379.335419
-7395.043298	4184.791000	851.495117	139.855759
-7395.043298	4184.791000	850.315430	288.123413
-7395.043298	4184.791000	849.135742	210.582764
-7395.043298	4184.791000	847.956055	205.451569
-7395.043298	4184.791000	846.775391	76.847824
-7395.043298	4184.791000	845.595703	31.283588
-7395.043298	4184.791000	844.415039	351.713593
-7395.043298	4184.791000	843.233398	246.523529
-7395.043298	4184.791000	842.052734	273.233276
-7395.043298	4184.791000	840.871094	340.323914
-7395.043298	4184.791000	839.689453	294.693024
-7395.043298	4184.791000	838.506836	-3.881345
-7395.043298	4184.791000	837.325195	18.557312
-7395.043298	4184.791000	836.142578	317.194000
-7395.043298	4184.791000	834.959961	25.134392
-7395.043298	4184.791000	833.777344	232.293457
-7395.043298	4184.791000	832.593750	318.320282
-7395.043298	4184.791000	831.410156	204.734558
-7395.043298	4184.791000	830.226563	299.194458
-7395.043298	4184.791000	829.042969	130.457718
-7395.043298	4184.791000	827.858398	369.144989
-7395.043298	4184.791000	826.673828	285.287781
-7395.043298	4184.791000	825.489258	188.726807
-7395.043298	4184.791000	824.304688	11.617244
-7395.043298	4184.791000	823.120117	133.480469
-7395.043298	4184.791000	821.934570	335.820862
-7395.043298	4184.791000	820.749023	90.939499
-7395.043298	4184.791000	819.562500	195.721542
-7395.043298	4184.791000	818.376953	118.279999
-7395.043298	4184.791000	817.190430	-1.498386
-7395.043298	4184.791000	816.003906	-76.778389
-7395.043298	4184.791000	814.817383	51.179115
-7395.043298	4184.791000	813.629883	130.391083
-7395.043298	4184.791000	812.442383	72.015045
-7395.043298	4184.791000	811.254883	11.532282
-7395.043298	4184.791000	810.067383	-97.588615
-7395.043298	4184.791000	808.878906	0.560854
-7395.043298	4184.791000	807.690430	333.338440
-7395.043298	4184.791000	806.501953	99.455841
-7395.043298	4184.791000	805.313477	-13.882977
-7395.043298	4184.791000	804.124023	-87.044029
-7395.043298	4184.791000	802.934570	108.099022
-7395.043298	4184.791000	801.745117	212.324295
-7395.043298	4184.791000	800.555664	-65.718018
-7395.043298	4184.791000	799.365234	186.251526
-7395.043298	4184.791000	798.175781	127.814995
-7395.043298	4184.791000	796.985352	-112.102318
-7395.043298	4184.791000	795.793945	108.019814
-7395.043298	4184.791000	794.603516	-15.810663
-7395.043298	4184.791000	793.412109	-217.640259
-7395.043298	4184.791000	792.220703	2.311726
-7395.043298	4184.791000	791.028320	-138.338486
-7395.043298	4184.791000	789.836914	-215.719559
-7395.043298	4184.791000	788.644531	-76.037354
-7395.043298	4184.791000	787.452148	-8.065789
-7395.043298	4184.791000	786.258789	-5.439704
-7395.043298	4184.791000	785.066406	-38.637291
-7395.043298	4184.791000	783.873047	-238.177017
-7395.043298	4184.791000	782.679688	-248.197021
-7395.043298	4184.791000	781.485352	-83.546112
-7395.043298	4184.791000	780.291992	-34.718956
-7395.043298	4184.791000	779.097656	-351.990021
-7395.043298	4184.791000	777.903320	-103.351921
-7395.043298	4184.791000	776.708008	-334.300995
-7395.043298	4184.791000	775.512695	-35.355152
-7395.043298	4184.791000	774.318359	-156.963974
-7395.043298	4184.791000	773.122070	-13.742939
-7395.043298	4184.791000	771.926758	-9.281262
-7395.043298	4184.791000	770.730469	-122.486511
-7395.043298	4184.791000	769.534180	12.165425
-7395.043298	4184.791000	768.337891	159.336334
-7395.043298	4184.791000	767.141602	125.870636
-7395.043298	4184.791000	765.944336	-52.434280
-7395.043298	4184.791000	764.747070	-8.245638
-7395.043298	4184.791000	763.549805	-39.634079
-7395.043298	4184.791000	762.351563	6.579563
-7395.043298	4184.791000	761.154297	100.982224
-7395.043298	4184.791000	759.956055	155.480392
-7395.043298	4184.791000	758.757813	-8.093056
-7395.043298	4184.791000	757.558594	-83.596176
-7395.043298	4184.791000	756.359375	0.160370
-7395.043298	4184.791000	755.160156	199.080536
-7395.043298	4184.791000	753.960938	182.144455
-7395.043298	4184.791000	752.761719	60.477737
-7395.043298	4184.791000	751.561523	-80.011169
-7395.043298	4184.791000	750.361328	-57.194347
-7395.043298	4184.791000	749.160156	118.361977
-7395.043298	4184.791000	747.959961	-107.932518
-7395.043298	4184.791000	746.758789	-154.250961
-7395.043298	4184.791000	745.557617	217.727997
-7395.043298	4184.791000	744.356445	62.558697
-7395.043298	4184.791000	743.154297	-142.754898
-7395.043298	4184.791000	741.952148	-170.344498
-7395.043298	4184.791000	740.750000	-20.321760
-7395.043298	4184.791000	739.547852	10.511168
-7395.043298	4184.791000	738.344727	5.785097
-7395.043298	4184.791000	737.142578	184.814453
-7395.043298	4184.791000	735.939453	96.461754
-7395.043298	4184.791000	734.735352	283.678711
-7395.043298	4184.791000	733.532227	312.154907
-7395.043298	4184.791000	732.328125	52.612064
-7395.043298	4184.791000	731.124023	154.073059
-7395.043298	4184.791000	729.918945	186.621597
-7395.043298	4184.791000	728.714844	285.853760
-7395.043298	4184.791000	727.509766	345.392395
-7395.043298	4184.791000	726.303711	106.773232
-7395.043298	4184.791000	725.098633	199.593460
-7395.043298	4184.791000	723.892578	125.640816
-7395.043298	4184.791000	722.686523	43.346577
-7395.043298	4184.791000	721.480469	175.578537
-7395.043298	4184.791000	720.274414	230.667389
-7395.043298	4184.791000	719.067383	306.512054
-7395.043298	4184.791000	717.860352	161.642532
-7395.043298	4184.791000	716.653320	14.712770
-7395.043298	4184.791000	715.445313	-157.165527
-7395.043298	4184.791000	714.238281	91.189430
-7395.043298	4184.791000	713.030273	116.862679
-7395.043298	4184.791000	711.821289	-36.341545
-7395.043298	4184.791000	710.613281	-14.896513
-7395.043298	4184.791000	709.404297	118.733795
-7395.043298	4184.791000	708.195313	11.212490
-7395.043298	4184.791000	706.986328	71.978699
-7395.043298	4184.791000	705.776367	303.000336
-7395.043298	4184.791000	704.566406	-57.985199
-7395.043298	4184.791000	703.356445	29.613615
-7395.043298	4184.791000	702.146484	-94.606865
-7395.043298	4184.791000	700.935547	-148.257980
-7395.043298	4184.791000	699.724609	208.915466
-7395.043298	4184.791000	698.513672	126.087967
-7395.043298	4184.791000	697.302734	-151.718307
-7395.043298	4184.791000	696.090820	18.458427
-7395.043298	4184.791000	694.878906	66.194801
-7395.043298	4184.791000	693.666992	57.897755
-7395.043298	4184.791000	692.455078	-147.318710
-7395.043298	4184.791000	691.242188	117.831261
-7395.043298	4184.791000	690.029297	94.882484
-7395.043298	4184.791000	688.816406	53.254627
-7395.043298	4184.791000	687.602539	142.044022
-7395.043298	4184.791000	686.389648	164.501556
-7395.043298	4184.791000	685.175781	311.083771
-7395.043298	4184.791000	683.960938	140.946609
-7395.043298	4184.791000	682.747070	219.098984
-7395.043298	4184.791000	681.532227	179.264847
-7395.043298	4184.791000	680.317383	131.123871
-7395.043298	4184.791000	679.102539	242.156342
-7395.043298	4184.791000	677.886719	413.036438
-7395.043298	4184.791000	676.670898	527.991821
-7395.043298	4184.791000	675.455078	308.111267
-7395.043298	4184.791000	674.239258	230.813461
-7395.043298	4184.791000	673.022461	316.662140
-7395.043298	4184.791000	671.805664	185.600037
-7395.043298	4184.791000	670.588867	391.058624
-7395.043298	4184.791000	669.372070	278.508514
-7395.043298	4184.791000	668.154297	407.397980
-7395.043298	4184.791000	666.936523	257.645599
-7395.043298	4184.791000	665.718750	256.424103
-7395.043298	4184.791000	664.500977	263.398376
-7395.043298	4184.791000	663.282227	396.091888
-7395.043298	4184.791000	662.063477	400.863739
-7395.043298	4184.791000	660.844727	360.236328
-7395.043298	4184.791000	659.625000	377.268158
-7395.043298	4184.791000	658.405273	371.576294
-7395.043298	4184.791000	657.185547	392.609955
-7395.043298	4184.791000	655.965820	362.096588
-7395.043298	4184.791000	654.745117	308.893433
-7395.043298	4184.791000	653.525391	475.912933
-7395.043298	4184.791000	652.303711	235.318405
-7395.043298	4184.791000	651.083008	231.393845
-7395.043298	4184.791000	649.861328	289.128815
-7395.043298	4184.791000	648.640625	429.054413
-7395.043298	4184.791000	647.417969	301.548248
-7395.043298	4184.791000	646.196289	482.418365
-7395.043298	4184.791000	644.973633	194.524124
-7395.043298	4184.791000	643.750977	202.612213
-7395.043298	4184.791000	642.528320	212.697372
-7395.043298	4184.791000	641.305664	323.374420
-7395.043298	4184.791000	640.082031	95.094894
-7395.043298	4184.791000	638.858398	337.045105
-7395.043298	4184.791000	637.634766	178.545517
-7395.043298	4184.791000	636.410156	475.678436
-7395.043298	4184.791000	635.185547	368.404755
-7395.043298	4184.791000	633.960938	203.680664
-7395.043298	4184.791000	632.736328	211.261292
-7395.043298	4184.791000	631.510742	206.478821
-7395.043298	4184.791000	630.285156	494.820709
-7395.043298	4184.791000	629.059570	14.333079
-7395.043298	4184.791000	627.833984	185.677307
-7395.043298	4184.791000	626.607422	250.351517
-7395.043298	4184.791000	625.380859	91.665642
-7395.043298	4184.791000	624.154297	287.300629
-7395.043298	4184.791000	622.927734	20.048750
-7395.043298	4184.791000	621.700195	299.442200
-7395.043298	4184.791000	620.472656	414.928833
-7395.043298	4184.791000	619.245117	178.356644
-7395.043298	4184.791000	618.016602	35.940342
-7395.043298	4184.791000	616.788086	-30.787094
-7395.043298	4184.791000	615.559570	301.233307
-7395.043298	4184.791000	614.331055	1.301710
-7395.043298	4184.791000	613.101563	142.970673
-7395.043298	4184.791000	611.872070	90.381737
-7395.043298	4184.791000	610.642578	-15.358214
-7395.043298	4184.791000	609.413086	64.794228
-7395.043298	4184.791000	608.182617	163.242081
-7395.043298	4184.791000	606.952148	-18.143404
-7395.043298	4184.791000	605.721680	6.691973
-7395.043298	4184.791000	604.491211	62.086590
-7395.043298	4184.791000	603.259766	56.189472
-7395.043298	4184.791000	602.028320	50.248055
-7395.043298	4184.791000	600.796875	170.730637
-7395.043298	4184.791000	599.564453	40.275440
-7395.043298	4184.791000	598.332031	119.838051
-7395.043298	4184.791000	597.099609	105.553795
-7395.043298	4184.791000	595.867188	323.567780
-7395.043298	4184.791000	594.633789	229.692001
-7395.043298	4184.791000	593.400391	117.478874
-7395.043298	4184.791000	592.166992	100.998360
-7395.043298	4184.791000	590.933594	218.879990
-7395.043298	4184.791000	589.699219	120.866333
-7395.043298	4184.791000	588.464844	33.031487
-7395.043298	4184.791000	587.230469	201.604614
-7395.043298	4184.791000	585.995117	164.573380
-7395.043298	4184.791000	584.760742	92.943970
-7395.043298	4184.791000	583.525391	-55.975994
-7395.043298	4184.791000	582.289063	112.315094
-7395.043298	4184.791000	581.053711	71.123436
-7395.043298	4184.791000	579.817383	62.427410
-7395.043298	4184.791000	578.581055	195.938141
-7395.043298	4184.791000	577.343750	274.503510
-7395.043298	4184.791000	576.107422	84.902603
-7395.043298	4184.791000	574.870117	96.382217
-7395.043298	4184.791000	573.631836	310.842468
-7395.043298	4184.791000	572.394531	72.543068
-7395.043298	4184.791000	571.156250	301.062744
-7395.043298	4184.791000	569.917969	379.315948
-7395.043298	4184.791000	568.679688	465.620819
-7395.043298	4184.791000	567.440430	434.230499
-7395.043298	4184.791000	566.202148	380.527924
-7395.043298	4184.791000	564.961914	140.311630
-7395.043298	4184.791000	563.722656	100.826744
-7395.043298	4184.791000	562.482422	193.041397
-7395.043298	4184.791000	561.243164	60.323093
-7395.043298	4184.791000	560.001953	130.176285
-7395.043298	4184.791000	558.761719	-16.694775
-7395.043298	4184.791000	557.520508	57.150620
-7395.043298	4184.791000	556.279297	56.051960
-7395.043298	4184.791000	555.038086	26.601891
-7395.043298	4184.791000	553.795898	363.357056
-7395.043298	4184.791000	552.554688	91.074837
-7395.043298	4184.791000	551.311523	118.201782
-7395.043298	4184.791000	550.069336	-69.025337
-7395.043298	4184.791000	548.826172	233.026382
-7395.043298	4184.791000	547.583984	-37.040867
-7395.043298	4184.791000	546.339844	70.855080
-7395.043298	4184.791000	545.096680	-98.079178
-7395.043298	4184.791000	543.852539	-129.609253
-7395.043298	4184.791000	542.608398	-11.701225
-7395.043298	4184.791000	541.364258	37.502174
-7395.043298	4184.791000	540.119141	-52.609520
-7395.043298	4184.791000	538.875000	24.815910
-7395.043298	4184.791000	537.628906	25.519665
-7395.043298	4184.791000	536.383789	-92.795509
-7395.043298	4184.791000	535.137695	-180.819168
-7395.043298	4184.791000	533.892578	1.386816
-7395.043298	4184.791000	532.645508	-10.028210
-7395.043298	4184.791000	531.399414	41.041786
-7395.043298	4184.791000	530.152344	-55.017624
-7395.043298	4184.791000	528.905273	2.073498
-7395.043298	4184.791000	527.658203	34.967194
-7395.043298	4184.791000	526.410156	132.282333
-7395.043298	4184.791000	525.163086	-26.134838
-7395.043298	4184.791000	523.914063	-273.062836
-7395.043298	4184.791000	522.666016	-16.758102
-7395.043298	4184.791000	521.416992	-189.133972
-7395.043298	4184.791000	520.167969	-21.471233
-7395.043298	4184.791000	518.918945	-141.478348
-7395.043298	4184.791000	517.669922	-263.440948
-7395.043298	4184.791000	516.419922	-107.928802
-7395.043298	4184.791000	515.169922	-259.993317
-7395.043298	4184.791000	513.919922	-186.929016
-7395.043298	4184.791000	512.668945	-129.968826
-7395.043298	4184.791000	511.417969	-271.879120
-7395.043298	4184.791000	510.166992	-367.535553
-7395.043298	4184.791000	508.916016	-380.828491
-7395.043298	4184.791000	507.664063	-339.918762
-7395.043298	4184.791000	506.412109	162.558990
-7395.043298	4184.791000	505.160156	36.811874
-7395.043298	4184.791000	503.907227	-209.239914
-7395.043298	4184.791000	502.655273	-174.395462
-7395.043298	4184.791000	501.402344	-97.456223
-7395.043298	4184.791000	500.148438	25.559217
-7395.043298	4184.791000	498.895508	-112.024399
-7395.043298	4184.791000	497.641602	101.126137
-7395.043298	4184.791000	496.387695	163.933289
-7395.043298	4184.791000	495.132813	-55.706543
-7395.043298	4184.791000	493.878906	-125.049942
-7395.043298	4184.791000	492.624023	-76.239471
-7395.043298	4184.791000	491.368164	-183.583191
-7395.043298	4184.791000	490.113281	-42.714878
-7395.043298	4184.791000	488.857422	138.106537
-7395.043298	4184.791000	487.601563	126.814720
-7395.043298	4184.791000	486.344727	-24.473621
-7395.043298	4184.791000	485.088867	-103.708038
-7395.043298	4184.791000	483.832031	-160.923111
-7395.043298	4184.791000	482.575195	107.669983
-7395.043298	4184.791000	481.317383	22.450329
-7395.043298	4184.791000	480.059570	188.988785
-7395.043298	4184.791000	478.801758	-56.009815
-7395.043298	4184.791000	477.543945	122.445389
-7395.043298	4184.791000	476.285156	147.078827
-7395.043298	4184.791000	475.027344	211.618942
-7395.043298	4184.791000	473.767578	-17.249601
-7395.043298	4184.791000	472.508789	-50.495049
-7395.043298	4184.791000	471.249023	179.568741
-7395.043298	4184.791000	469.989258	214.069473
-7395.043298	4184.791000	468.729492	-90.433342
-7395.043298	4184.791000	467.469727	-37.985813
-7395.043298	4184.791000	466.208984	-31.429884
-7395.043298	4184.791000	464.948242	-24.900949
-7395.043298	4184.791000	463.686523	-149.893585
-7395.043298	4184.791000	462.425781	101.590279
-7395.043298	4184.791000	461.164063	40.285400
-7395.043298	4184.791000	459.901367	172.085297
-7395.043298	4184.791000	458.639648	-124.161667
-7395.043298	4184.791000	457.376953	89.129311
-7395.043298	4184.791000	456.114258	389.825928
-7395.043298	4184.791000	454.851563	344.221588
-7395.043298	4184.791000	453.587891	137.489334
-7395.043298	4184.791000	452.324219	111.728874
-7395.043298	4184.791000	451.060547	-53.234600
-7395.043298	4184.791000	449.796875	153.468811
-7395.043298	4184.791000	448.532227	38.105049
-7395.043298	4184.791000	447.267578	101.513603
-7395.043298	4184.791000	446.002930	97.286530
-7395.043298	4184.791000	444.737305	110.845299
-7395.043298	4184.791000	443.471680	94.529007
-7395.043298	4184.791000	442.206055	54.308071
-7395.043298	4184.791000	440.940430	478.374359
-7395.043298	4184.791000	439.673828	267.250854
-7395.043298	4184.791000	438.407227	333.814209
-7395.043298	4184.791000	437.140625	100.771301
-7395.043298	4184.791000	435.873047	71.925468
-7395.043298	4184.791000	434.605469	-137.430038
-7395.043298	4184.791000	433.337891	73.332893
-7395.043298	4184.791000	432.070313	117.417351
-7395.043298	4184.791000	430.801758	171.231781
-7395.043298	4184.791000	429.533203	123.853058
-7395.043298	4184.791000	428.264648	216.923996
-7395.043298	4184.791000	426.996094	107.844971
-7395.043298	4184.791000	425.726563	200.517044
-7395.043298	4184.791000	424.457031	79.237289
-7395.043298	4184.791000	423.186523	151.694016
-7395.043298	4184.791000	421.916992	216.006775
-7395.043298	4184.791000	420.646484	353.237854
-7395.043298	4184.791000	419.375977	250.944534
-7395.043298	4184.791000	418.104492	134.612152
-7395.043298	4184.791000	416.833008	45.752808
-7395.043298	4184.791000	415.561523	146.360062
-7395.043298	4184.791000	414.290039	238.752365
-7395.043298	4184.791000	413.017578	176.764618
-7395.043298	4184.791000	411.746094	367.270782
-7395.043298	4184.791000	410.472656	91.466057
-7395.043298	4184.791000	409.200195	149.039886
-7395.043298	4184.791000	407.926758	52.330673
-7395.043298	4184.791000	406.653320	73.697197
-7395.043298	4184.791000	405.379883	463.553223
-7395.043298	4184.791000	404.105469	62.072254
-7395.043298	4184.791000	402.831055	176.946701
-7395.043298	4184.791000	401.556641	82.429077
-7395.043298	4184.791000	400.282227	196.442398
-7395.043298	4184.791000	399.006836	477.446442
-7395.043298	4184.791000	397.731445	32.961407
-7395.043298	4184.791000	396.456055	295.253784
-7395.043298	4184.791000	395.179688	263.557495
-7395.043298	4184.791000	393.903320	148.700974
-7395.043298	4184.791000	392.626953	179.031540
-7395.043298	4184.791000	391.350586	303.274933
-7395.043298	4184.791000	390.073242	143.610001
-7395.043298	4184.791000	388.795898	427.970367
-7395.043298	4184.791000	387.518555	300.631165
-7395.043298	4184.791000	386.240234	143.238220
-7395.043298	4184.791000	384.961914	187.749405
-7395.043298	4184.791000	383.683594	278.761658
-7395.043298	4184.791000	382.405273	33.094078
-7395.043298	4184.791000	381.125977	142.375824
-7395.043298	4184.791000	379.846680	23.086058
-7395.043298	4184.791000	378.567383	240.837265
-7395.043298	4184.791000	377.287109	175.036530
-7395.043298	4184.791000	376.006836	292.973541
-7395.043298	4184.791000	374.726563	317.830414
-7395.043298	4184.791000	373.446289	6.381411
-7395.043298	4184.791000	372.165039	143.342392
-7395.043298	4184.791000	370.883789	-52.034019
-7395.043298	4184.791000	369.602539	-38.460663
-7395.043298	4184.791000	368.320313	134.873032
-7395.043298	4184.791000	367.039063	-123.933342
-7395.043298	4184.791000	365.755859	33.644180
-7395.043298	4184.791000	364.473633	-185.933350
-7395.043298	4184.791000	363.190430	-24.614140
-7395.043298	4184.791000	361.907227	-107.233047
-7395.043298	4184.791000	360.624023	-28.461538
-7395.043298	4184.791000	359.340820	-121.137741
-7395.043298	4184.791000	358.056641	17.855452
-7395.043298	4184.791000	356.772461	-194.593704
-7395.043298	4184.791000	355.487305	-26.849987
-7395.043298	4184.791000	354.202148	-12.985801
-7395.043298	4184.791000	352.916992	-31.731655
-7395.043298	4184.791000	351.631836	-36.193806
-7395.043298	4184.791000	350.346680	10.710199
-7395.043298	4184.791000	349.060547	183.112488
-7395.043298	4184.791000	347.774414	39.486580
-7395.043298	4184.791000	346.487305	142.378632
-7395.043298	4184.791000	345.200195	-12.098700
-7395.043298	4184.791000	343.913086	-56.845665
-7395.043298	4184.791000	342.625977	216.836288
-7395.043298	4184.791000	341.338867	-147.353195
-7395.043298	4184.791000	340.050781	126.670372
-7395.043298	4184.791000	338.762695	94.552444
-7395.043298	4184.791000	337.473633	-46.666134
-7395.043298	4184.791000	336.184570	-100.022850
-7395.043298	4184.791000	334.895508	12.335477
-7395.043298	4184.791000	333.606445	31.091171
-7395.043298	4184.791000	332.317383	-129.465027
-7395.043298	4184.791000	331.027344	-294.025208
-7395.043298	4184.791000	329.736328	26.124269
-7395.043298	4184.791000	328.446289	-382.169830
-7395.043298	4184.791000	327.155273	-196.972305
-7395.043298	4184.791000	325.864258	-0.523988
-7395.043298	4184.791000	324.573242	-41.929050
-7395.043298	4184.791000	323.281250	5.633072
-7395.043298	4184.791000	321.989258	-239.059067
-7395.043298	4184.791000	320.697266	-103.144310
-7395.043298	4184.791000	319.405273	-100.118057
-7395.043298	4184.791000	318.112305	34.279182
-7395.043298	4184.791000	316.819336	177.555222
-7395.043298	4184.791000	315.526367	34.365353
-7395.043298	4184.791000	314.232422	100.004074
-7395.043298	4184.791000	312.938477	298.618195
-7395.043298	4184.791000	311.644531	103.945221
-7395.043298	4184.791000	310.349609	212.876480
-7395.043298	4184.791000	309.054688	223.539871
-7395.043298	4184.791000	307.759766	411.416992
-7395.043298	4184.791000	306.464844	343.777161
-7395.043298	4184.791000	305.168945	346.402954
-7395.043298	4184.791000	303.873047	560.797241
-7395.043298	4184.791000	302.577148	383.902954
-7395.043298	4184.791000	301.281250	531.005371
-7395.043298	4184.791000	299.984375	602.569885
