#X		#Y		#Wave		#Intensity
-6499.105213	4636.881500	1999.946289	29.678633
-6499.105213	4636.881500	1998.981445	38.817753
-6499.105213	4636.881500	1998.017578	25.413584
-6499.105213	4636.881500	1997.052734	-10.273088
-6499.105213	4636.881500	1996.088867	20.966883
-6499.105213	4636.881500	1995.124023	7.620675
-6499.105213	4636.881500	1994.159180	21.538893
-6499.105213	4636.881500	1993.193359	-1.677934
-6499.105213	4636.881500	1992.228516	29.597197
-6499.105213	4636.881500	1991.262695	-1.009595
-6499.105213	4636.881500	1990.296875	-78.614059
-6499.105213	4636.881500	1989.331055	19.508930
-6499.105213	4636.881500	1988.365234	18.649818
-6499.105213	4636.881500	1987.398438	-19.299496
-6499.105213	4636.881500	1986.432617	-10.233148
-6499.105213	4636.881500	1985.465820	-3.631030
-6499.105213	4636.881500	1984.499023	-83.544250
-6499.105213	4636.881500	1983.532227	-81.850433
-6499.105213	4636.881500	1982.565430	8.818397
-6499.105213	4636.881500	1981.597656	54.990475
-6499.105213	4636.881500	1980.629883	22.106352
-6499.105213	4636.881500	1979.662109	-25.573883
-6499.105213	4636.881500	1978.694336	-18.899519
-6499.105213	4636.881500	1977.726563	32.223274
-6499.105213	4636.881500	1976.758789	9.282625
-6499.105213	4636.881500	1975.790039	62.868004
-6499.105213	4636.881500	1974.821289	30.078373
-6499.105213	4636.881500	1973.852539	-7.624379
-6499.105213	4636.881500	1972.883789	31.161463
-6499.105213	4636.881500	1971.915039	-55.833893
-6499.105213	4636.881500	1970.945313	-46.625767
-6499.105213	4636.881500	1969.975586	-47.274166
-6499.105213	4636.881500	1969.005859	-33.125767
-6499.105213	4636.881500	1968.036133	32.776329
-6499.105213	4636.881500	1967.066406	32.136108
-6499.105213	4636.881500	1966.096680	24.112877
-6499.105213	4636.881500	1965.125977	134.321991
-6499.105213	4636.881500	1964.155273	20.407295
-6499.105213	4636.881500	1963.184570	-9.748520
-6499.105213	4636.881500	1962.213867	-22.655684
-6499.105213	4636.881500	1961.242188	21.053888
-6499.105213	4636.881500	1960.271484	37.685726
-6499.105213	4636.881500	1959.299805	-12.109818
-6499.105213	4636.881500	1958.328125	9.451928
-6499.105213	4636.881500	1957.356445	26.092073
-6499.105213	4636.881500	1956.384766	-26.117081
-6499.105213	4636.881500	1955.412109	81.493752
-6499.105213	4636.881500	1954.439453	17.012833
-6499.105213	4636.881500	1953.467773	48.402546
-6499.105213	4636.881500	1952.495117	-13.582788
-6499.105213	4636.881500	1951.521484	0.612322
-6499.105213	4636.881500	1950.548828	49.191895
-6499.105213	4636.881500	1949.575195	92.845222
-6499.105213	4636.881500	1948.601563	18.636023
-6499.105213	4636.881500	1947.627930	-3.992652
-6499.105213	4636.881500	1946.654297	-38.881428
-6499.105213	4636.881500	1945.680664	-12.408406
-6499.105213	4636.881500	1944.706055	63.124580
-6499.105213	4636.881500	1943.732422	-50.242542
-6499.105213	4636.881500	1942.757813	25.274439
-6499.105213	4636.881500	1941.783203	24.753147
-6499.105213	4636.881500	1940.807617	102.683517
-6499.105213	4636.881500	1939.833008	38.423584
-6499.105213	4636.881500	1938.857422	52.609394
-6499.105213	4636.881500	1937.881836	52.090546
-6499.105213	4636.881500	1936.906250	-17.018974
-6499.105213	4636.881500	1935.930664	-5.275710
-6499.105213	4636.881500	1934.955078	72.582405
-6499.105213	4636.881500	1933.978516	25.546068
-6499.105213	4636.881500	1933.001953	-41.055141
-6499.105213	4636.881500	1932.025391	14.741538
-6499.105213	4636.881500	1931.048828	9.343316
-6499.105213	4636.881500	1930.072266	16.180241
-6499.105213	4636.881500	1929.094727	-13.676412
-6499.105213	4636.881500	1928.118164	5.390919
-6499.105213	4636.881500	1927.140625	-22.007181
-6499.105213	4636.881500	1926.163086	19.056902
-6499.105213	4636.881500	1925.184570	-32.776325
-6499.105213	4636.881500	1924.207031	-6.388813
-6499.105213	4636.881500	1923.228516	39.534992
-6499.105213	4636.881500	1922.250000	19.483265
-6499.105213	4636.881500	1921.271484	-46.967693
-6499.105213	4636.881500	1920.292969	-8.389647
-6499.105213	4636.881500	1919.314453	13.082536
-6499.105213	4636.881500	1918.334961	5.252819
-6499.105213	4636.881500	1917.355469	-36.743519
-6499.105213	4636.881500	1916.375977	18.880775
-6499.105213	4636.881500	1915.396484	-10.906255
-6499.105213	4636.881500	1914.416992	37.372219
-6499.105213	4636.881500	1913.436523	27.100130
-6499.105213	4636.881500	1912.457031	-31.935854
-6499.105213	4636.881500	1911.476563	-39.756477
-6499.105213	4636.881500	1910.496094	27.984379
-6499.105213	4636.881500	1909.515625	-28.587158
-6499.105213	4636.881500	1908.534180	-9.607906
-6499.105213	4636.881500	1907.552734	6.926338
-6499.105213	4636.881500	1906.572266	30.759415
-6499.105213	4636.881500	1905.590820	-6.297401
-6499.105213	4636.881500	1904.608398	2.916331
-6499.105213	4636.881500	1903.626953	-31.691698
-6499.105213	4636.881500	1902.644531	-5.444860
-6499.105213	4636.881500	1901.663086	-49.776394
-6499.105213	4636.881500	1900.680664	-43.003822
-6499.105213	4636.881500	1899.698242	-60.560532
-6499.105213	4636.881500	1898.714844	19.164948
-6499.105213	4636.881500	1897.732422	28.344500
-6499.105213	4636.881500	1896.749023	5.913888
-6499.105213	4636.881500	1895.765625	-55.400711
-6499.105213	4636.881500	1894.782227	60.705208
-6499.105213	4636.881500	1893.798828	-95.360458
-6499.105213	4636.881500	1892.814453	-6.018356
-6499.105213	4636.881500	1891.831055	29.854372
-6499.105213	4636.881500	1890.846680	46.283680
-6499.105213	4636.881500	1889.862305	19.001987
-6499.105213	4636.881500	1888.877930	28.138519
-6499.105213	4636.881500	1887.892578	-47.675621
-6499.105213	4636.881500	1886.908203	-26.404093
-6499.105213	4636.881500	1885.922852	70.063393
-6499.105213	4636.881500	1884.937500	20.955364
-6499.105213	4636.881500	1883.952148	-52.389225
-6499.105213	4636.881500	1882.965820	22.195992
-6499.105213	4636.881500	1881.980469	31.295624
-6499.105213	4636.881500	1880.994141	-27.478128
-6499.105213	4636.881500	1880.007813	61.589630
-6499.105213	4636.881500	1879.021484	85.202713
-6499.105213	4636.881500	1878.035156	-29.274893
-6499.105213	4636.881500	1877.047852	-34.725178
-6499.105213	4636.881500	1876.061523	68.791252
-6499.105213	4636.881500	1875.074219	-11.735870
-6499.105213	4636.881500	1874.086914	48.158497
-6499.105213	4636.881500	1873.098633	42.681965
-6499.105213	4636.881500	1872.111328	42.043240
-6499.105213	4636.881500	1871.123047	53.496563
-6499.105213	4636.881500	1870.135742	33.497726
-6499.105213	4636.881500	1869.147461	20.757013
-6499.105213	4636.881500	1868.158203	-37.923248
-6499.105213	4636.881500	1867.169922	21.868946
-6499.105213	4636.881500	1866.180664	125.139748
-6499.105213	4636.881500	1865.192383	93.042763
-6499.105213	4636.881500	1864.203125	41.624527
-6499.105213	4636.881500	1863.213867	55.443161
-6499.105213	4636.881500	1862.223633	23.363710
-6499.105213	4636.881500	1861.234375	22.683855
-6499.105213	4636.881500	1860.244141	31.656532
-6499.105213	4636.881500	1859.253906	81.656281
-6499.105213	4636.881500	1858.263672	37.512196
-6499.105213	4636.881500	1857.273438	75.418831
-6499.105213	4636.881500	1856.282227	40.933243
-6499.105213	4636.881500	1855.291992	18.516487
-6499.105213	4636.881500	1854.300781	-11.131151
-6499.105213	4636.881500	1853.309570	-2.194670
-6499.105213	4636.881500	1852.317383	21.197296
-6499.105213	4636.881500	1851.326172	71.088600
-6499.105213	4636.881500	1850.333984	55.893623
-6499.105213	4636.881500	1849.342773	-5.075826
-6499.105213	4636.881500	1848.350586	73.684334
-6499.105213	4636.881500	1847.357422	-42.667831
-6499.105213	4636.881500	1846.365234	45.692581
-6499.105213	4636.881500	1845.372070	20.864113
-6499.105213	4636.881500	1844.379883	-13.587100
-6499.105213	4636.881500	1843.386719	-2.305698
-6499.105213	4636.881500	1842.393555	40.246273
-6499.105213	4636.881500	1841.399414	27.447340
-6499.105213	4636.881500	1840.406250	14.649207
-6499.105213	4636.881500	1839.412109	18.684126
-6499.105213	4636.881500	1838.417969	-44.607193
-6499.105213	4636.881500	1837.423828	0.293682
-6499.105213	4636.881500	1836.429688	-14.911583
-6499.105213	4636.881500	1835.434570	58.792488
-6499.105213	4636.881500	1834.440430	41.170605
-6499.105213	4636.881500	1833.445313	30.756277
-6499.105213	4636.881500	1832.450195	-1.272725
-6499.105213	4636.881500	1831.454102	-28.492493
-6499.105213	4636.881500	1830.458984	64.327789
-6499.105213	4636.881500	1829.462891	56.298744
-6499.105213	4636.881500	1828.466797	89.064346
-6499.105213	4636.881500	1827.470703	-50.937641
-6499.105213	4636.881500	1826.474609	-3.779850
-6499.105213	4636.881500	1825.478516	52.949234
-6499.105213	4636.881500	1824.481445	13.733675
-6499.105213	4636.881500	1823.484375	53.646187
-6499.105213	4636.881500	1822.487305	12.039194
-6499.105213	4636.881500	1821.490234	90.273796
-6499.105213	4636.881500	1820.493164	39.082314
-6499.105213	4636.881500	1819.495117	59.776054
-6499.105213	4636.881500	1818.498047	1.415162
-6499.105213	4636.881500	1817.500000	-13.822444
-6499.105213	4636.881500	1816.500977	37.982307
-6499.105213	4636.881500	1815.502930	32.310478
-6499.105213	4636.881500	1814.504883	-14.052002
-6499.105213	4636.881500	1813.505859	32.924541
-6499.105213	4636.881500	1812.506836	103.804451
-6499.105213	4636.881500	1811.507813	43.088593
-6499.105213	4636.881500	1810.508789	3.916157
-6499.105213	4636.881500	1809.508789	-78.287567
-6499.105213	4636.881500	1808.508789	30.793734
-6499.105213	4636.881500	1807.508789	3.583907
-6499.105213	4636.881500	1806.508789	67.193443
-6499.105213	4636.881500	1805.508789	25.642273
-6499.105213	4636.881500	1804.508789	19.936506
-6499.105213	4636.881500	1803.507813	-19.210363
-6499.105213	4636.881500	1802.506836	-8.198311
-6499.105213	4636.881500	1801.505859	-52.108490
-6499.105213	4636.881500	1800.504883	9.026774
-6499.105213	4636.881500	1799.502930	0.921074
-6499.105213	4636.881500	1798.501953	40.539257
-6499.105213	4636.881500	1797.500000	37.194107
-6499.105213	4636.881500	1796.498047	-35.327805
-6499.105213	4636.881500	1795.496094	13.801432
-6499.105213	4636.881500	1794.493164	-44.390766
-6499.105213	4636.881500	1793.491211	-42.965389
-6499.105213	4636.881500	1792.488281	29.960011
-6499.105213	4636.881500	1791.485352	-73.491913
-6499.105213	4636.881500	1790.482422	-67.309044
-6499.105213	4636.881500	1789.478516	34.153080
-6499.105213	4636.881500	1788.475586	30.778820
-6499.105213	4636.881500	1787.471680	-39.273529
-6499.105213	4636.881500	1786.467773	9.736625
-6499.105213	4636.881500	1785.463867	-0.784072
-6499.105213	4636.881500	1784.459961	36.293316
-6499.105213	4636.881500	1783.455078	-21.825483
-6499.105213	4636.881500	1782.450195	29.507734
-6499.105213	4636.881500	1781.445313	-33.352146
-6499.105213	4636.881500	1780.440430	27.468811
-6499.105213	4636.881500	1779.435547	-6.842356
-6499.105213	4636.881500	1778.429688	42.056667
-6499.105213	4636.881500	1777.424805	102.818008
-6499.105213	4636.881500	1776.418945	11.470016
-6499.105213	4636.881500	1775.413086	55.575584
-6499.105213	4636.881500	1774.406250	-47.613556
-6499.105213	4636.881500	1773.400391	24.978821
-6499.105213	4636.881500	1772.393555	9.683647
-6499.105213	4636.881500	1771.386719	-24.601204
-6499.105213	4636.881500	1770.379883	69.296783
-6499.105213	4636.881500	1769.373047	-19.574987
-6499.105213	4636.881500	1768.365234	-27.746065
-6499.105213	4636.881500	1767.358398	-31.172045
-6499.105213	4636.881500	1766.350586	-10.882985
-6499.105213	4636.881500	1765.342773	-57.001869
-6499.105213	4636.881500	1764.334961	5.953753
-6499.105213	4636.881500	1763.326172	16.732290
-6499.105213	4636.881500	1762.318359	-60.184578
-6499.105213	4636.881500	1761.309570	-9.121852
-6499.105213	4636.881500	1760.300781	8.751473
-6499.105213	4636.881500	1759.291016	21.876907
-6499.105213	4636.881500	1758.282227	-10.000049
-6499.105213	4636.881500	1757.272461	50.472458
-6499.105213	4636.881500	1756.262695	44.635456
-6499.105213	4636.881500	1755.252930	41.164764
-6499.105213	4636.881500	1754.243164	25.860584
-6499.105213	4636.881500	1753.233398	-29.660957
-6499.105213	4636.881500	1752.222656	-44.952141
-6499.105213	4636.881500	1751.211914	-53.145191
-6499.105213	4636.881500	1750.201172	71.077675
-6499.105213	4636.881500	1749.190430	22.670347
-6499.105213	4636.881500	1748.179688	-32.812080
-6499.105213	4636.881500	1747.167969	25.157326
-6499.105213	4636.881500	1746.156250	-61.026428
-6499.105213	4636.881500	1745.144531	41.805027
-6499.105213	4636.881500	1744.132813	-1.840458
-6499.105213	4636.881500	1743.121094	-17.134966
-6499.105213	4636.881500	1742.108398	43.123840
-6499.105213	4636.881500	1741.095703	-2.865676
-6499.105213	4636.881500	1740.083008	21.961710
-6499.105213	4636.881500	1739.070313	-49.966602
-6499.105213	4636.881500	1738.057617	12.602239
-6499.105213	4636.881500	1737.043945	11.459056
-6499.105213	4636.881500	1736.030273	43.329571
-6499.105213	4636.881500	1735.016602	11.524978
-6499.105213	4636.881500	1734.002930	-34.413795
-6499.105213	4636.881500	1732.989258	49.292831
-6499.105213	4636.881500	1731.974609	-88.542473
-6499.105213	4636.881500	1730.959961	-73.186775
-6499.105213	4636.881500	1729.945313	-8.372214
-6499.105213	4636.881500	1728.930664	23.444088
-6499.105213	4636.881500	1727.916016	-20.102699
-6499.105213	4636.881500	1726.900391	9.344893
-6499.105213	4636.881500	1725.885742	-36.540142
-6499.105213	4636.881500	1724.870117	54.081474
-6499.105213	4636.881500	1723.853516	-15.328427
-6499.105213	4636.881500	1722.837891	-9.435713
-6499.105213	4636.881500	1721.822266	1.156877
-6499.105213	4636.881500	1720.805664	25.851963
-6499.105213	4636.881500	1719.789063	10.567918
-6499.105213	4636.881500	1718.772461	-56.425201
-6499.105213	4636.881500	1717.754883	-24.688644
-6499.105213	4636.881500	1716.738281	-14.112136
-6499.105213	4636.881500	1715.720703	5.854889
-6499.105213	4636.881500	1714.703125	-7.070609
-6499.105213	4636.881500	1713.685547	-57.566086
-6499.105213	4636.881500	1712.667969	7.003632
-6499.105213	4636.881500	1711.649414	52.766739
-6499.105213	4636.881500	1710.630859	11.671649
-6499.105213	4636.881500	1709.612305	-15.329576
-6499.105213	4636.881500	1708.593750	-23.552818
-6499.105213	4636.881500	1707.575195	10.447639
-6499.105213	4636.881500	1706.555664	-68.137024
-6499.105213	4636.881500	1705.536133	-41.178574
-6499.105213	4636.881500	1704.516602	-16.575788
-6499.105213	4636.881500	1703.497070	-36.516979
-6499.105213	4636.881500	1702.477539	-16.613564
-6499.105213	4636.881500	1701.457031	17.337971
-6499.105213	4636.881500	1700.437500	-26.026320
-6499.105213	4636.881500	1699.416992	26.648670
-6499.105213	4636.881500	1698.395508	34.810970
-6499.105213	4636.881500	1697.375000	24.240931
-6499.105213	4636.881500	1696.354492	53.466156
-6499.105213	4636.881500	1695.333008	24.171963
-6499.105213	4636.881500	1694.311523	-26.170033
-6499.105213	4636.881500	1693.290039	12.402241
-6499.105213	4636.881500	1692.267578	8.857669
-6499.105213	4636.881500	1691.246094	-6.377522
-6499.105213	4636.881500	1690.223633	-21.608393
-6499.105213	4636.881500	1689.201172	-18.133469
-6499.105213	4636.881500	1688.178711	22.733318
-6499.105213	4636.881500	1687.155273	0.493082
-6499.105213	4636.881500	1686.132813	-21.738255
-6499.105213	4636.881500	1685.109375	-1.918462
-6499.105213	4636.881500	1684.085938	6.216554
-6499.105213	4636.881500	1683.062500	-16.005169
-6499.105213	4636.881500	1682.039063	34.148338
-6499.105213	4636.881500	1681.014648	23.598112
-6499.105213	4636.881500	1679.990234	45.720913
-6499.105213	4636.881500	1678.965820	49.170345
-6499.105213	4636.881500	1677.941406	59.616241
-6499.105213	4636.881500	1676.916992	-25.561117
-6499.105213	4636.881500	1675.891602	8.211041
-6499.105213	4636.881500	1674.866211	-46.618134
-6499.105213	4636.881500	1673.840820	-12.855001
-6499.105213	4636.881500	1672.815430	-62.998432
-6499.105213	4636.881500	1671.790039	-24.585379
-6499.105213	4636.881500	1670.763672	-21.130108
-6499.105213	4636.881500	1669.737305	42.878422
-6499.105213	4636.881500	1668.710938	20.705257
-6499.105213	4636.881500	1667.684570	-8.443636
-6499.105213	4636.881500	1666.658203	-37.581161
-6499.105213	4636.881500	1665.630859	-43.435822
-6499.105213	4636.881500	1664.603516	-0.425653
-6499.105213	4636.881500	1663.576172	28.610142
-6499.105213	4636.881500	1662.548828	-23.770664
-6499.105213	4636.881500	1661.520508	9.908999
-6499.105213	4636.881500	1660.493164	1.727438
-6499.105213	4636.881500	1659.464844	26.091888
-6499.105213	4636.881500	1658.436523	82.984451
-6499.105213	4636.881500	1657.408203	44.586670
-6499.105213	4636.881500	1656.378906	110.746475
-6499.105213	4636.881500	1655.350586	-34.486645
-6499.105213	4636.881500	1654.321289	8.441159
-6499.105213	4636.881500	1653.291992	67.605850
-6499.105213	4636.881500	1652.261719	142.997086
-6499.105213	4636.881500	1651.232422	67.499794
-6499.105213	4636.881500	1650.202148	-28.852930
-6499.105213	4636.881500	1649.171875	37.235104
-6499.105213	4636.881500	1648.141602	49.947754
-6499.105213	4636.881500	1647.111328	62.656273
-6499.105213	4636.881500	1646.080078	126.370949
-6499.105213	4636.881500	1645.049805	30.104012
-6499.105213	4636.881500	1644.018555	17.314850
-6499.105213	4636.881500	1642.987305	41.609203
-6499.105213	4636.881500	1641.955078	58.943409
-6499.105213	4636.881500	1640.923828	16.045141
-6499.105213	4636.881500	1639.891602	65.803612
-6499.105213	4636.881500	1638.859375	57.654991
-6499.105213	4636.881500	1637.827148	19.414381
-6499.105213	4636.881500	1636.794922	143.215225
-6499.105213	4636.881500	1635.761719	-57.019939
-6499.105213	4636.881500	1634.729492	34.357441
-6499.105213	4636.881500	1633.696289	23.914324
-6499.105213	4636.881500	1632.662109	62.045517
-6499.105213	4636.881500	1631.628906	-17.768644
-6499.105213	4636.881500	1630.594727	-74.431900
-6499.105213	4636.881500	1629.561523	-20.118578
-6499.105213	4636.881500	1628.527344	22.618778
-6499.105213	4636.881500	1627.493164	53.787987
-6499.105213	4636.881500	1626.458008	66.464180
-6499.105213	4636.881500	1625.423828	37.562977
-6499.105213	4636.881500	1624.388672	15.601307
-6499.105213	4636.881500	1623.353516	39.825996
-6499.105213	4636.881500	1622.318359	73.276131
-6499.105213	4636.881500	1621.282227	42.092285
-6499.105213	4636.881500	1620.247070	89.376945
-6499.105213	4636.881500	1619.210938	106.652672
-6499.105213	4636.881500	1618.174805	17.820942
-6499.105213	4636.881500	1617.137695	18.963379
-6499.105213	4636.881500	1616.101563	31.636305
-6499.105213	4636.881500	1615.064453	88.104248
-6499.105213	4636.881500	1614.027344	31.618040
-6499.105213	4636.881500	1612.990234	-45.583405
-6499.105213	4636.881500	1611.953125	3.960144
-6499.105213	4636.881500	1610.916016	55.789726
-6499.105213	4636.881500	1609.877930	36.207676
-6499.105213	4636.881500	1608.839844	37.357876
-6499.105213	4636.881500	1607.801758	50.020016
-6499.105213	4636.881500	1606.763672	35.059349
-6499.105213	4636.881500	1605.724609	33.912743
-6499.105213	4636.881500	1604.685547	83.384712
-6499.105213	4636.881500	1603.646484	105.236031
-6499.105213	4636.881500	1602.607422	83.383705
-6499.105213	4636.881500	1601.568359	22.452267
-6499.105213	4636.881500	1600.528320	58.101376
-6499.105213	4636.881500	1599.489258	63.859081
-6499.105213	4636.881500	1598.449219	-40.690437
-6499.105213	4636.881500	1597.408203	-30.317907
-6499.105213	4636.881500	1596.368164	48.967850
-6499.105213	4636.881500	1595.327148	6.498942
-6499.105213	4636.881500	1594.287109	37.529602
-6499.105213	4636.881500	1593.246094	66.253761
-6499.105213	4636.881500	1592.204102	92.672798
-6499.105213	4636.881500	1591.163086	20.403595
-6499.105213	4636.881500	1590.121094	33.058922
-6499.105213	4636.881500	1589.079102	43.417629
-6499.105213	4636.881500	1588.037109	56.068115
-6499.105213	4636.881500	1586.995117	103.112694
-6499.105213	4636.881500	1585.953125	42.385975
-6499.105213	4636.881500	1584.910156	22.944500
-6499.105213	4636.881500	1583.867188	127.268394
-6499.105213	4636.881500	1582.824219	39.083134
-6499.105213	4636.881500	1581.781250	-21.574877
-6499.105213	4636.881500	1580.737305	105.607246
-6499.105213	4636.881500	1579.693359	150.302994
-6499.105213	4636.881500	1578.649414	87.375999
-6499.105213	4636.881500	1577.605469	175.555191
-6499.105213	4636.881500	1576.561523	165.291260
-6499.105213	4636.881500	1575.516602	86.387833
-6499.105213	4636.881500	1574.472656	69.287262
-6499.105213	4636.881500	1573.427734	120.813843
-6499.105213	4636.881500	1572.381836	80.848564
-6499.105213	4636.881500	1571.336914	139.216949
-6499.105213	4636.881500	1570.291016	64.979874
-6499.105213	4636.881500	1569.246094	82.194901
-6499.105213	4636.881500	1568.200195	135.965744
-6499.105213	4636.881500	1567.153320	93.764488
-6499.105213	4636.881500	1566.107422	99.550285
-6499.105213	4636.881500	1565.060547	144.158569
-6499.105213	4636.881500	1564.013672	133.954163
-6499.105213	4636.881500	1562.966797	189.957611
-6499.105213	4636.881500	1561.919922	191.165359
-6499.105213	4636.881500	1560.872070	176.401489
-6499.105213	4636.881500	1559.825195	184.461273
-6499.105213	4636.881500	1558.777344	158.304947
-6499.105213	4636.881500	1557.729492	134.442352
-6499.105213	4636.881500	1556.680664	242.837433
-6499.105213	4636.881500	1555.632813	198.456253
-6499.105213	4636.881500	1554.583984	179.165909
-6499.105213	4636.881500	1553.535156	248.757828
-6499.105213	4636.881500	1552.486328	161.121460
-6499.105213	4636.881500	1551.436523	173.747971
-6499.105213	4636.881500	1550.387695	222.811752
-6499.105213	4636.881500	1549.337891	151.178970
-6499.105213	4636.881500	1548.288086	259.422668
-6499.105213	4636.881500	1547.238281	158.227676
-6499.105213	4636.881500	1546.187500	148.099945
-6499.105213	4636.881500	1545.136719	128.878387
-6499.105213	4636.881500	1544.086914	116.492233
-6499.105213	4636.881500	1543.035156	117.758339
-6499.105213	4636.881500	1541.984375	100.836899
-6499.105213	4636.881500	1540.933594	54.371113
-6499.105213	4636.881500	1539.881836	82.932877
-6499.105213	4636.881500	1538.830078	38.766834
-6499.105213	4636.881500	1537.778320	3.709301
-6499.105213	4636.881500	1536.725586	89.062660
-6499.105213	4636.881500	1535.673828	78.997795
-6499.105213	4636.881500	1534.621094	71.209938
-6499.105213	4636.881500	1533.568359	36.185280
-6499.105213	4636.881500	1532.515625	94.239502
-6499.105213	4636.881500	1531.461914	2.495807
-6499.105213	4636.881500	1530.409180	65.077690
-6499.105213	4636.881500	1529.355469	50.509739
-6499.105213	4636.881500	1528.301758	-86.521904
-6499.105213	4636.881500	1527.247070	37.272724
-6499.105213	4636.881500	1526.193359	-117.832771
-6499.105213	4636.881500	1525.138672	-9.941208
-6499.105213	4636.881500	1524.083984	0.463371
-6499.105213	4636.881500	1523.029297	26.727526
-6499.105213	4636.881500	1521.974609	71.106873
-6499.105213	4636.881500	1520.918945	2.227581
-6499.105213	4636.881500	1519.863281	-73.414558
-6499.105213	4636.881500	1518.807617	36.622597
-6499.105213	4636.881500	1517.751953	13.071110
-6499.105213	4636.881500	1516.696289	-17.257132
-6499.105213	4636.881500	1515.639648	20.308237
-6499.105213	4636.881500	1514.583008	-46.198669
-6499.105213	4636.881500	1513.526367	-26.729876
-6499.105213	4636.881500	1512.469727	-27.617292
-6499.105213	4636.881500	1511.412109	-42.066761
-6499.105213	4636.881500	1510.355469	-49.725674
-6499.105213	4636.881500	1509.297852	17.199486
-6499.105213	4636.881500	1508.240234	38.911266
-6499.105213	4636.881500	1507.181641	-95.257339
-6499.105213	4636.881500	1506.124023	-10.284571
-6499.105213	4636.881500	1505.065430	-58.573902
-6499.105213	4636.881500	1504.006836	60.229424
-6499.105213	4636.881500	1502.948242	18.723429
-6499.105213	4636.881500	1501.888672	65.252220
-6499.105213	4636.881500	1500.830078	21.511728
-6499.105213	4636.881500	1499.770508	7.118162
-6499.105213	4636.881500	1498.710938	-25.310192
-6499.105213	4636.881500	1497.650391	-78.018196
-6499.105213	4636.881500	1496.590820	4.572977
-6499.105213	4636.881500	1495.530273	17.256083
-6499.105213	4636.881500	1494.469727	32.191017
-6499.105213	4636.881500	1493.409180	-27.233311
-6499.105213	4636.881500	1492.348633	-25.805717
-6499.105213	4636.881500	1491.287109	-53.656307
-6499.105213	4636.881500	1490.225586	1.827195
-6499.105213	4636.881500	1489.164063	-77.794540
-6499.105213	4636.881500	1488.102539	-29.074869
-6499.105213	4636.881500	1487.041016	8.375978
-6499.105213	4636.881500	1485.978516	-77.940742
-6499.105213	4636.881500	1484.916016	38.251060
-6499.105213	4636.881500	1483.853516	1.449292
-6499.105213	4636.881500	1482.791016	83.851707
-6499.105213	4636.881500	1481.727539	-40.616596
-6499.105213	4636.881500	1480.664063	23.785170
-6499.105213	4636.881500	1479.600586	-21.946909
-6499.105213	4636.881500	1478.537109	10.961945
-6499.105213	4636.881500	1477.473633	-1.049071
-6499.105213	4636.881500	1476.409180	-8.579986
-6499.105213	4636.881500	1475.344727	49.027573
-6499.105213	4636.881500	1474.280273	43.757973
-6499.105213	4636.881500	1473.215820	58.690792
-6499.105213	4636.881500	1472.151367	82.580055
-6499.105213	4636.881500	1471.085938	48.166561
-6499.105213	4636.881500	1470.020508	49.633087
-6499.105213	4636.881500	1468.955078	102.686157
-6499.105213	4636.881500	1467.888672	128.836853
-6499.105213	4636.881500	1466.823242	92.248306
-6499.105213	4636.881500	1465.756836	24.274092
-6499.105213	4636.881500	1464.690430	50.358074
-6499.105213	4636.881500	1463.624023	36.172607
-6499.105213	4636.881500	1462.556641	98.076195
-6499.105213	4636.881500	1461.490234	115.126701
-6499.105213	4636.881500	1460.422852	51.796883
-6499.105213	4636.881500	1459.355469	138.285110
-6499.105213	4636.881500	1458.287109	135.303391
-6499.105213	4636.881500	1457.219727	96.720512
-6499.105213	4636.881500	1456.151367	42.265091
-6499.105213	4636.881500	1455.083008	55.118027
-6499.105213	4636.881500	1454.014648	45.341072
-6499.105213	4636.881500	1452.945313	98.139557
-6499.105213	4636.881500	1451.876953	30.549320
-6499.105213	4636.881500	1450.807617	-25.926798
-6499.105213	4636.881500	1449.738281	62.679428
-6499.105213	4636.881500	1448.668945	86.229561
-6499.105213	4636.881500	1447.598633	74.594719
-6499.105213	4636.881500	1446.528320	33.687695
-6499.105213	4636.881500	1445.458008	95.340996
-6499.105213	4636.881500	1444.387695	67.756516
-6499.105213	4636.881500	1443.317383	35.969269
-6499.105213	4636.881500	1442.246094	53.040207
-6499.105213	4636.881500	1441.174805	-2.619227
-6499.105213	4636.881500	1440.103516	131.502670
-6499.105213	4636.881500	1439.032227	206.350342
-6499.105213	4636.881500	1437.960938	123.872742
-6499.105213	4636.881500	1436.888672	83.193092
-6499.105213	4636.881500	1435.816406	135.935577
-6499.105213	4636.881500	1434.744141	73.241081
-6499.105213	4636.881500	1433.670898	127.823128
-6499.105213	4636.881500	1432.598633	58.420097
-6499.105213	4636.881500	1431.525391	31.361465
-6499.105213	4636.881500	1430.452148	59.007744
-6499.105213	4636.881500	1429.378906	105.505272
-6499.105213	4636.881500	1428.304688	-11.541873
-6499.105213	4636.881500	1427.231445	48.958408
-6499.105213	4636.881500	1426.157227	89.575485
-6499.105213	4636.881500	1425.083008	22.237597
-6499.105213	4636.881500	1424.007813	12.715944
-6499.105213	4636.881500	1422.933594	127.385078
-6499.105213	4636.881500	1421.858398	16.998343
-6499.105213	4636.881500	1420.783203	-19.840490
-6499.105213	4636.881500	1419.708008	-32.683929
-6499.105213	4636.881500	1418.631836	29.488626
-6499.105213	4636.881500	1417.555664	-18.570995
-6499.105213	4636.881500	1416.479492	45.914165
-6499.105213	4636.881500	1415.403320	-37.324100
-6499.105213	4636.881500	1414.327148	-128.683762
-6499.105213	4636.881500	1413.250000	-1.837921
-6499.105213	4636.881500	1412.173828	-75.822495
-6499.105213	4636.881500	1411.096680	-18.943415
-6499.105213	4636.881500	1410.018555	62.269901
-6499.105213	4636.881500	1408.941406	23.127598
-6499.105213	4636.881500	1407.863281	53.101715
-6499.105213	4636.881500	1406.785156	64.313934
-6499.105213	4636.881500	1405.707031	32.038036
-6499.105213	4636.881500	1404.628906	-56.893234
-6499.105213	4636.881500	1403.549805	49.419662
-6499.105213	4636.881500	1402.470703	-51.527466
-6499.105213	4636.881500	1401.391602	59.274517
-6499.105213	4636.881500	1400.312500	-43.131073
-6499.105213	4636.881500	1399.233398	0.061652
-6499.105213	4636.881500	1398.153320	-27.426352
-6499.105213	4636.881500	1397.073242	-57.869789
-6499.105213	4636.881500	1395.993164	19.094719
-6499.105213	4636.881500	1394.913086	-56.624275
-6499.105213	4636.881500	1393.832031	28.644876
-6499.105213	4636.881500	1392.750977	-17.085922
-6499.105213	4636.881500	1391.669922	-32.066322
-6499.105213	4636.881500	1390.588867	14.439733
-6499.105213	4636.881500	1389.506836	-17.508156
-6499.105213	4636.881500	1388.425781	-154.843582
-6499.105213	4636.881500	1387.343750	-6.230642
-6499.105213	4636.881500	1386.261719	-83.737045
-6499.105213	4636.881500	1385.178711	3.743209
-6499.105213	4636.881500	1384.096680	-12.694562
-6499.105213	4636.881500	1383.013672	57.407749
-6499.105213	4636.881500	1381.930664	-45.174309
-6499.105213	4636.881500	1380.846680	-65.957291
-6499.105213	4636.881500	1379.763672	46.105164
-6499.105213	4636.881500	1378.679688	43.982155
-6499.105213	4636.881500	1377.595703	-62.313835
-6499.105213	4636.881500	1376.511719	9.268570
-6499.105213	4636.881500	1375.427734	34.890839
-6499.105213	4636.881500	1374.342773	8.517997
-6499.105213	4636.881500	1373.257813	41.232342
-6499.105213	4636.881500	1372.172852	81.006752
-6499.105213	4636.881500	1371.087891	-0.175155
-6499.105213	4636.881500	1370.001953	24.403114
-6499.105213	4636.881500	1368.916992	10.545325
-6499.105213	4636.881500	1367.831055	60.061195
-6499.105213	4636.881500	1366.744141	-69.799789
-6499.105213	4636.881500	1365.658203	-63.152439
-6499.105213	4636.881500	1364.571289	-2.831084
-6499.105213	4636.881500	1363.484375	-5.718032
-6499.105213	4636.881500	1362.397461	54.687057
-6499.105213	4636.881500	1361.310547	15.733895
-6499.105213	4636.881500	1360.222656	113.238594
-6499.105213	4636.881500	1359.135742	87.094368
-6499.105213	4636.881500	1358.047852	111.727531
-6499.105213	4636.881500	1356.958984	81.943130
-6499.105213	4636.881500	1355.871094	65.994591
-6499.105213	4636.881500	1354.782227	74.849998
-6499.105213	4636.881500	1353.693359	103.176338
-6499.105213	4636.881500	1352.604492	121.532906
-6499.105213	4636.881500	1351.515625	14.471197
-6499.105213	4636.881500	1350.425781	47.988369
-6499.105213	4636.881500	1349.335938	85.852966
-6499.105213	4636.881500	1348.246094	73.654564
-6499.105213	4636.881500	1347.156250	79.032173
-6499.105213	4636.881500	1346.066406	31.746149
-6499.105213	4636.881500	1344.975586	80.794876
-6499.105213	4636.881500	1343.884766	13.014518
-6499.105213	4636.881500	1342.793945	23.715599
-6499.105213	4636.881500	1341.702148	84.517357
-6499.105213	4636.881500	1340.611328	88.016075
-6499.105213	4636.881500	1339.519531	23.583082
-6499.105213	4636.881500	1338.427734	70.055504
-6499.105213	4636.881500	1337.334961	120.192352
-6499.105213	4636.881500	1336.243164	50.210281
-6499.105213	4636.881500	1335.150391	99.973763
-6499.105213	4636.881500	1334.057617	84.965080
-6499.105213	4636.881500	1332.964844	143.445557
-6499.105213	4636.881500	1331.871094	118.549217
-6499.105213	4636.881500	1330.778320	114.281387
-6499.105213	4636.881500	1329.684570	185.045135
-6499.105213	4636.881500	1328.590820	156.176498
-6499.105213	4636.881500	1327.496094	154.539337
-6499.105213	4636.881500	1326.402344	114.997391
-6499.105213	4636.881500	1325.307617	180.660522
-6499.105213	4636.881500	1324.212891	95.994270
-6499.105213	4636.881500	1323.117188	79.890709
-6499.105213	4636.881500	1322.022461	142.152283
-6499.105213	4636.881500	1320.926758	81.605545
-6499.105213	4636.881500	1319.831055	91.189285
-6499.105213	4636.881500	1318.735352	70.200974
-6499.105213	4636.881500	1317.638672	213.628891
-6499.105213	4636.881500	1316.542969	99.998718
-6499.105213	4636.881500	1315.446289	75.768494
-6499.105213	4636.881500	1314.349609	57.912292
-6499.105213	4636.881500	1313.251953	74.938782
-6499.105213	4636.881500	1312.155273	84.088120
-6499.105213	4636.881500	1311.057617	153.620590
-6499.105213	4636.881500	1309.959961	150.967682
-6499.105213	4636.881500	1308.862305	188.426575
-6499.105213	4636.881500	1307.763672	144.442261
-6499.105213	4636.881500	1306.665039	93.192398
-6499.105213	4636.881500	1305.566406	114.302345
-6499.105213	4636.881500	1304.467773	127.282204
-6499.105213	4636.881500	1303.369141	70.673584
-6499.105213	4636.881500	1302.269531	56.949871
-6499.105213	4636.881500	1301.169922	46.270329
-6499.105213	4636.881500	1300.070313	50.153118
-6499.105213	4636.881500	1298.970703	37.983715
-6499.105213	4636.881500	1297.870117	18.301559
-6499.105213	4636.881500	1296.769531	82.641876
-6499.105213	4636.881500	1295.668945	37.989510
-6499.105213	4636.881500	1294.568359	-6.840012
-6499.105213	4636.881500	1293.466797	6.192994
-6499.105213	4636.881500	1292.366211	47.203682
-6499.105213	4636.881500	1291.264648	68.132523
-6499.105213	4636.881500	1290.162109	15.335448
-6499.105213	4636.881500	1289.060547	8.048831
-6499.105213	4636.881500	1287.958008	9.285407
-6499.105213	4636.881500	1286.855469	-26.928387
-6499.105213	4636.881500	1285.752930	42.394001
-6499.105213	4636.881500	1284.650391	11.368767
-6499.105213	4636.881500	1283.546875	-2.137507
-6499.105213	4636.881500	1282.444336	-50.372093
-6499.105213	4636.881500	1281.339844	56.396286
-6499.105213	4636.881500	1280.236328	80.608437
-6499.105213	4636.881500	1279.132813	67.660843
-6499.105213	4636.881500	1278.028320	33.594795
-6499.105213	4636.881500	1276.923828	18.372757
-6499.105213	4636.881500	1275.819336	92.089806
-6499.105213	4636.881500	1274.713867	74.374245
-6499.105213	4636.881500	1273.608398	28.887039
-6499.105213	4636.881500	1272.503906	50.004608
-6499.105213	4636.881500	1271.397461	0.765105
-6499.105213	4636.881500	1270.291992	70.684906
-6499.105213	4636.881500	1269.185547	36.518688
-6499.105213	4636.881500	1268.080078	67.193375
-6499.105213	4636.881500	1266.972656	27.668274
-6499.105213	4636.881500	1265.866211	-48.276577
-6499.105213	4636.881500	1264.759766	55.860428
-6499.105213	4636.881500	1263.652344	-17.723562
-6499.105213	4636.881500	1262.544922	-24.696800
-6499.105213	4636.881500	1261.436523	15.604299
-6499.105213	4636.881500	1260.329102	-21.078884
-6499.105213	4636.881500	1259.220703	35.527863
-6499.105213	4636.881500	1258.112305	-2.447090
-6499.105213	4636.881500	1257.003906	-16.473969
-6499.105213	4636.881500	1255.895508	14.638128
-6499.105213	4636.881500	1254.786133	-12.769723
-6499.105213	4636.881500	1253.676758	40.519356
-6499.105213	4636.881500	1252.567383	4.078466
-6499.105213	4636.881500	1251.458008	-13.886958
-6499.105213	4636.881500	1250.347656	-69.597610
-6499.105213	4636.881500	1249.237305	-13.932069
-6499.105213	4636.881500	1248.126953	-52.890228
-6499.105213	4636.881500	1247.016602	-39.774834
-6499.105213	4636.881500	1245.905273	-14.706113
-6499.105213	4636.881500	1244.793945	52.052467
-6499.105213	4636.881500	1243.682617	-7.993493
-6499.105213	4636.881500	1242.571289	-24.058481
-6499.105213	4636.881500	1241.459961	-2.655692
-6499.105213	4636.881500	1240.347656	-14.607993
-6499.105213	4636.881500	1239.235352	14.856310
-6499.105213	4636.881500	1238.123047	-46.403175
-6499.105213	4636.881500	1237.009766	-22.502651
-6499.105213	4636.881500	1235.897461	-4.002227
-6499.105213	4636.881500	1234.784180	-14.606707
-6499.105213	4636.881500	1233.670898	12.283363
-6499.105213	4636.881500	1232.556641	-5.152561
-6499.105213	4636.881500	1231.443359	43.543476
-6499.105213	4636.881500	1230.329102	17.997971
-6499.105213	4636.881500	1229.214844	53.751541
-6499.105213	4636.881500	1228.099609	1.376949
-6499.105213	4636.881500	1226.985352	34.450081
-6499.105213	4636.881500	1225.870117	14.675063
-6499.105213	4636.881500	1224.754883	-27.131357
-6499.105213	4636.881500	1223.639648	37.861134
-6499.105213	4636.881500	1222.523438	2.714307
-6499.105213	4636.881500	1221.408203	48.212433
-6499.105213	4636.881500	1220.291992	34.014343
-6499.105213	4636.881500	1219.174805	47.053379
-6499.105213	4636.881500	1218.058594	43.208416
-6499.105213	4636.881500	1216.941406	37.644264
-6499.105213	4636.881500	1215.824219	10.940134
-6499.105213	4636.881500	1214.707031	71.319405
-6499.105213	4636.881500	1213.589844	32.625084
-6499.105213	4636.881500	1212.471680	-13.017815
-6499.105213	4636.881500	1211.353516	-4.043761
-6499.105213	4636.881500	1210.235352	-28.996092
-6499.105213	4636.881500	1209.117188	16.701481
-6499.105213	4636.881500	1207.998047	44.982433
-6499.105213	4636.881500	1206.878906	29.008251
-6499.105213	4636.881500	1205.759766	41.097660
-6499.105213	4636.881500	1204.640625	11.172894
-6499.105213	4636.881500	1203.520508	32.462959
-6499.105213	4636.881500	1202.401367	22.062086
-6499.105213	4636.881500	1201.281250	52.723572
-6499.105213	4636.881500	1200.160156	24.745514
-6499.105213	4636.881500	1199.040039	26.118135
-6499.105213	4636.881500	1197.918945	34.724617
-6499.105213	4636.881500	1196.797852	36.880756
-6499.105213	4636.881500	1195.676758	1.078006
-6499.105213	4636.881500	1194.555664	57.056355
-6499.105213	4636.881500	1193.433594	83.092171
-6499.105213	4636.881500	1192.311523	22.456812
-6499.105213	4636.881500	1191.189453	21.268084
-6499.105213	4636.881500	1190.066406	66.623512
-6499.105213	4636.881500	1188.944336	53.583904
-6499.105213	4636.881500	1187.821289	-1.299608
-6499.105213	4636.881500	1186.698242	65.412071
-6499.105213	4636.881500	1185.574219	-4.034962
-6499.105213	4636.881500	1184.451172	-14.591750
-6499.105213	4636.881500	1183.327148	42.480469
-6499.105213	4636.881500	1182.203125	33.156921
-6499.105213	4636.881500	1181.078125	79.545883
-6499.105213	4636.881500	1179.954102	-28.279015
-6499.105213	4636.881500	1178.829102	-25.327923
-6499.105213	4636.881500	1177.704102	-10.091915
-6499.105213	4636.881500	1176.579102	-13.358216
-6499.105213	4636.881500	1175.453125	-6.831425
-6499.105213	4636.881500	1174.327148	-12.476977
-6499.105213	4636.881500	1173.201172	49.504208
-6499.105213	4636.881500	1172.075195	-32.791313
-6499.105213	4636.881500	1170.949219	4.453613
-6499.105213	4636.881500	1169.822266	-16.574867
-6499.105213	4636.881500	1168.695313	-24.027369
-6499.105213	4636.881500	1167.568359	19.232471
-6499.105213	4636.881500	1166.440430	28.641411
-6499.105213	4636.881500	1165.313477	-18.837984
-6499.105213	4636.881500	1164.185547	-18.198780
-6499.105213	4636.881500	1163.057617	-30.253819
-6499.105213	4636.881500	1161.928711	-50.286068
-6499.105213	4636.881500	1160.800781	-33.691235
-6499.105213	4636.881500	1159.671875	-17.867779
-6499.105213	4636.881500	1158.541992	-31.550682
-6499.105213	4636.881500	1157.413086	11.540017
-6499.105213	4636.881500	1156.283203	27.763662
-6499.105213	4636.881500	1155.154297	-3.700250
-6499.105213	4636.881500	1154.023438	-29.303188
-6499.105213	4636.881500	1152.893555	44.744232
-6499.105213	4636.881500	1151.763672	-5.989884
-6499.105213	4636.881500	1150.632813	6.077705
-6499.105213	4636.881500	1149.501953	27.973282
-6499.105213	4636.881500	1148.370117	-3.165717
-6499.105213	4636.881500	1147.239258	18.063364
-6499.105213	4636.881500	1146.107422	-78.024452
-6499.105213	4636.881500	1144.975586	20.127275
-6499.105213	4636.881500	1143.843750	-36.454342
-6499.105213	4636.881500	1142.710938	-24.604643
-6499.105213	4636.881500	1141.578125	-64.200417
-6499.105213	4636.881500	1140.445313	8.086847
-6499.105213	4636.881500	1139.312500	68.664757
-6499.105213	4636.881500	1138.178711	-84.574860
-6499.105213	4636.881500	1137.045898	-39.246181
-6499.105213	4636.881500	1135.912109	4.638300
-6499.105213	4636.881500	1134.777344	15.598499
-6499.105213	4636.881500	1133.643555	57.387054
-6499.105213	4636.881500	1132.508789	-36.355690
-6499.105213	4636.881500	1131.374023	46.216866
-6499.105213	4636.881500	1130.239258	41.894169
-6499.105213	4636.881500	1129.104492	-21.271263
-6499.105213	4636.881500	1127.968750	0.108493
-6499.105213	4636.881500	1126.833008	83.473671
-6499.105213	4636.881500	1125.697266	-63.912888
-6499.105213	4636.881500	1124.560547	-71.793015
-6499.105213	4636.881500	1123.424805	-22.815189
-6499.105213	4636.881500	1122.288086	14.031779
-6499.105213	4636.881500	1121.151367	0.902240
-6499.105213	4636.881500	1120.013672	-25.080280
-6499.105213	4636.881500	1118.876953	-43.117970
-6499.105213	4636.881500	1117.739258	-2.924610
-6499.105213	4636.881500	1116.601563	-0.473538
-6499.105213	4636.881500	1115.462891	42.024303
-6499.105213	4636.881500	1114.324219	3.734246
-6499.105213	4636.881500	1113.186523	52.406471
-6499.105213	4636.881500	1112.046875	-4.342022
-6499.105213	4636.881500	1110.908203	4.139025
-6499.105213	4636.881500	1109.769531	-26.712891
-6499.105213	4636.881500	1108.629883	-43.261791
-6499.105213	4636.881500	1107.490234	1.049511
-6499.105213	4636.881500	1106.349609	-9.338316
-6499.105213	4636.881500	1105.209961	18.684311
-6499.105213	4636.881500	1104.069336	57.639820
-6499.105213	4636.881500	1102.928711	38.827950
-6499.105213	4636.881500	1101.787109	2.093427
-6499.105213	4636.881500	1100.646484	-38.131416
-6499.105213	4636.881500	1099.504883	17.827341
-6499.105213	4636.881500	1098.363281	100.293976
-6499.105213	4636.881500	1097.221680	8.637899
-6499.105213	4636.881500	1096.079102	41.958355
-6499.105213	4636.881500	1094.936523	-10.077725
-6499.105213	4636.881500	1093.793945	53.010391
-6499.105213	4636.881500	1092.651367	7.518641
-6499.105213	4636.881500	1091.507813	-8.042113
-6499.105213	4636.881500	1090.364258	66.811096
-6499.105213	4636.881500	1089.220703	28.056812
-6499.105213	4636.881500	1088.077148	24.937988
-6499.105213	4636.881500	1086.933594	-13.447203
-6499.105213	4636.881500	1085.789063	-4.413937
-6499.105213	4636.881500	1084.644531	-63.243046
-6499.105213	4636.881500	1083.499023	50.123348
-6499.105213	4636.881500	1082.354492	68.190193
-6499.105213	4636.881500	1081.208984	-8.131872
-6499.105213	4636.881500	1080.063477	-49.146748
-6499.105213	4636.881500	1078.917969	7.832483
-6499.105213	4636.881500	1077.771484	13.820489
-6499.105213	4636.881500	1076.625977	-6.784106
-6499.105213	4636.881500	1075.479492	-62.604836
-6499.105213	4636.881500	1074.332031	-47.400333
-6499.105213	4636.881500	1073.185547	46.689938
-6499.105213	4636.881500	1072.038086	-29.625151
-6499.105213	4636.881500	1070.890625	38.548122
-6499.105213	4636.881500	1069.743164	-99.582939
-6499.105213	4636.881500	1068.594727	33.672989
-6499.105213	4636.881500	1067.447266	51.215603
-6499.105213	4636.881500	1066.298828	3.192266
-6499.105213	4636.881500	1065.149414	-57.995983
-6499.105213	4636.881500	1064.000977	-30.009619
-6499.105213	4636.881500	1062.851563	46.459122
-6499.105213	4636.881500	1061.702148	15.870361
-6499.105213	4636.881500	1060.552734	41.764297
-6499.105213	4636.881500	1059.402344	48.411232
-6499.105213	4636.881500	1058.252930	-4.014119
-6499.105213	4636.881500	1057.102539	47.229740
-6499.105213	4636.881500	1055.951172	3.840966
-6499.105213	4636.881500	1054.800781	-27.564566
-6499.105213	4636.881500	1053.649414	19.811045
-6499.105213	4636.881500	1052.498047	4.686699
-6499.105213	4636.881500	1051.346680	10.766171
-6499.105213	4636.881500	1050.194336	19.008493
-6499.105213	4636.881500	1049.042969	-6.553483
-6499.105213	4636.881500	1047.890625	-30.627337
-6499.105213	4636.881500	1046.738281	-90.564240
-6499.105213	4636.881500	1045.584961	-1.930294
-6499.105213	4636.881500	1044.431641	-43.836197
-6499.105213	4636.881500	1043.278320	8.677069
-6499.105213	4636.881500	1042.125000	16.282764
-6499.105213	4636.881500	1040.971680	50.649380
-6499.105213	4636.881500	1039.817383	63.449841
-6499.105213	4636.881500	1038.663086	28.281321
-6499.105213	4636.881500	1037.508789	28.899111
-6499.105213	4636.881500	1036.353516	-2.716615
-6499.105213	4636.881500	1035.198242	16.756660
-6499.105213	4636.881500	1034.042969	57.510262
-6499.105213	4636.881500	1032.887695	44.285683
-6499.105213	4636.881500	1031.732422	-27.794115
-6499.105213	4636.881500	1030.576172	-39.423748
-6499.105213	4636.881500	1029.419922	-16.551342
-6499.105213	4636.881500	1028.263672	151.995636
-6499.105213	4636.881500	1027.106445	6.218602
-6499.105213	4636.881500	1025.949219	-91.367668
-6499.105213	4636.881500	1024.792969	25.283930
-6499.105213	4636.881500	1023.634766	-60.033558
-6499.105213	4636.881500	1022.477539	16.771175
-6499.105213	4636.881500	1021.319336	-24.973225
-6499.105213	4636.881500	1020.161133	-36.064873
-6499.105213	4636.881500	1019.002930	-4.671328
-6499.105213	4636.881500	1017.843750	56.973263
-6499.105213	4636.881500	1016.684570	-90.487206
-6499.105213	4636.881500	1015.525391	-3.205650
-6499.105213	4636.881500	1014.366211	-13.798725
-6499.105213	4636.881500	1013.207031	15.481529
-6499.105213	4636.881500	1012.046875	67.111069
-6499.105213	4636.881500	1010.886719	11.462162
-6499.105213	4636.881500	1009.726563	39.519474
-6499.105213	4636.881500	1008.565430	36.535698
-6499.105213	4636.881500	1007.404297	-41.514603
-6499.105213	4636.881500	1006.243164	3.555617
-6499.105213	4636.881500	1005.082031	-38.711361
-6499.105213	4636.881500	1003.920898	-58.952099
-6499.105213	4636.881500	1002.758789	15.990288
-6499.105213	4636.881500	1001.596680	23.024063
-6499.105213	4636.881500	1000.433594	67.550377
-6499.105213	4636.881500	999.271484	9.090294
-6499.105213	4636.881500	998.108398	7.463409
-6499.105213	4636.881500	996.945313	81.446991
-6499.105213	4636.881500	995.782227	-20.540699
-6499.105213	4636.881500	994.618164	58.837044
-6499.105213	4636.881500	993.454102	62.052307
-6499.105213	4636.881500	992.290039	107.565575
-6499.105213	4636.881500	991.125977	112.390442
-6499.105213	4636.881500	989.960938	42.081646
-6499.105213	4636.881500	988.796875	107.123940
-6499.105213	4636.881500	987.630859	82.831993
-6499.105213	4636.881500	986.465820	95.559662
-6499.105213	4636.881500	985.300781	25.831057
-6499.105213	4636.881500	984.134766	53.649666
-6499.105213	4636.881500	982.968750	-15.147954
-6499.105213	4636.881500	981.801758	7.259077
-6499.105213	4636.881500	980.635742	43.647694
-6499.105213	4636.881500	979.468750	128.421951
-6499.105213	4636.881500	978.301758	59.923145
-6499.105213	4636.881500	977.133789	6.630505
-6499.105213	4636.881500	975.966797	10.710457
-6499.105213	4636.881500	974.798828	-8.493464
-6499.105213	4636.881500	973.630859	-25.514969
-6499.105213	4636.881500	972.461914	101.642143
-6499.105213	4636.881500	971.293945	86.206650
-6499.105213	4636.881500	970.125000	77.134415
-6499.105213	4636.881500	968.956055	62.637207
-6499.105213	4636.881500	967.786133	91.182182
-6499.105213	4636.881500	966.617188	54.661289
-6499.105213	4636.881500	965.447266	49.384441
-6499.105213	4636.881500	964.276367	56.653801
-6499.105213	4636.881500	963.106445	32.504490
-6499.105213	4636.881500	961.935547	-25.064844
-6499.105213	4636.881500	960.764648	34.777031
-6499.105213	4636.881500	959.593750	48.516354
-6499.105213	4636.881500	958.422852	107.503624
-6499.105213	4636.881500	957.250977	54.735699
-6499.105213	4636.881500	956.079102	4.667569
-6499.105213	4636.881500	954.907227	-81.582809
-6499.105213	4636.881500	953.734375	1.820793
-6499.105213	4636.881500	952.562500	27.744225
-6499.105213	4636.881500	951.389648	-29.483229
-6499.105213	4636.881500	950.215820	63.407032
-6499.105213	4636.881500	949.042969	91.568062
-6499.105213	4636.881500	947.869141	74.681229
-6499.105213	4636.881500	946.695313	38.815250
-6499.105213	4636.881500	945.521484	22.020458
-6499.105213	4636.881500	944.346680	88.739067
-6499.105213	4636.881500	943.172852	48.070004
-6499.105213	4636.881500	941.998047	35.845314
-6499.105213	4636.881500	940.822266	2.329808
-6499.105213	4636.881500	939.647461	6.997759
-6499.105213	4636.881500	938.471680	35.459793
-6499.105213	4636.881500	937.295898	11.550593
-6499.105213	4636.881500	936.119141	11.343995
-6499.105213	4636.881500	934.943359	-24.489353
-6499.105213	4636.881500	933.766602	-3.155317
-6499.105213	4636.881500	932.589844	25.409035
-6499.105213	4636.881500	931.413086	6.220086
-6499.105213	4636.881500	930.235352	-8.196160
-6499.105213	4636.881500	929.057617	-8.241016
-6499.105213	4636.881500	927.879883	-20.239290
-6499.105213	4636.881500	926.702148	20.231161
-6499.105213	4636.881500	925.523438	27.323189
-6499.105213	4636.881500	924.344727	-51.412392
-6499.105213	4636.881500	923.166016	20.055202
-6499.105213	4636.881500	921.987305	8.094032
-6499.105213	4636.881500	920.807617	39.033115
-6499.105213	4636.881500	919.627930	39.352814
-6499.105213	4636.881500	919.497070	-34.817280
-6499.105213	4636.881500	918.331055	86.633911
-6499.105213	4636.881500	917.165039	-8.654984
-6499.105213	4636.881500	915.999023	-22.952263
-6499.105213	4636.881500	914.833008	-82.463844
-6499.105213	4636.881500	913.666016	46.061203
-6499.105213	4636.881500	912.499023	-49.118488
-6499.105213	4636.881500	911.332031	24.645540
-6499.105213	4636.881500	910.165039	-11.019989
-6499.105213	4636.881500	908.997070	3.270993
-6499.105213	4636.881500	907.830078	34.203671
-6499.105213	4636.881500	906.661133	34.230305
-6499.105213	4636.881500	905.493164	-3.760515
-6499.105213	4636.881500	904.325195	20.044891
-6499.105213	4636.881500	903.156250	39.096092
-6499.105213	4636.881500	901.987305	29.645706
-6499.105213	4636.881500	900.818359	-3.539905
-6499.105213	4636.881500	899.648438	17.896801
-6499.105213	4636.881500	898.478516	-1.019238
-6499.105213	4636.881500	897.308594	15.674267
-6499.105213	4636.881500	896.138672	13.386502
-6499.105213	4636.881500	894.968750	-22.103468
-6499.105213	4636.881500	893.797852	4.089136
-6499.105213	4636.881500	892.626953	63.472870
-6499.105213	4636.881500	891.456055	-69.182732
-6499.105213	4636.881500	890.284180	16.275925
-6499.105213	4636.881500	889.113281	35.354908
-6499.105213	4636.881500	887.941406	30.740795
-6499.105213	4636.881500	886.768555	37.978657
-6499.105213	4636.881500	885.596680	-11.617866
-6499.105213	4636.881500	884.423828	-13.832860
-6499.105213	4636.881500	883.250977	64.445572
-6499.105213	4636.881500	882.078125	-44.275970
-6499.105213	4636.881500	880.905273	22.157656
-6499.105213	4636.881500	879.731445	-10.792535
-6499.105213	4636.881500	878.557617	1.217756
-6499.105213	4636.881500	877.383789	36.877735
-6499.105213	4636.881500	876.209961	48.885887
-6499.105213	4636.881500	875.035156	51.440304
-6499.105213	4636.881500	873.860352	61.090088
-6499.105213	4636.881500	872.685547	11.669834
-6499.105213	4636.881500	871.510742	-7.012599
-6499.105213	4636.881500	870.334961	73.520065
-6499.105213	4636.881500	869.159180	135.134415
-6499.105213	4636.881500	867.983398	57.433369
-6499.105213	4636.881500	866.807617	41.142605
-6499.105213	4636.881500	865.630859	27.225271
-6499.105213	4636.881500	864.454102	74.666954
-6499.105213	4636.881500	863.277344	34.811634
-6499.105213	4636.881500	862.100586	32.715462
-6499.105213	4636.881500	860.922852	2.330233
-6499.105213	4636.881500	859.745117	125.205727
-6499.105213	4636.881500	858.567383	12.328254
-6499.105213	4636.881500	857.389648	12.620291
-6499.105213	4636.881500	856.210938	-34.203403
-6499.105213	4636.881500	855.032227	60.336365
-6499.105213	4636.881500	853.853516	-12.372356
-6499.105213	4636.881500	852.674805	84.491219
-6499.105213	4636.881500	851.495117	68.320694
-6499.105213	4636.881500	850.315430	80.407379
-6499.105213	4636.881500	849.135742	141.912872
-6499.105213	4636.881500	847.956055	104.584122
-6499.105213	4636.881500	846.775391	60.220741
-6499.105213	4636.881500	845.595703	44.102325
-6499.105213	4636.881500	844.415039	60.915077
-6499.105213	4636.881500	843.233398	73.025932
-6499.105213	4636.881500	842.052734	115.691498
-6499.105213	4636.881500	840.871094	54.953232
-6499.105213	4636.881500	839.689453	74.123993
-6499.105213	4636.881500	838.506836	36.920555
-6499.105213	4636.881500	837.325195	34.963619
-6499.105213	4636.881500	836.142578	77.624146
-6499.105213	4636.881500	834.959961	5.249396
-6499.105213	4636.881500	833.777344	64.338852
-6499.105213	4636.881500	832.593750	97.599426
-6499.105213	4636.881500	831.410156	46.397285
-6499.105213	4636.881500	830.226563	-75.142487
-6499.105213	4636.881500	829.042969	-37.166267
-6499.105213	4636.881500	827.858398	7.834372
-6499.105213	4636.881500	826.673828	22.349600
-6499.105213	4636.881500	825.489258	-45.159676
-6499.105213	4636.881500	824.304688	95.897820
-6499.105213	4636.881500	823.120117	89.319778
-6499.105213	4636.881500	821.934570	33.566574
-6499.105213	4636.881500	820.749023	108.972702
-6499.105213	4636.881500	819.562500	6.427477
-6499.105213	4636.881500	818.376953	30.324892
-6499.105213	4636.881500	817.190430	-20.666849
-6499.105213	4636.881500	816.003906	-22.498783
-6499.105213	4636.881500	814.817383	-61.751637
-6499.105213	4636.881500	813.629883	-54.207706
-6499.105213	4636.881500	812.442383	11.794388
-6499.105213	4636.881500	811.254883	-46.126503
-6499.105213	4636.881500	810.067383	-66.621788
-6499.105213	4636.881500	808.878906	-28.682846
-6499.105213	4636.881500	807.690430	48.962875
-6499.105213	4636.881500	806.501953	86.872711
-6499.105213	4636.881500	805.313477	-50.378555
-6499.105213	4636.881500	804.124023	6.225882
-6499.105213	4636.881500	802.934570	69.815132
-6499.105213	4636.881500	801.745117	91.373154
-6499.105213	4636.881500	800.555664	-20.077141
-6499.105213	4636.881500	799.365234	-63.820820
-6499.105213	4636.881500	798.175781	-4.914610
-6499.105213	4636.881500	796.985352	44.644783
-6499.105213	4636.881500	795.793945	-55.025120
-6499.105213	4636.881500	794.603516	29.498657
-6499.105213	4636.881500	793.412109	-9.524096
-6499.105213	4636.881500	792.220703	-15.905723
-6499.105213	4636.881500	791.028320	-12.961044
-6499.105213	4636.881500	789.836914	-68.240379
-6499.105213	4636.881500	788.644531	-14.048244
-6499.105213	4636.881500	787.452148	-43.685524
-6499.105213	4636.881500	786.258789	-17.442617
-6499.105213	4636.881500	785.066406	-16.805540
-6499.105213	4636.881500	783.873047	48.982738
-6499.105213	4636.881500	782.679688	-62.040791
-6499.105213	4636.881500	781.485352	-14.866710
-6499.105213	4636.881500	780.291992	4.388683
-6499.105213	4636.881500	779.097656	12.017479
-6499.105213	4636.881500	777.903320	-77.970818
-6499.105213	4636.881500	776.708008	-2.930418
-6499.105213	4636.881500	775.512695	-53.373924
-6499.105213	4636.881500	774.318359	5.377711
-6499.105213	4636.881500	773.122070	-5.558836
-6499.105213	4636.881500	771.926758	55.488571
-6499.105213	4636.881500	770.730469	37.589653
-6499.105213	4636.881500	769.534180	-10.469378
-6499.105213	4636.881500	768.337891	71.436050
-6499.105213	4636.881500	767.141602	30.356768
-6499.105213	4636.881500	765.944336	17.131701
-6499.105213	4636.881500	764.747070	52.612968
-6499.105213	4636.881500	763.549805	62.579918
-6499.105213	4636.881500	762.351563	84.136734
-6499.105213	4636.881500	761.154297	131.179108
-6499.105213	4636.881500	759.956055	-46.542923
-6499.105213	4636.881500	758.757813	44.527969
-6499.105213	4636.881500	757.558594	-26.557631
-6499.105213	4636.881500	756.359375	-4.988632
-6499.105213	4636.881500	755.160156	0.368803
-6499.105213	4636.881500	753.960938	10.355913
-6499.105213	4636.881500	752.761719	-53.709625
-6499.105213	4636.881500	751.561523	37.267597
-6499.105213	4636.881500	750.361328	3.299942
-6499.105213	4636.881500	749.160156	4.039824
-6499.105213	4636.881500	747.959961	101.892159
-6499.105213	4636.881500	746.758789	111.862656
-6499.105213	4636.881500	745.557617	66.362350
-6499.105213	4636.881500	744.356445	41.679626
-6499.105213	4636.881500	743.154297	151.004623
-6499.105213	4636.881500	741.952148	137.868469
-6499.105213	4636.881500	740.750000	173.234863
-6499.105213	4636.881500	739.547852	125.471512
-6499.105213	4636.881500	738.344727	86.964119
-6499.105213	4636.881500	737.142578	161.557632
-6499.105213	4636.881500	735.939453	35.382900
-6499.105213	4636.881500	734.735352	54.596226
-6499.105213	4636.881500	733.532227	80.721382
-6499.105213	4636.881500	732.328125	136.814758
-6499.105213	4636.881500	731.124023	190.580719
-6499.105213	4636.881500	729.918945	202.837326
-6499.105213	4636.881500	728.714844	148.259842
-6499.105213	4636.881500	727.509766	312.585205
-6499.105213	4636.881500	726.303711	239.583618
-6499.105213	4636.881500	725.098633	357.762817
-6499.105213	4636.881500	723.892578	422.936218
-6499.105213	4636.881500	722.686523	193.420639
-6499.105213	4636.881500	721.480469	207.968124
-6499.105213	4636.881500	720.274414	164.983017
-6499.105213	4636.881500	719.067383	96.710854
-6499.105213	4636.881500	717.860352	108.972084
-6499.105213	4636.881500	716.653320	181.019196
-6499.105213	4636.881500	715.445313	82.899620
-6499.105213	4636.881500	714.238281	182.506882
-6499.105213	4636.881500	713.030273	121.199738
-6499.105213	4636.881500	711.821289	234.545609
-6499.105213	4636.881500	710.613281	168.658844
-6499.105213	4636.881500	709.404297	196.967407
-6499.105213	4636.881500	708.195313	211.486450
-6499.105213	4636.881500	706.986328	95.139084
-6499.105213	4636.881500	705.776367	52.291012
-6499.105213	4636.881500	704.566406	98.958580
-6499.105213	4636.881500	703.356445	49.243874
-6499.105213	4636.881500	702.146484	132.593353
-6499.105213	4636.881500	700.935547	59.958256
-6499.105213	4636.881500	699.724609	30.918058
-6499.105213	4636.881500	698.513672	15.643693
-6499.105213	4636.881500	697.302734	-13.376761
-6499.105213	4636.881500	696.090820	-8.013227
-6499.105213	4636.881500	694.878906	45.457565
-6499.105213	4636.881500	693.666992	32.480358
-6499.105213	4636.881500	692.455078	-10.262686
-6499.105213	4636.881500	691.242188	-36.961552
-6499.105213	4636.881500	690.029297	48.512787
-6499.105213	4636.881500	688.816406	1.212988
-6499.105213	4636.881500	687.602539	56.896072
-6499.105213	4636.881500	686.389648	5.036027
-6499.105213	4636.881500	685.175781	-42.228996
-6499.105213	4636.881500	683.960938	-20.875650
-6499.105213	4636.881500	682.747070	0.465939
-6499.105213	4636.881500	681.532227	-42.201588
-6499.105213	4636.881500	680.317383	8.839932
-6499.105213	4636.881500	679.102539	2.739830
-6499.105213	4636.881500	677.886719	-10.211680
-6499.105213	4636.881500	676.670898	15.663894
-6499.105213	4636.881500	675.455078	-52.088120
-6499.105213	4636.881500	674.239258	10.305032
-6499.105213	4636.881500	673.022461	11.047978
-6499.105213	4636.881500	671.805664	-42.976067
-6499.105213	4636.881500	670.588867	-33.102139
-6499.105213	4636.881500	669.372070	-14.111814
-6499.105213	4636.881500	668.154297	2.588205
-6499.105213	4636.881500	666.936523	23.838055
-6499.105213	4636.881500	665.718750	24.560997
-6499.105213	4636.881500	664.500977	27.559565
-6499.105213	4636.881500	663.282227	7.769823
-6499.105213	4636.881500	662.063477	22.154840
-6499.105213	4636.881500	660.844727	77.525581
-6499.105213	4636.881500	659.625000	-37.906277
-6499.105213	4636.881500	658.405273	-7.594265
-6499.105213	4636.881500	657.185547	52.290150
-6499.105213	4636.881500	655.965820	37.051579
-6499.105213	4636.881500	654.745117	17.266205
-6499.105213	4636.881500	653.525391	-13.888478
-6499.105213	4636.881500	652.303711	50.481495
-6499.105213	4636.881500	651.083008	42.062454
-6499.105213	4636.881500	649.861328	42.736565
-6499.105213	4636.881500	648.640625	116.131660
-6499.105213	4636.881500	647.417969	66.793533
-6499.105213	4636.881500	646.196289	140.144867
-6499.105213	4636.881500	644.973633	111.255203
-6499.105213	4636.881500	643.750977	55.124020
-6499.105213	4636.881500	642.528320	23.985388
-6499.105213	4636.881500	641.305664	42.791393
-6499.105213	4636.881500	640.082031	16.198868
-6499.105213	4636.881500	638.858398	37.258724
-6499.105213	4636.881500	637.634766	-41.503345
-6499.105213	4636.881500	636.410156	70.266747
-6499.105213	4636.881500	635.185547	70.881523
-6499.105213	4636.881500	633.960938	35.220203
-6499.105213	4636.881500	632.736328	51.697269
-6499.105213	4636.881500	631.510742	59.099167
-6499.105213	4636.881500	630.285156	75.554733
-6499.105213	4636.881500	629.059570	60.288021
-6499.105213	4636.881500	627.833984	31.435328
-6499.105213	4636.881500	626.607422	45.607185
-6499.105213	4636.881500	625.380859	50.713329
-6499.105213	4636.881500	624.154297	-23.396204
-6499.105213	4636.881500	622.927734	15.650603
-6499.105213	4636.881500	621.700195	32.054722
-6499.105213	4636.881500	620.472656	32.614822
-6499.105213	4636.881500	619.245117	-30.143881
-6499.105213	4636.881500	618.016602	-25.060343
-6499.105213	4636.881500	616.788086	-47.107121
-6499.105213	4636.881500	615.559570	3.160930
-6499.105213	4636.881500	614.331055	1.438950
-6499.105213	4636.881500	613.101563	8.747584
-6499.105213	4636.881500	611.872070	-49.443436
-6499.105213	4636.881500	610.642578	-6.014160
-6499.105213	4636.881500	609.413086	3.530484
-6499.105213	4636.881500	608.182617	-47.869320
-6499.105213	4636.881500	606.952148	58.692589
-6499.105213	4636.881500	605.721680	11.802100
-6499.105213	4636.881500	604.491211	-26.052906
-6499.105213	4636.881500	603.259766	19.534899
-6499.105213	4636.881500	602.028320	4.226824
-6499.105213	4636.881500	600.796875	-71.938591
-6499.105213	4636.881500	599.564453	-1.600179
-6499.105213	4636.881500	598.332031	12.376418
-6499.105213	4636.881500	597.099609	12.825272
-6499.105213	4636.881500	595.867188	-40.781975
-6499.105213	4636.881500	594.633789	-2.057667
-6499.105213	4636.881500	593.400391	5.128047
-6499.105213	4636.881500	592.166992	-50.713261
-6499.105213	4636.881500	590.933594	26.220747
-6499.105213	4636.881500	589.699219	-27.364548
-6499.105213	4636.881500	588.464844	-40.448517
-6499.105213	4636.881500	587.230469	-19.803152
-6499.105213	4636.881500	585.995117	-44.137276
-6499.105213	4636.881500	584.760742	-52.734371
-6499.105213	4636.881500	583.525391	24.062159
-6499.105213	4636.881500	582.289063	26.675497
-6499.105213	4636.881500	581.053711	22.541309
-6499.105213	4636.881500	579.817383	-22.022453
-6499.105213	4636.881500	578.581055	18.749155
-6499.105213	4636.881500	577.343750	-16.828791
-6499.105213	4636.881500	576.107422	-54.643448
-6499.105213	4636.881500	574.870117	4.039716
-6499.105213	4636.881500	573.631836	20.066010
-6499.105213	4636.881500	572.394531	-6.538239
-6499.105213	4636.881500	571.156250	-8.470411
-6499.105213	4636.881500	569.917969	50.125065
-6499.105213	4636.881500	568.679688	34.718155
-6499.105213	4636.881500	567.440430	-5.340214
-6499.105213	4636.881500	566.202148	-7.299531
-6499.105213	4636.881500	564.961914	1.936079
-6499.105213	4636.881500	563.722656	-24.673479
-6499.105213	4636.881500	562.482422	-10.974094
-6499.105213	4636.881500	561.243164	49.723392
-6499.105213	4636.881500	560.001953	0.718405
-6499.105213	4636.881500	558.761719	23.332739
-6499.105213	4636.881500	557.520508	21.321413
-6499.105213	4636.881500	556.279297	-88.059532
-6499.105213	4636.881500	555.038086	17.279619
-6499.105213	4636.881500	553.795898	-83.124573
-6499.105213	4636.881500	552.554688	-4.669419
-6499.105213	4636.881500	551.311523	51.397522
-6499.105213	4636.881500	550.069336	96.261086
-6499.105213	4636.881500	548.826172	2.599066
-6499.105213	4636.881500	547.583984	20.638977
-6499.105213	4636.881500	546.339844	90.021606
-6499.105213	4636.881500	545.096680	32.118401
-6499.105213	4636.881500	543.852539	45.655689
-6499.105213	4636.881500	542.608398	-27.847479
-6499.105213	4636.881500	541.364258	-9.855438
-6499.105213	4636.881500	540.119141	17.044153
-6499.105213	4636.881500	538.875000	-5.136196
-6499.105213	4636.881500	537.628906	-20.624702
-6499.105213	4636.881500	536.383789	66.423828
-6499.105213	4636.881500	535.137695	46.455139
-6499.105213	4636.881500	533.892578	6.434422
-6499.105213	4636.881500	532.645508	-4.616113
-6499.105213	4636.881500	531.399414	35.555779
-6499.105213	4636.881500	530.152344	48.983322
-6499.105213	4636.881500	528.905273	95.791351
-6499.105213	4636.881500	527.658203	89.154457
-6499.105213	4636.881500	526.410156	31.332697
-6499.105213	4636.881500	525.163086	100.341278
-6499.105213	4636.881500	523.914063	104.808853
-6499.105213	4636.881500	522.666016	155.967773
-6499.105213	4636.881500	521.416992	195.981201
-6499.105213	4636.881500	520.167969	140.386856
-6499.105213	4636.881500	518.918945	78.142387
-6499.105213	4636.881500	517.669922	180.339874
-6499.105213	4636.881500	516.419922	140.314407
-6499.105213	4636.881500	515.169922	93.636444
-6499.105213	4636.881500	513.919922	153.555161
-6499.105213	4636.881500	512.668945	135.741196
-6499.105213	4636.881500	511.417969	82.415306
-6499.105213	4636.881500	510.166992	64.610703
-6499.105213	4636.881500	508.916016	62.336945
-6499.105213	4636.881500	507.664063	144.345703
-6499.105213	4636.881500	506.412109	115.431000
-6499.105213	4636.881500	505.160156	28.876169
-6499.105213	4636.881500	503.907227	84.219139
-6499.105213	4636.881500	502.655273	19.856766
-6499.105213	4636.881500	501.402344	57.438858
-6499.105213	4636.881500	500.148438	-24.624918
-6499.105213	4636.881500	498.895508	-15.854786
-6499.105213	4636.881500	497.641602	19.476784
-6499.105213	4636.881500	496.387695	-40.407711
-6499.105213	4636.881500	495.132813	19.247637
-6499.105213	4636.881500	493.878906	-11.856903
-6499.105213	4636.881500	492.624023	-3.131547
-6499.105213	4636.881500	491.368164	38.762207
-6499.105213	4636.881500	490.113281	91.688591
-6499.105213	4636.881500	488.857422	106.999329
-6499.105213	4636.881500	487.601563	-19.174007
-6499.105213	4636.881500	486.344727	-21.538925
-6499.105213	4636.881500	485.088867	-6.233477
-6499.105213	4636.881500	483.832031	24.522472
-6499.105213	4636.881500	482.575195	39.798508
-6499.105213	4636.881500	481.317383	37.396606
-6499.105213	4636.881500	480.059570	41.612068
-6499.105213	4636.881500	478.801758	-18.188169
-6499.105213	4636.881500	477.543945	-2.942471
-6499.105213	4636.881500	476.285156	-7.565564
-6499.105213	4636.881500	475.027344	56.183960
-6499.105213	4636.881500	473.767578	-14.620589
-6499.105213	4636.881500	472.508789	18.222956
-6499.105213	4636.881500	471.249023	-39.330467
-6499.105213	4636.881500	469.989258	-15.324531
-6499.105213	4636.881500	468.729492	-39.809311
-6499.105213	4636.881500	467.469727	-35.653000
-6499.105213	4636.881500	466.208984	5.935294
-6499.105213	4636.881500	464.948242	14.470011
-6499.105213	4636.881500	463.686523	36.202843
-6499.105213	4636.881500	462.425781	75.526878
-6499.105213	4636.881500	461.164063	-17.202419
-6499.105213	4636.881500	459.901367	-50.498550
-6499.105213	4636.881500	458.639648	-24.399801
-6499.105213	4636.881500	457.376953	-37.902687
-6499.105213	4636.881500	456.114258	-27.222736
-6499.105213	4636.881500	454.851563	34.001919
-6499.105213	4636.881500	453.587891	33.658627
-6499.105213	4636.881500	452.324219	-94.127441
-6499.105213	4636.881500	451.060547	-48.327682
-6499.105213	4636.881500	449.796875	-72.834282
-6499.105213	4636.881500	448.532227	38.797558
-6499.105213	4636.881500	447.267578	-25.247906
-6499.105213	4636.881500	446.002930	16.075970
-6499.105213	4636.881500	444.737305	26.653402
-6499.105213	4636.881500	443.471680	76.706978
-6499.105213	4636.881500	442.206055	14.868637
-6499.105213	4636.881500	440.940430	-55.722954
-6499.105213	4636.881500	439.673828	-25.441933
-6499.105213	4636.881500	438.407227	-17.102343
-6499.105213	4636.881500	437.140625	6.564827
-6499.105213	4636.881500	435.873047	49.931244
-6499.105213	4636.881500	434.605469	29.744389
-6499.105213	4636.881500	433.337891	-58.334663
-6499.105213	4636.881500	432.070313	26.590378
-6499.105213	4636.881500	430.801758	15.148326
-6499.105213	4636.881500	429.533203	89.057114
-6499.105213	4636.881500	428.264648	38.198971
-6499.105213	4636.881500	426.996094	-19.210876
-6499.105213	4636.881500	425.726563	48.063251
-6499.105213	4636.881500	424.457031	84.682884
-6499.105213	4636.881500	423.186523	68.804916
-6499.105213	4636.881500	421.916992	44.178978
-6499.105213	4636.881500	420.646484	26.107500
-6499.105213	4636.881500	419.375977	62.652149
-6499.105213	4636.881500	418.104492	66.402611
-6499.105213	4636.881500	416.833008	41.748070
-6499.105213	4636.881500	415.561523	65.125824
-6499.105213	4636.881500	414.290039	77.565079
-6499.105213	4636.881500	413.017578	57.247597
-6499.105213	4636.881500	411.746094	122.022423
-6499.105213	4636.881500	410.472656	82.041054
-6499.105213	4636.881500	409.200195	98.769157
-6499.105213	4636.881500	407.926758	60.959896
-6499.105213	4636.881500	406.653320	62.392811
-6499.105213	4636.881500	405.379883	33.293789
-6499.105213	4636.881500	404.105469	-6.705508
-6499.105213	4636.881500	402.831055	20.833998
-6499.105213	4636.881500	401.556641	0.423314
-6499.105213	4636.881500	400.282227	8.313540
-6499.105213	4636.881500	399.006836	-12.123306
-6499.105213	4636.881500	397.731445	-10.802890
-6499.105213	4636.881500	396.456055	47.081139
-6499.105213	4636.881500	395.179688	30.940500
-6499.105213	4636.881500	393.903320	-113.560768
-6499.105213	4636.881500	392.626953	-25.307535
-6499.105213	4636.881500	391.350586	-6.696512
-6499.105213	4636.881500	390.073242	16.230871
-6499.105213	4636.881500	388.795898	26.083834
-6499.105213	4636.881500	387.518555	16.351101
-6499.105213	4636.881500	386.240234	-30.335899
-6499.105213	4636.881500	384.961914	-11.866726
-6499.105213	4636.881500	383.683594	-43.378574
-6499.105213	4636.881500	382.405273	-11.941647
-6499.105213	4636.881500	381.125977	32.476696
-6499.105213	4636.881500	379.846680	18.252390
-6499.105213	4636.881500	378.567383	-58.916645
-6499.105213	4636.881500	377.287109	35.285294
-6499.105213	4636.881500	376.006836	23.146004
-6499.105213	4636.881500	374.726563	41.335629
-6499.105213	4636.881500	373.446289	-74.920044
-6499.105213	4636.881500	372.165039	-11.271209
-6499.105213	4636.881500	370.883789	2.476912
-6499.105213	4636.881500	369.602539	-24.978659
-6499.105213	4636.881500	368.320313	27.678648
-6499.105213	4636.881500	367.039063	-25.831284
-6499.105213	4636.881500	365.755859	24.559813
-6499.105213	4636.881500	364.473633	44.586224
-6499.105213	4636.881500	363.190430	-11.179822
-6499.105213	4636.881500	361.907227	21.741613
-6499.105213	4636.881500	360.624023	67.583366
-6499.105213	4636.881500	359.340820	18.204473
-6499.105213	4636.881500	358.056641	31.501827
-6499.105213	4636.881500	356.772461	23.128832
-6499.105213	4636.881500	355.487305	70.900581
-6499.105213	4636.881500	354.202148	25.689112
-6499.105213	4636.881500	352.916992	69.016380
-6499.105213	4636.881500	351.631836	99.312759
-6499.105213	4636.881500	350.346680	-4.337119
-6499.105213	4636.881500	349.060547	30.167124
-6499.105213	4636.881500	347.774414	-4.469696
-6499.105213	4636.881500	346.487305	-43.468288
-6499.105213	4636.881500	345.200195	29.675980
-6499.105213	4636.881500	343.913086	18.603838
-6499.105213	4636.881500	342.625977	-50.753494
-6499.105213	4636.881500	341.338867	13.527231
-6499.105213	4636.881500	340.050781	71.243546
-6499.105213	4636.881500	338.762695	40.506203
-6499.105213	4636.881500	337.473633	-76.475838
-6499.105213	4636.881500	336.184570	19.780275
-6499.105213	4636.881500	334.895508	-34.838680
-6499.105213	4636.881500	333.606445	-9.842443
-6499.105213	4636.881500	332.317383	-49.518623
-6499.105213	4636.881500	331.027344	35.570236
-6499.105213	4636.881500	329.736328	40.919571
-6499.105213	4636.881500	328.446289	-31.265064
-6499.105213	4636.881500	327.155273	-11.021495
-6499.105213	4636.881500	325.864258	17.724289
-6499.105213	4636.881500	324.573242	-7.383235
-6499.105213	4636.881500	323.281250	19.009455
-6499.105213	4636.881500	321.989258	6.611309
-6499.105213	4636.881500	320.697266	-18.772459
-6499.105213	4636.881500	319.405273	-87.208633
-6499.105213	4636.881500	318.112305	54.739422
-6499.105213	4636.881500	316.819336	63.397186
-6499.105213	4636.881500	315.526367	7.541589
-6499.105213	4636.881500	314.232422	67.487022
-6499.105213	4636.881500	312.938477	-42.219894
-6499.105213	4636.881500	311.644531	-6.122470
-6499.105213	4636.881500	310.349609	21.254990
-6499.105213	4636.881500	309.054688	108.535484
-6499.105213	4636.881500	307.759766	-1.581808
-6499.105213	4636.881500	306.464844	33.966019
-6499.105213	4636.881500	305.168945	5.073699
-6499.105213	4636.881500	303.873047	29.616676
-6499.105213	4636.881500	302.577148	-18.818050
-6499.105213	4636.881500	301.281250	28.990608
-6499.105213	4636.881500	299.984375	-0.450014
