#X		#Y		#Wave		#Intensity
-6471.460160	4761.278000	1999.946289	57.654366
-6471.460160	4761.278000	1998.981445	-46.297489
-6471.460160	4761.278000	1998.017578	-31.801481
-6471.460160	4761.278000	1997.052734	-24.756168
-6471.460160	4761.278000	1996.088867	7.051816
-6471.460160	4761.278000	1995.124023	51.223614
-6471.460160	4761.278000	1994.159180	16.112879
-6471.460160	4761.278000	1993.193359	37.959721
-6471.460160	4761.278000	1992.228516	116.731979
-6471.460160	4761.278000	1991.262695	37.042885
-6471.460160	4761.278000	1990.296875	-30.251682
-6471.460160	4761.278000	1989.331055	80.629288
-6471.460160	4761.278000	1988.365234	-3.984370
-6471.460160	4761.278000	1987.398438	-16.843102
-6471.460160	4761.278000	1986.432617	-7.447747
-6471.460160	4761.278000	1985.465820	26.661724
-6471.460160	4761.278000	1984.499023	26.140522
-6471.460160	4761.278000	1983.532227	13.253518
-6471.460160	4761.278000	1982.565430	-4.578905
-6471.460160	4761.278000	1981.597656	-47.119720
-6471.460160	4761.278000	1980.629883	-27.894125
-6471.460160	4761.278000	1979.662109	40.714298
-6471.460160	4761.278000	1978.694336	92.004814
-6471.460160	4761.278000	1977.726563	51.919277
-6471.460160	4761.278000	1976.758789	-30.121964
-6471.460160	4761.278000	1975.790039	147.002823
-6471.460160	4761.278000	1974.821289	3.273080
-6471.460160	4761.278000	1973.852539	-41.725063
-6471.460160	4761.278000	1972.883789	174.751968
-6471.460160	4761.278000	1971.915039	-13.311277
-6471.460160	4761.278000	1970.945313	-97.749428
-6471.460160	4761.278000	1969.975586	0.268301
-6471.460160	4761.278000	1969.005859	-0.348020
-6471.460160	4761.278000	1968.036133	58.175686
-6471.460160	4761.278000	1967.066406	-65.655312
-6471.460160	4761.278000	1966.096680	-66.273232
-6471.460160	4761.278000	1965.125977	103.049980
-6471.460160	4761.278000	1964.155273	16.203726
-6471.460160	4761.278000	1963.184570	13.095839
-6471.460160	4761.278000	1962.213867	19.831188
-6471.460160	4761.278000	1961.242188	-17.740362
-6471.460160	4761.278000	1960.271484	84.957214
-6471.460160	4761.278000	1959.299805	47.379612
-6471.460160	4761.278000	1958.328125	-9.865760
-6471.460160	4761.278000	1957.356445	-3.151109
-6471.460160	4761.278000	1956.384766	55.193592
-6471.460160	4761.278000	1955.412109	61.886574
-6471.460160	4761.278000	1954.439453	-69.071205
-6471.460160	4761.278000	1953.467773	35.935970
-6471.460160	4761.278000	1952.495117	-40.919724
-6471.460160	4761.278000	1951.521484	41.927471
-6471.460160	4761.278000	1950.548828	-5.433208
-6471.460160	4761.278000	1949.575195	-109.259300
-6471.460160	4761.278000	1948.601563	66.843719
-6471.460160	4761.278000	1947.627930	61.227226
-6471.460160	4761.278000	1946.654297	28.612984
-6471.460160	4761.278000	1945.680664	84.346519
-6471.460160	4761.278000	1944.706055	-39.040043
-6471.460160	4761.278000	1943.732422	28.944901
-6471.460160	4761.278000	1942.757813	79.734917
-6471.460160	4761.278000	1941.783203	145.215729
-6471.460160	4761.278000	1940.807617	146.929459
-6471.460160	4761.278000	1939.833008	11.379164
-6471.460160	4761.278000	1938.857422	-55.505013
-6471.460160	4761.278000	1937.881836	139.803024
-6471.460160	4761.278000	1936.906250	-12.824623
-6471.460160	4761.278000	1935.930664	35.442417
-6471.460160	4761.278000	1934.955078	-92.624825
-6471.460160	4761.278000	1933.978516	38.879261
-6471.460160	4761.278000	1933.001953	-35.291443
-6471.460160	4761.278000	1932.025391	105.939011
-6471.460160	4761.278000	1931.048828	-19.606831
-6471.460160	4761.278000	1930.072266	-22.781244
-6471.460160	4761.278000	1929.094727	-18.618088
-6471.460160	4761.278000	1928.118164	0.215556
-6471.460160	4761.278000	1927.140625	-10.301673
-6471.460160	4761.278000	1926.163086	-25.706190
-6471.460160	4761.278000	1925.184570	191.097031
-6471.460160	4761.278000	1924.207031	73.017586
-6471.460160	4761.278000	1923.228516	16.064108
-6471.460160	4761.278000	1922.250000	15.316150
-6471.460160	4761.278000	1921.271484	17.009310
-6471.460160	4761.278000	1920.292969	-10.603724
-6471.460160	4761.278000	1919.314453	32.595947
-6471.460160	4761.278000	1918.334961	85.541946
-6471.460160	4761.278000	1917.355469	-56.782368
-6471.460160	4761.278000	1916.375977	-23.364309
-6471.460160	4761.278000	1915.396484	14.918918
-6471.460160	4761.278000	1914.416992	72.700119
-6471.460160	4761.278000	1913.436523	-42.696236
-6471.460160	4761.278000	1912.457031	24.823786
-6471.460160	4761.278000	1911.476563	163.014862
-6471.460160	4761.278000	1910.496094	-25.461693
-6471.460160	4761.278000	1909.515625	83.440018
-6471.460160	4761.278000	1908.534180	-12.367899
-6471.460160	4761.278000	1907.552734	38.021244
-6471.460160	4761.278000	1906.572266	3.144026
-6471.460160	4761.278000	1905.590820	75.423798
-6471.460160	4761.278000	1904.608398	89.241882
-6471.460160	4761.278000	1903.626953	17.854801
-6471.460160	4761.278000	1902.644531	56.012314
-6471.460160	4761.278000	1901.663086	38.187260
-6471.460160	4761.278000	1900.680664	0.903314
-6471.460160	4761.278000	1899.698242	-67.990211
-6471.460160	4761.278000	1898.714844	30.945137
-6471.460160	4761.278000	1897.732422	107.957840
-6471.460160	4761.278000	1896.749023	43.938248
-6471.460160	4761.278000	1895.765625	43.135586
-6471.460160	4761.278000	1894.782227	54.481693
-6471.460160	4761.278000	1893.798828	-9.499053
-6471.460160	4761.278000	1892.814453	-5.440254
-6471.460160	4761.278000	1891.831055	-37.816788
-6471.460160	4761.278000	1890.846680	9.950863
-6471.460160	4761.278000	1889.862305	47.986446
-6471.460160	4761.278000	1888.877930	13.182732
-6471.460160	4761.278000	1887.892578	-7.049215
-6471.460160	4761.278000	1886.908203	84.343330
-6471.460160	4761.278000	1885.922852	8.300943
-6471.460160	4761.278000	1884.937500	-55.588024
-6471.460160	4761.278000	1883.952148	62.430035
-6471.460160	4761.278000	1882.965820	105.235405
-6471.460160	4761.278000	1881.980469	84.991676
-6471.460160	4761.278000	1880.994141	-34.623066
-6471.460160	4761.278000	1880.007813	-11.219675
-6471.460160	4761.278000	1879.021484	92.126839
-6471.460160	4761.278000	1878.035156	86.422279
-6471.460160	4761.278000	1877.047852	49.230743
-6471.460160	4761.278000	1876.061523	89.538361
-6471.460160	4761.278000	1875.074219	-20.278330
-6471.460160	4761.278000	1874.086914	5.496241
-6471.460160	4761.278000	1873.098633	-46.187366
-6471.460160	4761.278000	1872.111328	-56.719959
-6471.460160	4761.278000	1871.123047	27.097731
-6471.460160	4761.278000	1870.135742	40.735756
-6471.460160	4761.278000	1869.147461	-49.623970
-6471.460160	4761.278000	1868.158203	38.969414
-6471.460160	4761.278000	1867.169922	30.828503
-6471.460160	4761.278000	1866.180664	32.354431
-6471.460160	4761.278000	1865.192383	0.044621
-6471.460160	4761.278000	1864.203125	8.815579
-6471.460160	4761.278000	1863.213867	39.319672
-6471.460160	4761.278000	1862.223633	-157.217926
-6471.460160	4761.278000	1861.234375	-22.870083
-6471.460160	4761.278000	1860.244141	-26.190290
-6471.460160	4761.278000	1859.253906	23.590044
-6471.460160	4761.278000	1858.263672	0.946437
-6471.460160	4761.278000	1857.273438	142.383957
-6471.460160	4761.278000	1856.282227	-20.205032
-6471.460160	4761.278000	1855.291992	22.281971
-6471.460160	4761.278000	1854.300781	79.217186
-6471.460160	4761.278000	1853.309570	-23.005516
-6471.460160	4761.278000	1852.317383	2.568232
-6471.460160	4761.278000	1851.326172	59.459896
-6471.460160	4761.278000	1850.333984	-59.585285
-6471.460160	4761.278000	1849.342773	-70.173027
-6471.460160	4761.278000	1848.350586	1.137207
-6471.460160	4761.278000	1847.357422	-35.961552
-6471.460160	4761.278000	1846.365234	-3.221718
-6471.460160	4761.278000	1845.372070	75.241547
-6471.460160	4761.278000	1844.379883	-38.890549
-6471.460160	4761.278000	1843.386719	20.286335
-6471.460160	4761.278000	1842.393555	72.216896
-6471.460160	4761.278000	1841.399414	3.839107
-6471.460160	4761.278000	1840.406250	-4.388210
-6471.460160	4761.278000	1839.412109	13.833299
-6471.460160	4761.278000	1838.417969	56.084827
-6471.460160	4761.278000	1837.423828	95.910744
-6471.460160	4761.278000	1836.429688	90.050972
-6471.460160	4761.278000	1835.434570	-38.362705
-6471.460160	4761.278000	1834.440430	32.672066
-6471.460160	4761.278000	1833.445313	62.839069
-6471.460160	4761.278000	1832.450195	-7.878363
-6471.460160	4761.278000	1831.454102	51.085117
-6471.460160	4761.278000	1830.458984	-60.427757
-6471.460160	4761.278000	1829.462891	82.517731
-6471.460160	4761.278000	1828.466797	11.823400
-6471.460160	4761.278000	1827.470703	27.524332
-6471.460160	4761.278000	1826.474609	-35.949837
-6471.460160	4761.278000	1825.478516	34.904003
-6471.460160	4761.278000	1824.481445	48.172646
-6471.460160	4761.278000	1823.484375	44.646854
-6471.460160	4761.278000	1822.487305	96.247467
-6471.460160	4761.278000	1821.490234	63.940487
-6471.460160	4761.278000	1820.493164	43.619415
-6471.460160	4761.278000	1819.495117	61.629318
-6471.460160	4761.278000	1818.498047	127.530617
-6471.460160	4761.278000	1817.500000	116.765450
-6471.460160	4761.278000	1816.500977	153.883545
-6471.460160	4761.278000	1815.502930	40.165348
-6471.460160	4761.278000	1814.504883	31.794037
-6471.460160	4761.278000	1813.505859	40.168602
-6471.460160	4761.278000	1812.506836	53.317184
-6471.460160	4761.278000	1811.507813	68.845444
-6471.460160	4761.278000	1810.508789	160.892242
-6471.460160	4761.278000	1809.508789	20.951284
-6471.460160	4761.278000	1808.508789	74.704285
-6471.460160	4761.278000	1807.508789	49.549889
-6471.460160	4761.278000	1806.508789	-49.687492
-6471.460160	4761.278000	1805.508789	-27.037445
-6471.460160	4761.278000	1804.508789	-47.404560
-6471.460160	4761.278000	1803.507813	6.269755
-6471.460160	4761.278000	1802.506836	-11.724808
-6471.460160	4761.278000	1801.505859	-110.898300
-6471.460160	4761.278000	1800.504883	-11.911897
-6471.460160	4761.278000	1799.502930	137.147934
-6471.460160	4761.278000	1798.501953	131.039932
-6471.460160	4761.278000	1797.500000	43.808983
-6471.460160	4761.278000	1796.498047	66.327095
-6471.460160	4761.278000	1795.496094	126.985847
-6471.460160	4761.278000	1794.493164	20.703621
-6471.460160	4761.278000	1793.491211	-25.947054
-6471.460160	4761.278000	1792.488281	22.750511
-6471.460160	4761.278000	1791.485352	-14.368971
-6471.460160	4761.278000	1790.482422	-30.039663
-6471.460160	4761.278000	1789.478516	18.604052
-6471.460160	4761.278000	1788.475586	74.366478
-6471.460160	4761.278000	1787.471680	-48.495491
-6471.460160	4761.278000	1786.467773	33.428589
-6471.460160	4761.278000	1785.463867	43.902607
-6471.460160	4761.278000	1784.459961	-33.692608
-6471.460160	4761.278000	1783.455078	67.190163
-6471.460160	4761.278000	1782.450195	1.496055
-6471.460160	4761.278000	1781.445313	16.688192
-6471.460160	4761.278000	1780.440430	-37.098934
-6471.460160	4761.278000	1779.435547	-48.077507
-6471.460160	4761.278000	1778.429688	-56.684723
-6471.460160	4761.278000	1777.424805	-119.961784
-6471.460160	4761.278000	1776.418945	42.522106
-6471.460160	4761.278000	1775.413086	-16.017336
-6471.460160	4761.278000	1774.406250	-50.791016
-6471.460160	4761.278000	1773.400391	-45.186016
-6471.460160	4761.278000	1772.393555	26.891970
-6471.460160	4761.278000	1771.386719	32.460705
-6471.460160	4761.278000	1770.379883	73.621498
-6471.460160	4761.278000	1769.373047	-25.257263
-6471.460160	4761.278000	1768.365234	-17.338186
-6471.460160	4761.278000	1767.358398	-85.341988
-6471.460160	4761.278000	1766.350586	15.065782
-6471.460160	4761.278000	1765.342773	-17.368057
-6471.460160	4761.278000	1764.334961	-30.832232
-6471.460160	4761.278000	1763.326172	-44.301403
-6471.460160	4761.278000	1762.318359	65.464256
-6471.460160	4761.278000	1761.309570	30.637003
-6471.460160	4761.278000	1760.300781	33.718834
-6471.460160	4761.278000	1759.291016	36.788765
-6471.460160	4761.278000	1758.282227	58.794224
-6471.460160	4761.278000	1757.272461	-39.972485
-6471.460160	4761.278000	1756.262695	24.630081
-6471.460160	4761.278000	1755.252930	48.962765
-6471.460160	4761.278000	1754.243164	16.483824
-6471.460160	4761.278000	1753.233398	-20.723974
-6471.460160	4761.278000	1752.222656	17.766483
-6471.460160	4761.278000	1751.211914	131.913330
-6471.460160	4761.278000	1750.201172	-35.375938
-6471.460160	4761.278000	1749.190430	45.620846
-6471.460160	4761.278000	1748.179688	69.849243
-6471.460160	4761.278000	1747.167969	-50.097881
-6471.460160	4761.278000	1746.156250	-58.959133
-6471.460160	4761.278000	1745.144531	38.477421
-6471.460160	4761.278000	1744.132813	-24.739124
-6471.460160	4761.278000	1743.121094	-10.014277
-6471.460160	4761.278000	1742.108398	-125.158791
-6471.460160	4761.278000	1741.095703	24.108332
-6471.460160	4761.278000	1740.083008	93.067131
-6471.460160	4761.278000	1739.070313	-38.576550
-6471.460160	4761.278000	1738.057617	-28.630070
-6471.460160	4761.278000	1737.043945	82.726639
-6471.460160	4761.278000	1736.030273	-58.302036
-6471.460160	4761.278000	1735.016602	-93.185074
-6471.460160	4761.278000	1734.002930	-85.631668
-6471.460160	4761.278000	1732.989258	18.542784
-6471.460160	4761.278000	1731.974609	-25.789936
-6471.460160	4761.278000	1730.959961	-18.282578
-6471.460160	4761.278000	1729.945313	-1.365526
-6471.460160	4761.278000	1728.930664	41.442451
-6471.460160	4761.278000	1727.916016	-2.897671
-6471.460160	4761.278000	1726.900391	-30.751690
-6471.460160	4761.278000	1725.885742	-23.296606
-6471.460160	4761.278000	1724.870117	59.451035
-6471.460160	4761.278000	1723.853516	99.805214
-6471.460160	4761.278000	1722.837891	-1.008182
-6471.460160	4761.278000	1721.822266	15.805923
-6471.460160	4761.278000	1720.805664	4.385115
-6471.460160	4761.278000	1719.789063	-2.338051
-6471.460160	4761.278000	1718.772461	108.462639
-6471.460160	4761.278000	1717.754883	52.349804
-6471.460160	4761.278000	1716.738281	-50.743057
-6471.460160	4761.278000	1715.720703	-41.042587
-6471.460160	4761.278000	1714.703125	-158.189667
-6471.460160	4761.278000	1713.685547	-47.510410
-6471.460160	4761.278000	1712.667969	-42.537739
-6471.460160	4761.278000	1711.649414	-11.754967
-6471.460160	4761.278000	1710.630859	-49.055637
-6471.460160	4761.278000	1709.612305	-39.419430
-6471.460160	4761.278000	1708.593750	-11.026711
-6471.460160	4761.278000	1707.575195	26.729511
-6471.460160	4761.278000	1706.555664	24.593174
-6471.460160	4761.278000	1705.536133	-19.756460
-6471.460160	4761.278000	1704.516602	15.609132
-6471.460160	4761.278000	1703.497070	39.233471
-6471.460160	4761.278000	1702.477539	-16.834803
-6471.460160	4761.278000	1701.457031	-23.689421
-6471.460160	4761.278000	1700.437500	16.302586
-6471.460160	4761.278000	1699.416992	28.164854
-6471.460160	4761.278000	1698.395508	154.752167
-6471.460160	4761.278000	1697.375000	-16.042698
-6471.460160	4761.278000	1696.354492	68.357658
-6471.460160	4761.278000	1695.333008	-32.164459
-6471.460160	4761.278000	1694.311523	52.189674
-6471.460160	4761.278000	1693.290039	21.875216
-6471.460160	4761.278000	1692.267578	87.458527
-6471.460160	4761.278000	1691.246094	82.856888
-6471.460160	4761.278000	1690.223633	36.163895
-6471.460160	4761.278000	1689.201172	-68.957420
-6471.460160	4761.278000	1688.178711	-54.852932
-6471.460160	4761.278000	1687.155273	94.764160
-6471.460160	4761.278000	1686.132813	38.731121
-6471.460160	4761.278000	1685.109375	38.769424
-6471.460160	4761.278000	1684.085938	-10.240828
-6471.460160	4761.278000	1683.062500	3.802253
-6471.460160	4761.278000	1682.039063	29.505192
-6471.460160	4761.278000	1681.014648	31.850319
-6471.460160	4761.278000	1679.990234	66.857162
-6471.460160	4761.278000	1678.965820	87.845398
-6471.460160	4761.278000	1677.941406	129.812653
-6471.460160	4761.278000	1676.916992	22.498781
-6471.460160	4761.278000	1675.891602	-19.493814
-6471.460160	4761.278000	1674.866211	34.105659
-6471.460160	4761.278000	1673.840820	57.377861
-6471.460160	4761.278000	1672.815430	27.036253
-6471.460160	4761.278000	1671.790039	68.928093
-6471.460160	4761.278000	1670.763672	-56.925999
-6471.460160	4761.278000	1669.737305	87.429604
-6471.460160	4761.278000	1668.710938	-43.048214
-6471.460160	4761.278000	1667.684570	87.268806
-6471.460160	4761.278000	1666.658203	-54.807953
-6471.460160	4761.278000	1665.630859	0.977205
-6471.460160	4761.278000	1664.603516	7.872908
-6471.460160	4761.278000	1663.576172	56.634869
-6471.460160	4761.278000	1662.548828	189.104248
-6471.460160	4761.278000	1661.520508	149.433960
-6471.460160	4761.278000	1660.493164	153.950302
-6471.460160	4761.278000	1659.464844	-13.556883
-6471.460160	4761.278000	1658.436523	-2.049860
-6471.460160	4761.278000	1657.408203	9.448025
-6471.460160	4761.278000	1656.378906	130.124573
-6471.460160	4761.278000	1655.350586	18.478510
-6471.460160	4761.278000	1654.321289	20.661211
-6471.460160	4761.278000	1653.291992	76.241180
-6471.460160	4761.278000	1652.261719	90.008507
-6471.460160	4761.278000	1651.232422	175.717300
-6471.460160	4761.278000	1650.202148	170.888321
-6471.460160	4761.278000	1649.171875	-19.546165
-6471.460160	4761.278000	1648.141602	-3.466896
-6471.460160	4761.278000	1647.111328	17.240490
-6471.460160	4761.278000	1646.080078	112.132668
-6471.460160	4761.278000	1645.049805	86.437912
-6471.460160	4761.278000	1644.018555	2.803156
-6471.460160	4761.278000	1642.987305	90.680733
-6471.460160	4761.278000	1641.955078	104.378777
-6471.460160	4761.278000	1640.923828	-9.334147
-6471.460160	4761.278000	1639.891602	50.691826
-6471.460160	4761.278000	1638.859375	117.638527
-6471.460160	4761.278000	1637.827148	29.444773
-6471.460160	4761.278000	1636.794922	17.666109
-6471.460160	4761.278000	1635.761719	149.367981
-6471.460160	4761.278000	1634.729492	160.703262
-6471.460160	4761.278000	1633.696289	86.437775
-6471.460160	4761.278000	1632.662109	-61.814381
-6471.460160	4761.278000	1631.628906	118.352615
-6471.460160	4761.278000	1630.594727	37.194557
-6471.460160	4761.278000	1629.561523	143.300125
-6471.460160	4761.278000	1628.527344	82.964882
-6471.460160	4761.278000	1627.493164	205.189301
-6471.460160	4761.278000	1626.458008	216.475586
-6471.460160	4761.278000	1625.423828	77.626305
-6471.460160	4761.278000	1624.388672	98.167244
-6471.460160	4761.278000	1623.353516	181.036850
-6471.460160	4761.278000	1622.318359	153.071671
-6471.460160	4761.278000	1621.282227	53.569340
-6471.460160	4761.278000	1620.247070	145.626343
-6471.460160	4761.278000	1619.210938	60.004826
-6471.460160	4761.278000	1618.174805	188.926910
-6471.460160	4761.278000	1617.137695	163.286438
-6471.460160	4761.278000	1616.101563	234.495575
-6471.460160	4761.278000	1615.064453	151.225143
-6471.460160	4761.278000	1614.027344	162.482666
-6471.460160	4761.278000	1612.990234	189.865952
-6471.460160	4761.278000	1611.953125	136.603134
-6471.460160	4761.278000	1610.916016	159.374481
-6471.460160	4761.278000	1609.877930	294.981567
-6471.460160	4761.278000	1608.839844	115.089409
-6471.460160	4761.278000	1607.801758	105.621918
-6471.460160	4761.278000	1606.763672	158.303345
-6471.460160	4761.278000	1605.724609	178.746292
-6471.460160	4761.278000	1604.685547	125.558861
-6471.460160	4761.278000	1603.646484	88.495331
-6471.460160	4761.278000	1602.607422	131.941788
-6471.460160	4761.278000	1601.568359	120.187195
-6471.460160	4761.278000	1600.528320	159.013580
-6471.460160	4761.278000	1599.489258	57.619911
-6471.460160	4761.278000	1598.449219	121.725189
-6471.460160	4761.278000	1597.408203	24.973579
-6471.460160	4761.278000	1596.368164	164.869965
-6471.460160	4761.278000	1595.327148	176.096481
-6471.460160	4761.278000	1594.287109	182.730240
-6471.460160	4761.278000	1593.246094	148.037643
-6471.460160	4761.278000	1592.204102	83.519302
-6471.460160	4761.278000	1591.163086	37.390015
-6471.460160	4761.278000	1590.121094	85.352219
-6471.460160	4761.278000	1589.079102	264.057190
-6471.460160	4761.278000	1588.037109	119.302917
-6471.460160	4761.278000	1586.995117	64.039703
-6471.460160	4761.278000	1585.953125	102.800621
-6471.460160	4761.278000	1584.910156	72.781342
-6471.460160	4761.278000	1583.867188	120.697083
-6471.460160	4761.278000	1582.824219	154.849976
-6471.460160	4761.278000	1581.781250	95.067291
-6471.460160	4761.278000	1580.737305	99.441910
-6471.460160	4761.278000	1579.693359	60.309406
-6471.460160	4761.278000	1578.649414	57.828358
-6471.460160	4761.278000	1577.605469	59.930515
-6471.460160	4761.278000	1576.561523	142.138214
-6471.460160	4761.278000	1575.516602	82.449402
-6471.460160	4761.278000	1574.472656	70.832169
-6471.460160	4761.278000	1573.427734	77.520805
-6471.460160	4761.278000	1572.381836	33.899727
-6471.460160	4761.278000	1571.336914	134.344223
-6471.460160	4761.278000	1570.291016	225.609131
-6471.460160	4761.278000	1569.246094	156.860748
-6471.460160	4761.278000	1568.200195	76.717422
-6471.460160	4761.278000	1567.153320	-46.797741
-6471.460160	4761.278000	1566.107422	26.178770
-6471.460160	4761.278000	1565.060547	101.414536
-6471.460160	4761.278000	1564.013672	-3.750302
-6471.460160	4761.278000	1562.966797	21.251505
-6471.460160	4761.278000	1561.919922	94.178856
-6471.460160	4761.278000	1560.872070	132.853500
-6471.460160	4761.278000	1559.825195	64.292213
-6471.460160	4761.278000	1558.777344	57.349789
-6471.460160	4761.278000	1557.729492	148.480591
-6471.460160	4761.278000	1556.680664	-6.671590
-6471.460160	4761.278000	1555.632813	86.728561
-6471.460160	4761.278000	1554.583984	107.162369
-6471.460160	4761.278000	1553.535156	47.838314
-6471.460160	4761.278000	1552.486328	-22.847254
-6471.460160	4761.278000	1551.436523	77.340797
-6471.460160	4761.278000	1550.387695	40.852947
-6471.460160	4761.278000	1549.337891	20.324152
-6471.460160	4761.278000	1548.288086	86.318565
-6471.460160	4761.278000	1547.238281	79.460075
-6471.460160	4761.278000	1546.187500	138.603729
-6471.460160	4761.278000	1545.136719	56.670815
-6471.460160	4761.278000	1544.086914	108.988388
-6471.460160	4761.278000	1543.035156	118.079170
-6471.460160	4761.278000	1541.984375	-50.183361
-6471.460160	4761.278000	1540.933594	-25.133366
-6471.460160	4761.278000	1539.881836	34.007839
-6471.460160	4761.278000	1538.830078	-68.213005
-6471.460160	4761.278000	1537.778320	163.605316
-6471.460160	4761.278000	1536.725586	22.797909
-6471.460160	4761.278000	1535.673828	52.392395
-6471.460160	4761.278000	1534.621094	72.899696
-6471.460160	4761.278000	1533.568359	50.272995
-6471.460160	4761.278000	1532.515625	50.362251
-6471.460160	4761.278000	1531.461914	86.769203
-6471.460160	4761.278000	1530.409180	50.567028
-6471.460160	4761.278000	1529.355469	98.320457
-6471.460160	4761.278000	1528.301758	96.167923
-6471.460160	4761.278000	1527.247070	107.630157
-6471.460160	4761.278000	1526.193359	46.551010
-6471.460160	4761.278000	1525.138672	153.237717
-6471.460160	4761.278000	1524.083984	62.731243
-6471.460160	4761.278000	1523.029297	173.924042
-6471.460160	4761.278000	1521.974609	128.775650
-6471.460160	4761.278000	1520.918945	149.335190
-6471.460160	4761.278000	1519.863281	140.459503
-6471.460160	4761.278000	1518.807617	86.318123
-6471.460160	4761.278000	1517.751953	34.471928
-6471.460160	4761.278000	1516.696289	34.707867
-6471.460160	4761.278000	1515.639648	14.589487
-6471.460160	4761.278000	1514.583008	23.897915
-6471.460160	4761.278000	1513.526367	55.831230
-6471.460160	4761.278000	1512.469727	-47.914925
-6471.460160	4761.278000	1511.412109	-9.176864
-6471.460160	4761.278000	1510.355469	-103.805389
-6471.460160	4761.278000	1509.297852	34.388374
-6471.460160	4761.278000	1508.240234	-26.297426
-6471.460160	4761.278000	1507.181641	-68.876556
-6471.460160	4761.278000	1506.124023	-5.271684
-6471.460160	4761.278000	1505.065430	-34.266018
-6471.460160	4761.278000	1504.006836	-29.371767
-6471.460160	4761.278000	1502.948242	54.536392
-6471.460160	4761.278000	1501.888672	-89.515945
-6471.460160	4761.278000	1500.830078	-127.449127
-6471.460160	4761.278000	1499.770508	-95.422966
-6471.460160	4761.278000	1498.710938	-117.528816
-6471.460160	4761.278000	1497.650391	-53.923916
-6471.460160	4761.278000	1496.590820	-21.895153
-6471.460160	4761.278000	1495.530273	-125.115189
-6471.460160	4761.278000	1494.469727	-38.973049
-6471.460160	4761.278000	1493.409180	-65.514084
-6471.460160	4761.278000	1492.348633	-128.076843
-6471.460160	4761.278000	1491.287109	-159.070190
-6471.460160	4761.278000	1490.225586	-117.978424
-6471.460160	4761.278000	1489.164063	-29.609837
-6471.460160	4761.278000	1488.102539	-38.056156
-6471.460160	4761.278000	1487.041016	-141.009216
-6471.460160	4761.278000	1485.978516	-88.652733
-6471.460160	4761.278000	1484.916016	24.429087
-6471.460160	4761.278000	1483.853516	-26.697788
-6471.460160	4761.278000	1482.791016	-28.327244
-6471.460160	4761.278000	1481.727539	-9.706664
-6471.460160	4761.278000	1480.664063	-40.526031
-6471.460160	4761.278000	1479.600586	-33.128799
-6471.460160	4761.278000	1478.537109	113.588356
-6471.460160	4761.278000	1477.473633	8.681396
-6471.460160	4761.278000	1476.409180	-64.742516
-6471.460160	4761.278000	1475.344727	-7.862681
-6471.460160	4761.278000	1474.280273	26.536760
-6471.460160	4761.278000	1473.215820	20.524460
-6471.460160	4761.278000	1472.151367	19.033325
-6471.460160	4761.278000	1471.085938	109.554619
-6471.460160	4761.278000	1470.020508	222.398712
-6471.460160	4761.278000	1468.955078	68.453575
-6471.460160	4761.278000	1467.888672	78.100159
-6471.460160	4761.278000	1466.823242	22.972216
-6471.460160	4761.278000	1465.756836	61.809391
-6471.460160	4761.278000	1464.690430	111.811874
-6471.460160	4761.278000	1463.624023	67.944298
-6471.460160	4761.278000	1462.556641	138.193146
-6471.460160	4761.278000	1461.490234	98.763542
-6471.460160	4761.278000	1460.422852	79.421165
-6471.460160	4761.278000	1459.355469	24.778713
-6471.460160	4761.278000	1458.287109	99.025108
-6471.460160	4761.278000	1457.219727	37.482815
-6471.460160	4761.278000	1456.151367	101.120224
-6471.460160	4761.278000	1455.083008	168.675476
-6471.460160	4761.278000	1454.014648	227.944016
-6471.460160	4761.278000	1452.945313	68.061363
-6471.460160	4761.278000	1451.876953	62.717491
-6471.460160	4761.278000	1450.807617	152.972977
-6471.460160	4761.278000	1449.738281	184.651840
-6471.460160	4761.278000	1448.668945	129.669861
-6471.460160	4761.278000	1447.598633	134.008545
-6471.460160	4761.278000	1446.528320	92.501900
-6471.460160	4761.278000	1445.458008	67.196800
-6471.460160	4761.278000	1444.387695	97.295891
-6471.460160	4761.278000	1443.317383	155.508423
-6471.460160	4761.278000	1442.246094	145.732986
-6471.460160	4761.278000	1441.174805	144.641342
-6471.460160	4761.278000	1440.103516	112.030899
-6471.460160	4761.278000	1439.032227	104.650902
-6471.460160	4761.278000	1437.960938	223.247711
-6471.460160	4761.278000	1436.888672	144.666763
-6471.460160	4761.278000	1435.816406	206.179596
-6471.460160	4761.278000	1434.744141	152.762558
-6471.460160	4761.278000	1433.670898	138.145615
-6471.460160	4761.278000	1432.598633	138.684509
-6471.460160	4761.278000	1431.525391	144.671967
-6471.460160	4761.278000	1430.452148	109.221039
-6471.460160	4761.278000	1429.378906	86.501396
-6471.460160	4761.278000	1428.304688	-5.509839
-6471.460160	4761.278000	1427.231445	-10.518117
-6471.460160	4761.278000	1426.157227	92.993805
-6471.460160	4761.278000	1425.083008	85.674767
-6471.460160	4761.278000	1424.007813	129.280273
-6471.460160	4761.278000	1422.933594	82.515388
-6471.460160	4761.278000	1421.858398	59.755627
-6471.460160	4761.278000	1420.783203	-0.698376
-6471.460160	4761.278000	1419.708008	-20.449165
-6471.460160	4761.278000	1418.631836	3.640406
-6471.460160	4761.278000	1417.555664	-122.509193
-6471.460160	4761.278000	1416.479492	51.897442
-6471.460160	4761.278000	1415.403320	44.062435
-6471.460160	4761.278000	1414.327148	48.474052
-6471.460160	4761.278000	1413.250000	15.302713
-6471.460160	4761.278000	1412.173828	76.456810
-6471.460160	4761.278000	1411.096680	31.363144
-6471.460160	4761.278000	1410.018555	104.344490
-6471.460160	4761.278000	1408.941406	-17.472101
-6471.460160	4761.278000	1407.863281	-35.911449
-6471.460160	4761.278000	1406.785156	67.180649
-6471.460160	4761.278000	1405.707031	-0.892128
-6471.460160	4761.278000	1404.628906	-29.978676
-6471.460160	4761.278000	1403.549805	8.584699
-6471.460160	4761.278000	1402.470703	9.767326
-6471.460160	4761.278000	1401.391602	-17.723547
-6471.460160	4761.278000	1400.312500	4.136948
-6471.460160	4761.278000	1399.233398	130.677887
-6471.460160	4761.278000	1398.153320	81.748070
-6471.460160	4761.278000	1397.073242	199.514526
-6471.460160	4761.278000	1395.993164	126.798264
-6471.460160	4761.278000	1394.913086	179.505966
-6471.460160	4761.278000	1393.832031	42.207958
-6471.460160	4761.278000	1392.750977	77.696175
-6471.460160	4761.278000	1391.669922	263.052124
-6471.460160	4761.278000	1390.588867	192.192535
-6471.460160	4761.278000	1389.506836	88.186493
-6471.460160	4761.278000	1388.425781	158.713531
-6471.460160	4761.278000	1387.343750	55.814777
-6471.460160	4761.278000	1386.261719	121.375366
-6471.460160	4761.278000	1385.178711	78.794548
-6471.460160	4761.278000	1384.096680	168.735367
-6471.460160	4761.278000	1383.013672	142.362335
-6471.460160	4761.278000	1381.930664	177.524170
-6471.460160	4761.278000	1380.846680	177.815475
-6471.460160	4761.278000	1379.763672	78.827652
-6471.460160	4761.278000	1378.679688	102.063942
-6471.460160	4761.278000	1377.595703	112.281197
-6471.460160	4761.278000	1376.511719	225.542343
-6471.460160	4761.278000	1375.427734	192.623215
-6471.460160	4761.278000	1374.342773	250.948334
-6471.460160	4761.278000	1373.257813	266.240540
-6471.460160	4761.278000	1372.172852	228.244888
-6471.460160	4761.278000	1371.087891	122.269669
-6471.460160	4761.278000	1370.001953	331.115204
-6471.460160	4761.278000	1368.916992	239.918243
-6471.460160	4761.278000	1367.831055	190.362473
-6471.460160	4761.278000	1366.744141	333.128052
-6471.460160	4761.278000	1365.658203	360.213745
-6471.460160	4761.278000	1364.571289	281.504700
-6471.460160	4761.278000	1363.484375	222.251251
-6471.460160	4761.278000	1362.397461	331.974060
-6471.460160	4761.278000	1361.310547	258.421600
-6471.460160	4761.278000	1360.222656	190.347427
-6471.460160	4761.278000	1359.135742	225.044785
-6471.460160	4761.278000	1358.047852	302.470795
-6471.460160	4761.278000	1356.958984	260.190582
-6471.460160	4761.278000	1355.871094	277.539581
-6471.460160	4761.278000	1354.782227	261.600464
-6471.460160	4761.278000	1353.693359	350.425446
-6471.460160	4761.278000	1352.604492	230.862045
-6471.460160	4761.278000	1351.515625	282.429047
-6471.460160	4761.278000	1350.425781	484.583649
-6471.460160	4761.278000	1349.335938	410.986877
-6471.460160	4761.278000	1348.246094	418.288361
-6471.460160	4761.278000	1347.156250	490.817352
-6471.460160	4761.278000	1346.066406	449.452637
-6471.460160	4761.278000	1344.975586	557.126648
-6471.460160	4761.278000	1343.884766	639.331604
-6471.460160	4761.278000	1342.793945	651.278931
-6471.460160	4761.278000	1341.702148	649.605347
-6471.460160	4761.278000	1340.611328	730.599792
-6471.460160	4761.278000	1339.519531	697.413574
-6471.460160	4761.278000	1338.427734	729.943054
-6471.460160	4761.278000	1337.334961	556.461426
-6471.460160	4761.278000	1336.243164	571.996887
-6471.460160	4761.278000	1335.150391	709.258362
-6471.460160	4761.278000	1334.057617	635.071350
-6471.460160	4761.278000	1332.964844	590.380554
-6471.460160	4761.278000	1331.871094	668.560608
-6471.460160	4761.278000	1330.778320	620.859985
-6471.460160	4761.278000	1329.684570	612.591370
-6471.460160	4761.278000	1328.590820	639.784729
-6471.460160	4761.278000	1327.496094	570.826172
-6471.460160	4761.278000	1326.402344	625.781189
-6471.460160	4761.278000	1325.307617	583.611755
-6471.460160	4761.278000	1324.212891	452.533539
-6471.460160	4761.278000	1323.117188	538.965210
-6471.460160	4761.278000	1322.022461	485.798126
-6471.460160	4761.278000	1320.926758	475.375885
-6471.460160	4761.278000	1319.831055	366.826172
-6471.460160	4761.278000	1318.735352	367.890442
-6471.460160	4761.278000	1317.638672	308.114777
-6471.460160	4761.278000	1316.542969	335.822357
-6471.460160	4761.278000	1315.446289	391.732117
-6471.460160	4761.278000	1314.349609	361.831818
-6471.460160	4761.278000	1313.251953	352.425476
-6471.460160	4761.278000	1312.155273	374.005402
-6471.460160	4761.278000	1311.057617	327.285675
-6471.460160	4761.278000	1309.959961	233.072372
-6471.460160	4761.278000	1308.862305	325.986298
-6471.460160	4761.278000	1307.763672	411.177429
-6471.460160	4761.278000	1306.665039	326.457245
-6471.460160	4761.278000	1305.566406	420.791229
-6471.460160	4761.278000	1304.467773	371.061096
-6471.460160	4761.278000	1303.369141	372.116577
-6471.460160	4761.278000	1302.269531	502.460785
-6471.460160	4761.278000	1301.169922	534.254456
-6471.460160	4761.278000	1300.070313	494.210205
-6471.460160	4761.278000	1298.970703	656.369385
-6471.460160	4761.278000	1297.870117	781.857849
-6471.460160	4761.278000	1296.769531	811.298340
-6471.460160	4761.278000	1295.668945	878.341370
-6471.460160	4761.278000	1294.568359	914.854004
-6471.460160	4761.278000	1293.466797	862.447754
-6471.460160	4761.278000	1292.366211	953.459900
-6471.460160	4761.278000	1291.264648	744.088013
-6471.460160	4761.278000	1290.162109	755.053833
-6471.460160	4761.278000	1289.060547	729.453308
-6471.460160	4761.278000	1287.958008	624.173340
-6471.460160	4761.278000	1286.855469	606.359802
-6471.460160	4761.278000	1285.752930	687.094116
-6471.460160	4761.278000	1284.650391	606.908142
-6471.460160	4761.278000	1283.546875	538.173462
-6471.460160	4761.278000	1282.444336	563.358521
-6471.460160	4761.278000	1281.339844	517.152527
-6471.460160	4761.278000	1280.236328	568.462402
-6471.460160	4761.278000	1279.132813	471.255798
-6471.460160	4761.278000	1278.028320	485.187408
-6471.460160	4761.278000	1276.923828	457.045898
-6471.460160	4761.278000	1275.819336	356.871887
-6471.460160	4761.278000	1274.713867	310.788483
-6471.460160	4761.278000	1273.608398	294.700195
-6471.460160	4761.278000	1272.503906	246.163132
-6471.460160	4761.278000	1271.397461	252.968933
-6471.460160	4761.278000	1270.291992	253.555481
-6471.460160	4761.278000	1269.185547	155.760895
-6471.460160	4761.278000	1268.080078	57.858624
-6471.460160	4761.278000	1266.972656	151.808578
-6471.460160	4761.278000	1265.866211	141.371567
-6471.460160	4761.278000	1264.759766	120.918739
-6471.460160	4761.278000	1263.652344	102.337410
-6471.460160	4761.278000	1262.544922	-9.865667
-6471.460160	4761.278000	1261.436523	-1.225792
-6471.460160	4761.278000	1260.329102	51.276283
-6471.460160	4761.278000	1259.220703	72.028305
-6471.460160	4761.278000	1258.112305	7.731866
-6471.460160	4761.278000	1257.003906	24.394655
-6471.460160	4761.278000	1255.895508	8.061234
-6471.460160	4761.278000	1254.786133	-8.714082
-6471.460160	4761.278000	1253.676758	-2.953116
-6471.460160	4761.278000	1252.567383	34.276142
-6471.460160	4761.278000	1251.458008	-13.138968
-6471.460160	4761.278000	1250.347656	73.771400
-6471.460160	4761.278000	1249.237305	19.790842
-6471.460160	4761.278000	1248.126953	23.343792
-6471.460160	4761.278000	1247.016602	62.444054
-6471.460160	4761.278000	1245.905273	-40.324493
-6471.460160	4761.278000	1244.793945	35.573917
-6471.460160	4761.278000	1243.682617	47.122082
-6471.460160	4761.278000	1242.571289	33.550602
-6471.460160	4761.278000	1241.459961	81.114967
-6471.460160	4761.278000	1240.347656	79.930580
-6471.460160	4761.278000	1239.235352	95.420883
-6471.460160	4761.278000	1238.123047	101.777161
-6471.460160	4761.278000	1237.009766	11.139967
-6471.460160	4761.278000	1235.897461	100.513031
-6471.460160	4761.278000	1234.784180	63.710991
-6471.460160	4761.278000	1233.670898	35.539867
-6471.460160	4761.278000	1232.556641	64.895332
-6471.460160	4761.278000	1231.443359	43.416847
-6471.460160	4761.278000	1230.329102	45.289188
-6471.460160	4761.278000	1229.214844	112.054443
-6471.460160	4761.278000	1228.099609	93.841202
-6471.460160	4761.278000	1226.985352	-13.876357
-6471.460160	4761.278000	1225.870117	97.234741
-6471.460160	4761.278000	1224.754883	63.779079
-6471.460160	4761.278000	1223.639648	34.073200
-6471.460160	4761.278000	1222.523438	-66.711578
-6471.460160	4761.278000	1221.408203	-44.045425
-6471.460160	4761.278000	1220.291992	-23.092905
-6471.460160	4761.278000	1219.174805	45.822384
-6471.460160	4761.278000	1218.058594	76.625526
-6471.460160	4761.278000	1216.941406	51.798454
-6471.460160	4761.278000	1215.824219	-31.223454
-6471.460160	4761.278000	1214.707031	-12.144156
-6471.460160	4761.278000	1213.589844	36.686874
-6471.460160	4761.278000	1212.471680	27.040817
-6471.460160	4761.278000	1211.353516	52.743935
-6471.460160	4761.278000	1210.235352	27.474346
-6471.460160	4761.278000	1209.117188	50.424564
-6471.460160	4761.278000	1207.998047	83.955383
-6471.460160	4761.278000	1206.878906	44.176018
-6471.460160	4761.278000	1205.759766	41.360775
-6471.460160	4761.278000	1204.640625	131.775909
-6471.460160	4761.278000	1203.520508	59.160633
-6471.460160	4761.278000	1202.401367	108.413910
-6471.460160	4761.278000	1201.281250	49.611656
-6471.460160	4761.278000	1200.160156	74.426865
-6471.460160	4761.278000	1199.040039	120.892067
-6471.460160	4761.278000	1197.918945	60.059975
-6471.460160	4761.278000	1196.797852	79.680450
-6471.460160	4761.278000	1195.676758	82.990700
-6471.460160	4761.278000	1194.555664	85.199844
-6471.460160	4761.278000	1193.433594	92.207245
-6471.460160	4761.278000	1192.311523	78.911934
-6471.460160	4761.278000	1191.189453	-6.177402
-6471.460160	4761.278000	1190.066406	58.212856
-6471.460160	4761.278000	1188.944336	-31.083462
-6471.460160	4761.278000	1187.821289	-102.495598
-6471.460160	4761.278000	1186.698242	1.231459
-6471.460160	4761.278000	1185.574219	-62.016384
-6471.460160	4761.278000	1184.451172	3.556147
-6471.460160	4761.278000	1183.327148	-67.308083
-6471.460160	4761.278000	1182.203125	-7.223923
-6471.460160	4761.278000	1181.078125	-29.726374
-6471.460160	4761.278000	1179.954102	-23.077267
-6471.460160	4761.278000	1178.829102	4.445984
-6471.460160	4761.278000	1177.704102	-52.382549
-6471.460160	4761.278000	1176.579102	-88.240448
-6471.460160	4761.278000	1175.453125	-70.695671
-6471.460160	4761.278000	1174.327148	-17.543716
-6471.460160	4761.278000	1173.201172	-7.262457
-6471.460160	4761.278000	1172.075195	-25.087084
-6471.460160	4761.278000	1170.949219	-69.204933
-6471.460160	4761.278000	1169.822266	-14.191800
-6471.460160	4761.278000	1168.695313	-78.157364
-6471.460160	4761.278000	1167.568359	-53.015045
-6471.460160	4761.278000	1166.440430	-26.817436
-6471.460160	4761.278000	1165.313477	-80.679558
-6471.460160	4761.278000	1164.185547	-44.383289
-6471.460160	4761.278000	1163.057617	-68.277802
-6471.460160	4761.278000	1161.928711	-9.783379
-6471.460160	4761.278000	1160.800781	-39.050896
-6471.460160	4761.278000	1159.671875	-47.515583
-6471.460160	4761.278000	1158.541992	-42.743927
-6471.460160	4761.278000	1157.413086	-44.870663
-6471.460160	4761.278000	1156.283203	-48.377914
-6471.460160	4761.278000	1155.154297	-0.108406
-6471.460160	4761.278000	1154.023438	24.803070
-6471.460160	4761.278000	1152.893555	-40.004932
-6471.460160	4761.278000	1151.763672	-85.764236
-6471.460160	4761.278000	1150.632813	-80.519676
-6471.460160	4761.278000	1149.501953	-28.616209
-6471.460160	4761.278000	1148.370117	13.024364
-6471.460160	4761.278000	1147.239258	-74.611267
-6471.460160	4761.278000	1146.107422	-90.174477
-6471.460160	4761.278000	1144.975586	21.915327
-6471.460160	4761.278000	1143.843750	-14.871221
-6471.460160	4761.278000	1142.710938	-63.902950
-6471.460160	4761.278000	1141.578125	-16.624393
-6471.460160	4761.278000	1140.445313	50.181671
-6471.460160	4761.278000	1139.312500	35.740768
-6471.460160	4761.278000	1138.178711	-65.264435
-6471.460160	4761.278000	1137.045898	-55.288567
-6471.460160	4761.278000	1135.912109	-24.145926
-6471.460160	4761.278000	1134.777344	19.360683
-6471.460160	4761.278000	1133.643555	56.986385
-6471.460160	4761.278000	1132.508789	36.165146
-6471.460160	4761.278000	1131.374023	-17.707682
-6471.460160	4761.278000	1130.239258	9.404232
-6471.460160	4761.278000	1129.104492	44.663433
-6471.460160	4761.278000	1127.968750	92.976181
-6471.460160	4761.278000	1126.833008	129.643372
-6471.460160	4761.278000	1125.697266	38.785576
-6471.460160	4761.278000	1124.560547	69.912300
-6471.460160	4761.278000	1123.424805	6.791965
-6471.460160	4761.278000	1122.288086	30.080120
-6471.460160	4761.278000	1121.151367	19.439760
-6471.460160	4761.278000	1120.013672	-2.411605
-6471.460160	4761.278000	1118.876953	52.380669
-6471.460160	4761.278000	1117.739258	42.532154
-6471.460160	4761.278000	1116.601563	12.145567
-6471.460160	4761.278000	1115.462891	38.180828
-6471.460160	4761.278000	1114.324219	-42.064747
-6471.460160	4761.278000	1113.186523	10.290895
-6471.460160	4761.278000	1112.046875	-34.208138
-6471.460160	4761.278000	1110.908203	23.341732
-6471.460160	4761.278000	1109.769531	-148.658920
-6471.460160	4761.278000	1108.629883	-31.092476
-6471.460160	4761.278000	1107.490234	-53.646214
-6471.460160	4761.278000	1106.349609	-44.897118
-6471.460160	4761.278000	1105.209961	-54.889553
-6471.460160	4761.278000	1104.069336	52.463493
-6471.460160	4761.278000	1102.928711	-27.361143
-6471.460160	4761.278000	1101.787109	2.167434
-6471.460160	4761.278000	1100.646484	39.470242
-6471.460160	4761.278000	1099.504883	24.105204
-6471.460160	4761.278000	1098.363281	68.397804
-6471.460160	4761.278000	1097.221680	83.859741
-6471.460160	4761.278000	1096.079102	-22.158283
-6471.460160	4761.278000	1094.936523	-13.106399
-6471.460160	4761.278000	1093.793945	17.472895
-6471.460160	4761.278000	1092.651367	72.051010
-6471.460160	4761.278000	1091.507813	46.021351
-6471.460160	4761.278000	1090.364258	-5.999280
-6471.460160	4761.278000	1089.220703	97.675377
-6471.460160	4761.278000	1088.077148	43.284805
-6471.460160	4761.278000	1086.933594	26.982798
-6471.460160	4761.278000	1085.789063	14.324594
-6471.460160	4761.278000	1084.644531	-21.513397
-6471.460160	4761.278000	1083.499023	134.695923
-6471.460160	4761.278000	1082.354492	109.810081
-6471.460160	4761.278000	1081.208984	-11.956702
-6471.460160	4761.278000	1080.063477	28.356186
-6471.460160	4761.278000	1078.917969	23.251423
-6471.460160	4761.278000	1077.771484	50.181427
-6471.460160	4761.278000	1076.625977	52.974976
-6471.460160	4761.278000	1075.479492	122.492477
-6471.460160	4761.278000	1074.332031	151.130875
-6471.460160	4761.278000	1073.185547	79.103745
-6471.460160	4761.278000	1072.038086	77.186752
-6471.460160	4761.278000	1070.890625	59.437252
-6471.460160	4761.278000	1069.743164	61.382584
-6471.460160	4761.278000	1068.594727	153.446060
-6471.460160	4761.278000	1067.447266	132.912399
-6471.460160	4761.278000	1066.298828	122.477821
-6471.460160	4761.278000	1065.149414	160.830307
-6471.460160	4761.278000	1064.000977	117.106903
-6471.460160	4761.278000	1062.851563	89.717918
-6471.460160	4761.278000	1061.702148	209.984451
-6471.460160	4761.278000	1060.552734	169.071289
-6471.460160	4761.278000	1059.402344	137.910248
-6471.460160	4761.278000	1058.252930	77.045670
-6471.460160	4761.278000	1057.102539	42.174438
-6471.460160	4761.278000	1055.951172	-9.840674
-6471.460160	4761.278000	1054.800781	138.887238
-6471.460160	4761.278000	1053.649414	103.420998
-6471.460160	4761.278000	1052.498047	27.552683
-6471.460160	4761.278000	1051.346680	52.927334
-6471.460160	4761.278000	1050.194336	14.216461
-6471.460160	4761.278000	1049.042969	93.985519
-6471.460160	4761.278000	1047.890625	101.775513
-6471.460160	4761.278000	1046.738281	-14.001543
-6471.460160	4761.278000	1045.584961	-10.909021
-6471.460160	4761.278000	1044.431641	89.050552
-6471.460160	4761.278000	1043.278320	27.364492
-6471.460160	4761.278000	1042.125000	59.013538
-6471.460160	4761.278000	1040.971680	44.266018
-6471.460160	4761.278000	1039.817383	15.911556
-6471.460160	4761.278000	1038.663086	33.144684
-6471.460160	4761.278000	1037.508789	33.654636
-6471.460160	4761.278000	1036.353516	59.671692
-6471.460160	4761.278000	1035.198242	19.947048
-6471.460160	4761.278000	1034.042969	125.679703
-6471.460160	4761.278000	1032.887695	99.742233
-6471.460160	4761.278000	1031.732422	145.679092
-6471.460160	4761.278000	1030.576172	41.873878
-6471.460160	4761.278000	1029.419922	32.010662
-6471.460160	4761.278000	1028.263672	38.825073
-6471.460160	4761.278000	1027.106445	-16.183609
-6471.460160	4761.278000	1025.949219	62.367702
-6471.460160	4761.278000	1024.792969	36.916805
-6471.460160	4761.278000	1023.634766	60.916779
-6471.460160	4761.278000	1022.477539	-2.226513
-6471.460160	4761.278000	1021.319336	64.066971
-6471.460160	4761.278000	1020.161133	60.256527
-6471.460160	4761.278000	1019.002930	86.658585
-6471.460160	4761.278000	1017.843750	16.077812
-6471.460160	4761.278000	1016.684570	123.733765
-6471.460160	4761.278000	1015.525391	116.072281
-6471.460160	4761.278000	1014.366211	56.735241
-6471.460160	4761.278000	1013.207031	150.785904
-6471.460160	4761.278000	1012.046875	118.209335
-6471.460160	4761.278000	1010.886719	121.410919
-6471.460160	4761.278000	1009.726563	90.589897
-6471.460160	4761.278000	1008.565430	73.186646
-6471.460160	4761.278000	1007.404297	95.575310
-6471.460160	4761.278000	1006.243164	38.963200
-6471.460160	4761.278000	1005.082031	-4.452126
-6471.460160	4761.278000	1003.920898	6.134054
-6471.460160	4761.278000	1002.758789	15.742392
-6471.460160	4761.278000	1001.596680	-10.471430
-6471.460160	4761.278000	1000.433594	51.833790
-6471.460160	4761.278000	999.271484	56.171810
-6471.460160	4761.278000	998.108398	66.268440
-6471.460160	4761.278000	996.945313	-27.581200
-6471.460160	4761.278000	995.782227	87.962761
-6471.460160	4761.278000	994.618164	-17.117132
-6471.460160	4761.278000	993.454102	-84.137085
-6471.460160	4761.278000	992.290039	-14.660782
-6471.460160	4761.278000	991.125977	9.329651
-6471.460160	4761.278000	989.960938	-81.147148
-6471.460160	4761.278000	988.796875	-60.104412
-6471.460160	4761.278000	987.630859	54.537125
-6471.460160	4761.278000	986.465820	-9.186243
-6471.460160	4761.278000	985.300781	-75.636978
-6471.460160	4761.278000	984.134766	6.052416
-6471.460160	4761.278000	982.968750	-111.218636
-6471.460160	4761.278000	981.801758	-31.870724
-6471.460160	4761.278000	980.635742	-60.719269
-6471.460160	4761.278000	979.468750	86.104935
-6471.460160	4761.278000	978.301758	-152.520157
-6471.460160	4761.278000	977.133789	23.421139
-6471.460160	4761.278000	975.966797	16.399805
-6471.460160	4761.278000	974.798828	-20.643696
-6471.460160	4761.278000	973.630859	-33.635094
-6471.460160	4761.278000	972.461914	-30.897123
-6471.460160	4761.278000	971.293945	-27.204100
-6471.460160	4761.278000	970.125000	32.183460
-6471.460160	4761.278000	968.956055	77.713142
-6471.460160	4761.278000	967.786133	-27.405338
-6471.460160	4761.278000	966.617188	-24.021698
-6471.460160	4761.278000	965.447266	-38.593754
-6471.460160	4761.278000	964.276367	-62.283829
-6471.460160	4761.278000	963.106445	-57.946007
-6471.460160	4761.278000	961.935547	-15.136032
-6471.460160	4761.278000	960.764648	-28.123571
-6471.460160	4761.278000	959.593750	-0.971325
-6471.460160	4761.278000	958.422852	-67.157028
-6471.460160	4761.278000	957.250977	-16.463440
-6471.460160	4761.278000	956.079102	49.807076
-6471.460160	4761.278000	954.907227	34.726341
-6471.460160	4761.278000	953.734375	10.845573
-6471.460160	4761.278000	952.562500	-123.778839
-6471.460160	4761.278000	951.389648	-36.554760
-6471.460160	4761.278000	950.215820	59.466805
-6471.460160	4761.278000	949.042969	69.990479
-6471.460160	4761.278000	947.869141	40.024857
-6471.460160	4761.278000	946.695313	14.101354
-6471.460160	4761.278000	945.521484	-35.261925
-6471.460160	4761.278000	944.346680	-7.623901
-6471.460160	4761.278000	943.172852	-59.159809
-6471.460160	4761.278000	941.998047	-67.906738
-6471.460160	4761.278000	940.822266	-48.660316
-6471.460160	4761.278000	939.647461	-57.455853
-6471.460160	4761.278000	938.471680	51.218853
-6471.460160	4761.278000	937.295898	10.561981
-6471.460160	4761.278000	936.119141	-51.740543
-6471.460160	4761.278000	934.943359	-34.824848
-6471.460160	4761.278000	933.766602	39.729450
-6471.460160	4761.278000	932.589844	7.488224
-6471.460160	4761.278000	931.413086	88.442719
-6471.460160	4761.278000	930.235352	96.766151
-6471.460160	4761.278000	929.057617	32.451633
-6471.460160	4761.278000	927.879883	10.862499
-6471.460160	4761.278000	926.702148	-23.537350
-6471.460160	4761.278000	925.523438	85.092270
-6471.460160	4761.278000	924.344727	118.963005
-6471.460160	4761.278000	923.166016	93.076111
-6471.460160	4761.278000	921.987305	180.285629
-6471.460160	4761.278000	920.807617	98.926117
-6471.460160	4761.278000	919.627930	99.269775
-6471.460160	4761.278000	919.497070	122.144867
-6471.460160	4761.278000	918.331055	166.632706
-6471.460160	4761.278000	917.165039	68.254295
-6471.460160	4761.278000	915.999023	25.332912
-6471.460160	4761.278000	914.833008	-13.312318
-6471.460160	4761.278000	913.666016	14.106503
-6471.460160	4761.278000	912.499023	90.506859
-6471.460160	4761.278000	911.332031	17.783800
-6471.460160	4761.278000	910.165039	49.427345
-6471.460160	4761.278000	908.997070	51.249310
-6471.460160	4761.278000	907.830078	29.652521
-6471.460160	4761.278000	906.661133	82.545486
-6471.460160	4761.278000	905.493164	-41.183849
-6471.460160	4761.278000	904.325195	26.585152
-6471.460160	4761.278000	903.156250	28.392553
-6471.460160	4761.278000	901.987305	81.228615
-6471.460160	4761.278000	900.818359	-36.035301
-6471.460160	4761.278000	899.648438	-21.473398
-6471.460160	4761.278000	898.478516	-23.921095
-6471.460160	4761.278000	897.308594	-39.119335
-6471.460160	4761.278000	896.138672	134.739761
-6471.460160	4761.278000	894.968750	-20.659931
-6471.460160	4761.278000	893.797852	-10.378975
-6471.460160	4761.278000	892.626953	38.106846
-6471.460160	4761.278000	891.456055	116.284119
-6471.460160	4761.278000	890.284180	-38.997799
-6471.460160	4761.278000	889.113281	54.008244
-6471.460160	4761.278000	887.941406	49.399117
-6471.460160	4761.278000	886.768555	85.083282
-6471.460160	4761.278000	885.596680	-44.634720
-6471.460160	4761.278000	884.423828	120.360031
-6471.460160	4761.278000	883.250977	147.520218
-6471.460160	4761.278000	882.078125	185.261398
-6471.460160	4761.278000	880.905273	121.292557
-6471.460160	4761.278000	879.731445	218.325577
-6471.460160	4761.278000	878.557617	184.017731
-6471.460160	4761.278000	877.383789	151.838287
-6471.460160	4761.278000	876.209961	183.174210
-6471.460160	4761.278000	875.035156	277.986389
-6471.460160	4761.278000	873.860352	180.203079
-6471.460160	4761.278000	872.685547	145.922974
-6471.460160	4761.278000	871.510742	187.797653
-6471.460160	4761.278000	870.334961	170.441574
-6471.460160	4761.278000	869.159180	182.688782
-6471.460160	4761.278000	867.983398	25.822969
-6471.460160	4761.278000	866.807617	10.614904
-6471.460160	4761.278000	865.630859	31.329880
-6471.460160	4761.278000	864.454102	60.483601
-6471.460160	4761.278000	863.277344	72.725723
-6471.460160	4761.278000	862.100586	25.833603
-6471.460160	4761.278000	860.922852	19.070805
-6471.460160	4761.278000	859.745117	-46.794025
-6471.460160	4761.278000	858.567383	18.206390
-6471.460160	4761.278000	857.389648	-5.439176
-6471.460160	4761.278000	856.210938	86.943481
-6471.460160	4761.278000	855.032227	40.087852
-6471.460160	4761.278000	853.853516	-4.643030
-6471.460160	4761.278000	852.674805	-7.194976
-6471.460160	4761.278000	851.495117	7.113046
-6471.460160	4761.278000	850.315430	-10.197626
-6471.460160	4761.278000	849.135742	6.206006
-6471.460160	4761.278000	847.956055	-11.103804
-6471.460160	4761.278000	846.775391	51.619392
-6471.460160	4761.278000	845.595703	0.611664
-6471.460160	4761.278000	844.415039	-4.064753
-6471.460160	4761.278000	843.233398	-10.847134
-6471.460160	4761.278000	842.052734	-34.464241
-6471.460160	4761.278000	840.871094	0.833153
-6471.460160	4761.278000	839.689453	27.698730
-6471.460160	4761.278000	838.506836	48.241459
-6471.460160	4761.278000	837.325195	-9.022530
-6471.460160	4761.278000	836.142578	5.206262
-6471.460160	4761.278000	834.959961	34.137424
-6471.460160	4761.278000	833.777344	10.521916
-6471.460160	4761.278000	832.593750	154.978699
-6471.460160	4761.278000	831.410156	76.731033
-6471.460160	4761.278000	830.226563	36.311134
-6471.460160	4761.278000	829.042969	-1.995877
-6471.460160	4761.278000	827.858398	-8.804205
-6471.460160	4761.278000	826.673828	-30.303904
-6471.460160	4761.278000	825.489258	17.443232
-6471.460160	4761.278000	824.304688	58.873695
-6471.460160	4761.278000	823.120117	39.459862
-6471.460160	4761.278000	821.934570	-122.541145
-6471.460160	4761.278000	820.749023	-7.741011
-6471.460160	4761.278000	819.562500	119.584419
-6471.460160	4761.278000	818.376953	81.298264
-6471.460160	4761.278000	817.190430	34.643284
-6471.460160	4761.278000	816.003906	65.510254
-6471.460160	4761.278000	814.817383	-12.544965
-6471.460160	4761.278000	813.629883	-34.036758
-6471.460160	4761.278000	812.442383	65.897812
-6471.460160	4761.278000	811.254883	10.902272
-6471.460160	4761.278000	810.067383	-23.148672
-6471.460160	4761.278000	808.878906	32.773781
-6471.460160	4761.278000	807.690430	-45.202274
-6471.460160	4761.278000	806.501953	33.697533
-6471.460160	4761.278000	805.313477	-4.528548
-6471.460160	4761.278000	804.124023	45.055489
-6471.460160	4761.278000	802.934570	90.434677
-6471.460160	4761.278000	801.745117	-54.361237
-6471.460160	4761.278000	800.555664	153.964325
-6471.460160	4761.278000	799.365234	63.512890
-6471.460160	4761.278000	798.175781	261.277069
-6471.460160	4761.278000	796.985352	239.730682
-6471.460160	4761.278000	795.793945	251.587067
-6471.460160	4761.278000	794.603516	119.431877
-6471.460160	4761.278000	793.412109	175.116348
-6471.460160	4761.278000	792.220703	45.108204
-6471.460160	4761.278000	791.028320	67.404213
-6471.460160	4761.278000	789.836914	93.856407
-6471.460160	4761.278000	788.644531	47.323814
-6471.460160	4761.278000	787.452148	32.071541
-6471.460160	4761.278000	786.258789	-20.691284
-6471.460160	4761.278000	785.066406	84.910851
-6471.460160	4761.278000	783.873047	55.062862
-6471.460160	4761.278000	782.679688	106.445648
-6471.460160	4761.278000	781.485352	-54.585934
-6471.460160	4761.278000	780.291992	13.441801
-6471.460160	4761.278000	779.097656	48.133907
-6471.460160	4761.278000	777.903320	22.458881
-6471.460160	4761.278000	776.708008	48.801361
-6471.460160	4761.278000	775.512695	46.006077
-6471.460160	4761.278000	774.318359	-50.377148
-6471.460160	4761.278000	773.122070	-36.528790
-6471.460160	4761.278000	771.926758	-132.866638
-6471.460160	4761.278000	770.730469	-60.825020
-6471.460160	4761.278000	769.534180	-42.845066
-6471.460160	4761.278000	768.337891	-58.118240
-6471.460160	4761.278000	767.141602	17.998695
-6471.460160	4761.278000	765.944336	-109.430466
-6471.460160	4761.278000	764.747070	-62.413742
-6471.460160	4761.278000	763.549805	-121.285912
-6471.460160	4761.278000	762.351563	-36.943413
-6471.460160	4761.278000	761.154297	-89.585022
-6471.460160	4761.278000	759.956055	-44.711807
-6471.460160	4761.278000	758.757813	-70.380829
-6471.460160	4761.278000	757.558594	-71.162865
-6471.460160	4761.278000	756.359375	-59.512665
-6471.460160	4761.278000	755.160156	26.744261
-6471.460160	4761.278000	753.960938	54.934021
-6471.460160	4761.278000	752.761719	35.452057
-6471.460160	4761.278000	751.561523	24.256620
-6471.460160	4761.278000	750.361328	54.478920
-6471.460160	4761.278000	749.160156	132.304001
-6471.460160	4761.278000	747.959961	23.777588
-6471.460160	4761.278000	746.758789	107.771294
-6471.460160	4761.278000	745.557617	179.306732
-6471.460160	4761.278000	744.356445	130.812057
-6471.460160	4761.278000	743.154297	144.382187
-6471.460160	4761.278000	741.952148	166.210907
-6471.460160	4761.278000	740.750000	212.833267
-6471.460160	4761.278000	739.547852	238.757278
-6471.460160	4761.278000	738.344727	198.528534
-6471.460160	4761.278000	737.142578	205.832489
-6471.460160	4761.278000	735.939453	37.530682
-6471.460160	4761.278000	734.735352	59.306599
-6471.460160	4761.278000	733.532227	60.415829
-6471.460160	4761.278000	732.328125	14.032099
-6471.460160	4761.278000	731.124023	23.389978
-6471.460160	4761.278000	729.918945	-10.601698
-6471.460160	4761.278000	728.714844	-19.828413
-6471.460160	4761.278000	727.509766	100.896202
-6471.460160	4761.278000	726.303711	114.318413
-6471.460160	4761.278000	725.098633	59.682903
-6471.460160	4761.278000	723.892578	2.999733
-6471.460160	4761.278000	722.686523	-33.057751
-6471.460160	4761.278000	721.480469	-50.563095
-6471.460160	4761.278000	720.274414	113.228279
-6471.460160	4761.278000	719.067383	7.111125
-6471.460160	4761.278000	717.860352	43.124058
-6471.460160	4761.278000	716.653320	44.111256
-6471.460160	4761.278000	715.445313	67.731972
-6471.460160	4761.278000	714.238281	173.656052
-6471.460160	4761.278000	713.030273	-4.425373
-6471.460160	4761.278000	711.821289	45.906059
-6471.460160	4761.278000	710.613281	50.958687
-6471.460160	4761.278000	709.404297	53.943111
-6471.460160	4761.278000	708.195313	-43.822220
-6471.460160	4761.278000	706.986328	6.437548
-6471.460160	4761.278000	705.776367	157.362823
-6471.460160	4761.278000	704.566406	141.792328
-6471.460160	4761.278000	703.356445	113.893517
-6471.460160	4761.278000	702.146484	-74.194740
-6471.460160	4761.278000	700.935547	39.621788
-6471.460160	4761.278000	699.724609	139.010727
-6471.460160	4761.278000	698.513672	16.683723
-6471.460160	4761.278000	697.302734	62.663433
-6471.460160	4761.278000	696.090820	131.181030
-6471.460160	4761.278000	694.878906	6.851190
-6471.460160	4761.278000	693.666992	42.519848
-6471.460160	4761.278000	692.455078	-51.004936
-6471.460160	4761.278000	691.242188	-3.060616
-6471.460160	4761.278000	690.029297	24.359135
-6471.460160	4761.278000	688.816406	25.120014
-6471.460160	4761.278000	687.602539	-35.587143
-6471.460160	4761.278000	686.389648	28.657906
-6471.460160	4761.278000	685.175781	-40.235798
-6471.460160	4761.278000	683.960938	99.710464
-6471.460160	4761.278000	682.747070	38.997299
-6471.460160	4761.278000	681.532227	-5.329811
-6471.460160	4761.278000	680.317383	-4.637265
-6471.460160	4761.278000	679.102539	6.272433
-6471.460160	4761.278000	677.886719	-27.826185
-6471.460160	4761.278000	676.670898	28.045483
-6471.460160	4761.278000	675.455078	-87.834740
-6471.460160	4761.278000	674.239258	19.100771
-6471.460160	4761.278000	673.022461	-2.754097
-6471.460160	4761.278000	671.805664	36.678665
-6471.460160	4761.278000	670.588867	-119.999138
-6471.460160	4761.278000	669.372070	107.294289
-6471.460160	4761.278000	668.154297	-77.937576
-6471.460160	4761.278000	666.936523	110.445824
-6471.460160	4761.278000	665.718750	-25.750336
-6471.460160	4761.278000	664.500977	-39.476479
-6471.460160	4761.278000	663.282227	89.588730
-6471.460160	4761.278000	662.063477	4.438901
-6471.460160	4761.278000	660.844727	-13.395424
-6471.460160	4761.278000	659.625000	23.810389
-6471.460160	4761.278000	658.405273	54.875187
-6471.460160	4761.278000	657.185547	20.706947
-6471.460160	4761.278000	655.965820	100.635292
-6471.460160	4761.278000	654.745117	-59.840511
-6471.460160	4761.278000	653.525391	-51.227718
-6471.460160	4761.278000	652.303711	-38.558361
-6471.460160	4761.278000	651.083008	-40.153610
-6471.460160	4761.278000	649.861328	-76.357994
-6471.460160	4761.278000	648.640625	60.400658
-6471.460160	4761.278000	647.417969	56.718632
-6471.460160	4761.278000	646.196289	-5.955109
-6471.460160	4761.278000	644.973633	-52.345512
-6471.460160	4761.278000	643.750977	-58.065254
-6471.460160	4761.278000	642.528320	-69.890404
-6471.460160	4761.278000	641.305664	-26.850929
-6471.460160	4761.278000	640.082031	83.208138
-6471.460160	4761.278000	638.858398	20.545755
-6471.460160	4761.278000	637.634766	-80.687141
-6471.460160	4761.278000	636.410156	-43.814831
-6471.460160	4761.278000	635.185547	1.152373
-6471.460160	4761.278000	633.960938	-33.064751
-6471.460160	4761.278000	632.736328	-12.488828
-6471.460160	4761.278000	631.510742	4.010422
-6471.460160	4761.278000	630.285156	140.165161
-6471.460160	4761.278000	629.059570	128.215485
-6471.460160	4761.278000	627.833984	110.179031
-6471.460160	4761.278000	626.607422	2.949999
-6471.460160	4761.278000	625.380859	126.791595
-6471.460160	4761.278000	624.154297	139.131165
-6471.460160	4761.278000	622.927734	64.348946
-6471.460160	4761.278000	621.700195	48.323215
-6471.460160	4761.278000	620.472656	70.768410
-6471.460160	4761.278000	619.245117	20.314268
-6471.460160	4761.278000	618.016602	16.425268
-6471.460160	4761.278000	616.788086	192.630554
-6471.460160	4761.278000	615.559570	47.066719
-6471.460160	4761.278000	614.331055	91.695061
-6471.460160	4761.278000	613.101563	97.871399
-6471.460160	4761.278000	611.872070	83.817787
-6471.460160	4761.278000	610.642578	116.256035
-6471.460160	4761.278000	609.413086	57.726307
-6471.460160	4761.278000	608.182617	-47.261288
-6471.460160	4761.278000	606.952148	33.644241
-6471.460160	4761.278000	605.721680	-38.992756
-6471.460160	4761.278000	604.491211	58.016586
-6471.460160	4761.278000	603.259766	19.710920
-6471.460160	4761.278000	602.028320	25.820671
-6471.460160	4761.278000	600.796875	78.335495
-6471.460160	4761.278000	599.564453	114.679535
-6471.460160	4761.278000	598.332031	96.538078
-6471.460160	4761.278000	597.099609	221.586334
-6471.460160	4761.278000	595.867188	112.683090
-6471.460160	4761.278000	594.633789	130.819397
-6471.460160	4761.278000	593.400391	175.143219
-6471.460160	4761.278000	592.166992	3.834636
-6471.460160	4761.278000	590.933594	66.286659
-6471.460160	4761.278000	589.699219	144.818680
-6471.460160	4761.278000	588.464844	-10.281424
-6471.460160	4761.278000	587.230469	68.223099
-6471.460160	4761.278000	585.995117	62.147259
-6471.460160	4761.278000	584.760742	72.169930
-6471.460160	4761.278000	583.525391	98.279106
-6471.460160	4761.278000	582.289063	170.638046
-6471.460160	4761.278000	581.053711	92.126083
-6471.460160	4761.278000	579.817383	208.683365
-6471.460160	4761.278000	578.581055	266.888580
-6471.460160	4761.278000	577.343750	252.708557
-6471.460160	4761.278000	576.107422	351.061523
-6471.460160	4761.278000	574.870117	272.574341
-6471.460160	4761.278000	573.631836	254.374161
-6471.460160	4761.278000	572.394531	145.812775
-6471.460160	4761.278000	571.156250	232.044189
-6471.460160	4761.278000	569.917969	123.527946
-6471.460160	4761.278000	568.679688	-0.999151
-6471.460160	4761.278000	567.440430	31.026428
-6471.460160	4761.278000	566.202148	171.363007
-6471.460160	4761.278000	564.961914	80.992767
-6471.460160	4761.278000	563.722656	76.882919
-6471.460160	4761.278000	562.482422	146.947693
-6471.460160	4761.278000	561.243164	120.776222
-6471.460160	4761.278000	560.001953	102.628296
-6471.460160	4761.278000	558.761719	14.368083
-6471.460160	4761.278000	557.520508	110.422279
-6471.460160	4761.278000	556.279297	8.178449
-6471.460160	4761.278000	555.038086	74.160500
-6471.460160	4761.278000	553.795898	48.033779
-6471.460160	4761.278000	552.554688	109.977272
-6471.460160	4761.278000	551.311523	31.831581
-6471.460160	4761.278000	550.069336	-30.275198
-6471.460160	4761.278000	548.826172	7.646125
-6471.460160	4761.278000	547.583984	-74.421776
-6471.460160	4761.278000	546.339844	-22.511068
-6471.460160	4761.278000	545.096680	9.393025
-6471.460160	4761.278000	543.852539	-30.654610
-6471.460160	4761.278000	542.608398	103.133240
-6471.460160	4761.278000	541.364258	-72.739304
-6471.460160	4761.278000	540.119141	92.956848
-6471.460160	4761.278000	538.875000	26.980703
-6471.460160	4761.278000	537.628906	38.884361
-6471.460160	4761.278000	536.383789	76.732101
-6471.460160	4761.278000	535.137695	76.655251
-6471.460160	4761.278000	533.892578	120.471123
-6471.460160	4761.278000	532.645508	26.652027
-6471.460160	4761.278000	531.399414	42.550270
-6471.460160	4761.278000	530.152344	48.477139
-6471.460160	4761.278000	528.905273	-105.048042
-6471.460160	4761.278000	527.658203	-17.379816
-6471.460160	4761.278000	526.410156	-3.460948
-6471.460160	4761.278000	525.163086	56.271648
-6471.460160	4761.278000	523.914063	-3.506289
-6471.460160	4761.278000	522.666016	100.013496
-6471.460160	4761.278000	521.416992	-17.464621
-6471.460160	4761.278000	520.167969	68.112823
-6471.460160	4761.278000	518.918945	135.751587
-6471.460160	4761.278000	517.669922	183.474304
-6471.460160	4761.278000	516.419922	93.947334
-6471.460160	4761.278000	515.169922	38.269749
-6471.460160	4761.278000	513.919922	62.144554
-6471.460160	4761.278000	512.668945	20.423435
-6471.460160	4761.278000	511.417969	60.202240
-6471.460160	4761.278000	510.166992	92.023811
-6471.460160	4761.278000	508.916016	-35.068283
-6471.460160	4761.278000	507.664063	12.660924
-6471.460160	4761.278000	506.412109	34.565781
-6471.460160	4761.278000	505.160156	-98.366081
-6471.460160	4761.278000	503.907227	-70.478798
-6471.460160	4761.278000	502.655273	-84.263321
-6471.460160	4761.278000	501.402344	1.153773
-6471.460160	4761.278000	500.148438	5.223709
-6471.460160	4761.278000	498.895508	-2.597013
-6471.460160	4761.278000	497.641602	17.347496
-6471.460160	4761.278000	496.387695	-71.722824
-6471.460160	4761.278000	495.132813	-8.160924
-6471.460160	4761.278000	493.878906	-21.885159
-6471.460160	4761.278000	492.624023	172.386581
-6471.460160	4761.278000	491.368164	-21.570063
-6471.460160	4761.278000	490.113281	22.158243
-6471.460160	4761.278000	488.857422	42.120468
-6471.460160	4761.278000	487.601563	91.768112
-6471.460160	4761.278000	486.344727	72.148087
-6471.460160	4761.278000	485.088867	32.762249
-6471.460160	4761.278000	483.832031	-99.556747
-6471.460160	4761.278000	482.575195	94.456482
-6471.460160	4761.278000	481.317383	27.434250
-6471.460160	4761.278000	480.059570	-3.974565
-6471.460160	4761.278000	478.801758	-1.769165
-6471.460160	4761.278000	477.543945	73.541954
-6471.460160	4761.278000	476.285156	22.409910
-6471.460160	4761.278000	475.027344	52.275066
-6471.460160	4761.278000	473.767578	11.053209
-6471.460160	4761.278000	472.508789	15.256981
-6471.460160	4761.278000	471.249023	13.542939
-6471.460160	4761.278000	469.989258	78.920853
-6471.460160	4761.278000	468.729492	118.630119
-6471.460160	4761.278000	467.469727	144.520981
-6471.460160	4761.278000	466.208984	142.797852
-6471.460160	4761.278000	464.948242	223.878830
-6471.460160	4761.278000	463.686523	247.768341
-6471.460160	4761.278000	462.425781	226.328049
-6471.460160	4761.278000	461.164063	124.122871
-6471.460160	4761.278000	459.901367	183.479431
-6471.460160	4761.278000	458.639648	14.374818
-6471.460160	4761.278000	457.376953	14.665343
-6471.460160	4761.278000	456.114258	117.314812
-6471.460160	4761.278000	454.851563	7.374119
-6471.460160	4761.278000	453.587891	62.756176
-6471.460160	4761.278000	452.324219	17.787485
-6471.460160	4761.278000	451.060547	-3.563662
-6471.460160	4761.278000	449.796875	-54.403225
-6471.460160	4761.278000	448.532227	-172.065994
-6471.460160	4761.278000	447.267578	20.860365
-6471.460160	4761.278000	446.002930	-8.351316
-6471.460160	4761.278000	444.737305	-13.982469
-6471.460160	4761.278000	443.471680	-1.940937
-6471.460160	4761.278000	442.206055	-13.478150
-6471.460160	4761.278000	440.940430	79.037239
-6471.460160	4761.278000	439.673828	136.168839
-6471.460160	4761.278000	438.407227	108.877319
-6471.460160	4761.278000	437.140625	189.498505
-6471.460160	4761.278000	435.873047	287.725250
-6471.460160	4761.278000	434.605469	228.997131
-6471.460160	4761.278000	433.337891	185.964783
-6471.460160	4761.278000	432.070313	235.071030
-6471.460160	4761.278000	430.801758	121.461159
-6471.460160	4761.278000	429.533203	82.341927
-6471.460160	4761.278000	428.264648	35.381863
-6471.460160	4761.278000	426.996094	-58.588688
-6471.460160	4761.278000	425.726563	-21.341961
-6471.460160	4761.278000	424.457031	-46.787514
-6471.460160	4761.278000	423.186523	-168.162796
-6471.460160	4761.278000	421.916992	54.912621
-6471.460160	4761.278000	420.646484	-3.883323
-6471.460160	4761.278000	419.375977	142.706177
-6471.460160	4761.278000	418.104492	140.563461
-6471.460160	4761.278000	416.833008	103.189911
-6471.460160	4761.278000	415.561523	85.342873
-6471.460160	4761.278000	414.290039	-38.076324
-6471.460160	4761.278000	413.017578	149.200546
-6471.460160	4761.278000	411.746094	133.180634
-6471.460160	4761.278000	410.472656	154.227859
-6471.460160	4761.278000	409.200195	-23.960190
-6471.460160	4761.278000	407.926758	4.820307
-6471.460160	4761.278000	406.653320	55.005287
-6471.460160	4761.278000	405.379883	124.626251
-6471.460160	4761.278000	404.105469	100.507088
-6471.460160	4761.278000	402.831055	8.065087
-6471.460160	4761.278000	401.556641	73.564209
-6471.460160	4761.278000	400.282227	64.876732
-6471.460160	4761.278000	399.006836	67.817261
-6471.460160	4761.278000	397.731445	144.742432
-6471.460160	4761.278000	396.456055	96.854874
-6471.460160	4761.278000	395.179688	68.387962
-6471.460160	4761.278000	393.903320	102.175797
-6471.460160	4761.278000	392.626953	161.177353
-6471.460160	4761.278000	391.350586	175.288284
-6471.460160	4761.278000	390.073242	345.008698
-6471.460160	4761.278000	388.795898	242.126221
-6471.460160	4761.278000	387.518555	388.216919
-6471.460160	4761.278000	386.240234	364.914459
-6471.460160	4761.278000	384.961914	473.753693
-6471.460160	4761.278000	383.683594	456.057739
-6471.460160	4761.278000	382.405273	619.031921
-6471.460160	4761.278000	381.125977	669.095276
-6471.460160	4761.278000	379.846680	730.671753
-6471.460160	4761.278000	378.567383	615.320007
-6471.460160	4761.278000	377.287109	612.528503
-6471.460160	4761.278000	376.006836	568.825439
-6471.460160	4761.278000	374.726563	449.289551
-6471.460160	4761.278000	373.446289	428.644989
-6471.460160	4761.278000	372.165039	330.237305
-6471.460160	4761.278000	370.883789	284.097626
-6471.460160	4761.278000	369.602539	187.387466
-6471.460160	4761.278000	368.320313	117.698807
-6471.460160	4761.278000	367.039063	119.607430
-6471.460160	4761.278000	365.755859	125.207268
-6471.460160	4761.278000	364.473633	55.047691
-6471.460160	4761.278000	363.190430	48.663918
-6471.460160	4761.278000	361.907227	24.655409
-6471.460160	4761.278000	360.624023	35.317379
-6471.460160	4761.278000	359.340820	45.769131
-6471.460160	4761.278000	358.056641	34.705418
-6471.460160	4761.278000	356.772461	-53.987854
-6471.460160	4761.278000	355.487305	-5.489595
-6471.460160	4761.278000	354.202148	-92.662895
-6471.460160	4761.278000	352.916992	-63.989246
-6471.460160	4761.278000	351.631836	12.768960
-6471.460160	4761.278000	350.346680	4.176574
-6471.460160	4761.278000	349.060547	-39.469421
-6471.460160	4761.278000	347.774414	-0.269023
-6471.460160	4761.278000	346.487305	108.185593
-6471.460160	4761.278000	345.200195	42.465641
-6471.460160	4761.278000	343.913086	32.487732
-6471.460160	4761.278000	342.625977	109.099464
-6471.460160	4761.278000	341.338867	67.619972
-6471.460160	4761.278000	340.050781	29.695372
-6471.460160	4761.278000	338.762695	109.162262
-6471.460160	4761.278000	337.473633	211.401764
-6471.460160	4761.278000	336.184570	292.039429
-6471.460160	4761.278000	334.895508	202.605850
-6471.460160	4761.278000	333.606445	286.353485
-6471.460160	4761.278000	332.317383	263.688049
-6471.460160	4761.278000	331.027344	109.609558
-6471.460160	4761.278000	329.736328	163.265167
-6471.460160	4761.278000	328.446289	99.013290
-6471.460160	4761.278000	327.155273	18.962841
-6471.460160	4761.278000	325.864258	2.060556
-6471.460160	4761.278000	324.573242	17.456392
-6471.460160	4761.278000	323.281250	-36.888676
-6471.460160	4761.278000	321.989258	-58.956326
-6471.460160	4761.278000	320.697266	30.089062
-6471.460160	4761.278000	319.405273	-0.619026
-6471.460160	4761.278000	318.112305	-35.661201
-6471.460160	4761.278000	316.819336	-76.956879
-6471.460160	4761.278000	315.526367	-80.309517
-6471.460160	4761.278000	314.232422	-15.027166
-6471.460160	4761.278000	312.938477	-19.471939
-6471.460160	4761.278000	311.644531	58.121582
-6471.460160	4761.278000	310.349609	-97.249725
-6471.460160	4761.278000	309.054688	-45.792007
-6471.460160	4761.278000	307.759766	-29.499615
-6471.460160	4761.278000	306.464844	41.828899
-6471.460160	4761.278000	305.168945	24.233517
-6471.460160	4761.278000	303.873047	30.944593
-6471.460160	4761.278000	302.577148	115.627884
-6471.460160	4761.278000	301.281250	159.344147
-6471.460160	4761.278000	299.984375	123.747742
