#X		#Y		#Wave		#Intensity
-7408.057872	4240.613000	1999.946289	102.733925
-7408.057872	4240.613000	1998.981445	51.892712
-7408.057872	4240.613000	1998.017578	66.354202
-7408.057872	4240.613000	1997.052734	-18.302595
-7408.057872	4240.613000	1996.088867	-60.792496
-7408.057872	4240.613000	1995.124023	-61.142876
-7408.057872	4240.613000	1994.159180	-26.806128
-7408.057872	4240.613000	1993.193359	-9.805420
-7408.057872	4240.613000	1992.228516	-29.935745
-7408.057872	4240.613000	1991.262695	48.965080
-7408.057872	4240.613000	1990.296875	164.970978
-7408.057872	4240.613000	1989.331055	-75.374580
-7408.057872	4240.613000	1988.365234	70.318512
-7408.057872	4240.613000	1987.398438	10.663899
-7408.057872	4240.613000	1986.432617	-19.282963
-7408.057872	4240.613000	1985.465820	-101.136108
-7408.057872	4240.613000	1984.499023	54.374611
-7408.057872	4240.613000	1983.532227	73.892281
-7408.057872	4240.613000	1982.565430	1.974028
-7408.057872	4240.613000	1981.597656	14.092915
-7408.057872	4240.613000	1980.629883	-50.365688
-7408.057872	4240.613000	1979.662109	-23.411051
-7408.057872	4240.613000	1978.694336	82.557915
-7408.057872	4240.613000	1977.726563	89.736061
-7408.057872	4240.613000	1976.758789	-33.915184
-7408.057872	4240.613000	1975.790039	-21.776228
-7408.057872	4240.613000	1974.821289	79.192574
-7408.057872	4240.613000	1973.852539	-103.590294
-7408.057872	4240.613000	1972.883789	-98.838188
-7408.057872	4240.613000	1971.915039	88.411324
-7408.057872	4240.613000	1970.945313	70.935081
-7408.057872	4240.613000	1969.975586	55.931896
-7408.057872	4240.613000	1969.005859	45.864216
-7408.057872	4240.613000	1968.036133	-112.061386
-7408.057872	4240.613000	1967.066406	-85.136375
-7408.057872	4240.613000	1966.096680	-77.930519
-7408.057872	4240.613000	1965.125977	-11.619123
-7408.057872	4240.613000	1964.155273	37.428284
-7408.057872	4240.613000	1963.184570	10.131182
-7408.057872	4240.613000	1962.213867	-46.698360
-7408.057872	4240.613000	1961.242188	-133.044235
-7408.057872	4240.613000	1960.271484	-64.338387
-7408.057872	4240.613000	1959.299805	-10.424145
-7408.057872	4240.613000	1958.328125	92.661018
-7408.057872	4240.613000	1957.356445	-121.550117
-7408.057872	4240.613000	1956.384766	-153.730820
-7408.057872	4240.613000	1955.412109	64.850830
-7408.057872	4240.613000	1954.439453	-18.983234
-7408.057872	4240.613000	1953.467773	152.787170
-7408.057872	4240.613000	1952.495117	137.751312
-7408.057872	4240.613000	1951.521484	85.863838
-7408.057872	4240.613000	1950.548828	-17.590286
-7408.057872	4240.613000	1949.575195	-91.547234
-7408.057872	4240.613000	1948.601563	156.146027
-7408.057872	4240.613000	1947.627930	33.071148
-7408.057872	4240.613000	1946.654297	45.018749
-7408.057872	4240.613000	1945.680664	243.442535
-7408.057872	4240.613000	1944.706055	125.296082
-7408.057872	4240.613000	1943.732422	102.846901
-7408.057872	4240.613000	1942.757813	102.467308
-7408.057872	4240.613000	1941.783203	156.019424
-7408.057872	4240.613000	1940.807617	140.895218
-7408.057872	4240.613000	1939.833008	44.878941
-7408.057872	4240.613000	1938.857422	-19.256781
-7408.057872	4240.613000	1937.881836	80.780876
-7408.057872	4240.613000	1936.906250	-32.359032
-7408.057872	4240.613000	1935.930664	-128.325302
-7408.057872	4240.613000	1934.955078	-72.443459
-7408.057872	4240.613000	1933.978516	15.231142
-7408.057872	4240.613000	1933.001953	217.908401
-7408.057872	4240.613000	1932.025391	-24.939377
-7408.057872	4240.613000	1931.048828	-3.437514
-7408.057872	4240.613000	1930.072266	-1.532640
-7408.057872	4240.613000	1929.094727	39.492313
-7408.057872	4240.613000	1928.118164	68.257881
-7408.057872	4240.613000	1927.140625	180.130142
-7408.057872	4240.613000	1926.163086	-42.981644
-7408.057872	4240.613000	1925.184570	7.727417
-7408.057872	4240.613000	1924.207031	185.478577
-7408.057872	4240.613000	1923.228516	87.045052
-7408.057872	4240.613000	1922.250000	-65.112083
-7408.057872	4240.613000	1921.271484	58.761738
-7408.057872	4240.613000	1920.292969	43.378139
-7408.057872	4240.613000	1919.314453	206.212418
-7408.057872	4240.613000	1918.334961	78.477577
-7408.057872	4240.613000	1917.355469	65.478546
-7408.057872	4240.613000	1916.375977	-10.980266
-7408.057872	4240.613000	1915.396484	39.433865
-7408.057872	4240.613000	1914.416992	70.293900
-7408.057872	4240.613000	1913.436523	132.823517
-7408.057872	4240.613000	1912.457031	141.666336
-7408.057872	4240.613000	1911.476563	177.300247
-7408.057872	4240.613000	1910.496094	-125.904266
-7408.057872	4240.613000	1909.515625	85.182449
-7408.057872	4240.613000	1908.534180	203.578903
-7408.057872	4240.613000	1907.552734	-106.837494
-7408.057872	4240.613000	1906.572266	99.186768
-7408.057872	4240.613000	1905.590820	-118.605042
-7408.057872	4240.613000	1904.608398	201.724258
-7408.057872	4240.613000	1903.626953	71.579468
-7408.057872	4240.613000	1902.644531	165.363876
-7408.057872	4240.613000	1901.663086	178.791931
-7408.057872	4240.613000	1900.680664	-63.264397
-7408.057872	4240.613000	1899.698242	-40.120831
-7408.057872	4240.613000	1898.714844	143.496811
-7408.057872	4240.613000	1897.732422	227.329544
-7408.057872	4240.613000	1896.749023	2.360477
-7408.057872	4240.613000	1895.765625	207.664642
-7408.057872	4240.613000	1894.782227	38.624638
-7408.057872	4240.613000	1893.798828	-130.378860
-7408.057872	4240.613000	1892.814453	-85.575729
-7408.057872	4240.613000	1891.831055	-45.670898
-7408.057872	4240.613000	1890.846680	62.183701
-7408.057872	4240.613000	1889.862305	111.700951
-7408.057872	4240.613000	1888.877930	73.785950
-7408.057872	4240.613000	1887.892578	276.124756
-7408.057872	4240.613000	1886.908203	102.252892
-7408.057872	4240.613000	1885.922852	64.275070
-7408.057872	4240.613000	1884.937500	-27.079082
-7408.057872	4240.613000	1883.952148	-74.775551
-7408.057872	4240.613000	1882.965820	-86.113754
-7408.057872	4240.613000	1881.980469	21.313250
-7408.057872	4240.613000	1880.994141	131.092316
-7408.057872	4240.613000	1880.007813	124.482513
-7408.057872	4240.613000	1879.021484	64.541321
-7408.057872	4240.613000	1878.035156	55.464905
-7408.057872	4240.613000	1877.047852	-96.535553
-7408.057872	4240.613000	1876.061523	73.554649
-7408.057872	4240.613000	1875.074219	-37.294147
-7408.057872	4240.613000	1874.086914	45.517166
-7408.057872	4240.613000	1873.098633	-53.245632
-7408.057872	4240.613000	1872.111328	14.958773
-7408.057872	4240.613000	1871.123047	126.652267
-7408.057872	4240.613000	1870.135742	27.841129
-7408.057872	4240.613000	1869.147461	-8.089580
-7408.057872	4240.613000	1868.158203	84.108002
-7408.057872	4240.613000	1867.169922	-67.918053
-7408.057872	4240.613000	1866.180664	41.112656
-7408.057872	4240.613000	1865.192383	46.164726
-7408.057872	4240.613000	1864.203125	46.347557
-7408.057872	4240.613000	1863.213867	-40.462044
-7408.057872	4240.613000	1862.223633	-23.421423
-7408.057872	4240.613000	1861.234375	-259.960266
-7408.057872	4240.613000	1860.244141	-16.007486
-7408.057872	4240.613000	1859.253906	97.476952
-7408.057872	4240.613000	1858.263672	27.472481
-7408.057872	4240.613000	1857.273438	131.190964
-7408.057872	4240.613000	1856.282227	135.925079
-7408.057872	4240.613000	1855.291992	130.981857
-7408.057872	4240.613000	1854.300781	82.596123
-7408.057872	4240.613000	1853.309570	-206.910645
-7408.057872	4240.613000	1852.317383	275.057861
-7408.057872	4240.613000	1851.326172	122.939735
-7408.057872	4240.613000	1850.333984	-144.823349
-7408.057872	4240.613000	1849.342773	78.976372
-7408.057872	4240.613000	1848.350586	295.430817
-7408.057872	4240.613000	1847.357422	-92.733536
-7408.057872	4240.613000	1846.365234	138.054550
-7408.057872	4240.613000	1845.372070	48.527451
-7408.057872	4240.613000	1844.379883	235.811249
-7408.057872	4240.613000	1843.386719	25.906734
-7408.057872	4240.613000	1842.393555	-10.711881
-7408.057872	4240.613000	1841.399414	101.797501
-7408.057872	4240.613000	1840.406250	139.675461
-7408.057872	4240.613000	1839.412109	50.050533
-7408.057872	4240.613000	1838.417969	44.577690
-7408.057872	4240.613000	1837.423828	79.939575
-7408.057872	4240.613000	1836.429688	158.517075
-7408.057872	4240.613000	1835.434570	164.940216
-7408.057872	4240.613000	1834.440430	51.207783
-7408.057872	4240.613000	1833.445313	-36.095016
-7408.057872	4240.613000	1832.450195	-5.720212
-7408.057872	4240.613000	1831.454102	221.499222
-7408.057872	4240.613000	1830.458984	122.112144
-7408.057872	4240.613000	1829.462891	140.338287
-7408.057872	4240.613000	1828.466797	199.321274
-7408.057872	4240.613000	1827.470703	145.481064
-7408.057872	4240.613000	1826.474609	204.375336
-7408.057872	4240.613000	1825.478516	68.944603
-7408.057872	4240.613000	1824.481445	-4.124771
-7408.057872	4240.613000	1823.484375	13.906701
-7408.057872	4240.613000	1822.487305	-42.409153
-7408.057872	4240.613000	1821.490234	-29.235340
-7408.057872	4240.613000	1820.493164	82.145020
-7408.057872	4240.613000	1819.495117	66.474815
-7408.057872	4240.613000	1818.498047	91.501884
-7408.057872	4240.613000	1817.500000	-67.916016
-7408.057872	4240.613000	1816.500977	-14.212474
-7408.057872	4240.613000	1815.502930	92.108574
-7408.057872	4240.613000	1814.504883	138.522415
-7408.057872	4240.613000	1813.505859	89.162399
-7408.057872	4240.613000	1812.506836	101.995911
-7408.057872	4240.613000	1811.507813	-184.216202
-7408.057872	4240.613000	1810.508789	-123.565613
-7408.057872	4240.613000	1809.508789	35.064331
-7408.057872	4240.613000	1808.508789	2.346220
-7408.057872	4240.613000	1807.508789	50.877827
-7408.057872	4240.613000	1806.508789	-12.960834
-7408.057872	4240.613000	1805.508789	64.167274
-7408.057872	4240.613000	1804.508789	-40.322662
-7408.057872	4240.613000	1803.507813	70.153633
-7408.057872	4240.613000	1802.506836	-12.871685
-7408.057872	4240.613000	1801.505859	-7.555712
-7408.057872	4240.613000	1800.504883	50.245258
-7408.057872	4240.613000	1799.502930	-4.184384
-7408.057872	4240.613000	1798.501953	-120.660072
-7408.057872	4240.613000	1797.500000	65.866302
-7408.057872	4240.613000	1796.498047	156.879211
-7408.057872	4240.613000	1795.496094	-55.048916
-7408.057872	4240.613000	1794.493164	-61.871117
-7408.057872	4240.613000	1793.491211	-61.563675
-7408.057872	4240.613000	1792.488281	200.894913
-7408.057872	4240.613000	1791.485352	-41.981464
-7408.057872	4240.613000	1790.482422	15.412856
-7408.057872	4240.613000	1789.478516	72.751686
-7408.057872	4240.613000	1788.475586	-31.909752
-7408.057872	4240.613000	1787.471680	13.453711
-7408.057872	4240.613000	1786.467773	-74.552078
-7408.057872	4240.613000	1785.463867	-84.002129
-7408.057872	4240.613000	1784.459961	-29.218502
-7408.057872	4240.613000	1783.455078	6.476377
-7408.057872	4240.613000	1782.450195	-41.135746
-7408.057872	4240.613000	1781.445313	32.549824
-7408.057872	4240.613000	1780.440430	6.299888
-7408.057872	4240.613000	1779.435547	70.384186
-7408.057872	4240.613000	1778.429688	132.033905
-7408.057872	4240.613000	1777.424805	-32.149250
-7408.057872	4240.613000	1776.418945	-77.488281
-7408.057872	4240.613000	1775.413086	12.585847
-7408.057872	4240.613000	1774.406250	-70.808052
-7408.057872	4240.613000	1773.400391	-113.816147
-7408.057872	4240.613000	1772.393555	78.233513
-7408.057872	4240.613000	1771.386719	-121.528397
-7408.057872	4240.613000	1770.379883	91.761612
-7408.057872	4240.613000	1769.373047	-126.961639
-7408.057872	4240.613000	1768.365234	-15.831424
-7408.057872	4240.613000	1767.358398	81.005402
-7408.057872	4240.613000	1766.350586	14.122888
-7408.057872	4240.613000	1765.342773	89.520981
-7408.057872	4240.613000	1764.334961	-1.094028
-7408.057872	4240.613000	1763.326172	52.891586
-7408.057872	4240.613000	1762.318359	180.308716
-7408.057872	4240.613000	1761.309570	-147.300018
-7408.057872	4240.613000	1760.300781	148.258774
-7408.057872	4240.613000	1759.291016	114.438614
-7408.057872	4240.613000	1758.282227	80.615479
-7408.057872	4240.613000	1757.272461	-109.492401
-7408.057872	4240.613000	1756.262695	12.929584
-7408.057872	4240.613000	1755.252930	47.710793
-7408.057872	4240.613000	1754.243164	-121.049873
-7408.057872	4240.613000	1753.233398	-20.053322
-7408.057872	4240.613000	1752.222656	175.496597
-7408.057872	4240.613000	1751.211914	-45.290478
-7408.057872	4240.613000	1750.201172	-95.764877
-7408.057872	4240.613000	1749.190430	85.441841
-7408.057872	4240.613000	1748.179688	77.467644
-7408.057872	4240.613000	1747.167969	-74.685318
-7408.057872	4240.613000	1746.156250	49.643448
-7408.057872	4240.613000	1745.144531	34.529411
-7408.057872	4240.613000	1744.132813	-67.986130
-7408.057872	4240.613000	1743.121094	-40.604050
-7408.057872	4240.613000	1742.108398	-117.137711
-7408.057872	4240.613000	1741.095703	-40.228298
-7408.057872	4240.613000	1740.083008	81.476051
-7408.057872	4240.613000	1739.070313	174.800827
-7408.057872	4240.613000	1738.057617	204.376190
-7408.057872	4240.613000	1737.043945	-13.746997
-7408.057872	4240.613000	1736.030273	-102.100471
-7408.057872	4240.613000	1735.016602	-30.103851
-7408.057872	4240.613000	1734.002930	98.424805
-7408.057872	4240.613000	1732.989258	-8.801315
-7408.057872	4240.613000	1731.974609	107.854515
-7408.057872	4240.613000	1730.959961	257.434875
-7408.057872	4240.613000	1729.945313	60.677353
-7408.057872	4240.613000	1728.930664	-72.432373
-7408.057872	4240.613000	1727.916016	-132.510208
-7408.057872	4240.613000	1726.900391	-86.646057
-7408.057872	4240.613000	1725.885742	81.587868
-7408.057872	4240.613000	1724.870117	80.300529
-7408.057872	4240.613000	1723.853516	118.992210
-7408.057872	4240.613000	1722.837891	-70.519608
-7408.057872	4240.613000	1721.822266	236.290390
-7408.057872	4240.613000	1720.805664	117.342064
-7408.057872	4240.613000	1719.789063	285.257202
-7408.057872	4240.613000	1718.772461	131.063446
-7408.057872	4240.613000	1717.754883	235.427719
-7408.057872	4240.613000	1716.738281	-3.308993
-7408.057872	4240.613000	1715.720703	18.796143
-7408.057872	4240.613000	1714.703125	134.835663
-7408.057872	4240.613000	1713.685547	140.446640
-7408.057872	4240.613000	1712.667969	-1.870643
-7408.057872	4240.613000	1711.649414	196.231354
-7408.057872	4240.613000	1710.630859	14.033693
-7408.057872	4240.613000	1709.612305	52.473213
-7408.057872	4240.613000	1708.593750	51.006306
-7408.057872	4240.613000	1707.575195	-170.959473
-7408.057872	4240.613000	1706.555664	-73.906723
-7408.057872	4240.613000	1705.536133	84.065788
-7408.057872	4240.613000	1704.516602	42.704475
-7408.057872	4240.613000	1703.497070	10.728416
-7408.057872	4240.613000	1702.477539	-61.080799
-7408.057872	4240.613000	1701.457031	85.021774
-7408.057872	4240.613000	1700.437500	163.135132
-7408.057872	4240.613000	1699.416992	-145.232605
-7408.057872	4240.613000	1698.395508	75.710869
-7408.057872	4240.613000	1697.375000	-17.144398
-7408.057872	4240.613000	1696.354492	49.199459
-7408.057872	4240.613000	1695.333008	-6.185469
-7408.057872	4240.613000	1694.311523	142.010269
-7408.057872	4240.613000	1693.290039	11.762577
-7408.057872	4240.613000	1692.267578	237.069351
-7408.057872	4240.613000	1691.246094	36.693665
-7408.057872	4240.613000	1690.223633	37.455147
-7408.057872	4240.613000	1689.201172	14.839026
-7408.057872	4240.613000	1688.178711	-3.095761
-7408.057872	4240.613000	1687.155273	133.187729
-7408.057872	4240.613000	1686.132813	-174.455643
-7408.057872	4240.613000	1685.109375	27.208828
-7408.057872	4240.613000	1684.085938	30.294275
-7408.057872	4240.613000	1683.062500	45.052025
-7408.057872	4240.613000	1682.039063	17.786129
-7408.057872	4240.613000	1681.014648	111.890968
-7408.057872	4240.613000	1679.990234	121.953331
-7408.057872	4240.613000	1678.965820	157.677643
-7408.057872	4240.613000	1677.941406	23.109180
-7408.057872	4240.613000	1676.916992	103.154533
-7408.057872	4240.613000	1675.891602	180.832138
-7408.057872	4240.613000	1674.866211	113.944557
-7408.057872	4240.613000	1673.840820	247.537064
-7408.057872	4240.613000	1672.815430	82.793602
-7408.057872	4240.613000	1671.790039	351.483063
-7408.057872	4240.613000	1670.763672	284.622925
-7408.057872	4240.613000	1669.737305	220.122177
-7408.057872	4240.613000	1668.710938	183.594452
-7408.057872	4240.613000	1667.684570	258.835022
-7408.057872	4240.613000	1666.658203	43.093231
-7408.057872	4240.613000	1665.630859	320.806549
-7408.057872	4240.613000	1664.603516	354.107544
-7408.057872	4240.613000	1663.576172	352.507294
-7408.057872	4240.613000	1662.548828	274.160461
-7408.057872	4240.613000	1661.520508	505.126587
-7408.057872	4240.613000	1660.493164	517.470215
-7408.057872	4240.613000	1659.464844	515.863831
-7408.057872	4240.613000	1658.436523	618.849121
-7408.057872	4240.613000	1657.408203	501.058258
-7408.057872	4240.613000	1656.378906	413.517670
-7408.057872	4240.613000	1655.350586	490.940247
-7408.057872	4240.613000	1654.321289	570.659668
-7408.057872	4240.613000	1653.291992	685.185364
-7408.057872	4240.613000	1652.261719	541.996948
-7408.057872	4240.613000	1651.232422	559.024963
-7408.057872	4240.613000	1650.202148	476.271149
-7408.057872	4240.613000	1649.171875	630.204895
-7408.057872	4240.613000	1648.141602	649.554016
-7408.057872	4240.613000	1647.111328	754.716309
-7408.057872	4240.613000	1646.080078	665.073853
-7408.057872	4240.613000	1645.049805	770.218079
-7408.057872	4240.613000	1644.018555	889.234985
-7408.057872	4240.613000	1642.987305	781.119141
-7408.057872	4240.613000	1641.955078	696.222351
-7408.057872	4240.613000	1640.923828	690.138000
-7408.057872	4240.613000	1639.891602	591.423767
-7408.057872	4240.613000	1638.859375	708.109375
-7408.057872	4240.613000	1637.827148	838.655212
-7408.057872	4240.613000	1636.794922	795.567322
-7408.057872	4240.613000	1635.761719	814.989685
-7408.057872	4240.613000	1634.729492	943.172546
-7408.057872	4240.613000	1633.696289	763.647583
-7408.057872	4240.613000	1632.662109	722.973755
-7408.057872	4240.613000	1631.628906	816.458862
-7408.057872	4240.613000	1630.594727	687.971558
-7408.057872	4240.613000	1629.561523	709.804871
-7408.057872	4240.613000	1628.527344	932.704529
-7408.057872	4240.613000	1627.493164	674.929504
-7408.057872	4240.613000	1626.458008	946.294800
-7408.057872	4240.613000	1625.423828	841.096191
-7408.057872	4240.613000	1624.388672	837.560059
-7408.057872	4240.613000	1623.353516	801.720581
-7408.057872	4240.613000	1622.318359	869.793030
-7408.057872	4240.613000	1621.282227	891.694946
-7408.057872	4240.613000	1620.247070	978.223877
-7408.057872	4240.613000	1619.210938	1037.049805
-7408.057872	4240.613000	1618.174805	962.093445
-7408.057872	4240.613000	1617.137695	956.366394
-7408.057872	4240.613000	1616.101563	800.799805
-7408.057872	4240.613000	1615.064453	857.391785
-7408.057872	4240.613000	1614.027344	941.641357
-7408.057872	4240.613000	1612.990234	915.273376
-7408.057872	4240.613000	1611.953125	971.878906
-7408.057872	4240.613000	1610.916016	848.818665
-7408.057872	4240.613000	1609.877930	1020.605164
-7408.057872	4240.613000	1608.839844	994.332031
-7408.057872	4240.613000	1607.801758	1117.729858
-7408.057872	4240.613000	1606.763672	1100.703369
-7408.057872	4240.613000	1605.724609	1076.800415
-7408.057872	4240.613000	1604.685547	1018.420898
-7408.057872	4240.613000	1603.646484	1068.203857
-7408.057872	4240.613000	1602.607422	1117.992310
-7408.057872	4240.613000	1601.568359	1172.387207
-7408.057872	4240.613000	1600.528320	1035.970703
-7408.057872	4240.613000	1599.489258	1278.889771
-7408.057872	4240.613000	1598.449219	1239.077026
-7408.057872	4240.613000	1597.408203	1224.575928
-7408.057872	4240.613000	1596.368164	1311.188477
-7408.057872	4240.613000	1595.327148	1246.207031
-7408.057872	4240.613000	1594.287109	1114.693359
-7408.057872	4240.613000	1593.246094	1217.427002
-7408.057872	4240.613000	1592.204102	1021.748047
-7408.057872	4240.613000	1591.163086	1101.567993
-7408.057872	4240.613000	1590.121094	1110.253296
-7408.057872	4240.613000	1589.079102	1334.602051
-7408.057872	4240.613000	1588.037109	1143.759033
-7408.057872	4240.613000	1586.995117	1086.020386
-7408.057872	4240.613000	1585.953125	1344.723389
-7408.057872	4240.613000	1584.910156	1303.071655
-7408.057872	4240.613000	1583.867188	1107.917603
-7408.057872	4240.613000	1582.824219	1270.318237
-7408.057872	4240.613000	1581.781250	1219.635132
-7408.057872	4240.613000	1580.737305	1226.260498
-7408.057872	4240.613000	1579.693359	1159.635620
-7408.057872	4240.613000	1578.649414	1143.439453
-7408.057872	4240.613000	1577.605469	1083.789551
-7408.057872	4240.613000	1576.561523	1246.192749
-7408.057872	4240.613000	1575.516602	1024.147095
-7408.057872	4240.613000	1574.472656	1076.754150
-7408.057872	4240.613000	1573.427734	1079.049683
-7408.057872	4240.613000	1572.381836	1008.194824
-7408.057872	4240.613000	1571.336914	887.106750
-7408.057872	4240.613000	1570.291016	983.259521
-7408.057872	4240.613000	1569.246094	903.431335
-7408.057872	4240.613000	1568.200195	1107.010620
-7408.057872	4240.613000	1567.153320	705.124512
-7408.057872	4240.613000	1566.107422	835.639893
-7408.057872	4240.613000	1565.060547	909.043945
-7408.057872	4240.613000	1564.013672	767.830200
-7408.057872	4240.613000	1562.966797	745.413940
-7408.057872	4240.613000	1561.919922	736.735779
-7408.057872	4240.613000	1560.872070	684.738342
-7408.057872	4240.613000	1559.825195	564.358276
-7408.057872	4240.613000	1558.777344	781.647644
-7408.057872	4240.613000	1557.729492	722.941650
-7408.057872	4240.613000	1556.680664	614.130249
-7408.057872	4240.613000	1555.632813	842.792297
-7408.057872	4240.613000	1554.583984	729.517456
-7408.057872	4240.613000	1553.535156	550.240173
-7408.057872	4240.613000	1552.486328	735.603149
-7408.057872	4240.613000	1551.436523	624.805359
-7408.057872	4240.613000	1550.387695	766.887085
-7408.057872	4240.613000	1549.337891	672.143372
-7408.057872	4240.613000	1548.288086	684.472412
-7408.057872	4240.613000	1547.238281	624.002258
-7408.057872	4240.613000	1546.187500	495.322601
-7408.057872	4240.613000	1545.136719	539.646912
-7408.057872	4240.613000	1544.086914	768.251038
-7408.057872	4240.613000	1543.035156	660.204529
-7408.057872	4240.613000	1541.984375	756.889343
-7408.057872	4240.613000	1540.933594	523.935242
-7408.057872	4240.613000	1539.881836	495.675171
-7408.057872	4240.613000	1538.830078	628.814636
-7408.057872	4240.613000	1537.778320	559.729675
-7408.057872	4240.613000	1536.725586	465.724243
-7408.057872	4240.613000	1535.673828	319.562134
-7408.057872	4240.613000	1534.621094	450.522827
-7408.057872	4240.613000	1533.568359	406.664063
-7408.057872	4240.613000	1532.515625	782.778015
-7408.057872	4240.613000	1531.461914	496.131531
-7408.057872	4240.613000	1530.409180	502.331879
-7408.057872	4240.613000	1529.355469	370.193085
-7408.057872	4240.613000	1528.301758	544.331238
-7408.057872	4240.613000	1527.247070	389.643372
-7408.057872	4240.613000	1526.193359	343.884735
-7408.057872	4240.613000	1525.138672	395.650940
-7408.057872	4240.613000	1524.083984	408.913422
-7408.057872	4240.613000	1523.029297	510.579529
-7408.057872	4240.613000	1521.974609	297.369049
-7408.057872	4240.613000	1520.918945	270.004425
-7408.057872	4240.613000	1519.863281	292.510590
-7408.057872	4240.613000	1518.807617	95.447243
-7408.057872	4240.613000	1517.751953	545.875000
-7408.057872	4240.613000	1516.696289	333.084991
-7408.057872	4240.613000	1515.639648	192.826141
-7408.057872	4240.613000	1514.583008	385.208191
-7408.057872	4240.613000	1513.526367	310.673584
-7408.057872	4240.613000	1512.469727	272.394287
-7408.057872	4240.613000	1511.412109	84.956345
-7408.057872	4240.613000	1510.355469	196.012161
-7408.057872	4240.613000	1509.297852	295.767975
-7408.057872	4240.613000	1508.240234	119.869301
-7408.057872	4240.613000	1507.181641	237.760788
-7408.057872	4240.613000	1506.124023	107.206772
-7408.057872	4240.613000	1505.065430	49.008549
-7408.057872	4240.613000	1504.006836	130.857376
-7408.057872	4240.613000	1502.948242	181.116608
-7408.057872	4240.613000	1501.888672	53.112881
-7408.057872	4240.613000	1500.830078	-7.101812
-7408.057872	4240.613000	1499.770508	-96.576347
-7408.057872	4240.613000	1498.710938	73.410591
-7408.057872	4240.613000	1497.650391	4.342058
-7408.057872	4240.613000	1496.590820	7.495278
-7408.057872	4240.613000	1495.530273	28.725029
-7408.057872	4240.613000	1494.469727	65.768066
-7408.057872	4240.613000	1493.409180	-34.604099
-7408.057872	4240.613000	1492.348633	22.804859
-7408.057872	4240.613000	1491.287109	86.992889
-7408.057872	4240.613000	1490.225586	-148.298553
-7408.057872	4240.613000	1489.164063	-115.529411
-7408.057872	4240.613000	1488.102539	-125.494591
-7408.057872	4240.613000	1487.041016	-47.638405
-7408.057872	4240.613000	1485.978516	-71.021286
-7408.057872	4240.613000	1484.916016	258.806946
-7408.057872	4240.613000	1483.853516	165.778961
-7408.057872	4240.613000	1482.791016	-77.874809
-7408.057872	4240.613000	1481.727539	-105.543724
-7408.057872	4240.613000	1480.664063	84.863846
-7408.057872	4240.613000	1479.600586	-104.549583
-7408.057872	4240.613000	1478.537109	-46.688293
-7408.057872	4240.613000	1477.473633	26.913519
-7408.057872	4240.613000	1476.409180	-92.647957
-7408.057872	4240.613000	1475.344727	-218.779388
-7408.057872	4240.613000	1474.280273	-8.183914
-7408.057872	4240.613000	1473.215820	180.004654
-7408.057872	4240.613000	1472.151367	155.053894
-7408.057872	4240.613000	1471.085938	38.068966
-7408.057872	4240.613000	1470.020508	114.014069
-7408.057872	4240.613000	1468.955078	196.766144
-7408.057872	4240.613000	1467.888672	241.450989
-7408.057872	4240.613000	1466.823242	351.256378
-7408.057872	4240.613000	1465.756836	312.833435
-7408.057872	4240.613000	1464.690430	342.001556
-7408.057872	4240.613000	1463.624023	431.388672
-7408.057872	4240.613000	1462.556641	335.622742
-7408.057872	4240.613000	1461.490234	362.341309
-7408.057872	4240.613000	1460.422852	481.395081
-7408.057872	4240.613000	1459.355469	376.186279
-7408.057872	4240.613000	1458.287109	461.699493
-7408.057872	4240.613000	1457.219727	609.250610
-7408.057872	4240.613000	1456.151367	447.998260
-7408.057872	4240.613000	1455.083008	482.176605
-7408.057872	4240.613000	1454.014648	616.335327
-7408.057872	4240.613000	1452.945313	517.033447
-7408.057872	4240.613000	1451.876953	548.753418
-7408.057872	4240.613000	1450.807617	553.902283
-7408.057872	4240.613000	1449.738281	545.018738
-7408.057872	4240.613000	1448.668945	663.552734
-7408.057872	4240.613000	1447.598633	515.256958
-7408.057872	4240.613000	1446.528320	571.698059
-7408.057872	4240.613000	1445.458008	418.336853
-7408.057872	4240.613000	1444.387695	321.863739
-7408.057872	4240.613000	1443.317383	409.741486
-7408.057872	4240.613000	1442.246094	578.538330
-7408.057872	4240.613000	1441.174805	339.434937
-7408.057872	4240.613000	1440.103516	570.746704
-7408.057872	4240.613000	1439.032227	385.591614
-7408.057872	4240.613000	1437.960938	538.734253
-7408.057872	4240.613000	1436.888672	495.001892
-7408.057872	4240.613000	1435.816406	438.607147
-7408.057872	4240.613000	1434.744141	234.105591
-7408.057872	4240.613000	1433.670898	250.957382
-7408.057872	4240.613000	1432.598633	247.854248
-7408.057872	4240.613000	1431.525391	367.207825
-7408.057872	4240.613000	1430.452148	156.993286
-7408.057872	4240.613000	1429.378906	183.436111
-7408.057872	4240.613000	1428.304688	347.330597
-7408.057872	4240.613000	1427.231445	240.641495
-7408.057872	4240.613000	1426.157227	369.775970
-7408.057872	4240.613000	1425.083008	288.099609
-7408.057872	4240.613000	1424.007813	252.827744
-7408.057872	4240.613000	1422.933594	294.582062
-7408.057872	4240.613000	1421.858398	387.158691
-7408.057872	4240.613000	1420.783203	182.446442
-7408.057872	4240.613000	1419.708008	405.853424
-7408.057872	4240.613000	1418.631836	319.883270
-7408.057872	4240.613000	1417.555664	222.217682
-7408.057872	4240.613000	1416.479492	282.435577
-7408.057872	4240.613000	1415.403320	330.374725
-7408.057872	4240.613000	1414.327148	405.713684
-7408.057872	4240.613000	1413.250000	178.885971
-7408.057872	4240.613000	1412.173828	342.280945
-7408.057872	4240.613000	1411.096680	361.110565
-7408.057872	4240.613000	1410.018555	415.044708
-7408.057872	4240.613000	1408.941406	165.704926
-7408.057872	4240.613000	1407.863281	427.405945
-7408.057872	4240.613000	1406.785156	411.197235
-7408.057872	4240.613000	1405.707031	465.916443
-7408.057872	4240.613000	1404.628906	409.386688
-7408.057872	4240.613000	1403.549805	374.534027
-7408.057872	4240.613000	1402.470703	150.322723
-7408.057872	4240.613000	1401.391602	465.542664
-7408.057872	4240.613000	1400.312500	279.053040
-7408.057872	4240.613000	1399.233398	428.048004
-7408.057872	4240.613000	1398.153320	209.325867
-7408.057872	4240.613000	1397.073242	361.870239
-7408.057872	4240.613000	1395.993164	394.289368
-7408.057872	4240.613000	1394.913086	410.586914
-7408.057872	4240.613000	1393.832031	550.482239
-7408.057872	4240.613000	1392.750977	208.555527
-7408.057872	4240.613000	1391.669922	245.707916
-7408.057872	4240.613000	1390.588867	362.843536
-7408.057872	4240.613000	1389.506836	309.533386
-7408.057872	4240.613000	1388.425781	286.590912
-7408.057872	4240.613000	1387.343750	538.154480
-7408.057872	4240.613000	1386.261719	293.686890
-7408.057872	4240.613000	1385.178711	320.251434
-7408.057872	4240.613000	1384.096680	399.552887
-7408.057872	4240.613000	1383.013672	352.662506
-7408.057872	4240.613000	1381.930664	463.724579
-7408.057872	4240.613000	1380.846680	223.476349
-7408.057872	4240.613000	1379.763672	357.630127
-7408.057872	4240.613000	1378.679688	262.375610
-7408.057872	4240.613000	1377.595703	465.304138
-7408.057872	4240.613000	1376.511719	244.880386
-7408.057872	4240.613000	1375.427734	185.317947
-7408.057872	4240.613000	1374.342773	252.924683
-7408.057872	4240.613000	1373.257813	314.760529
-7408.057872	4240.613000	1372.172852	302.391663
-7408.057872	4240.613000	1371.087891	392.430176
-7408.057872	4240.613000	1370.001953	274.868591
-7408.057872	4240.613000	1368.916992	434.221191
-7408.057872	4240.613000	1367.831055	220.932266
-7408.057872	4240.613000	1366.744141	455.666748
-7408.057872	4240.613000	1365.658203	435.941620
-7408.057872	4240.613000	1364.571289	383.292206
-7408.057872	4240.613000	1363.484375	375.916809
-7408.057872	4240.613000	1362.397461	179.306427
-7408.057872	4240.613000	1361.310547	288.730316
-7408.057872	4240.613000	1360.222656	196.655914
-7408.057872	4240.613000	1359.135742	188.665253
-7408.057872	4240.613000	1358.047852	216.362396
-7408.057872	4240.613000	1356.958984	379.303833
-7408.057872	4240.613000	1355.871094	152.676865
-7408.057872	4240.613000	1354.782227	211.797653
-7408.057872	4240.613000	1353.693359	240.891541
-7408.057872	4240.613000	1352.604492	235.821579
-7408.057872	4240.613000	1351.515625	103.970314
-7408.057872	4240.613000	1350.425781	206.577881
-7408.057872	4240.613000	1349.335938	351.518951
-7408.057872	4240.613000	1348.246094	278.789307
-7408.057872	4240.613000	1347.156250	306.381897
-7408.057872	4240.613000	1346.066406	128.441956
-7408.057872	4240.613000	1344.975586	279.583801
-7408.057872	4240.613000	1343.884766	310.970978
-7408.057872	4240.613000	1342.793945	403.334656
-7408.057872	4240.613000	1341.702148	207.348785
-7408.057872	4240.613000	1340.611328	322.578796
-7408.057872	4240.613000	1339.519531	289.141388
-7408.057872	4240.613000	1338.427734	211.801575
-7408.057872	4240.613000	1337.334961	343.780273
-7408.057872	4240.613000	1336.243164	406.939514
-7408.057872	4240.613000	1335.150391	426.356232
-7408.057872	4240.613000	1334.057617	389.643921
-7408.057872	4240.613000	1332.964844	615.683167
-7408.057872	4240.613000	1331.871094	490.577850
-7408.057872	4240.613000	1330.778320	366.213165
-7408.057872	4240.613000	1329.684570	501.092102
-7408.057872	4240.613000	1328.590820	478.620972
-7408.057872	4240.613000	1327.496094	440.673248
-7408.057872	4240.613000	1326.402344	479.472839
-7408.057872	4240.613000	1325.307617	462.535614
-7408.057872	4240.613000	1324.212891	441.938629
-7408.057872	4240.613000	1323.117188	607.173706
-7408.057872	4240.613000	1322.022461	644.694031
-7408.057872	4240.613000	1320.926758	789.664978
-7408.057872	4240.613000	1319.831055	808.518066
-7408.057872	4240.613000	1318.735352	719.047058
-7408.057872	4240.613000	1317.638672	800.781860
-7408.057872	4240.613000	1316.542969	827.037659
-7408.057872	4240.613000	1315.446289	702.479248
-7408.057872	4240.613000	1314.349609	769.079956
-7408.057872	4240.613000	1313.251953	935.868835
-7408.057872	4240.613000	1312.155273	792.674683
-7408.057872	4240.613000	1311.057617	806.840088
-7408.057872	4240.613000	1309.959961	839.479004
-7408.057872	4240.613000	1308.862305	872.045166
-7408.057872	4240.613000	1307.763672	812.723083
-7408.057872	4240.613000	1306.665039	873.237854
-7408.057872	4240.613000	1305.566406	682.991638
-7408.057872	4240.613000	1304.467773	796.730225
-7408.057872	4240.613000	1303.369141	878.829285
-7408.057872	4240.613000	1302.269531	891.821960
-7408.057872	4240.613000	1301.169922	733.016357
-7408.057872	4240.613000	1300.070313	574.429810
-7408.057872	4240.613000	1298.970703	718.694763
-7408.057872	4240.613000	1297.870117	845.609192
-7408.057872	4240.613000	1296.769531	680.981079
-7408.057872	4240.613000	1295.668945	579.196838
-7408.057872	4240.613000	1294.568359	504.815735
-7408.057872	4240.613000	1293.466797	629.340881
-7408.057872	4240.613000	1292.366211	558.467407
-7408.057872	4240.613000	1291.264648	599.120728
-7408.057872	4240.613000	1290.162109	526.397217
-7408.057872	4240.613000	1289.060547	610.336792
-7408.057872	4240.613000	1287.958008	496.729065
-7408.057872	4240.613000	1286.855469	513.126038
-7408.057872	4240.613000	1285.752930	476.888824
-7408.057872	4240.613000	1284.650391	498.533691
-7408.057872	4240.613000	1283.546875	363.002258
-7408.057872	4240.613000	1282.444336	399.498322
-7408.057872	4240.613000	1281.339844	431.364990
-7408.057872	4240.613000	1280.236328	466.353271
-7408.057872	4240.613000	1279.132813	396.420502
-7408.057872	4240.613000	1278.028320	418.601105
-7408.057872	4240.613000	1276.923828	293.141327
-7408.057872	4240.613000	1275.819336	380.141449
-7408.057872	4240.613000	1274.713867	191.718079
-7408.057872	4240.613000	1273.608398	367.914215
-7408.057872	4240.613000	1272.503906	420.582428
-7408.057872	4240.613000	1271.397461	322.887512
-7408.057872	4240.613000	1270.291992	317.401428
-7408.057872	4240.613000	1269.185547	247.664291
-7408.057872	4240.613000	1268.080078	327.414673
-7408.057872	4240.613000	1266.972656	301.351685
-7408.057872	4240.613000	1265.866211	354.266876
-7408.057872	4240.613000	1264.759766	170.348145
-7408.057872	4240.613000	1263.652344	303.739532
-7408.057872	4240.613000	1262.544922	230.419510
-7408.057872	4240.613000	1261.436523	201.054581
-7408.057872	4240.613000	1260.329102	58.297218
-7408.057872	4240.613000	1259.220703	295.207306
-7408.057872	4240.613000	1258.112305	38.399006
-7408.057872	4240.613000	1257.003906	182.426743
-7408.057872	4240.613000	1255.895508	51.636909
-7408.057872	4240.613000	1254.786133	135.622818
-7408.057872	4240.613000	1253.676758	-2.874418
-7408.057872	4240.613000	1252.567383	81.323624
-7408.057872	4240.613000	1251.458008	94.290894
-7408.057872	4240.613000	1250.347656	73.106087
-7408.057872	4240.613000	1249.237305	139.481964
-7408.057872	4240.613000	1248.126953	34.677025
-7408.057872	4240.613000	1247.016602	144.342377
-7408.057872	4240.613000	1245.905273	-16.250877
-7408.057872	4240.613000	1244.793945	-70.503288
-7408.057872	4240.613000	1243.682617	17.862225
-7408.057872	4240.613000	1242.571289	166.633469
-7408.057872	4240.613000	1241.459961	9.154895
-7408.057872	4240.613000	1240.347656	17.576561
-7408.057872	4240.613000	1239.235352	10.663904
-7408.057872	4240.613000	1238.123047	-74.250336
-7408.057872	4240.613000	1237.009766	-45.239731
-7408.057872	4240.613000	1235.897461	2.908471
-7408.057872	4240.613000	1234.784180	38.946819
-7408.057872	4240.613000	1233.670898	-141.882706
-7408.057872	4240.613000	1232.556641	4.100256
-7408.057872	4240.613000	1231.443359	44.175804
-7408.057872	4240.613000	1230.329102	15.488128
-7408.057872	4240.613000	1229.214844	4.510641
-7408.057872	4240.613000	1228.099609	41.893444
-7408.057872	4240.613000	1226.985352	34.333611
-7408.057872	4240.613000	1225.870117	-130.654526
-7408.057872	4240.613000	1224.754883	99.915123
-7408.057872	4240.613000	1223.639648	-42.656891
-7408.057872	4240.613000	1222.523438	40.568592
-7408.057872	4240.613000	1221.408203	124.663635
-7408.057872	4240.613000	1220.291992	-3.215803
-7408.057872	4240.613000	1219.174805	-77.354149
-7408.057872	4240.613000	1218.058594	-116.859039
-7408.057872	4240.613000	1216.941406	-63.260059
-7408.057872	4240.613000	1215.824219	82.850777
-7408.057872	4240.613000	1214.707031	41.978104
-7408.057872	4240.613000	1213.589844	65.634369
-7408.057872	4240.613000	1212.471680	28.355444
-7408.057872	4240.613000	1211.353516	-51.204594
-7408.057872	4240.613000	1210.235352	-0.209072
-7408.057872	4240.613000	1209.117188	140.646454
-7408.057872	4240.613000	1207.998047	7.142007
-7408.057872	4240.613000	1206.878906	109.026382
-7408.057872	4240.613000	1205.759766	40.526897
-7408.057872	4240.613000	1204.640625	7.887452
-7408.057872	4240.613000	1203.520508	61.530632
-7408.057872	4240.613000	1202.401367	-64.247826
-7408.057872	4240.613000	1201.281250	191.163101
-7408.057872	4240.613000	1200.160156	99.005379
-7408.057872	4240.613000	1199.040039	29.334511
-7408.057872	4240.613000	1197.918945	33.200974
-7408.057872	4240.613000	1196.797852	29.132906
-7408.057872	4240.613000	1195.676758	-47.822063
-7408.057872	4240.613000	1194.555664	-40.185642
-7408.057872	4240.613000	1193.433594	-23.942480
-7408.057872	4240.613000	1192.311523	57.784210
-7408.057872	4240.613000	1191.189453	129.729568
-7408.057872	4240.613000	1190.066406	58.530010
-7408.057872	4240.613000	1188.944336	105.928650
-7408.057872	4240.613000	1187.821289	182.834290
-7408.057872	4240.613000	1186.698242	17.367897
-7408.057872	4240.613000	1185.574219	176.350449
-7408.057872	4240.613000	1184.451172	113.430374
-7408.057872	4240.613000	1183.327148	183.833817
-7408.057872	4240.613000	1182.203125	81.962059
-7408.057872	4240.613000	1181.078125	170.112610
-7408.057872	4240.613000	1179.954102	77.286499
-7408.057872	4240.613000	1178.829102	190.546738
-7408.057872	4240.613000	1177.704102	2.400105
-7408.057872	4240.613000	1176.579102	45.141315
-7408.057872	4240.613000	1175.453125	-8.201649
-7408.057872	4240.613000	1174.327148	-6.448180
-7408.057872	4240.613000	1173.201172	77.041183
-7408.057872	4240.613000	1172.075195	228.699844
-7408.057872	4240.613000	1170.949219	35.292263
-7408.057872	4240.613000	1169.822266	207.361038
-7408.057872	4240.613000	1168.695313	54.547764
-7408.057872	4240.613000	1167.568359	39.402061
-7408.057872	4240.613000	1166.440430	174.334671
-7408.057872	4240.613000	1165.313477	86.132950
-7408.057872	4240.613000	1164.185547	139.398819
-7408.057872	4240.613000	1163.057617	176.496567
-7408.057872	4240.613000	1161.928711	191.737320
-7408.057872	4240.613000	1160.800781	76.479782
-7408.057872	4240.613000	1159.671875	94.604134
-7408.057872	4240.613000	1158.541992	241.586746
-7408.057872	4240.613000	1157.413086	190.137970
-7408.057872	4240.613000	1156.283203	190.093979
-7408.057872	4240.613000	1155.154297	210.385849
-7408.057872	4240.613000	1154.023438	169.408051
-7408.057872	4240.613000	1152.893555	281.073425
-7408.057872	4240.613000	1151.763672	33.308250
-7408.057872	4240.613000	1150.632813	39.223392
-7408.057872	4240.613000	1149.501953	19.880533
-7408.057872	4240.613000	1148.370117	13.019393
-7408.057872	4240.613000	1147.239258	-41.930748
-7408.057872	4240.613000	1146.107422	-71.191483
-7408.057872	4240.613000	1144.975586	29.426872
-7408.057872	4240.613000	1143.843750	-128.573883
-7408.057872	4240.613000	1142.710938	-38.858360
-7408.057872	4240.613000	1141.578125	-145.147995
-7408.057872	4240.613000	1140.445313	-115.037628
-7408.057872	4240.613000	1139.312500	-248.973709
-7408.057872	4240.613000	1138.178711	-123.907013
-7408.057872	4240.613000	1137.045898	46.089024
-7408.057872	4240.613000	1135.912109	-87.730812
-7408.057872	4240.613000	1134.777344	20.053236
-7408.057872	4240.613000	1133.643555	-40.175152
-7408.057872	4240.613000	1132.508789	-108.590935
-7408.057872	4240.613000	1131.374023	9.502542
-7408.057872	4240.613000	1130.239258	-82.142876
-7408.057872	4240.613000	1129.104492	-29.154266
-7408.057872	4240.613000	1127.968750	-107.787193
-7408.057872	4240.613000	1126.833008	-85.109596
-7408.057872	4240.613000	1125.697266	-138.134262
-7408.057872	4240.613000	1124.560547	-138.581650
-7408.057872	4240.613000	1123.424805	-98.183090
-7408.057872	4240.613000	1122.288086	13.923379
-7408.057872	4240.613000	1121.151367	-91.897491
-7408.057872	4240.613000	1120.013672	-13.205057
-7408.057872	4240.613000	1118.876953	14.054630
-7408.057872	4240.613000	1117.739258	-148.948975
-7408.057872	4240.613000	1116.601563	31.787640
-7408.057872	4240.613000	1115.462891	-173.633820
-7408.057872	4240.613000	1114.324219	-204.413910
-7408.057872	4240.613000	1113.186523	31.444113
-7408.057872	4240.613000	1112.046875	60.981865
-7408.057872	4240.613000	1110.908203	49.579430
-7408.057872	4240.613000	1109.769531	151.660782
-7408.057872	4240.613000	1108.629883	-23.661690
-7408.057872	4240.613000	1107.490234	-64.516190
-7408.057872	4240.613000	1106.349609	-72.281555
-7408.057872	4240.613000	1105.209961	-103.110519
-7408.057872	4240.613000	1104.069336	0.226620
-7408.057872	4240.613000	1102.928711	-146.855331
-7408.057872	4240.613000	1101.787109	-35.611217
-7408.057872	4240.613000	1100.646484	-86.716125
-7408.057872	4240.613000	1099.504883	-50.355492
-7408.057872	4240.613000	1098.363281	-98.401550
-7408.057872	4240.613000	1097.221680	43.217907
-7408.057872	4240.613000	1096.079102	97.139549
-7408.057872	4240.613000	1094.936523	91.611320
-7408.057872	4240.613000	1093.793945	16.932966
-7408.057872	4240.613000	1092.651367	194.284119
-7408.057872	4240.613000	1091.507813	118.816040
-7408.057872	4240.613000	1090.364258	204.584366
-7408.057872	4240.613000	1089.220703	26.940609
-7408.057872	4240.613000	1088.077148	269.836853
-7408.057872	4240.613000	1086.933594	102.615852
-7408.057872	4240.613000	1085.789063	160.043045
-7408.057872	4240.613000	1084.644531	169.684891
-7408.057872	4240.613000	1083.499023	157.988449
-7408.057872	4240.613000	1082.354492	245.565323
-7408.057872	4240.613000	1081.208984	143.743271
-7408.057872	4240.613000	1080.063477	145.133713
-7408.057872	4240.613000	1078.917969	36.772785
-7408.057872	4240.613000	1077.771484	79.256889
-7408.057872	4240.613000	1076.625977	184.475098
-7408.057872	4240.613000	1075.479492	57.547047
-7408.057872	4240.613000	1074.332031	31.634764
-7408.057872	4240.613000	1073.185547	233.441879
-7408.057872	4240.613000	1072.038086	39.899448
-7408.057872	4240.613000	1070.890625	174.990143
-7408.057872	4240.613000	1069.743164	42.135822
-7408.057872	4240.613000	1068.594727	94.496269
-7408.057872	4240.613000	1067.447266	-40.031357
-7408.057872	4240.613000	1066.298828	99.637169
-7408.057872	4240.613000	1065.149414	79.383621
-7408.057872	4240.613000	1064.000977	-0.896695
-7408.057872	4240.613000	1062.851563	101.301254
-7408.057872	4240.613000	1061.702148	59.092117
-7408.057872	4240.613000	1060.552734	6.709287
-7408.057872	4240.613000	1059.402344	-53.309631
-7408.057872	4240.613000	1058.252930	-30.123865
-7408.057872	4240.613000	1057.102539	94.807617
-7408.057872	4240.613000	1055.951172	3.740618
-7408.057872	4240.613000	1054.800781	-34.948826
-7408.057872	4240.613000	1053.649414	201.033157
-7408.057872	4240.613000	1052.498047	102.743713
-7408.057872	4240.613000	1051.346680	17.130138
-7408.057872	4240.613000	1050.194336	129.687927
-7408.057872	4240.613000	1049.042969	85.375290
-7408.057872	4240.613000	1047.890625	28.920530
-7408.057872	4240.613000	1046.738281	66.040077
-7408.057872	4240.613000	1045.584961	-36.352654
-7408.057872	4240.613000	1044.431641	84.515442
-7408.057872	4240.613000	1043.278320	-95.399567
-7408.057872	4240.613000	1042.125000	163.798828
-7408.057872	4240.613000	1040.971680	140.009079
-7408.057872	4240.613000	1039.817383	-170.890625
-7408.057872	4240.613000	1038.663086	-13.967899
-7408.057872	4240.613000	1037.508789	99.286049
-7408.057872	4240.613000	1036.353516	132.060898
-7408.057872	4240.613000	1035.198242	-145.637680
-7408.057872	4240.613000	1034.042969	264.076080
-7408.057872	4240.613000	1032.887695	13.403365
-7408.057872	4240.613000	1031.732422	265.937988
-7408.057872	4240.613000	1030.576172	212.413452
-7408.057872	4240.613000	1029.419922	292.438080
-7408.057872	4240.613000	1028.263672	181.753082
-7408.057872	4240.613000	1027.106445	386.521698
-7408.057872	4240.613000	1025.949219	456.008484
-7408.057872	4240.613000	1024.792969	193.317917
-7408.057872	4240.613000	1023.634766	290.015594
-7408.057872	4240.613000	1022.477539	234.836838
-7408.057872	4240.613000	1021.319336	183.128342
-7408.057872	4240.613000	1020.161133	170.858887
-7408.057872	4240.613000	1019.002930	-27.513454
-7408.057872	4240.613000	1017.843750	177.239822
-7408.057872	4240.613000	1016.684570	-5.417366
-7408.057872	4240.613000	1015.525391	1.032629
-7408.057872	4240.613000	1014.366211	-12.156246
-7408.057872	4240.613000	1013.207031	289.822693
-7408.057872	4240.613000	1012.046875	135.290680
-7408.057872	4240.613000	1010.886719	130.042770
-7408.057872	4240.613000	1009.726563	10.716712
-7408.057872	4240.613000	1008.565430	122.421768
-7408.057872	4240.613000	1007.404297	-17.953197
-7408.057872	4240.613000	1006.243164	-21.103434
-7408.057872	4240.613000	1005.082031	158.201584
-7408.057872	4240.613000	1003.920898	375.172852
-7408.057872	4240.613000	1002.758789	299.780884
-7408.057872	4240.613000	1001.596680	181.704651
-7408.057872	4240.613000	1000.433594	92.527962
-7408.057872	4240.613000	999.271484	131.642014
-7408.057872	4240.613000	998.108398	127.846107
-7408.057872	4240.613000	996.945313	198.077118
-7408.057872	4240.613000	995.782227	20.797012
-7408.057872	4240.613000	994.618164	95.958641
-7408.057872	4240.613000	993.454102	29.080946
-7408.057872	4240.613000	992.290039	-73.204178
-7408.057872	4240.613000	991.125977	80.476387
-7408.057872	4240.613000	989.960938	-21.960699
-7408.057872	4240.613000	988.796875	114.749092
-7408.057872	4240.613000	987.630859	-28.395416
-7408.057872	4240.613000	986.465820	-10.407555
-7408.057872	4240.613000	985.300781	182.035568
-7408.057872	4240.613000	984.134766	217.191376
-7408.057872	4240.613000	982.968750	88.973473
-7408.057872	4240.613000	981.801758	142.955643
-7408.057872	4240.613000	980.635742	171.465103
-7408.057872	4240.613000	979.468750	184.021454
-7408.057872	4240.613000	978.301758	46.384033
-7408.057872	4240.613000	977.133789	32.950813
-7408.057872	4240.613000	975.966797	35.880188
-7408.057872	4240.613000	974.798828	-13.673618
-7408.057872	4240.613000	973.630859	2.715810
-7408.057872	4240.613000	972.461914	123.962006
-7408.057872	4240.613000	971.293945	79.450035
-7408.057872	4240.613000	970.125000	-2.299770
-7408.057872	4240.613000	968.956055	125.981834
-7408.057872	4240.613000	967.786133	69.143883
-7408.057872	4240.613000	966.617188	200.047119
-7408.057872	4240.613000	965.447266	-48.256954
-7408.057872	4240.613000	964.276367	-11.863035
-7408.057872	4240.613000	963.106445	68.628777
-7408.057872	4240.613000	961.935547	199.525757
-7408.057872	4240.613000	960.764648	210.528854
-7408.057872	4240.613000	959.593750	161.071777
-7408.057872	4240.613000	958.422852	186.444626
-7408.057872	4240.613000	957.250977	135.904526
-7408.057872	4240.613000	956.079102	168.649567
-7408.057872	4240.613000	954.907227	84.339996
-7408.057872	4240.613000	953.734375	-69.530777
-7408.057872	4240.613000	952.562500	-94.142708
-7408.057872	4240.613000	951.389648	-37.089142
-7408.057872	4240.613000	950.215820	136.769623
-7408.057872	4240.613000	949.042969	8.538857
-7408.057872	4240.613000	947.869141	117.144676
-7408.057872	4240.613000	946.695313	-108.360237
-7408.057872	4240.613000	945.521484	-31.870329
-7408.057872	4240.613000	944.346680	-102.026070
-7408.057872	4240.613000	943.172852	-44.128315
-7408.057872	4240.613000	941.998047	38.880768
-7408.057872	4240.613000	940.822266	-21.767323
-7408.057872	4240.613000	939.647461	133.205719
-7408.057872	4240.613000	938.471680	-127.042725
-7408.057872	4240.613000	937.295898	16.225660
-7408.057872	4240.613000	936.119141	129.472870
-7408.057872	4240.613000	934.943359	68.586693
-7408.057872	4240.613000	933.766602	258.355255
-7408.057872	4240.613000	932.589844	246.253265
-7408.057872	4240.613000	931.413086	150.533722
-7408.057872	4240.613000	930.235352	-81.927353
-7408.057872	4240.613000	929.057617	170.236343
-7408.057872	4240.613000	927.879883	-43.657707
-7408.057872	4240.613000	926.702148	55.416935
-7408.057872	4240.613000	925.523438	186.906540
-7408.057872	4240.613000	924.344727	10.137433
-7408.057872	4240.613000	923.166016	178.627274
-7408.057872	4240.613000	921.987305	182.571472
-7408.057872	4240.613000	920.807617	75.328339
-7408.057872	4240.613000	919.627930	78.693985
-7408.057872	4240.613000	919.497070	-112.560600
-7408.057872	4240.613000	918.331055	-6.780510
-7408.057872	4240.613000	917.165039	-46.877525
-7408.057872	4240.613000	915.999023	172.217758
-7408.057872	4240.613000	914.833008	2.512256
-7408.057872	4240.613000	913.666016	145.152328
-7408.057872	4240.613000	912.499023	35.633331
-7408.057872	4240.613000	911.332031	81.071564
-7408.057872	4240.613000	910.165039	177.340134
-7408.057872	4240.613000	908.997070	3.134204
-7408.057872	4240.613000	907.830078	-23.117968
-7408.057872	4240.613000	906.661133	-139.470764
-7408.057872	4240.613000	905.493164	-31.726091
-7408.057872	4240.613000	904.325195	-53.365589
-7408.057872	4240.613000	903.156250	28.900576
-7408.057872	4240.613000	901.987305	34.941875
-7408.057872	4240.613000	900.818359	114.827713
-7408.057872	4240.613000	899.648438	139.291245
-7408.057872	4240.613000	898.478516	149.892395
-7408.057872	4240.613000	897.308594	213.531647
-7408.057872	4240.613000	896.138672	28.069384
-7408.057872	4240.613000	894.968750	133.189285
-7408.057872	4240.613000	893.797852	194.460388
-7408.057872	4240.613000	892.626953	156.592087
-7408.057872	4240.613000	891.456055	81.860802
-7408.057872	4240.613000	890.284180	345.813110
-7408.057872	4240.613000	889.113281	280.267181
-7408.057872	4240.613000	887.941406	263.101227
-7408.057872	4240.613000	886.768555	4.183436
-7408.057872	4240.613000	885.596680	26.194384
-7408.057872	4240.613000	884.423828	57.395988
-7408.057872	4240.613000	883.250977	90.875633
-7408.057872	4240.613000	882.078125	112.829666
-7408.057872	4240.613000	880.905273	208.366547
-7408.057872	4240.613000	879.731445	161.284683
-7408.057872	4240.613000	878.557617	185.484009
-7408.057872	4240.613000	877.383789	120.018280
-7408.057872	4240.613000	876.209961	217.739120
-7408.057872	4240.613000	875.035156	168.360916
-7408.057872	4240.613000	873.860352	210.883255
-7408.057872	4240.613000	872.685547	248.785645
-7408.057872	4240.613000	871.510742	96.071083
-7408.057872	4240.613000	870.334961	5.400235
-7408.057872	4240.613000	869.159180	89.203339
-7408.057872	4240.613000	867.983398	390.977509
-7408.057872	4240.613000	866.807617	80.011864
-7408.057872	4240.613000	865.630859	32.968983
-7408.057872	4240.613000	864.454102	59.328941
-7408.057872	4240.613000	863.277344	110.891586
-7408.057872	4240.613000	862.100586	27.165760
-7408.057872	4240.613000	860.922852	124.540565
-7408.057872	4240.613000	859.745117	-39.374012
-7408.057872	4240.613000	858.567383	57.957230
-7408.057872	4240.613000	857.389648	127.752106
-7408.057872	4240.613000	856.210938	-31.505581
-7408.057872	4240.613000	855.032227	214.571518
-7408.057872	4240.613000	853.853516	114.865303
-7408.057872	4240.613000	852.674805	72.409966
-7408.057872	4240.613000	851.495117	213.030106
-7408.057872	4240.613000	850.315430	186.572083
-7408.057872	4240.613000	849.135742	70.909981
-7408.057872	4240.613000	847.956055	195.410995
-7408.057872	4240.613000	846.775391	125.509079
-7408.057872	4240.613000	845.595703	83.056175
-7408.057872	4240.613000	844.415039	97.752136
-7408.057872	4240.613000	843.233398	39.315735
-7408.057872	4240.613000	842.052734	168.224930
-7408.057872	4240.613000	840.871094	207.996933
-7408.057872	4240.613000	839.689453	26.234978
-7408.057872	4240.613000	838.506836	59.156166
-7408.057872	4240.613000	837.325195	-65.449959
-7408.057872	4240.613000	836.142578	131.778458
-7408.057872	4240.613000	834.959961	-72.664665
-7408.057872	4240.613000	833.777344	1.280267
-7408.057872	4240.613000	832.593750	91.153534
-7408.057872	4240.613000	831.410156	78.368988
-7408.057872	4240.613000	830.226563	152.215714
-7408.057872	4240.613000	829.042969	-56.618759
-7408.057872	4240.613000	827.858398	-76.223091
-7408.057872	4240.613000	826.673828	2.144724
-7408.057872	4240.613000	825.489258	-42.537758
-7408.057872	4240.613000	824.304688	-5.219734
-7408.057872	4240.613000	823.120117	-68.114075
-7408.057872	4240.613000	821.934570	-42.202057
-7408.057872	4240.613000	820.749023	-166.530701
-7408.057872	4240.613000	819.562500	-1.810792
-7408.057872	4240.613000	818.376953	-64.683228
-7408.057872	4240.613000	817.190430	-168.479263
-7408.057872	4240.613000	816.003906	-165.352829
-7408.057872	4240.613000	814.817383	-162.235550
-7408.057872	4240.613000	813.629883	-161.398300
-7408.057872	4240.613000	812.442383	-117.386124
-7408.057872	4240.613000	811.254883	-55.221458
-7408.057872	4240.613000	810.067383	-40.799316
-7408.057872	4240.613000	808.878906	9.953637
-7408.057872	4240.613000	807.690430	-143.704376
-7408.057872	4240.613000	806.501953	-22.583427
-7408.057872	4240.613000	805.313477	-160.296768
-7408.057872	4240.613000	804.124023	-141.363373
-7408.057872	4240.613000	802.934570	47.732296
-7408.057872	4240.613000	801.745117	100.627960
-7408.057872	4240.613000	800.555664	-43.831161
-7408.057872	4240.613000	799.365234	6.780748
-7408.057872	4240.613000	798.175781	186.589600
-7408.057872	4240.613000	796.985352	-59.819584
-7408.057872	4240.613000	795.793945	-16.056192
-7408.057872	4240.613000	794.603516	-164.909805
-7408.057872	4240.613000	793.412109	-155.137222
-7408.057872	4240.613000	792.220703	-32.135941
-7408.057872	4240.613000	791.028320	79.486626
-7408.057872	4240.613000	789.836914	107.289574
-7408.057872	4240.613000	788.644531	223.349060
-7408.057872	4240.613000	787.452148	2.173865
-7408.057872	4240.613000	786.258789	206.429001
-7408.057872	4240.613000	785.066406	292.965149
-7408.057872	4240.613000	783.873047	268.645447
-7408.057872	4240.613000	782.679688	158.407501
-7408.057872	4240.613000	781.485352	292.352783
-7408.057872	4240.613000	780.291992	412.671844
-7408.057872	4240.613000	779.097656	198.507095
-7408.057872	4240.613000	777.903320	99.641869
-7408.057872	4240.613000	776.708008	82.124847
-7408.057872	4240.613000	775.512695	247.525482
-7408.057872	4240.613000	774.318359	-2.583883
-7408.057872	4240.613000	773.122070	56.657772
-7408.057872	4240.613000	771.926758	63.958778
-7408.057872	4240.613000	770.730469	8.071826
-7408.057872	4240.613000	769.534180	46.948200
-7408.057872	4240.613000	768.337891	-92.379379
-7408.057872	4240.613000	767.141602	-17.434847
-7408.057872	4240.613000	765.944336	120.598541
-7408.057872	4240.613000	764.747070	3.861554
-7408.057872	4240.613000	763.549805	114.774597
-7408.057872	4240.613000	762.351563	272.949310
-7408.057872	4240.613000	761.154297	232.819153
-7408.057872	4240.613000	759.956055	285.037079
-7408.057872	4240.613000	758.757813	231.396240
-7408.057872	4240.613000	757.558594	281.327087
-7408.057872	4240.613000	756.359375	153.421616
-7408.057872	4240.613000	755.160156	-86.953461
-7408.057872	4240.613000	753.960938	201.467957
-7408.057872	4240.613000	752.761719	210.844559
-7408.057872	4240.613000	751.561523	2.070157
-7408.057872	4240.613000	750.361328	-94.205109
-7408.057872	4240.613000	749.160156	-1.620655
-7408.057872	4240.613000	747.959961	232.506149
-7408.057872	4240.613000	746.758789	257.558105
-7408.057872	4240.613000	745.557617	75.911430
-7408.057872	4240.613000	744.356445	246.963608
-7408.057872	4240.613000	743.154297	139.484863
-7408.057872	4240.613000	741.952148	-154.300888
-7408.057872	4240.613000	740.750000	-115.764755
-7408.057872	4240.613000	739.547852	-101.938438
-7408.057872	4240.613000	738.344727	111.566902
-7408.057872	4240.613000	737.142578	-184.243698
-7408.057872	4240.613000	735.939453	67.300507
-7408.057872	4240.613000	734.735352	-145.424500
-7408.057872	4240.613000	733.532227	103.747971
-7408.057872	4240.613000	732.328125	-21.497694
-7408.057872	4240.613000	731.124023	50.499996
-7408.057872	4240.613000	729.918945	207.598114
-7408.057872	4240.613000	728.714844	142.863800
-7408.057872	4240.613000	727.509766	111.743111
-7408.057872	4240.613000	726.303711	-60.429462
-7408.057872	4240.613000	725.098633	105.482086
-7408.057872	4240.613000	723.892578	114.652313
-7408.057872	4240.613000	722.686523	-39.535084
-7408.057872	4240.613000	721.480469	72.554688
-7408.057872	4240.613000	720.274414	119.726334
-7408.057872	4240.613000	719.067383	19.281233
-7408.057872	4240.613000	717.860352	-163.851974
-7408.057872	4240.613000	716.653320	4.022546
-7408.057872	4240.613000	715.445313	-29.312410
-7408.057872	4240.613000	714.238281	78.121101
-7408.057872	4240.613000	713.030273	-57.988800
-7408.057872	4240.613000	711.821289	31.525873
-7408.057872	4240.613000	710.613281	-131.327606
-7408.057872	4240.613000	709.404297	31.821489
-7408.057872	4240.613000	708.195313	-1.521976
-7408.057872	4240.613000	706.986328	143.664505
-7408.057872	4240.613000	705.776367	81.294067
-7408.057872	4240.613000	704.566406	103.705597
-7408.057872	4240.613000	703.356445	-50.079865
-7408.057872	4240.613000	702.146484	54.832264
-7408.057872	4240.613000	700.935547	-196.976440
-7408.057872	4240.613000	699.724609	-36.372150
-7408.057872	4240.613000	698.513672	-234.592102
-7408.057872	4240.613000	697.302734	75.199684
-7408.057872	4240.613000	696.090820	-71.744820
-7408.057872	4240.613000	694.878906	108.712166
-7408.057872	4240.613000	693.666992	99.844147
-7408.057872	4240.613000	692.455078	246.786423
-7408.057872	4240.613000	691.242188	211.175720
-7408.057872	4240.613000	690.029297	144.422302
-7408.057872	4240.613000	688.816406	79.914917
-7408.057872	4240.613000	687.602539	122.183334
-7408.057872	4240.613000	686.389648	264.486572
-7408.057872	4240.613000	685.175781	151.067688
-7408.057872	4240.613000	683.960938	-15.651850
-7408.057872	4240.613000	682.747070	-64.534096
-7408.057872	4240.613000	681.532227	42.118584
-7408.057872	4240.613000	680.317383	93.188690
-7408.057872	4240.613000	679.102539	33.192921
-7408.057872	4240.613000	677.886719	62.029663
-7408.057872	4240.613000	676.670898	2.055078
-7408.057872	4240.613000	675.455078	35.312714
-7408.057872	4240.613000	674.239258	-29.081123
-7408.057872	4240.613000	673.022461	50.746071
-7408.057872	4240.613000	671.805664	66.212502
-7408.057872	4240.613000	670.588867	35.100006
-7408.057872	4240.613000	669.372070	39.466785
-7408.057872	4240.613000	668.154297	179.038376
-7408.057872	4240.613000	666.936523	249.846771
-7408.057872	4240.613000	665.718750	192.113770
-7408.057872	4240.613000	664.500977	375.852142
-7408.057872	4240.613000	663.282227	83.350945
-7408.057872	4240.613000	662.063477	196.170959
-7408.057872	4240.613000	660.844727	127.410484
-7408.057872	4240.613000	659.625000	260.085052
-7408.057872	4240.613000	658.405273	381.634918
-7408.057872	4240.613000	657.185547	514.191101
-7408.057872	4240.613000	655.965820	644.475342
-7408.057872	4240.613000	654.745117	418.661926
-7408.057872	4240.613000	653.525391	522.371521
-7408.057872	4240.613000	652.303711	528.773987
-7408.057872	4240.613000	651.083008	97.584045
-7408.057872	4240.613000	649.861328	196.867264
-7408.057872	4240.613000	648.640625	176.813705
-7408.057872	4240.613000	647.417969	298.118622
-7408.057872	4240.613000	646.196289	275.838531
-7408.057872	4240.613000	644.973633	103.443314
-7408.057872	4240.613000	643.750977	147.425064
-7408.057872	4240.613000	642.528320	189.178955
-7408.057872	4240.613000	641.305664	102.948303
-7408.057872	4240.613000	640.082031	65.280891
-7408.057872	4240.613000	638.858398	60.706898
-7408.057872	4240.613000	637.634766	78.182060
-7408.057872	4240.613000	636.410156	-45.433350
-7408.057872	4240.613000	635.185547	49.192623
-7408.057872	4240.613000	633.960938	-30.298731
-7408.057872	4240.613000	632.736328	238.319809
-7408.057872	4240.613000	631.510742	94.947105
-7408.057872	4240.613000	630.285156	110.183678
-7408.057872	4240.613000	629.059570	310.349060
-7408.057872	4240.613000	627.833984	246.291046
-7408.057872	4240.613000	626.607422	290.095093
-7408.057872	4240.613000	625.380859	314.077484
-7408.057872	4240.613000	624.154297	265.457214
-7408.057872	4240.613000	622.927734	168.474213
-7408.057872	4240.613000	621.700195	245.240723
-7408.057872	4240.613000	620.472656	126.321152
-7408.057872	4240.613000	619.245117	112.951546
-7408.057872	4240.613000	618.016602	71.022972
-7408.057872	4240.613000	616.788086	178.506104
-7408.057872	4240.613000	615.559570	70.689224
-7408.057872	4240.613000	614.331055	136.405563
-7408.057872	4240.613000	613.101563	33.038853
-7408.057872	4240.613000	611.872070	221.664764
-7408.057872	4240.613000	610.642578	195.139938
-7408.057872	4240.613000	609.413086	234.452896
-7408.057872	4240.613000	608.182617	284.721741
-7408.057872	4240.613000	606.952148	247.242889
-7408.057872	4240.613000	605.721680	43.134178
-7408.057872	4240.613000	604.491211	16.690285
-7408.057872	4240.613000	603.259766	-16.312914
-7408.057872	4240.613000	602.028320	172.028839
-7408.057872	4240.613000	600.796875	68.905701
-7408.057872	4240.613000	599.564453	97.257637
-7408.057872	4240.613000	598.332031	-1.416376
-7408.057872	4240.613000	597.099609	-227.034088
-7408.057872	4240.613000	595.867188	-34.446339
-7408.057872	4240.613000	594.633789	-102.373810
-7408.057872	4240.613000	593.400391	-115.564110
-7408.057872	4240.613000	592.166992	-32.487709
-7408.057872	4240.613000	590.933594	-106.916367
-7408.057872	4240.613000	589.699219	-214.106857
-7408.057872	4240.613000	588.464844	43.855305
-7408.057872	4240.613000	587.230469	-41.451057
-7408.057872	4240.613000	585.995117	4.404798
-7408.057872	4240.613000	584.760742	-54.625404
-7408.057872	4240.613000	583.525391	-61.197025
-7408.057872	4240.613000	582.289063	-233.733658
-7408.057872	4240.613000	581.053711	-39.372952
-7408.057872	4240.613000	579.817383	-13.175031
-7408.057872	4240.613000	578.581055	-6.622437
-7408.057872	4240.613000	577.343750	-152.805893
-7408.057872	4240.613000	576.107422	87.218933
-7408.057872	4240.613000	574.870117	-157.054337
-7408.057872	4240.613000	573.631836	37.095741
-7408.057872	4240.613000	572.394531	-178.702011
-7408.057872	4240.613000	571.156250	52.444057
-7408.057872	4240.613000	569.917969	21.991264
-7408.057872	4240.613000	568.679688	6.812877
-7408.057872	4240.613000	567.440430	50.467144
-7408.057872	4240.613000	566.202148	9.175593
-7408.057872	4240.613000	564.961914	266.217072
-7408.057872	4240.613000	563.722656	111.719383
-7408.057872	4240.613000	562.482422	-10.052717
-7408.057872	4240.613000	561.243164	227.275543
-7408.057872	4240.613000	560.001953	112.081238
-7408.057872	4240.613000	558.761719	-48.730106
-7408.057872	4240.613000	557.520508	134.126816
-7408.057872	4240.613000	556.279297	42.976917
-7408.057872	4240.613000	555.038086	27.956093
-7408.057872	4240.613000	553.795898	112.923431
-7408.057872	4240.613000	552.554688	15.354619
-7408.057872	4240.613000	551.311523	287.130310
-7408.057872	4240.613000	550.069336	31.051308
-7408.057872	4240.613000	548.826172	63.884464
-7408.057872	4240.613000	547.583984	-20.511829
-7408.057872	4240.613000	546.339844	77.459007
-7408.057872	4240.613000	545.096680	51.712856
-7408.057872	4240.613000	543.852539	110.602074
-7408.057872	4240.613000	542.608398	171.649139
-7408.057872	4240.613000	541.364258	-159.825058
-7408.057872	4240.613000	540.119141	63.889210
-7408.057872	4240.613000	538.875000	-76.640900
-7408.057872	4240.613000	537.628906	142.654999
-7408.057872	4240.613000	536.383789	97.532333
-7408.057872	4240.613000	535.137695	58.943188
-7408.057872	4240.613000	533.892578	143.832047
-7408.057872	4240.613000	532.645508	-35.465004
-7408.057872	4240.613000	531.399414	94.899597
-7408.057872	4240.613000	530.152344	-17.186007
-7408.057872	4240.613000	528.905273	91.509903
-7408.057872	4240.613000	527.658203	135.270035
-7408.057872	4240.613000	526.410156	-4.826288
-7408.057872	4240.613000	525.163086	69.238945
-7408.057872	4240.613000	523.914063	188.693558
-7408.057872	4240.613000	522.666016	128.697311
-7408.057872	4240.613000	521.416992	159.509964
-7408.057872	4240.613000	520.167969	149.270813
-7408.057872	4240.613000	518.918945	-16.484636
-7408.057872	4240.613000	517.669922	59.735695
-7408.057872	4240.613000	516.419922	237.424210
-7408.057872	4240.613000	515.169922	71.799156
-7408.057872	4240.613000	513.919922	154.468765
-7408.057872	4240.613000	512.668945	105.486458
-7408.057872	4240.613000	511.417969	95.372154
-7408.057872	4240.613000	510.166992	61.548492
-7408.057872	4240.613000	508.916016	183.018631
-7408.057872	4240.613000	507.664063	99.628929
-7408.057872	4240.613000	506.412109	-76.402565
-7408.057872	4240.613000	505.160156	-79.938942
-7408.057872	4240.613000	503.907227	32.890026
-7408.057872	4240.613000	502.655273	-102.050194
-7408.057872	4240.613000	501.402344	25.832720
-7408.057872	4240.613000	500.148438	-124.095879
-7408.057872	4240.613000	498.895508	-112.493591
-7408.057872	4240.613000	497.641602	-105.189026
-7408.057872	4240.613000	496.387695	11.865719
-7408.057872	4240.613000	495.132813	-13.111590
-7408.057872	4240.613000	493.878906	37.210548
-7408.057872	4240.613000	492.624023	3.652410
-7408.057872	4240.613000	491.368164	94.817436
-7408.057872	4240.613000	490.113281	18.283592
-7408.057872	4240.613000	488.857422	231.915527
-7408.057872	4240.613000	487.601563	71.601730
-7408.057872	4240.613000	486.344727	-15.599883
-7408.057872	4240.613000	485.088867	-21.150059
-7408.057872	4240.613000	483.832031	72.079422
-7408.057872	4240.613000	482.575195	-66.579254
-7408.057872	4240.613000	481.317383	-84.982834
-7408.057872	4240.613000	480.059570	143.393661
-7408.057872	4240.613000	478.801758	41.283234
-7408.057872	4240.613000	477.543945	-112.262810
-7408.057872	4240.613000	476.285156	-192.831345
-7408.057872	4240.613000	475.027344	-166.171478
-7408.057872	4240.613000	473.767578	57.680668
-7408.057872	4240.613000	472.508789	-192.188187
-7408.057872	4240.613000	471.249023	-109.850891
-7408.057872	4240.613000	469.989258	-3.993713
-7408.057872	4240.613000	468.729492	-170.183762
-7408.057872	4240.613000	467.469727	-79.367126
-7408.057872	4240.613000	466.208984	-147.014847
-7408.057872	4240.613000	464.948242	-251.031082
-7408.057872	4240.613000	463.686523	-179.549103
-7408.057872	4240.613000	462.425781	-43.935040
-7408.057872	4240.613000	461.164063	78.771461
-7408.057872	4240.613000	459.901367	11.086888
-7408.057872	4240.613000	458.639648	-39.487267
-7408.057872	4240.613000	457.376953	80.941711
-7408.057872	4240.613000	456.114258	276.091461
-7408.057872	4240.613000	454.851563	-65.153076
-7408.057872	4240.613000	453.587891	-62.359264
-7408.057872	4240.613000	452.324219	70.680145
-7408.057872	4240.613000	451.060547	69.112656
-7408.057872	4240.613000	449.796875	167.845490
-7408.057872	4240.613000	448.532227	59.476402
-7408.057872	4240.613000	447.267578	102.618309
-7408.057872	4240.613000	446.002930	15.566895
-7408.057872	4240.613000	444.737305	152.467026
-7408.057872	4240.613000	443.471680	174.112152
-7408.057872	4240.613000	442.206055	-77.191490
-7408.057872	4240.613000	440.940430	1.949200
-7408.057872	4240.613000	439.673828	204.606888
-7408.057872	4240.613000	438.407227	8.701838
-7408.057872	4240.613000	437.140625	181.337387
-7408.057872	4240.613000	435.873047	94.019920
-7408.057872	4240.613000	434.605469	-78.490540
-7408.057872	4240.613000	433.337891	49.162525
-7408.057872	4240.613000	432.070313	2.171997
-7408.057872	4240.613000	430.801758	59.394833
-7408.057872	4240.613000	429.533203	146.301849
-7408.057872	4240.613000	428.264648	69.322029
-7408.057872	4240.613000	426.996094	45.455044
-7408.057872	4240.613000	425.726563	2.381486
-7408.057872	4240.613000	424.457031	-40.761414
-7408.057872	4240.613000	423.186523	113.653893
-7408.057872	4240.613000	421.916992	59.695599
-7408.057872	4240.613000	420.646484	-41.068371
-7408.057872	4240.613000	419.375977	140.557709
-7408.057872	4240.613000	418.104492	20.501476
-7408.057872	4240.613000	416.833008	59.593380
-7408.057872	4240.613000	415.561523	202.545654
-7408.057872	4240.613000	414.290039	190.422485
-7408.057872	4240.613000	413.017578	129.389038
-7408.057872	4240.613000	411.746094	61.891506
-7408.057872	4240.613000	410.472656	81.228828
-7408.057872	4240.613000	409.200195	104.660370
-7408.057872	4240.613000	407.926758	168.210220
-7408.057872	4240.613000	406.653320	144.703339
-7408.057872	4240.613000	405.379883	254.526901
-7408.057872	4240.613000	404.105469	69.720978
-7408.057872	4240.613000	402.831055	149.544601
-7408.057872	4240.613000	401.556641	218.578934
-7408.057872	4240.613000	400.282227	79.965042
-7408.057872	4240.613000	399.006836	30.116508
-7408.057872	4240.613000	397.731445	94.360741
-7408.057872	4240.613000	396.456055	90.692924
-7408.057872	4240.613000	395.179688	110.092216
-7408.057872	4240.613000	393.903320	129.279129
-7408.057872	4240.613000	392.626953	160.932022
-7408.057872	4240.613000	391.350586	190.241364
-7408.057872	4240.613000	390.073242	147.467346
-7408.057872	4240.613000	388.795898	79.130318
-7408.057872	4240.613000	387.518555	63.390533
-7408.057872	4240.613000	386.240234	201.566772
-7408.057872	4240.613000	384.961914	92.413826
-7408.057872	4240.613000	383.683594	46.374214
-7408.057872	4240.613000	382.405273	-35.787437
-7408.057872	4240.613000	381.125977	46.380505
-7408.057872	4240.613000	379.846680	189.403976
-7408.057872	4240.613000	378.567383	32.601826
-7408.057872	4240.613000	377.287109	-84.372360
-7408.057872	4240.613000	376.006836	-102.524239
-7408.057872	4240.613000	374.726563	-89.369461
-7408.057872	4240.613000	373.446289	-23.865765
-7408.057872	4240.613000	372.165039	77.085091
-7408.057872	4240.613000	370.883789	-16.121933
-7408.057872	4240.613000	369.602539	8.282434
-7408.057872	4240.613000	368.320313	-79.271431
-7408.057872	4240.613000	367.039063	-61.909222
-7408.057872	4240.613000	365.755859	-4.964698
-7408.057872	4240.613000	364.473633	83.129425
-7408.057872	4240.613000	363.190430	88.742363
-7408.057872	4240.613000	361.907227	9.820386
-7408.057872	4240.613000	360.624023	83.997147
-7408.057872	4240.613000	359.340820	-96.644684
-7408.057872	4240.613000	358.056641	10.263083
-7408.057872	4240.613000	356.772461	-45.121906
-7408.057872	4240.613000	355.487305	-40.038548
-7408.057872	4240.613000	354.202148	6.567988
-7408.057872	4240.613000	352.916992	19.065886
-7408.057872	4240.613000	351.631836	85.637573
-7408.057872	4240.613000	350.346680	-5.752528
-7408.057872	4240.613000	349.060547	-13.705711
-7408.057872	4240.613000	347.774414	-104.018517
-7408.057872	4240.613000	346.487305	-146.616821
-7408.057872	4240.613000	345.200195	-128.951141
-7408.057872	4240.613000	343.913086	-88.814148
-7408.057872	4240.613000	342.625977	107.919724
-7408.057872	4240.613000	341.338867	-22.970879
-7408.057872	4240.613000	340.050781	69.745308
-7408.057872	4240.613000	338.762695	-121.014168
-7408.057872	4240.613000	337.473633	47.860321
-7408.057872	4240.613000	336.184570	56.855545
-7408.057872	4240.613000	334.895508	44.225349
-7408.057872	4240.613000	333.606445	141.823410
-7408.057872	4240.613000	332.317383	-16.624815
-7408.057872	4240.613000	331.027344	-12.579149
-7408.057872	4240.613000	329.736328	-11.398911
-7408.057872	4240.613000	328.446289	1.575076
-7408.057872	4240.613000	327.155273	-30.167980
-7408.057872	4240.613000	325.864258	-27.170658
-7408.057872	4240.613000	324.573242	-198.447571
-7408.057872	4240.613000	323.281250	16.004763
-7408.057872	4240.613000	321.989258	-85.913025
-7408.057872	4240.613000	320.697266	-109.309273
-7408.057872	4240.613000	319.405273	-35.464523
-7408.057872	4240.613000	318.112305	-39.831421
-7408.057872	4240.613000	316.819336	-105.661400
-7408.057872	4240.613000	315.526367	103.000320
-7408.057872	4240.613000	314.232422	70.661758
-7408.057872	4240.613000	312.938477	104.072517
-7408.057872	4240.613000	311.644531	182.317154
-7408.057872	4240.613000	310.349609	409.551697
-7408.057872	4240.613000	309.054688	327.142059
-7408.057872	4240.613000	307.759766	427.051636
-7408.057872	4240.613000	306.464844	394.549042
-7408.057872	4240.613000	305.168945	350.472961
-7408.057872	4240.613000	303.873047	97.006485
-7408.057872	4240.613000	302.577148	271.352600
-7408.057872	4240.613000	301.281250	200.869247
-7408.057872	4240.613000	299.984375	118.735611
